Data from 1969.PennyLincolnUp.Lamp.En5.5.200Scan.071719.P1._HRD10591_14-56-39-981.txt Node
Date: Thu Jul 18 14:56:39 EDT 2019
User: cochatt
Spectrometer: HR+D1059
Trigger mode: 1
Integration Time (sec): 1.000000E-1
Scans to average: 1
Electric dark correction enabled: true
Nonlinearity correction enabled: false
Boxcar width: 0
XAxis mode: Wavelengths
Number of Pixels in Spectrum: 2048
>>>>>Begin Spectral Data<<<<<
223.165	-22.5
223.4	-22.5
223.635	-22.5
223.869	-22.5
224.104	-24.5
224.338	-13.5
224.573	-26.5
224.808	-8.5
225.042	-4.5
225.277	-7.5
225.511	8.5
225.746	0.5
225.98	6.5
226.215	7.5
226.449	11.5
226.683	31.5
226.918	21.5
227.152	42.5
227.387	34.5
227.621	31.5
227.856	43.5
228.09	34.5
228.324	52.5
228.559	50.5
228.793	64.5
229.027	78.5
229.262	84.5
229.496	87.5
229.73	108.5
229.964	131.5
230.199	114.5
230.433	110.5
230.667	108.5
230.901	102.5
231.136	103.5
231.37	106.5
231.604	99.5
231.838	94.5
232.072	98.5
232.306	122.5
232.541	100.5
232.775	126.5
233.009	109.5
233.243	112.5
233.477	104.5
233.711	104.5
233.945	109.5
234.179	105.5
234.413	113.5
234.647	115.5
234.881	130.5
235.115	117.5
235.349	118.5
235.583	111.5
235.817	108.5
236.051	102.5
236.285	119.5
236.519	108.5
236.753	124.5
236.987	132.5
237.221	151.5
237.455	165.5
237.689	136.5
237.922	111.5
238.156	118.5
238.39	114.5
238.624	117.5
238.858	130.5
239.091	108.5
239.325	121.5
239.559	111.5
239.793	114.5
240.027	119.5
240.26	140.5
240.494	131.5
240.728	132.5
240.961	141.5
241.195	124.5
241.429	130.5
241.662	136.5
241.896	122.5
242.13	133.5
242.363	125.5
242.597	118.5
242.83	126.5
243.064	123.5
243.298	128.5
243.531	121.5
243.765	121.5
243.998	125.5
244.232	124.5
244.465	119.5
244.699	127.5
244.932	123.5
245.166	138.5
245.399	133.5
245.633	142.5
245.866	122.5
246.099	135.5
246.333	139.5
246.566	130.5
246.8	153.5
247.033	129.5
247.266	130.5
247.5	140.5
247.733	147.5
247.966	143.5
248.2	147.5
248.433	143.5
248.666	154.5
248.899	161.5
249.133	170.5
249.366	175.5
249.599	162.5
249.832	154.5
250.066	162.5
250.299	154.5
250.532	155.5
250.765	165.5
250.998	179.5
251.231	194.5
251.465	188.5
251.698	186.5
251.931	163.5
252.164	172.5
252.397	166.5
252.63	142.5
252.863	173.5
253.096	190.5
253.329	183.5
253.562	193.5
253.795	175.5
254.028	190.5
254.261	190.5
254.494	181.5
254.727	214.5
254.96	228.5
255.193	231.5
255.426	212.5
255.659	182.5
255.892	193.5
256.124	198.5
256.357	185.5
256.59	194.5
256.823	168.5
257.056	185.5
257.289	169.5
257.521	180.5
257.754	191.5
257.987	184.5
258.22	194.5
258.452	182.5
258.685	173.5
258.918	163.5
259.151	197.5
259.383	180.5
259.616	183.5
259.849	171.5
260.081	200.5
260.314	206.5
260.547	203.5
260.779	203.5
261.012	202.5
261.244	192.5
261.477	207.5
261.71	183.5
261.942	195.5
262.175	204.5
262.407	199.5
262.64	200.5
262.872	184.5
263.105	194.5
263.337	176.5
263.57	188.5
263.802	178.5
264.035	206.5
264.267	199.5
264.499	185.5
264.732	186.5
264.964	183.5
265.197	172.5
265.429	195.5
265.661	200.5
265.894	187.5
266.126	186.5
266.358	198.5
266.591	192.5
266.823	203.5
267.055	205.5
267.287	204.5
267.52	201.5
267.752	189.5
267.984	198.5
268.216	188.5
268.448	218.5
268.681	209.5
268.913	200.5
269.145	231.5
269.377	238.5
269.609	219.5
269.841	218.5
270.073	244.5
270.306	252.5
270.538	253.5
270.77	254.5
271.002	244.5
271.234	238.5
271.466	258.5
271.698	269.5
271.93	265.5
272.162	260.5
272.394	239.5
272.626	234.5
272.858	237.5
273.09	230.5
273.322	231.5
273.553	245.5
273.785	241.5
274.017	218.5
274.249	246.5
274.481	222.5
274.713	238.5
274.945	230.5
275.176	253.5
275.408	243.5
275.64	229.5
275.872	224.5
276.104	236.5
276.335	223.5
276.567	224.5
276.799	255.5
277.031	256.5
277.262	267.5
277.494	284.5
277.726	249.5
277.957	247.5
278.189	264.5
278.421	226.5
278.652	260.5
278.884	234.5
279.115	236.5
279.347	254.5
279.579	243.5
279.81	230.5
280.042	227.5
280.273	229.5
280.505	234.5
280.736	248.5
280.968	239.5
281.199	240.5
281.431	236.5
281.662	252.5
281.894	249.5
282.125	255.5
282.356	259.5
282.588	251.5
282.819	243.5
283.051	260.5
283.282	216.5
283.513	258.5
283.745	244.5
283.976	261.5
284.207	254.5
284.439	248.5
284.67	246.5
284.901	264.5
285.132	258.5
285.364	240.5
285.595	256.5
285.826	241.5
286.057	270.5
286.288	260.5
286.52	254.5
286.751	280.5
286.982	258.5
287.213	266.5
287.444	257.5
287.675	264.5
287.906	270.5
288.138	263.5
288.369	284.5
288.6	250.5
288.831	272.5
289.062	269.5
289.293	249.5
289.524	244.5
289.755	256.5
289.986	264.5
290.217	259.5
290.448	258.5
290.679	251.5
290.91	271.5
291.141	265.5
291.371	238.5
291.602	262.5
291.833	242.5
292.064	266.5
292.295	265.5
292.526	260.5
292.757	271.5
292.987	255.5
293.218	278.5
293.449	282.5
293.68	244.5
293.91	272.5
294.141	276.5
294.372	259.5
294.603	276.5
294.833	270.5
295.064	255.5
295.295	259.5
295.525	258.5
295.756	264.5
295.987	279.5
296.217	291.5
296.448	285.5
296.679	280.5
296.909	286.5
297.14	250.5
297.37	270.5
297.601	264.5
297.831	279.5
298.062	280.5
298.292	299.5
298.523	277.5
298.753	274.5
298.984	270.5
299.214	272.5
299.445	276.5
299.675	295.5
299.905	292.5
300.136	306.5
300.366	295.5
300.597	304.5
300.827	290.5
301.057	290.5
301.288	294.5
301.518	294.5
301.748	278.5
301.979	280.5
302.209	310.5
302.439	272.5
302.669	298.5
302.9	292.5
303.13	292.5
303.36	286.5
303.59	291.5
303.82	312.5
304.051	298.5
304.281	285.5
304.511	290.5
304.741	296.5
304.971	296.5
305.201	294.5
305.431	298.5
305.661	293.5
305.891	297.5
306.121	302.5
306.352	283.5
306.582	286.5
306.812	275.5
307.042	286.5
307.272	301.5
307.502	297.5
307.731	301.5
307.961	301.5
308.191	303.5
308.421	302.5
308.651	298.5
308.881	302.5
309.111	292.5
309.341	286.5
309.571	310.5
309.8	288.5
310.03	306.5
310.26	295.5
310.49	326.5
310.72	323.5
310.949	326.5
311.179	314.5
311.409	311.5
311.639	307.5
311.868	310.5
312.098	330.5
312.328	334.5
312.557	363.5
312.787	332.5
313.017	327.5
313.246	331.5
313.476	325.5
313.706	327.5
313.935	332.5
314.165	336.5
314.394	330.5
314.624	351.5
314.853	331.5
315.083	319.5
315.312	300.5
315.542	306.5
315.771	314.5
316.001	314.5
316.23	334.5
316.46	333.5
316.689	314.5
316.919	324.5
317.148	316.5
317.377	328.5
317.607	334.5
317.836	326.5
318.065	330.5
318.295	307.5
318.524	318.5
318.753	332.5
318.983	338.5
319.212	320.5
319.441	339.5
319.67	324.5
319.9	328.5
320.129	326.5
320.358	347.5
320.587	318.5
320.816	332.5
321.046	317.5
321.275	350.5
321.504	361.5
321.733	334.5
321.962	349.5
322.191	350.5
322.42	356.5
322.649	354.5
322.878	349.5
323.108	355.5
323.337	365.5
323.566	367.5
323.795	407.5
324.024	420.5
324.253	490.5
324.482	644.5
324.71	905.5
324.939	1186.5
325.168	973.5
325.397	568.5
325.626	452.5
325.855	414.5
326.084	386.5
326.313	363.5
326.542	375.5
326.77	412.5
326.999	450.5
327.228	591.5
327.457	848.5
327.686	865.5
327.914	641.5
328.143	482.5
328.372	462.5
328.6	438.5
328.829	413.5
329.058	417.5
329.287	422.5
329.515	381.5
329.744	386.5
329.972	396.5
330.201	412.5
330.43	426.5
330.658	457.5
330.887	456.5
331.115	447.5
331.344	390.5
331.572	391.5
331.801	391.5
332.03	410.5
332.258	363.5
332.486	392.5
332.715	418.5
332.943	403.5
333.172	410.5
333.4	425.5
333.629	428.5
333.857	426.5
334.085	434.5
334.314	438.5
334.542	479.5
334.771	463.5
334.999	404.5
335.227	399.5
335.455	400.5
335.684	389.5
335.912	382.5
336.14	398.5
336.369	378.5
336.597	397.5
336.825	390.5
337.053	385.5
337.281	373.5
337.51	399.5
337.738	384.5
337.966	355.5
338.194	380.5
338.422	370.5
338.65	372.5
338.878	360.5
339.106	361.5
339.334	373.5
339.562	376.5
339.79	346.5
340.018	359.5
340.246	344.5
340.474	355.5
340.702	362.5
340.93	374.5
341.158	372.5
341.386	378.5
341.614	362.5
341.842	331.5
342.07	352.5
342.298	366.5
342.526	363.5
342.754	363.5
342.981	333.5
343.209	364.5
343.437	378.5
343.665	381.5
343.893	390.5
344.12	391.5
344.348	393.5
344.576	372.5
344.804	390.5
345.031	370.5
345.259	375.5
345.487	354.5
345.714	341.5
345.942	353.5
346.17	355.5
346.397	367.5
346.625	342.5
346.853	336.5
347.08	338.5
347.308	374.5
347.535	348.5
347.763	349.5
347.99	342.5
348.218	339.5
348.445	328.5
348.673	359.5
348.9	344.5
349.128	345.5
349.355	320.5
349.583	329.5
349.81	318.5
350.037	338.5
350.265	333.5
350.492	323.5
350.72	338.5
350.947	338.5
351.174	342.5
351.402	337.5
351.629	363.5
351.856	358.5
352.083	355.5
352.311	347.5
352.538	357.5
352.765	358.5
352.992	345.5
353.22	333.5
353.447	335.5
353.674	343.5
353.901	333.5
354.128	345.5
354.355	340.5
354.583	329.5
354.81	326.5
355.037	332.5
355.264	322.5
355.491	340.5
355.718	335.5
355.945	318.5
356.172	318.5
356.399	326.5
356.626	333.5
356.853	338.5
357.08	302.5
357.307	351.5
357.534	328.5
357.761	333.5
357.988	330.5
358.215	325.5
358.441	342.5
358.668	317.5
358.895	339.5
359.122	350.5
359.349	332.5
359.576	334.5
359.802	352.5
360.029	351.5
360.256	371.5
360.483	348.5
360.709	348.5
360.936	345.5
361.163	341.5
361.39	328.5
361.616	339.5
361.843	357.5
362.07	316.5
362.296	343.5
362.523	338.5
362.749	338.5
362.976	343.5
363.203	340.5
363.429	311.5
363.656	329.5
363.882	342.5
364.109	348.5
364.335	333.5
364.562	338.5
364.788	334.5
365.015	325.5
365.241	318.5
365.468	341.5
365.694	342.5
365.92	349.5
366.147	335.5
366.373	321.5
366.599	325.5
366.826	333.5
367.052	317.5
367.278	312.5
367.505	329.5
367.731	314.5
367.957	330.5
368.184	343.5
368.41	326.5
368.636	356.5
368.862	354.5
369.089	327.5
369.315	330.5
369.541	319.5
369.767	328.5
369.993	336.5
370.219	336.5
370.445	332.5
370.672	344.5
370.898	340.5
371.124	346.5
371.35	328.5
371.576	348.5
371.802	328.5
372.028	328.5
372.254	348.5
372.48	330.5
372.706	343.5
372.932	363.5
373.158	340.5
373.384	330.5
373.61	335.5
373.835	325.5
374.061	336.5
374.287	331.5
374.513	342.5
374.739	363.5
374.965	370.5
375.191	366.5
375.416	364.5
375.642	343.5
375.868	344.5
376.094	361.5
376.319	338.5
376.545	336.5
376.771	344.5
376.997	323.5
377.222	336.5
377.448	328.5
377.674	339.5
377.899	330.5
378.125	353.5
378.35	344.5
378.576	332.5
378.802	326.5
379.027	347.5
379.253	323.5
379.478	342.5
379.704	328.5
379.929	361.5
380.155	328.5
380.38	317.5
380.606	343.5
380.831	346.5
381.057	351.5
381.282	320.5
381.507	341.5
381.733	343.5
381.958	352.5
382.184	325.5
382.409	354.5
382.634	336.5
382.86	351.5
383.085	335.5
383.31	358.5
383.535	371.5
383.761	351.5
383.986	375.5
384.211	343.5
384.436	352.5
384.662	345.5
384.887	377.5
385.112	364.5
385.337	376.5
385.562	382.5
385.787	370.5
386.013	380.5
386.238	370.5
386.463	383.5
386.688	379.5
386.913	363.5
387.138	378.5
387.363	384.5
387.588	390.5
387.813	372.5
388.038	356.5
388.263	355.5
388.488	353.5
388.713	352.5
388.938	363.5
389.163	389.5
389.387	361.5
389.612	374.5
389.837	347.5
390.062	370.5
390.287	370.5
390.512	390.5
390.736	361.5
390.961	364.5
391.186	373.5
391.411	380.5
391.636	385.5
391.86	386.5
392.085	383.5
392.31	385.5
392.534	375.5
392.759	373.5
392.984	376.5
393.208	386.5
393.433	385.5
393.658	372.5
393.882	365.5
394.107	378.5
394.331	380.5
394.556	353.5
394.78	384.5
395.005	380.5
395.229	391.5
395.454	397.5
395.678	417.5
395.903	398.5
396.127	409.5
396.352	406.5
396.576	406.5
396.801	378.5
397.025	404.5
397.249	398.5
397.474	391.5
397.698	400.5
397.922	405.5
398.147	434.5
398.371	441.5
398.595	435.5
398.82	424.5
399.044	450.5
399.268	484.5
399.492	532.5
399.717	575.5
399.941	576.5
400.165	550.5
400.389	515.5
400.613	484.5
400.837	473.5
401.062	448.5
401.286	446.5
401.51	434.5
401.734	438.5
401.958	440.5
402.182	442.5
402.406	457.5
402.63	451.5
402.854	448.5
403.078	461.5
403.302	450.5
403.526	475.5
403.75	461.5
403.974	467.5
404.198	456.5
404.422	478.5
404.645	492.5
404.869	489.5
405.093	482.5
405.317	516.5
405.541	534.5
405.765	493.5
405.988	483.5
406.212	480.5
406.436	487.5
406.66	504.5
406.883	489.5
407.107	528.5
407.331	505.5
407.555	578.5
407.778	577.5
408.002	545.5
408.226	514.5
408.449	503.5
408.673	493.5
408.896	491.5
409.12	520.5
409.344	518.5
409.567	487.5
409.791	474.5
410.014	457.5
410.238	448.5
410.461	450.5
410.685	461.5
410.908	473.5
411.132	490.5
411.355	509.5
411.578	482.5
411.802	449.5
412.025	460.5
412.249	461.5
412.472	490.5
412.695	491.5
412.919	457.5
413.142	459.5
413.365	440.5
413.589	430.5
413.812	431.5
414.035	443.5
414.258	435.5
414.482	424.5
414.705	443.5
414.928	434.5
415.151	428.5
415.374	432.5
415.597	432.5
415.821	412.5
416.044	422.5
416.267	424.5
416.49	434.5
416.713	413.5
416.936	423.5
417.159	411.5
417.382	429.5
417.605	440.5
417.828	446.5
418.051	445.5
418.274	450.5
418.497	436.5
418.72	420.5
418.943	437.5
419.166	462.5
419.389	452.5
419.611	453.5
419.834	450.5
420.057	453.5
420.28	441.5
420.503	436.5
420.726	437.5
420.948	440.5
421.171	455.5
421.394	470.5
421.617	466.5
421.839	457.5
422.062	462.5
422.285	450.5
422.507	474.5
422.73	514.5
422.953	522.5
423.175	482.5
423.398	446.5
423.621	447.5
423.843	489.5
424.066	490.5
424.288	480.5
424.511	460.5
424.733	511.5
424.956	543.5
425.178	523.5
425.401	534.5
425.623	532.5
425.846	469.5
426.068	442.5
426.291	436.5
426.513	454.5
426.735	471.5
426.958	492.5
427.18	537.5
427.402	581.5
427.625	636.5
427.847	545.5
428.069	527.5
428.292	472.5
428.514	431.5
428.736	421.5
428.958	411.5
429.181	424.5
429.403	417.5
429.625	421.5
429.847	462.5
430.069	471.5
430.292	458.5
430.514	426.5
430.736	400.5
430.958	403.5
431.18	411.5
431.402	391.5
431.624	399.5
431.846	401.5
432.068	418.5
432.29	387.5
432.512	392.5
432.734	412.5
432.956	401.5
433.178	409.5
433.4	427.5
433.622	410.5
433.844	415.5
434.066	394.5
434.287	426.5
434.509	424.5
434.731	419.5
434.953	414.5
435.175	463.5
435.397	458.5
435.618	442.5
435.84	478.5
436.062	504.5
436.284	555.5
436.505	492.5
436.727	437.5
436.949	443.5
437.17	407.5
437.392	418.5
437.614	447.5
437.835	424.5
438.057	485.5
438.278	528.5
438.5	541.5
438.721	599.5
438.943	550.5
439.165	477.5
439.386	440.5
439.608	443.5
439.829	439.5
440.05	454.5
440.272	479.5
440.493	460.5
440.715	450.5
440.936	438.5
441.158	430.5
441.379	446.5
441.6	457.5
441.822	456.5
442.043	500.5
442.264	522.5
442.486	537.5
442.707	483.5
442.928	473.5
443.149	478.5
443.371	487.5
443.592	520.5
443.813	576.5
444.034	580.5
444.255	514.5
444.476	502.5
444.698	501.5
444.919	505.5
445.14	557.5
445.361	527.5
445.582	494.5
445.803	526.5
446.024	552.5
446.245	562.5
446.466	531.5
446.687	462.5
446.908	452.5
447.129	415.5
447.35	413.5
447.571	442.5
447.792	420.5
448.013	409.5
448.234	418.5
448.455	426.5
448.675	511.5
448.896	568.5
449.117	516.5
449.338	463.5
449.559	540.5
449.779	583.5
450	479.5
450.221	442.5
450.442	397.5
450.662	399.5
450.883	395.5
451.104	411.5
451.324	425.5
451.545	404.5
451.766	388.5
451.986	368.5
452.207	394.5
452.428	379.5
452.648	369.5
452.869	362.5
453.089	360.5
453.31	366.5
453.53	366.5
453.751	368.5
453.971	365.5
454.192	378.5
454.412	370.5
454.633	383.5
454.853	374.5
455.073	376.5
455.294	364.5
455.514	412.5
455.734	410.5
455.955	374.5
456.175	350.5
456.395	347.5
456.616	351.5
456.836	358.5
457.056	354.5
457.276	352.5
457.497	366.5
457.717	368.5
457.937	344.5
458.157	365.5
458.377	363.5
458.598	378.5
458.818	397.5
459.038	478.5
459.258	469.5
459.478	430.5
459.698	414.5
459.918	413.5
460.138	430.5
460.358	437.5
460.578	425.5
460.798	442.5
461.018	442.5
461.238	430.5
461.458	443.5
461.678	426.5
461.898	446.5
462.118	454.5
462.338	444.5
462.558	463.5
462.777	473.5
462.997	488.5
463.217	525.5
463.437	506.5
463.657	491.5
463.876	482.5
464.096	488.5
464.316	477.5
464.536	494.5
464.755	468.5
464.975	482.5
465.195	481.5
465.414	508.5
465.634	456.5
465.854	431.5
466.073	411.5
466.293	400.5
466.512	392.5
466.732	383.5
466.951	397.5
467.171	397.5
467.391	387.5
467.61	407.5
467.829	410.5
468.049	390.5
468.268	391.5
468.488	386.5
468.707	356.5
468.927	408.5
469.146	401.5
469.365	359.5
469.585	391.5
469.804	409.5
470.023	416.5
470.243	412.5
470.462	419.5
470.681	401.5
470.901	418.5
471.12	396.5
471.339	406.5
471.558	400.5
471.777	413.5
471.997	408.5
472.216	401.5
472.435	413.5
472.654	405.5
472.873	387.5
473.092	386.5
473.311	376.5
473.53	373.5
473.749	402.5
473.968	427.5
474.187	474.5
474.406	489.5
474.625	424.5
474.844	393.5
475.063	393.5
475.282	393.5
475.501	373.5
475.72	421.5
475.939	400.5
476.158	407.5
476.377	391.5
476.596	392.5
476.814	399.5
477.033	406.5
477.252	395.5
477.471	410.5
477.69	413.5
477.908	409.5
478.127	440.5
478.346	444.5
478.564	453.5
478.783	444.5
479.002	439.5
479.22	447.5
479.439	459.5
479.658	465.5
479.876	471.5
480.095	471.5
480.313	510.5
480.532	508.5
480.751	510.5
480.969	487.5
481.188	512.5
481.406	540.5
481.624	470.5
481.843	428.5
482.061	472.5
482.28	444.5
482.498	477.5
482.717	431.5
482.935	461.5
483.153	459.5
483.372	438.5
483.59	443.5
483.808	452.5
484.027	456.5
484.245	456.5
484.463	474.5
484.681	463.5
484.9	459.5
485.118	455.5
485.336	462.5
485.554	474.5
485.772	476.5
485.99	454.5
486.209	468.5
486.427	461.5
486.645	475.5
486.863	494.5
487.081	472.5
487.299	490.5
487.517	489.5
487.735	472.5
487.953	474.5
488.171	472.5
488.389	477.5
488.607	472.5
488.825	483.5
489.043	479.5
489.261	478.5
489.479	500.5
489.696	470.5
489.914	488.5
490.132	512.5
490.35	500.5
490.568	489.5
490.786	503.5
491.003	522.5
491.221	526.5
491.439	529.5
491.657	562.5
491.874	547.5
492.092	565.5
492.31	547.5
492.527	536.5
492.745	567.5
492.963	548.5
493.18	579.5
493.398	575.5
493.615	573.5
493.833	556.5
494.05	566.5
494.268	578.5
494.485	565.5
494.703	568.5
494.92	554.5
495.138	551.5
495.355	542.5
495.573	569.5
495.79	592.5
496.008	562.5
496.225	571.5
496.442	564.5
496.66	573.5
496.877	552.5
497.094	544.5
497.312	595.5
497.529	587.5
497.746	605.5
497.963	600.5
498.181	627.5
498.398	642.5
498.615	662.5
498.832	678.5
499.049	704.5
499.267	736.5
499.484	779.5
499.701	804.5
499.918	851.5
500.135	915.5
500.352	1003.5
500.569	1013.5
500.786	961.5
501.003	937.5
501.22	900.5
501.437	829.5
501.654	796.5
501.871	758.5
502.088	728.5
502.305	712.5
502.522	695.5
502.739	648.5
502.956	636.5
503.172	615.5
503.389	603.5
503.606	582.5
503.823	555.5
504.04	606.5
504.256	593.5
504.473	584.5
504.69	602.5
504.907	569.5
505.123	584.5
505.34	555.5
505.557	557.5
505.773	537.5
505.99	529.5
506.207	512.5
506.423	525.5
506.64	509.5
506.856	502.5
507.073	524.5
507.289	509.5
507.506	503.5
507.722	508.5
507.939	518.5
508.155	503.5
508.372	480.5
508.588	505.5
508.805	454.5
509.021	482.5
509.238	500.5
509.454	493.5
509.67	492.5
509.887	480.5
510.103	459.5
510.319	462.5
510.536	548.5
510.752	784.5
510.968	657.5
511.184	474.5
511.401	467.5
511.617	474.5
511.833	443.5
512.049	452.5
512.265	450.5
512.481	452.5
512.698	464.5
512.914	443.5
513.13	441.5
513.346	464.5
513.562	457.5
513.778	460.5
513.994	463.5
514.21	453.5
514.426	477.5
514.642	495.5
514.858	493.5
515.074	527.5
515.29	593.5
515.506	812.5
515.721	687.5
515.937	546.5
516.153	471.5
516.369	514.5
516.585	508.5
516.801	509.5
517.016	527.5
517.232	502.5
517.448	538.5
517.664	527.5
517.879	527.5
518.095	515.5
518.311	519.5
518.527	531.5
518.742	490.5
518.958	491.5
519.173	470.5
519.389	471.5
519.605	488.5
519.82	463.5
520.036	447.5
