Data from 1969.PennyLincolnUp.Lamp.En5.5.200Scan.071719.P1._HRD10591_14-55-02-972.txt Node
Date: Thu Jul 18 14:55:02 EDT 2019
User: cochatt
Spectrometer: HR+D1059
Trigger mode: 1
Integration Time (sec): 1.000000E-1
Scans to average: 1
Electric dark correction enabled: true
Nonlinearity correction enabled: false
Boxcar width: 0
XAxis mode: Wavelengths
Number of Pixels in Spectrum: 2048
>>>>>Begin Spectral Data<<<<<
223.165	-22.62
223.4	-22.62
223.635	-22.62
223.869	-14.62
224.104	-15.62
224.338	-17.62
224.573	-12.62
224.808	-2.62
225.042	3.38
225.277	-1.62
225.511	-2.62
225.746	-5.62
225.98	4.38
226.215	15.38
226.449	17.38
226.683	22.38
226.918	17.38
227.152	15.38
227.387	38.38
227.621	40.38
227.856	42.38
228.09	43.38
228.324	49.38
228.559	59.38
228.793	67.38
229.027	78.38
229.262	83.38
229.496	89.38
229.73	109.38
229.964	111.38
230.199	97.38
230.433	106.38
230.667	120.38
230.901	113.38
231.136	98.38
231.37	115.38
231.604	105.38
231.838	115.38
232.072	91.38
232.306	99.38
232.541	107.38
232.775	101.38
233.009	101.38
233.243	108.38
233.477	109.38
233.711	106.38
233.945	112.38
234.179	109.38
234.413	95.38
234.647	108.38
234.881	109.38
235.115	100.38
235.349	117.38
235.583	104.38
235.817	128.38
236.051	116.38
236.285	106.38
236.519	113.38
236.753	113.38
236.987	136.38
237.221	144.38
237.455	166.38
237.689	155.38
237.922	141.38
238.156	119.38
238.39	122.38
238.624	119.38
238.858	116.38
239.091	110.38
239.325	105.38
239.559	118.38
239.793	119.38
240.027	113.38
240.26	121.38
240.494	139.38
240.728	127.38
240.961	121.38
241.195	133.38
241.429	149.38
241.662	139.38
241.896	120.38
242.13	119.38
242.363	111.38
242.597	121.38
242.83	129.38
243.064	111.38
243.298	119.38
243.531	115.38
243.765	115.38
243.998	132.38
244.232	137.38
244.465	125.38
244.699	117.38
244.932	127.38
245.166	133.38
245.399	128.38
245.633	131.38
245.866	141.38
246.099	134.38
246.333	145.38
246.566	140.38
246.8	131.38
247.033	133.38
247.266	141.38
247.5	144.38
247.733	158.38
247.966	155.38
248.2	149.38
248.433	158.38
248.666	149.38
248.899	160.38
249.133	162.38
249.366	163.38
249.599	168.38
249.832	157.38
250.066	148.38
250.299	162.38
250.532	159.38
250.765	156.38
250.998	173.38
251.231	168.38
251.465	173.38
251.698	174.38
251.931	188.38
252.164	172.38
252.397	167.38
252.63	160.38
252.863	175.38
253.096	168.38
253.329	179.38
253.562	185.38
253.795	185.38
254.028	184.38
254.261	195.38
254.494	203.38
254.727	191.38
254.96	221.38
255.193	206.38
255.426	200.38
255.659	180.38
255.892	200.38
256.124	183.38
256.357	176.38
256.59	195.38
256.823	171.38
257.056	179.38
257.289	171.38
257.521	172.38
257.754	181.38
257.987	171.38
258.22	179.38
258.452	177.38
258.685	172.38
258.918	173.38
259.151	184.38
259.383	165.38
259.616	175.38
259.849	182.38
260.081	203.38
260.314	191.38
260.547	207.38
260.779	202.38
261.012	191.38
261.244	192.38
261.477	192.38
261.71	175.38
261.942	188.38
262.175	195.38
262.407	179.38
262.64	197.38
262.872	203.38
263.105	184.38
263.337	176.38
263.57	201.38
263.802	191.38
264.035	174.38
264.267	186.38
264.499	187.38
264.732	191.38
264.964	199.38
265.197	186.38
265.429	207.38
265.661	200.38
265.894	187.38
266.126	189.38
266.358	190.38
266.591	207.38
266.823	193.38
267.055	194.38
267.287	194.38
267.52	195.38
267.752	193.38
267.984	195.38
268.216	211.38
268.448	185.38
268.681	200.38
268.913	229.38
269.145	213.38
269.377	231.38
269.609	230.38
269.841	212.38
270.073	241.38
270.306	252.38
270.538	261.38
270.77	259.38
271.002	238.38
271.234	224.38
271.466	239.38
271.698	236.38
271.93	263.38
272.162	234.38
272.394	249.38
272.626	238.38
272.858	235.38
273.09	236.38
273.322	214.38
273.553	213.38
273.785	238.38
274.017	219.38
274.249	227.38
274.481	238.38
274.713	213.38
274.945	243.38
275.176	226.38
275.408	251.38
275.64	201.38
275.872	223.38
276.104	234.38
276.335	218.38
276.567	224.38
276.799	258.38
277.031	245.38
277.262	237.38
277.494	271.38
277.726	267.38
277.957	238.38
278.189	251.38
278.421	236.38
278.652	224.38
278.884	241.38
279.115	236.38
279.347	230.38
279.579	216.38
279.81	241.38
280.042	225.38
280.273	220.38
280.505	244.38
280.736	216.38
280.968	231.38
281.199	230.38
281.431	233.38
281.662	231.38
281.894	237.38
282.125	251.38
282.356	237.38
282.588	251.38
282.819	236.38
283.051	237.38
283.282	236.38
283.513	237.38
283.745	249.38
283.976	259.38
284.207	267.38
284.439	233.38
284.67	255.38
284.901	226.38
285.132	258.38
285.364	230.38
285.595	253.38
285.826	241.38
286.057	265.38
286.288	262.38
286.52	252.38
286.751	262.38
286.982	267.38
287.213	231.38
287.444	260.38
287.675	243.38
287.906	257.38
288.138	278.38
288.369	271.38
288.6	271.38
288.831	270.38
289.062	263.38
289.293	260.38
289.524	262.38
289.755	242.38
289.986	240.38
290.217	276.38
290.448	279.38
290.679	257.38
290.91	281.38
291.141	255.38
291.371	270.38
291.602	260.38
291.833	250.38
292.064	270.38
292.295	267.38
292.526	263.38
292.757	257.38
292.987	261.38
293.218	262.38
293.449	269.38
293.68	265.38
293.91	257.38
294.141	275.38
294.372	236.38
294.603	248.38
294.833	255.38
295.064	262.38
295.295	259.38
295.525	272.38
295.756	269.38
295.987	280.38
296.217	253.38
296.448	286.38
296.679	269.38
296.909	280.38
297.14	274.38
297.37	293.38
297.601	268.38
297.831	286.38
298.062	275.38
298.292	270.38
298.523	279.38
298.753	279.38
298.984	285.38
299.214	273.38
299.445	264.38
299.675	275.38
299.905	287.38
300.136	288.38
300.366	256.38
300.597	297.38
300.827	300.38
301.057	269.38
301.288	279.38
301.518	295.38
301.748	300.38
301.979	279.38
302.209	300.38
302.439	297.38
302.669	288.38
302.9	300.38
303.13	277.38
303.36	284.38
303.59	300.38
303.82	300.38
304.051	298.38
304.281	295.38
304.511	294.38
304.741	301.38
304.971	287.38
305.201	287.38
305.431	299.38
305.661	283.38
305.891	293.38
306.121	289.38
306.352	280.38
306.582	286.38
306.812	300.38
307.042	283.38
307.272	287.38
307.502	300.38
307.731	274.38
307.961	299.38
308.191	297.38
308.421	292.38
308.651	292.38
308.881	280.38
309.111	286.38
309.341	300.38
309.571	302.38
309.8	292.38
310.03	309.38
310.26	313.38
310.49	311.38
310.72	302.38
310.949	330.38
311.179	304.38
311.409	301.38
311.639	325.38
311.868	313.38
312.098	313.38
312.328	321.38
312.557	313.38
312.787	325.38
313.017	344.38
313.246	331.38
313.476	330.38
313.706	333.38
313.935	336.38
314.165	324.38
314.394	329.38
314.624	330.38
314.853	323.38
315.083	327.38
315.312	321.38
315.542	322.38
315.771	329.38
316.001	325.38
316.23	308.38
316.46	310.38
316.689	315.38
316.919	332.38
317.148	327.38
317.377	320.38
317.607	307.38
317.836	315.38
318.065	311.38
318.295	319.38
318.524	323.38
318.753	323.38
318.983	304.38
319.212	296.38
319.441	323.38
319.67	335.38
319.9	314.38
320.129	308.38
320.358	326.38
320.587	336.38
320.816	334.38
321.046	328.38
321.275	322.38
321.504	344.38
321.733	330.38
321.962	321.38
322.191	358.38
322.42	349.38
322.649	361.38
322.878	356.38
323.108	365.38
323.337	384.38
323.566	391.38
323.795	396.38
324.024	401.38
324.253	473.38
324.482	623.38
324.71	876.38
324.939	1141.38
325.168	975.38
325.397	580.38
325.626	425.38
325.855	399.38
326.084	371.38
326.313	377.38
326.542	388.38
326.77	388.38
326.999	457.38
327.228	572.38
327.457	765.38
327.686	850.38
327.914	599.38
328.143	450.38
328.372	451.38
328.6	406.38
328.829	410.38
329.058	412.38
329.287	410.38
329.515	407.38
329.744	390.38
329.972	393.38
330.201	402.38
330.43	427.38
330.658	429.38
330.887	437.38
331.115	451.38
331.344	391.38
331.572	376.38
331.801	384.38
332.03	377.38
332.258	382.38
332.486	389.38
332.715	407.38
332.943	408.38
333.172	395.38
333.4	427.38
333.629	419.38
333.857	426.38
334.085	414.38
334.314	445.38
334.542	455.38
334.771	451.38
334.999	426.38
335.227	410.38
335.455	395.38
335.684	391.38
335.912	383.38
336.14	379.38
336.369	363.38
336.597	399.38
336.825	368.38
337.053	403.38
337.281	369.38
337.51	377.38
337.738	383.38
337.966	388.38
338.194	378.38
338.422	381.38
338.65	383.38
338.878	375.38
339.106	376.38
339.334	359.38
339.562	363.38
339.79	369.38
340.018	348.38
340.246	368.38
340.474	353.38
340.702	356.38
340.93	361.38
341.158	349.38
341.386	341.38
341.614	345.38
341.842	357.38
342.07	351.38
342.298	359.38
342.526	360.38
342.754	346.38
342.981	344.38
343.209	373.38
343.437	355.38
343.665	380.38
343.893	384.38
344.12	404.38
344.348	383.38
344.576	377.38
344.804	377.38
345.031	380.38
345.259	362.38
345.487	357.38
345.714	359.38
345.942	348.38
346.17	336.38
346.397	349.38
346.625	359.38
346.853	357.38
347.08	337.38
347.308	332.38
347.535	325.38
347.763	343.38
347.99	355.38
348.218	334.38
348.445	350.38
348.673	349.38
348.9	342.38
349.128	325.38
349.355	343.38
349.583	334.38
349.81	331.38
350.037	339.38
350.265	329.38
350.492	332.38
350.72	327.38
350.947	355.38
351.174	330.38
351.402	328.38
351.629	337.38
351.856	345.38
352.083	351.38
352.311	339.38
352.538	323.38
352.765	346.38
352.992	328.38
353.22	333.38
353.447	345.38
353.674	336.38
353.901	328.38
354.128	337.38
354.355	335.38
354.583	330.38
354.81	329.38
355.037	333.38
355.264	327.38
355.491	332.38
355.718	327.38
355.945	327.38
356.172	317.38
356.399	337.38
356.626	319.38
356.853	316.38
357.08	327.38
357.307	313.38
357.534	327.38
357.761	331.38
357.988	325.38
358.215	333.38
358.441	309.38
358.668	334.38
358.895	329.38
359.122	327.38
359.349	323.38
359.576	339.38
359.802	347.38
360.029	362.38
360.256	380.38
360.483	365.38
360.709	352.38
360.936	340.38
361.163	328.38
361.39	322.38
361.616	316.38
361.843	319.38
362.07	334.38
362.296	333.38
362.523	329.38
362.749	333.38
362.976	337.38
363.203	319.38
363.429	321.38
363.656	334.38
363.882	316.38
364.109	331.38
364.335	333.38
364.562	328.38
364.788	328.38
365.015	316.38
365.241	326.38
365.468	330.38
365.694	329.38
365.92	335.38
366.147	336.38
366.373	327.38
366.599	344.38
366.826	323.38
367.052	333.38
367.278	318.38
367.505	316.38
367.731	333.38
367.957	326.38
368.184	333.38
368.41	318.38
368.636	309.38
368.862	316.38
369.089	338.38
369.315	338.38
369.541	339.38
369.767	320.38
369.993	331.38
370.219	334.38
370.445	335.38
370.672	335.38
370.898	337.38
371.124	319.38
371.35	333.38
371.576	333.38
371.802	334.38
372.028	335.38
372.254	326.38
372.48	348.38
372.706	341.38
372.932	343.38
373.158	337.38
373.384	351.38
373.61	343.38
373.835	336.38
374.061	332.38
374.287	319.38
374.513	346.38
374.739	346.38
374.965	371.38
375.191	350.38
375.416	346.38
375.642	355.38
375.868	344.38
376.094	346.38
376.319	330.38
376.545	326.38
376.771	344.38
376.997	331.38
377.222	332.38
377.448	321.38
377.674	327.38
377.899	313.38
378.125	333.38
378.35	333.38
378.576	328.38
378.802	331.38
379.027	337.38
379.253	320.38
379.478	341.38
379.704	309.38
379.929	318.38
380.155	345.38
380.38	336.38
380.606	347.38
380.831	339.38
381.057	350.38
381.282	330.38
381.507	323.38
381.733	336.38
381.958	335.38
382.184	346.38
382.409	349.38
382.634	337.38
382.86	334.38
383.085	349.38
383.31	331.38
383.535	356.38
383.761	373.38
383.986	365.38
384.211	353.38
384.436	354.38
384.662	376.38
384.887	364.38
385.112	367.38
385.337	377.38
385.562	371.38
385.787	373.38
386.013	379.38
386.238	396.38
386.463	389.38
386.688	372.38
386.913	385.38
387.138	369.38
387.363	370.38
387.588	373.38
387.813	376.38
388.038	362.38
388.263	362.38
388.488	382.38
388.713	383.38
388.938	383.38
389.163	371.38
389.387	363.38
389.612	366.38
389.837	376.38
390.062	372.38
390.287	360.38
390.512	391.38
390.736	376.38
390.961	377.38
391.186	384.38
391.411	386.38
391.636	392.38
391.86	389.38
392.085	395.38
392.31	388.38
392.534	380.38
392.759	377.38
392.984	377.38
393.208	378.38
393.433	381.38
393.658	376.38
393.882	381.38
394.107	365.38
394.331	374.38
394.556	377.38
394.78	374.38
395.005	390.38
395.229	392.38
395.454	395.38
395.678	391.38
395.903	402.38
396.127	401.38
396.352	391.38
396.576	407.38
396.801	404.38
397.025	398.38
397.249	377.38
397.474	393.38
397.698	395.38
397.922	407.38
398.147	419.38
398.371	423.38
398.595	418.38
398.82	421.38
399.044	456.38
399.268	469.38
399.492	525.38
399.717	553.38
399.941	553.38
400.165	536.38
400.389	518.38
400.613	483.38
400.837	445.38
401.062	442.38
401.286	435.38
401.51	433.38
401.734	431.38
401.958	417.38
402.182	448.38
402.406	452.38
402.63	467.38
402.854	440.38
403.078	457.38
403.302	459.38
403.526	462.38
403.75	459.38
403.974	471.38
404.198	479.38
404.422	471.38
404.645	470.38
404.869	466.38
405.093	491.38
405.317	497.38
405.541	534.38
405.765	477.38
405.988	483.38
406.212	465.38
406.436	493.38
406.66	500.38
406.883	485.38
407.107	520.38
407.331	535.38
407.555	576.38
407.778	577.38
408.002	532.38
408.226	494.38
408.449	509.38
408.673	475.38
408.896	479.38
409.12	492.38
409.344	499.38
409.567	439.38
409.791	442.38
410.014	478.38
410.238	474.38
410.461	456.38
410.685	465.38
410.908	471.38
411.132	485.38
411.355	492.38
411.578	485.38
411.802	470.38
412.025	453.38
412.249	464.38
412.472	450.38
412.695	493.38
412.919	457.38
413.142	446.38
413.365	438.38
413.589	430.38
413.812	422.38
414.035	436.38
414.258	419.38
414.482	427.38
414.705	432.38
414.928	433.38
415.151	437.38
415.374	432.38
415.597	427.38
415.821	443.38
416.044	443.38
416.267	428.38
416.49	443.38
416.713	413.38
416.936	417.38
417.159	419.38
417.382	423.38
417.605	442.38
417.828	439.38
418.051	445.38
418.274	433.38
418.497	445.38
418.72	432.38
418.943	431.38
419.166	443.38
419.389	441.38
419.611	459.38
419.834	464.38
420.057	462.38
420.28	455.38
420.503	428.38
420.726	441.38
420.948	431.38
421.171	449.38
421.394	462.38
421.617	440.38
421.839	459.38
422.062	437.38
422.285	441.38
422.507	464.38
422.73	505.38
422.953	522.38
423.175	475.38
423.398	473.38
423.621	457.38
423.843	475.38
424.066	457.38
424.288	469.38
424.511	466.38
424.733	475.38
424.956	536.38
425.178	512.38
425.401	504.38
425.623	511.38
425.846	470.38
426.068	447.38
426.291	445.38
426.513	417.38
426.735	448.38
426.958	480.38
427.18	514.38
427.402	595.38
427.625	621.38
427.847	556.38
428.069	494.38
428.292	450.38
428.514	441.38
428.736	445.38
428.958	431.38
429.181	409.38
429.403	401.38
429.625	407.38
429.847	416.38
430.069	448.38
430.292	443.38
430.514	441.38
430.736	408.38
430.958	412.38
431.18	399.38
431.402	401.38
431.624	388.38
431.846	386.38
432.068	404.38
432.29	397.38
432.512	411.38
432.734	428.38
432.956	392.38
433.178	413.38
433.4	407.38
433.622	414.38
433.844	416.38
434.066	399.38
434.287	411.38
434.509	403.38
434.731	412.38
434.953	412.38
435.175	423.38
435.397	475.38
435.618	437.38
435.84	459.38
436.062	488.38
436.284	537.38
436.505	458.38
436.727	447.38
436.949	425.38
437.17	415.38
437.392	410.38
437.614	419.38
437.835	435.38
438.057	468.38
438.278	545.38
438.5	542.38
438.721	560.38
438.943	551.38
439.165	457.38
439.386	428.38
439.608	430.38
439.829	430.38
440.05	449.38
440.272	472.38
440.493	449.38
440.715	435.38
440.936	429.38
441.158	428.38
441.379	432.38
441.6	456.38
441.822	457.38
442.043	470.38
442.264	533.38
442.486	537.38
442.707	477.38
442.928	459.38
443.149	477.38
443.371	477.38
443.592	490.38
443.813	533.38
444.034	564.38
444.255	501.38
444.476	487.38
444.698	483.38
444.919	483.38
445.14	593.38
445.361	519.38
445.582	466.38
445.803	505.38
446.024	546.38
446.245	547.38
446.466	506.38
446.687	467.38
446.908	420.38
447.129	424.38
447.35	396.38
447.571	426.38
447.792	431.38
448.013	399.38
448.234	409.38
448.455	462.38
448.675	505.38
448.896	543.38
449.117	463.38
449.338	494.38
449.559	525.38
449.779	565.38
450	489.38
450.221	428.38
450.442	410.38
450.662	384.38
450.883	419.38
451.104	399.38
451.324	416.38
451.545	412.38
451.766	384.38
451.986	382.38
452.207	372.38
452.428	381.38
452.648	377.38
452.869	364.38
453.089	389.38
453.31	390.38
453.53	377.38
453.751	362.38
453.971	372.38
454.192	383.38
454.412	352.38
454.633	379.38
454.853	372.38
455.073	342.38
455.294	392.38
455.514	415.38
455.734	403.38
455.955	348.38
456.175	344.38
456.395	337.38
456.616	344.38
456.836	356.38
457.056	327.38
457.276	336.38
457.497	347.38
457.717	349.38
457.937	359.38
458.157	365.38
458.377	365.38
458.598	386.38
458.818	403.38
459.038	433.38
459.258	456.38
459.478	436.38
459.698	421.38
459.918	401.38
460.138	418.38
460.358	431.38
460.578	447.38
460.798	423.38
461.018	442.38
461.238	435.38
461.458	436.38
461.678	435.38
461.898	429.38
462.118	431.38
462.338	453.38
462.558	459.38
462.777	474.38
462.997	470.38
463.217	519.38
463.437	512.38
463.657	469.38
463.876	466.38
464.096	464.38
464.316	466.38
464.536	474.38
464.755	463.38
464.975	472.38
465.195	476.38
465.414	515.38
465.634	457.38
465.854	420.38
466.073	402.38
466.293	407.38
466.512	417.38
466.732	391.38
466.951	381.38
467.171	386.38
467.391	412.38
467.61	400.38
467.829	407.38
468.049	407.38
468.268	396.38
468.488	377.38
468.707	405.38
468.927	375.38
469.146	372.38
469.365	375.38
469.585	385.38
469.804	395.38
470.023	398.38
470.243	391.38
470.462	404.38
470.681	414.38
470.901	427.38
471.12	394.38
471.339	389.38
471.558	388.38
471.777	406.38
471.997	399.38
472.216	383.38
472.435	408.38
472.654	400.38
472.873	375.38
473.092	376.38
473.311	382.38
473.53	393.38
473.749	391.38
473.968	410.38
474.187	449.38
474.406	464.38
474.625	414.38
474.844	385.38
475.063	383.38
475.282	400.38
475.501	391.38
475.72	407.38
475.939	383.38
476.158	396.38
476.377	406.38
476.596	395.38
476.814	393.38
477.033	407.38
477.252	395.38
477.471	426.38
477.69	427.38
477.908	451.38
478.127	429.38
478.346	428.38
478.564	455.38
478.783	450.38
479.002	437.38
479.22	449.38
479.439	486.38
479.658	474.38
479.876	478.38
480.095	500.38
480.313	479.38
480.532	495.38
480.751	497.38
480.969	454.38
481.188	490.38
481.406	558.38
481.624	469.38
481.843	448.38
482.061	439.38
482.28	444.38
482.498	449.38
482.717	436.38
482.935	448.38
483.153	441.38
483.372	443.38
483.59	463.38
483.808	448.38
484.027	437.38
484.245	453.38
484.463	443.38
484.681	466.38
484.9	454.38
485.118	445.38
485.336	446.38
485.554	464.38
485.772	469.38
485.99	456.38
486.209	470.38
486.427	473.38
486.645	485.38
486.863	493.38
487.081	459.38
487.299	461.38
487.517	460.38
487.735	472.38
487.953	473.38
488.171	491.38
488.389	475.38
488.607	463.38
488.825	467.38
489.043	486.38
489.261	486.38
489.479	471.38
489.696	470.38
489.914	487.38
490.132	489.38
490.35	491.38
490.568	515.38
490.786	501.38
491.003	485.38
491.221	523.38
491.439	495.38
491.657	532.38
491.874	540.38
492.092	570.38
492.31	543.38
492.527	570.38
492.745	555.38
492.963	545.38
493.18	545.38
493.398	556.38
493.615	564.38
493.833	557.38
494.05	538.38
494.268	567.38
494.485	570.38
494.703	536.38
494.92	551.38
495.138	566.38
495.355	547.38
495.573	565.38
495.79	540.38
496.008	545.38
496.225	566.38
496.442	548.38
496.66	575.38
496.877	545.38
497.094	578.38
497.312	565.38
497.529	577.38
497.746	597.38
497.963	579.38
498.181	617.38
498.398	647.38
498.615	653.38
498.832	669.38
499.049	693.38
499.267	715.38
499.484	773.38
499.701	823.38
499.918	847.38
500.135	921.38
500.352	979.38
500.569	975.38
500.786	967.38
501.003	964.38
501.22	906.38
501.437	837.38
501.654	782.38
501.871	772.38
502.088	697.38
