Data from 1969.PennyLincolnUp.Lamp.En5.5.200Scan.071719.P1._HRD10591_14-56-50-973.txt Node
Date: Thu Jul 18 14:56:50 EDT 2019
User: cochatt
Spectrometer: HR+D1059
Trigger mode: 1
Integration Time (sec): 1.000000E-1
Scans to average: 1
Electric dark correction enabled: true
Nonlinearity correction enabled: false
Boxcar width: 0
XAxis mode: Wavelengths
Number of Pixels in Spectrum: 2048
>>>>>Begin Spectral Data<<<<<
223.165	-5.75
223.4	-5.75
223.635	-5.75
223.869	-21.75
224.104	-35.75
224.338	-11.75
224.573	-7.75
224.808	-15.75
225.042	-3.75
225.277	-9.75
225.511	-6.75
225.746	-8.75
225.98	10.25
226.215	23.25
226.449	22.25
226.683	20.25
226.918	18.25
227.152	33.25
227.387	26.25
227.621	37.25
227.856	50.25
228.09	38.25
228.324	45.25
228.559	62.25
228.793	63.25
229.027	83.25
229.262	86.25
229.496	94.25
229.73	114.25
229.964	113.25
230.199	112.25
230.433	112.25
230.667	104.25
230.901	104.25
231.136	93.25
231.37	106.25
231.604	110.25
231.838	105.25
232.072	107.25
232.306	103.25
232.541	108.25
232.775	92.25
233.009	114.25
233.243	126.25
233.477	106.25
233.711	95.25
233.945	121.25
234.179	101.25
234.413	114.25
234.647	124.25
234.881	110.25
235.115	116.25
235.349	102.25
235.583	103.25
235.817	122.25
236.051	125.25
236.285	121.25
236.519	120.25
236.753	118.25
236.987	126.25
237.221	142.25
237.455	174.25
237.689	155.25
237.922	124.25
238.156	115.25
238.39	129.25
238.624	120.25
238.858	115.25
239.091	110.25
239.325	116.25
239.559	105.25
239.793	124.25
240.027	131.25
240.26	122.25
240.494	126.25
240.728	122.25
240.961	124.25
241.195	129.25
241.429	122.25
241.662	117.25
241.896	121.25
242.13	140.25
242.363	130.25
242.597	127.25
242.83	130.25
243.064	120.25
243.298	121.25
243.531	122.25
243.765	128.25
243.998	122.25
244.232	118.25
244.465	134.25
244.699	134.25
244.932	133.25
245.166	138.25
245.399	127.25
245.633	114.25
245.866	132.25
246.099	143.25
246.333	141.25
246.566	132.25
246.8	139.25
247.033	130.25
247.266	131.25
247.5	143.25
247.733	159.25
247.966	158.25
248.2	148.25
248.433	135.25
248.666	137.25
248.899	156.25
249.133	179.25
249.366	184.25
249.599	158.25
249.832	155.25
250.066	166.25
250.299	155.25
250.532	164.25
250.765	181.25
250.998	168.25
251.231	187.25
251.465	180.25
251.698	181.25
251.931	174.25
252.164	171.25
252.397	180.25
252.63	175.25
252.863	174.25
253.096	178.25
253.329	189.25
253.562	192.25
253.795	179.25
254.028	173.25
254.261	169.25
254.494	198.25
254.727	200.25
254.96	219.25
255.193	199.25
255.426	198.25
255.659	185.25
255.892	182.25
256.124	183.25
256.357	182.25
256.59	169.25
256.823	182.25
257.056	175.25
257.289	180.25
257.521	183.25
257.754	183.25
257.987	186.25
258.22	183.25
258.452	194.25
258.685	171.25
258.918	179.25
259.151	183.25
259.383	185.25
259.616	188.25
259.849	179.25
260.081	182.25
260.314	222.25
260.547	205.25
260.779	195.25
261.012	205.25
261.244	173.25
261.477	202.25
261.71	188.25
261.942	199.25
262.175	187.25
262.407	186.25
262.64	188.25
262.872	188.25
263.105	189.25
263.337	191.25
263.57	195.25
263.802	189.25
264.035	189.25
264.267	187.25
264.499	169.25
264.732	183.25
264.964	172.25
265.197	186.25
265.429	185.25
265.661	196.25
265.894	184.25
266.126	175.25
266.358	194.25
266.591	182.25
266.823	204.25
267.055	207.25
267.287	206.25
267.52	203.25
267.752	200.25
267.984	191.25
268.216	202.25
268.448	203.25
268.681	211.25
268.913	218.25
269.145	224.25
269.377	249.25
269.609	212.25
269.841	221.25
270.073	224.25
270.306	236.25
270.538	262.25
270.77	255.25
271.002	243.25
271.234	226.25
271.466	240.25
271.698	266.25
271.93	271.25
272.162	237.25
272.394	252.25
272.626	242.25
272.858	223.25
273.09	258.25
273.322	228.25
273.553	208.25
273.785	222.25
274.017	203.25
274.249	221.25
274.481	226.25
274.713	222.25
274.945	223.25
275.176	228.25
275.408	229.25
275.64	235.25
275.872	220.25
276.104	226.25
276.335	245.25
276.567	247.25
276.799	253.25
277.031	250.25
277.262	272.25
277.494	274.25
277.726	240.25
277.957	234.25
278.189	242.25
278.421	224.25
278.652	246.25
278.884	227.25
279.115	230.25
279.347	241.25
279.579	239.25
279.81	232.25
280.042	243.25
280.273	251.25
280.505	236.25
280.736	230.25
280.968	223.25
281.199	239.25
281.431	247.25
281.662	247.25
281.894	260.25
282.125	221.25
282.356	262.25
282.588	242.25
282.819	258.25
283.051	235.25
283.282	238.25
283.513	255.25
283.745	260.25
283.976	246.25
284.207	252.25
284.439	246.25
284.67	245.25
284.901	258.25
285.132	246.25
285.364	246.25
285.595	244.25
285.826	237.25
286.057	234.25
286.288	238.25
286.52	269.25
286.751	261.25
286.982	252.25
287.213	251.25
287.444	259.25
287.675	267.25
287.906	248.25
288.138	276.25
288.369	248.25
288.6	251.25
288.831	275.25
289.062	267.25
289.293	276.25
289.524	259.25
289.755	254.25
289.986	242.25
290.217	266.25
290.448	253.25
290.679	261.25
290.91	250.25
291.141	256.25
291.371	268.25
291.602	277.25
291.833	262.25
292.064	263.25
292.295	273.25
292.526	254.25
292.757	261.25
292.987	250.25
293.218	268.25
293.449	250.25
293.68	260.25
293.91	280.25
294.141	254.25
294.372	261.25
294.603	260.25
294.833	260.25
295.064	271.25
295.295	266.25
295.525	272.25
295.756	270.25
295.987	277.25
296.217	277.25
296.448	267.25
296.679	271.25
296.909	254.25
297.14	263.25
297.37	276.25
297.601	273.25
297.831	269.25
298.062	276.25
298.292	264.25
298.523	293.25
298.753	279.25
298.984	282.25
299.214	273.25
299.445	255.25
299.675	272.25
299.905	287.25
300.136	302.25
300.366	298.25
300.597	286.25
300.827	287.25
301.057	269.25
301.288	300.25
301.518	312.25
301.748	288.25
301.979	292.25
302.209	290.25
302.439	316.25
302.669	312.25
302.9	289.25
303.13	292.25
303.36	302.25
303.59	310.25
303.82	302.25
304.051	298.25
304.281	300.25
304.511	282.25
304.741	303.25
304.971	310.25
305.201	296.25
305.431	279.25
305.661	289.25
305.891	290.25
306.121	283.25
306.352	290.25
306.582	302.25
306.812	282.25
307.042	285.25
307.272	292.25
307.502	300.25
307.731	299.25
307.961	272.25
308.191	296.25
308.421	291.25
308.651	291.25
308.881	288.25
309.111	311.25
309.341	297.25
309.571	299.25
309.8	326.25
310.03	312.25
310.26	312.25
310.49	304.25
310.72	322.25
310.949	335.25
311.179	326.25
311.409	322.25
311.639	302.25
311.868	313.25
312.098	320.25
312.328	340.25
312.557	332.25
312.787	349.25
313.017	334.25
313.246	316.25
313.476	314.25
313.706	333.25
313.935	331.25
314.165	331.25
314.394	319.25
314.624	316.25
314.853	346.25
315.083	318.25
315.312	315.25
315.542	335.25
315.771	319.25
316.001	317.25
316.23	322.25
316.46	309.25
316.689	313.25
316.919	339.25
317.148	328.25
317.377	335.25
317.607	322.25
317.836	331.25
318.065	330.25
318.295	344.25
318.524	327.25
318.753	312.25
318.983	322.25
319.212	329.25
319.441	337.25
319.67	335.25
319.9	322.25
320.129	318.25
320.358	323.25
320.587	345.25
320.816	320.25
321.046	343.25
321.275	334.25
321.504	331.25
321.733	330.25
321.962	320.25
322.191	354.25
322.42	341.25
322.649	371.25
322.878	346.25
323.108	383.25
323.337	372.25
323.566	379.25
323.795	395.25
324.024	405.25
324.253	495.25
324.482	638.25
324.71	905.25
324.939	1199.25
325.168	1006.25
325.397	573.25
325.626	456.25
325.855	404.25
326.084	385.25
326.313	411.25
326.542	384.25
326.77	415.25
326.999	490.25
327.228	607.25
327.457	804.25
327.686	931.25
327.914	621.25
328.143	478.25
328.372	431.25
328.6	447.25
328.829	415.25
329.058	425.25
329.287	429.25
329.515	409.25
329.744	391.25
329.972	394.25
330.201	436.25
330.43	431.25
330.658	452.25
330.887	448.25
331.115	437.25
331.344	409.25
331.572	408.25
331.801	417.25
332.03	392.25
332.258	406.25
332.486	379.25
332.715	387.25
332.943	405.25
333.172	407.25
333.4	412.25
333.629	402.25
333.857	427.25
334.085	444.25
334.314	446.25
334.542	483.25
334.771	470.25
334.999	428.25
335.227	412.25
335.455	397.25
335.684	417.25
335.912	389.25
336.14	387.25
336.369	407.25
336.597	376.25
336.825	383.25
337.053	372.25
337.281	374.25
337.51	379.25
337.738	389.25
337.966	371.25
338.194	360.25
338.422	360.25
338.65	383.25
338.878	367.25
339.106	373.25
339.334	360.25
339.562	365.25
339.79	365.25
340.018	364.25
340.246	363.25
340.474	363.25
340.702	365.25
340.93	354.25
341.158	375.25
341.386	361.25
341.614	365.25
341.842	357.25
342.07	366.25
342.298	366.25
342.526	352.25
342.754	355.25
342.981	365.25
343.209	361.25
343.437	385.25
343.665	375.25
343.893	393.25
344.12	391.25
344.348	364.25
344.576	354.25
344.804	367.25
345.031	375.25
345.259	371.25
345.487	349.25
345.714	380.25
345.942	350.25
346.17	350.25
346.397	365.25
346.625	357.25
346.853	332.25
347.08	337.25
347.308	351.25
347.535	344.25
347.763	358.25
347.99	333.25
348.218	350.25
348.445	348.25
348.673	308.25
348.9	329.25
349.128	361.25
349.355	339.25
349.583	350.25
349.81	351.25
350.037	345.25
350.265	335.25
350.492	341.25
350.72	344.25
350.947	328.25
351.174	353.25
351.402	346.25
351.629	326.25
351.856	334.25
352.083	354.25
352.311	364.25
352.538	351.25
352.765	339.25
352.992	333.25
353.22	338.25
353.447	343.25
353.674	339.25
353.901	324.25
354.128	350.25
354.355	336.25
354.583	319.25
354.81	333.25
355.037	347.25
355.264	332.25
355.491	292.25
355.718	310.25
355.945	330.25
356.172	318.25
356.399	308.25
356.626	330.25
356.853	331.25
357.08	334.25
357.307	318.25
357.534	317.25
357.761	336.25
357.988	341.25
358.215	332.25
358.441	331.25
358.668	308.25
358.895	331.25
359.122	342.25
359.349	329.25
359.576	360.25
359.802	333.25
360.029	363.25
360.256	363.25
360.483	344.25
360.709	367.25
360.936	355.25
361.163	332.25
361.39	356.25
361.616	339.25
361.843	336.25
362.07	321.25
362.296	330.25
362.523	345.25
362.749	337.25
362.976	337.25
363.203	344.25
363.429	326.25
363.656	325.25
363.882	329.25
364.109	339.25
364.335	322.25
364.562	329.25
364.788	335.25
365.015	311.25
365.241	324.25
365.468	337.25
365.694	340.25
365.92	355.25
366.147	328.25
366.373	340.25
366.599	333.25
366.826	327.25
367.052	320.25
367.278	331.25
367.505	326.25
367.731	334.25
367.957	317.25
368.184	324.25
368.41	339.25
368.636	340.25
368.862	342.25
369.089	338.25
369.315	344.25
369.541	323.25
369.767	327.25
369.993	319.25
370.219	342.25
370.445	335.25
370.672	326.25
370.898	341.25
371.124	342.25
371.35	326.25
371.576	319.25
371.802	326.25
372.028	336.25
372.254	334.25
372.48	334.25
372.706	341.25
372.932	354.25
373.158	355.25
373.384	347.25
373.61	345.25
373.835	360.25
374.061	322.25
374.287	334.25
374.513	332.25
374.739	369.25
374.965	356.25
375.191	372.25
375.416	344.25
375.642	358.25
375.868	362.25
376.094	342.25
376.319	346.25
376.545	327.25
376.771	336.25
376.997	348.25
377.222	327.25
377.448	343.25
377.674	348.25
377.899	341.25
378.125	343.25
378.35	344.25
378.576	325.25
378.802	328.25
379.027	323.25
379.253	334.25
379.478	331.25
379.704	339.25
379.929	327.25
380.155	338.25
380.38	334.25
380.606	330.25
380.831	323.25
381.057	344.25
381.282	347.25
381.507	337.25
381.733	332.25
381.958	333.25
382.184	342.25
382.409	338.25
382.634	335.25
382.86	329.25
383.085	349.25
383.31	350.25
383.535	347.25
383.761	362.25
383.986	357.25
384.211	339.25
384.436	366.25
384.662	356.25
384.887	375.25
385.112	360.25
385.337	384.25
385.562	353.25
385.787	378.25
386.013	390.25
386.238	365.25
386.463	383.25
386.688	383.25
386.913	365.25
387.138	360.25
387.363	360.25
387.588	357.25
387.813	379.25
388.038	360.25
388.263	361.25
388.488	374.25
388.713	376.25
388.938	364.25
389.163	386.25
389.387	356.25
389.612	351.25
389.837	353.25
390.062	368.25
390.287	380.25
390.512	358.25
390.736	363.25
390.961	355.25
391.186	380.25
391.411	406.25
391.636	389.25
391.86	372.25
392.085	420.25
392.31	389.25
392.534	393.25
392.759	375.25
392.984	384.25
393.208	390.25
393.433	383.25
393.658	368.25
393.882	383.25
394.107	383.25
394.331	396.25
394.556	397.25
394.78	382.25
395.005	371.25
395.229	390.25
395.454	395.25
395.678	388.25
395.903	397.25
396.127	405.25
396.352	387.25
396.576	398.25
396.801	387.25
397.025	382.25
397.249	395.25
397.474	406.25
397.698	392.25
397.922	413.25
398.147	408.25
398.371	422.25
398.595	406.25
398.82	429.25
399.044	460.25
399.268	483.25
399.492	504.25
399.717	573.25
399.941	565.25
400.165	543.25
400.389	534.25
400.613	483.25
400.837	437.25
401.062	447.25
401.286	440.25
401.51	443.25
401.734	436.25
401.958	428.25
402.182	432.25
402.406	448.25
402.63	468.25
402.854	448.25
403.078	470.25
403.302	472.25
403.526	466.25
403.75	470.25
403.974	469.25
404.198	469.25
404.422	479.25
404.645	468.25
404.869	478.25
405.093	495.25
405.317	508.25
405.541	528.25
405.765	490.25
405.988	476.25
406.212	488.25
406.436	490.25
406.66	495.25
406.883	487.25
407.107	523.25
407.331	525.25
407.555	555.25
407.778	579.25
408.002	533.25
408.226	486.25
408.449	481.25
408.673	487.25
408.896	495.25
409.12	503.25
409.344	488.25
409.567	460.25
409.791	459.25
410.014	458.25
410.238	445.25
410.461	464.25
410.685	464.25
410.908	460.25
411.132	471.25
411.355	478.25
411.578	471.25
411.802	462.25
412.025	461.25
412.249	468.25
412.472	472.25
412.695	486.25
412.919	478.25
413.142	453.25
413.365	449.25
413.589	430.25
413.812	444.25
414.035	423.25
414.258	426.25
414.482	430.25
414.705	441.25
414.928	442.25
415.151	437.25
415.374	427.25
415.597	416.25
415.821	411.25
416.044	434.25
416.267	438.25
416.49	431.25
416.713	423.25
416.936	426.25
417.159	411.25
417.382	423.25
417.605	426.25
417.828	429.25
418.051	415.25
418.274	440.25
418.497	421.25
418.72	440.25
418.943	433.25
419.166	466.25
419.389	480.25
419.611	457.25
419.834	450.25
420.057	451.25
420.28	473.25
420.503	425.25
420.726	423.25
420.948	450.25
421.171	438.25
421.394	469.25
421.617	456.25
421.839	444.25
422.062	456.25
422.285	451.25
422.507	464.25
422.73	522.25
422.953	503.25
423.175	480.25
423.398	459.25
423.621	478.25
423.843	480.25
424.066	447.25
424.288	463.25
424.511	467.25
424.733	496.25
424.956	536.25
425.178	518.25
425.401	511.25
425.623	536.25
425.846	470.25
426.068	450.25
426.291	464.25
426.513	435.25
426.735	447.25
426.958	464.25
427.18	520.25
427.402	591.25
427.625	644.25
427.847	553.25
428.069	485.25
428.292	488.25
428.514	450.25
428.736	425.25
428.958	408.25
429.181	426.25
429.403	415.25
429.625	428.25
429.847	445.25
430.069	468.25
430.292	441.25
430.514	436.25
430.736	410.25
430.958	416.25
431.18	394.25
431.402	389.25
431.624	408.25
431.846	398.25
432.068	390.25
432.29	401.25
432.512	415.25
432.734	437.25
432.956	400.25
433.178	399.25
433.4	406.25
433.622	421.25
433.844	406.25
434.066	413.25
434.287	411.25
434.509	419.25
434.731	446.25
434.953	449.25
435.175	447.25
435.397	451.25
435.618	455.25
435.84	474.25
436.062	506.25
436.284	536.25
436.505	495.25
436.727	438.25
436.949	448.25
437.17	421.25
437.392	388.25
437.614	410.25
437.835	448.25
438.057	487.25
438.278	555.25
438.5	532.25
438.721	566.25
438.943	570.25
439.165	478.25
439.386	462.25
439.608	448.25
439.829	442.25
440.05	461.25
440.272	462.25
440.493	451.25
440.715	427.25
440.936	429.25
441.158	430.25
441.379	447.25
441.6	457.25
441.822	462.25
442.043	467.25
442.264	537.25
442.486	556.25
442.707	482.25
442.928	477.25
443.149	456.25
443.371	466.25
443.592	491.25
443.813	565.25
444.034	597.25
444.255	497.25
444.476	474.25
444.698	483.25
444.919	487.25
445.14	575.25
445.361	522.25
445.582	484.25
445.803	515.25
446.024	557.25
446.245	549.25
446.466	514.25
446.687	453.25
446.908	442.25
447.129	428.25
447.35	428.25
447.571	401.25
447.792	396.25
448.013	406.25
448.234	445.25
448.455	456.25
448.675	501.25
448.896	570.25
449.117	468.25
449.338	488.25
449.559	550.25
449.779	589.25
450	500.25
450.221	426.25
450.442	406.25
450.662	394.25
450.883	401.25
451.104	406.25
451.324	400.25
451.545	436.25
451.766	388.25
451.986	384.25
452.207	366.25
452.428	384.25
452.648	377.25
452.869	374.25
453.089	371.25
453.31	373.25
453.53	376.25
453.751	370.25
453.971	382.25
454.192	387.25
454.412	361.25
454.633	361.25
454.853	369.25
455.073	353.25
455.294	379.25
455.514	424.25
455.734	410.25
455.955	380.25
456.175	360.25
456.395	365.25
456.616	348.25
456.836	359.25
457.056	337.25
457.276	347.25
457.497	350.25
457.717	359.25
457.937	356.25
458.157	348.25
458.377	375.25
458.598	381.25
458.818	404.25
459.038	465.25
459.258	460.25
459.478	410.25
459.698	401.25
459.918	416.25
460.138	410.25
460.358	437.25
460.578	423.25
460.798	444.25
461.018	463.25
461.238	419.25
461.458	418.25
461.678	437.25
461.898	428.25
462.118	430.25
462.338	451.25
462.558	459.25
462.777	489.25
462.997	471.25
463.217	502.25
463.437	507.25
463.657	489.25
463.876	502.25
464.096	486.25
464.316	473.25
464.536	485.25
464.755	467.25
464.975	450.25
465.195	456.25
465.414	531.25
465.634	434.25
465.854	420.25
466.073	405.25
466.293	391.25
466.512	386.25
466.732	418.25
466.951	388.25
467.171	396.25
467.391	382.25
467.61	384.25
467.829	388.25
468.049	383.25
468.268	405.25
468.488	364.25
468.707	376.25
468.927	366.25
469.146	373.25
469.365	386.25
469.585	376.25
469.804	390.25
470.023	428.25
470.243	391.25
470.462	392.25
470.681	404.25
470.901	432.25
471.12	415.25
471.339	392.25
471.558	398.25
471.777	411.25
471.997	388.25
472.216	393.25
472.435	415.25
472.654	389.25
472.873	400.25
473.092	382.25
473.311	373.25
473.53	372.25
473.749	392.25
473.968	438.25
474.187	476.25
474.406	482.25
474.625	403.25
474.844	398.25
475.063	376.25
475.282	365.25
475.501	376.25
475.72	396.25
475.939	399.25
476.158	387.25
476.377	412.25
476.596	388.25
476.814	408.25
477.033	363.25
477.252	420.25
477.471	418.25
477.69	412.25
477.908	427.25
478.127	441.25
478.346	442.25
478.564	435.25
478.783	468.25
479.002	459.25
479.22	455.25
479.439	473.25
479.658	470.25
479.876	472.25
480.095	487.25
480.313	498.25
480.532	498.25
480.751	495.25
480.969	500.25
481.188	526.25
481.406	519.25
481.624	472.25
481.843	454.25
482.061	456.25
482.28	459.25
482.498	436.25
482.717	448.25
482.935	435.25
483.153	408.25
483.372	451.25
483.59	461.25
483.808	445.25
484.027	437.25
484.245	439.25
484.463	461.25
484.681	467.25
484.9	473.25
485.118	457.25
485.336	456.25
485.554	469.25
485.772	452.25
485.99	448.25
486.209	462.25
486.427	470.25
486.645	477.25
486.863	467.25
487.081	482.25
487.299	474.25
487.517	480.25
487.735	478.25
487.953	469.25
488.171	480.25
488.389	472.25
488.607	456.25
488.825	465.25
489.043	465.25
489.261	488.25
489.479	457.25
489.696	488.25
489.914	491.25
490.132	483.25
490.35	490.25
490.568	508.25
490.786	508.25
491.003	518.25
491.221	536.25
491.439	529.25
491.657	535.25
491.874	536.25
492.092	533.25
492.31	534.25
492.527	537.25
492.745	564.25
492.963	572.25
493.18	557.25
493.398	568.25
493.615	558.25
493.833	545.25
494.05	552.25
494.268	570.25
494.485	574.25
494.703	566.25
494.92	563.25
495.138	571.25
495.355	551.25
495.573	568.25
495.79	527.25
496.008	550.25
496.225	550.25
496.442	576.25
496.66	568.25
496.877	558.25
497.094	573.25
497.312	588.25
497.529	586.25
497.746	607.25
497.963	603.25
498.181	627.25
498.398	643.25
498.615	650.25
498.832	662.25
499.049	693.25
499.267	712.25
499.484	784.25
499.701	794.25
499.918	870.25
500.135	890.25
500.352	955.25
500.569	979.25
500.786	996.25
501.003	947.25
501.22	911.25
501.437	850.25
501.654	782.25
501.871	785.25
502.088	730.25
