Data from 1969.PennyLincolnUp.Lamp.En5.5.200Scan.071719.P1._HRD10591_14-54-02-971.txt Node
Date: Thu Jul 18 14:54:02 EDT 2019
User: cochatt
Spectrometer: HR+D1059
Trigger mode: 1
Integration Time (sec): 1.000000E-1
Scans to average: 1
Electric dark correction enabled: true
Nonlinearity correction enabled: false
Boxcar width: 0
XAxis mode: Wavelengths
Number of Pixels in Spectrum: 2048
>>>>>Begin Spectral Data<<<<<
223.165	-15.31
223.4	-15.31
223.635	-15.31
223.869	-5.31
224.104	-11.31
224.338	-9.31
224.573	-7.31
224.808	-20.31
225.042	-3.31
225.277	-6.31
225.511	-1.31
225.746	15.69
225.98	12.69
226.215	-5.31
226.449	7.69
226.683	17.69
226.918	12.69
227.152	18.69
227.387	27.69
227.621	30.69
227.856	46.69
228.09	45.69
228.324	52.69
228.559	40.69
228.793	48.69
229.027	71.69
229.262	73.69
229.496	79.69
229.73	87.69
229.964	124.69
230.199	105.69
230.433	90.69
230.667	93.69
230.901	101.69
231.136	101.69
231.37	105.69
231.604	82.69
231.838	101.69
232.072	96.69
232.306	92.69
232.541	102.69
232.775	100.69
233.009	100.69
233.243	96.69
233.477	102.69
233.711	103.69
233.945	97.69
234.179	100.69
234.413	104.69
234.647	104.69
234.881	95.69
235.115	105.69
235.349	97.69
235.583	126.69
235.817	106.69
236.051	98.69
236.285	106.69
236.519	104.69
236.753	107.69
236.987	126.69
237.221	125.69
237.455	150.69
237.689	138.69
237.922	99.69
238.156	122.69
238.39	112.69
238.624	101.69
238.858	115.69
239.091	106.69
239.325	95.69
239.559	112.69
239.793	124.69
240.027	115.69
240.26	124.69
240.494	125.69
240.728	120.69
240.961	125.69
241.195	120.69
241.429	122.69
241.662	118.69
241.896	102.69
242.13	106.69
242.363	122.69
242.597	136.69
242.83	110.69
243.064	126.69
243.298	118.69
243.531	116.69
243.765	114.69
243.998	130.69
244.232	114.69
244.465	129.69
244.699	120.69
244.932	122.69
245.166	134.69
245.399	130.69
245.633	125.69
245.866	121.69
246.099	125.69
246.333	125.69
246.566	131.69
246.8	121.69
247.033	139.69
247.266	131.69
247.5	134.69
247.733	147.69
247.966	134.69
248.2	142.69
248.433	131.69
248.666	124.69
248.899	146.69
249.133	141.69
249.366	147.69
249.599	165.69
249.832	151.69
250.066	150.69
250.299	143.69
250.532	151.69
250.765	159.69
250.998	164.69
251.231	161.69
251.465	158.69
251.698	144.69
251.931	157.69
252.164	171.69
252.397	141.69
252.63	155.69
252.863	163.69
253.096	154.69
253.329	166.69
253.562	172.69
253.795	162.69
254.028	164.69
254.261	170.69
254.494	169.69
254.727	178.69
254.96	198.69
255.193	178.69
255.426	176.69
255.659	179.69
255.892	177.69
256.124	192.69
256.357	176.69
256.59	168.69
256.823	168.69
257.056	179.69
257.289	144.69
257.521	162.69
257.754	179.69
257.987	169.69
258.22	156.69
258.452	162.69
258.685	165.69
258.918	172.69
259.151	174.69
259.383	161.69
259.616	168.69
259.849	163.69
260.081	189.69
260.314	186.69
260.547	191.69
260.779	177.69
261.012	174.69
261.244	185.69
261.477	168.69
261.71	172.69
261.942	189.69
262.175	190.69
262.407	177.69
262.64	172.69
262.872	169.69
263.105	179.69
263.337	160.69
263.57	183.69
263.802	177.69
264.035	172.69
264.267	186.69
264.499	165.69
264.732	176.69
264.964	183.69
265.197	174.69
265.429	178.69
265.661	173.69
265.894	178.69
266.126	173.69
266.358	180.69
266.591	186.69
266.823	183.69
267.055	188.69
267.287	168.69
267.52	180.69
267.752	184.69
267.984	191.69
268.216	196.69
268.448	167.69
268.681	164.69
268.913	200.69
269.145	202.69
269.377	228.69
269.609	224.69
269.841	206.69
270.073	196.69
270.306	218.69
270.538	230.69
270.77	227.69
271.002	206.69
271.234	236.69
271.466	225.69
271.698	226.69
271.93	241.69
272.162	229.69
272.394	242.69
272.626	224.69
272.858	214.69
273.09	235.69
273.322	217.69
273.553	204.69
273.785	198.69
274.017	209.69
274.249	192.69
274.481	212.69
274.713	214.69
274.945	217.69
275.176	217.69
275.408	205.69
275.64	210.69
275.872	205.69
276.104	207.69
276.335	217.69
276.567	236.69
276.799	226.69
277.031	238.69
277.262	252.69
277.494	240.69
277.726	233.69
277.957	218.69
278.189	236.69
278.421	224.69
278.652	232.69
278.884	234.69
279.115	233.69
279.347	198.69
279.579	213.69
279.81	210.69
280.042	225.69
280.273	226.69
280.505	228.69
280.736	216.69
280.968	208.69
281.199	221.69
281.431	224.69
281.662	214.69
281.894	226.69
282.125	229.69
282.356	218.69
282.588	228.69
282.819	237.69
283.051	229.69
283.282	232.69
283.513	225.69
283.745	232.69
283.976	249.69
284.207	232.69
284.439	222.69
284.67	226.69
284.901	244.69
285.132	230.69
285.364	219.69
285.595	241.69
285.826	238.69
286.057	228.69
286.288	227.69
286.52	233.69
286.751	221.69
286.982	242.69
287.213	248.69
287.444	228.69
287.675	212.69
287.906	240.69
288.138	259.69
288.369	258.69
288.6	228.69
288.831	234.69
289.062	233.69
289.293	244.69
289.524	245.69
289.755	231.69
289.986	228.69
290.217	236.69
290.448	242.69
290.679	252.69
290.91	255.69
291.141	233.69
291.371	244.69
291.602	235.69
291.833	238.69
292.064	260.69
292.295	260.69
292.526	235.69
292.757	237.69
292.987	251.69
293.218	241.69
293.449	254.69
293.68	264.69
293.91	246.69
294.141	230.69
294.372	248.69
294.603	236.69
294.833	232.69
295.064	235.69
295.295	245.69
295.525	264.69
295.756	232.69
295.987	254.69
296.217	272.69
296.448	256.69
296.679	258.69
296.909	262.69
297.14	245.69
297.37	268.69
297.601	270.69
297.831	264.69
298.062	254.69
298.292	263.69
298.523	254.69
298.753	268.69
298.984	264.69
299.214	252.69
299.445	252.69
299.675	250.69
299.905	251.69
300.136	258.69
300.366	256.69
300.597	256.69
300.827	250.69
301.057	278.69
301.288	275.69
301.518	265.69
301.748	293.69
301.979	274.69
302.209	270.69
302.439	279.69
302.669	273.69
302.9	276.69
303.13	258.69
303.36	274.69
303.59	273.69
303.82	271.69
304.051	280.69
304.281	268.69
304.511	265.69
304.741	283.69
304.971	256.69
305.201	252.69
305.431	285.69
305.661	271.69
305.891	272.69
306.121	270.69
306.352	269.69
306.582	278.69
306.812	284.69
307.042	282.69
307.272	263.69
307.502	273.69
307.731	267.69
307.961	268.69
308.191	272.69
308.421	272.69
308.651	282.69
308.881	278.69
309.111	286.69
309.341	278.69
309.571	289.69
309.8	270.69
310.03	299.69
310.26	294.69
310.49	295.69
310.72	291.69
310.949	288.69
311.179	295.69
311.409	304.69
311.639	284.69
311.868	293.69
312.098	289.69
312.328	312.69
312.557	290.69
312.787	309.69
313.017	293.69
313.246	300.69
313.476	290.69
313.706	296.69
313.935	305.69
314.165	302.69
314.394	311.69
314.624	304.69
314.853	308.69
315.083	304.69
315.312	294.69
315.542	312.69
315.771	297.69
316.001	306.69
316.23	291.69
316.46	295.69
316.689	289.69
316.919	296.69
317.148	309.69
317.377	317.69
317.607	303.69
317.836	290.69
318.065	298.69
318.295	301.69
318.524	285.69
318.753	301.69
318.983	309.69
319.212	316.69
319.441	307.69
319.67	308.69
319.9	306.69
320.129	302.69
320.358	293.69
320.587	285.69
320.816	305.69
321.046	305.69
321.275	290.69
321.504	300.69
321.733	320.69
321.962	305.69
322.191	303.69
322.42	303.69
322.649	315.69
322.878	329.69
323.108	356.69
323.337	350.69
323.566	345.69
323.795	355.69
324.024	374.69
324.253	406.69
324.482	509.69
324.71	747.69
324.939	961.69
325.168	818.69
325.397	474.69
325.626	366.69
325.855	338.69
326.084	318.69
326.313	342.69
326.542	340.69
326.77	360.69
326.999	394.69
327.228	498.69
327.457	696.69
327.686	740.69
327.914	508.69
328.143	418.69
328.372	387.69
328.6	370.69
328.829	364.69
329.058	389.69
329.287	378.69
329.515	361.69
329.744	355.69
329.972	365.69
330.201	363.69
330.43	386.69
330.658	378.69
330.887	390.69
331.115	382.69
331.344	370.69
331.572	358.69
331.801	350.69
332.03	363.69
332.258	349.69
332.486	373.69
332.715	346.69
332.943	348.69
333.172	371.69
333.4	390.69
333.629	389.69
333.857	400.69
334.085	402.69
334.314	408.69
334.542	417.69
334.771	385.69
334.999	385.69
335.227	373.69
335.455	373.69
335.684	377.69
335.912	375.69
336.14	385.69
336.369	351.69
336.597	368.69
336.825	362.69
337.053	370.69
337.281	357.69
337.51	356.69
337.738	351.69
337.966	347.69
338.194	341.69
338.422	340.69
338.65	352.69
338.878	358.69
339.106	328.69
339.334	350.69
339.562	322.69
339.79	335.69
340.018	349.69
340.246	326.69
340.474	341.69
340.702	333.69
340.93	329.69
341.158	334.69
341.386	328.69
341.614	325.69
341.842	332.69
342.07	324.69
342.298	327.69
342.526	328.69
342.754	331.69
342.981	328.69
343.209	328.69
343.437	341.69
343.665	362.69
343.893	361.69
344.12	379.69
344.348	384.69
344.576	370.69
344.804	353.69
345.031	332.69
345.259	347.69
345.487	335.69
345.714	310.69
345.942	332.69
346.17	329.69
346.397	325.69
346.625	343.69
346.853	316.69
347.08	334.69
347.308	330.69
347.535	323.69
347.763	313.69
347.99	313.69
348.218	328.69
348.445	318.69
348.673	343.69
348.9	327.69
349.128	315.69
349.355	313.69
349.583	312.69
349.81	299.69
350.037	301.69
350.265	321.69
350.492	320.69
350.72	301.69
350.947	328.69
351.174	326.69
351.402	331.69
351.629	314.69
351.856	308.69
352.083	318.69
352.311	324.69
352.538	316.69
352.765	320.69
352.992	317.69
353.22	316.69
353.447	308.69
353.674	309.69
353.901	308.69
354.128	309.69
354.355	306.69
354.583	323.69
354.81	295.69
355.037	309.69
355.264	311.69
355.491	301.69
355.718	294.69
355.945	318.69
356.172	310.69
356.399	308.69
356.626	317.69
356.853	309.69
357.08	294.69
357.307	325.69
357.534	294.69
357.761	298.69
357.988	302.69
358.215	303.69
358.441	304.69
358.668	302.69
358.895	310.69
359.122	310.69
359.349	319.69
359.576	318.69
359.802	314.69
360.029	322.69
360.256	336.69
360.483	320.69
360.709	324.69
360.936	308.69
361.163	325.69
361.39	305.69
361.616	304.69
361.843	300.69
362.07	316.69
362.296	300.69
362.523	297.69
362.749	293.69
362.976	316.69
363.203	303.69
363.429	285.69
363.656	307.69
363.882	310.69
364.109	308.69
364.335	304.69
364.562	305.69
364.788	302.69
365.015	312.69
365.241	312.69
365.468	324.69
365.694	310.69
365.92	322.69
366.147	281.69
366.373	317.69
366.599	317.69
366.826	291.69
367.052	316.69
367.278	284.69
367.505	300.69
367.731	299.69
367.957	304.69
368.184	310.69
368.41	324.69
368.636	312.69
368.862	308.69
369.089	310.69
369.315	308.69
369.541	312.69
369.767	333.69
369.993	300.69
370.219	327.69
370.445	317.69
370.672	313.69
370.898	321.69
371.124	312.69
371.35	292.69
371.576	322.69
371.802	327.69
372.028	301.69
372.254	326.69
372.48	306.69
372.706	308.69
372.932	310.69
373.158	346.69
373.384	323.69
373.61	312.69
373.835	312.69
374.061	308.69
374.287	318.69
374.513	306.69
374.739	318.69
374.965	324.69
375.191	315.69
375.416	310.69
375.642	339.69
375.868	325.69
376.094	342.69
376.319	297.69
376.545	309.69
376.771	319.69
376.997	299.69
377.222	320.69
377.448	307.69
377.674	321.69
377.899	314.69
378.125	288.69
378.35	310.69
378.576	302.69
378.802	306.69
379.027	311.69
379.253	310.69
379.478	305.69
379.704	306.69
379.929	320.69
380.155	309.69
380.38	309.69
380.606	305.69
380.831	313.69
381.057	326.69
381.282	318.69
381.507	333.69
381.733	317.69
381.958	311.69
382.184	327.69
382.409	308.69
382.634	327.69
382.86	324.69
383.085	311.69
383.31	324.69
383.535	304.69
383.761	320.69
383.986	338.69
384.211	324.69
384.436	347.69
384.662	332.69
384.887	352.69
385.112	355.69
385.337	347.69
385.562	361.69
385.787	346.69
386.013	378.69
386.238	352.69
386.463	350.69
386.688	349.69
386.913	368.69
387.138	362.69
387.363	355.69
387.588	372.69
387.813	356.69
388.038	379.69
388.263	354.69
388.488	334.69
388.713	362.69
388.938	342.69
389.163	362.69
389.387	350.69
389.612	326.69
389.837	332.69
390.062	337.69
390.287	347.69
390.512	350.69
390.736	344.69
390.961	346.69
391.186	342.69
391.411	334.69
391.636	354.69
391.86	380.69
392.085	382.69
392.31	374.69
392.534	350.69
392.759	355.69
392.984	354.69
393.208	360.69
393.433	349.69
393.658	361.69
393.882	359.69
394.107	361.69
394.331	369.69
394.556	360.69
394.78	372.69
395.005	369.69
395.229	348.69
395.454	374.69
395.678	388.69
395.903	378.69
396.127	366.69
396.352	394.69
396.576	384.69
396.801	371.69
397.025	355.69
397.249	363.69
397.474	370.69
397.698	369.69
397.922	379.69
398.147	389.69
398.371	406.69
398.595	392.69
398.82	410.69
399.044	444.69
399.268	448.69
399.492	502.69
399.717	516.69
399.941	532.69
400.165	497.69
400.389	489.69
400.613	467.69
400.837	419.69
401.062	402.69
401.286	416.69
401.51	428.69
401.734	409.69
401.958	404.69
402.182	395.69
402.406	419.69
402.63	412.69
402.854	432.69
403.078	428.69
403.302	438.69
403.526	448.69
403.75	443.69
403.974	453.69
404.198	447.69
404.422	432.69
404.645	456.69
404.869	450.69
405.093	474.69
405.317	460.69
405.541	482.69
405.765	455.69
405.988	452.69
406.212	460.69
406.436	471.69
406.66	464.69
406.883	460.69
407.107	474.69
407.331	503.69
407.555	557.69
407.778	553.69
408.002	506.69
408.226	483.69
408.449	454.69
408.673	458.69
408.896	464.69
409.12	487.69
409.344	470.69
409.567	443.69
409.791	423.69
410.014	426.69
410.238	414.69
410.461	421.69
410.685	440.69
410.908	436.69
411.132	435.69
411.355	445.69
411.578	456.69
411.802	400.69
412.025	418.69
412.249	410.69
412.472	445.69
412.695	438.69
412.919	417.69
413.142	410.69
413.365	400.69
413.589	426.69
413.812	408.69
414.035	384.69
414.258	406.69
414.482	412.69
414.705	402.69
414.928	395.69
415.151	395.69
415.374	397.69
415.597	403.69
415.821	392.69
416.044	387.69
416.267	408.69
416.49	407.69
416.713	417.69
416.936	402.69
417.159	395.69
417.382	402.69
417.605	404.69
417.828	421.69
418.051	407.69
418.274	402.69
418.497	396.69
418.72	418.69
418.943	414.69
419.166	408.69
419.389	432.69
419.611	434.69
419.834	431.69
420.057	433.69
420.28	433.69
420.503	420.69
420.726	406.69
420.948	428.69
421.171	446.69
421.394	448.69
421.617	420.69
421.839	416.69
422.062	429.69
422.285	429.69
422.507	462.69
422.73	483.69
422.953	462.69
423.175	432.69
423.398	429.69
423.621	433.69
423.843	436.69
424.066	423.69
424.288	446.69
424.511	452.69
424.733	484.69
424.956	518.69
425.178	489.69
425.401	485.69
425.623	467.69
425.846	425.69
426.068	410.69
426.291	413.69
426.513	404.69
426.735	439.69
426.958	433.69
427.18	482.69
427.402	526.69
427.625	557.69
427.847	491.69
428.069	448.69
428.292	416.69
428.514	389.69
428.736	398.69
428.958	372.69
429.181	384.69
429.403	396.69
429.625	409.69
429.847	404.69
430.069	444.69
430.292	412.69
430.514	392.69
430.736	380.69
430.958	386.69
431.18	381.69
431.402	384.69
431.624	380.69
431.846	378.69
432.068	378.69
432.29	388.69
432.512	367.69
432.734	380.69
432.956	373.69
433.178	368.69
433.4	380.69
433.622	374.69
433.844	374.69
434.066	381.69
434.287	374.69
434.509	401.69
434.731	387.69
434.953	428.69
435.175	416.69
435.397	423.69
435.618	419.69
435.84	423.69
436.062	455.69
436.284	491.69
436.505	427.69
436.727	421.69
436.949	381.69
437.17	378.69
437.392	384.69
437.614	390.69
437.835	391.69
438.057	432.69
438.278	479.69
438.5	484.69
438.721	537.69
438.943	511.69
439.165	436.69
439.386	410.69
439.608	407.69
439.829	412.69
440.05	416.69
440.272	433.69
440.493	420.69
440.715	404.69
440.936	395.69
441.158	384.69
441.379	402.69
441.6	416.69
441.822	429.69
442.043	440.69
442.264	472.69
442.486	520.69
442.707	454.69
442.928	444.69
443.149	436.69
443.371	440.69
443.592	453.69
443.813	515.69
444.034	517.69
444.255	474.69
444.476	449.69
444.698	445.69
444.919	461.69
445.14	577.69
445.361	477.69
445.582	423.69
445.803	467.69
446.024	482.69
446.245	512.69
446.466	464.69
446.687	412.69
446.908	401.69
447.129	398.69
447.35	393.69
447.571	396.69
447.792	368.69
448.013	372.69
448.234	384.69
448.455	398.69
448.675	472.69
448.896	517.69
449.117	470.69
449.338	460.69
449.559	514.69
449.779	534.69
450	439.69
450.221	383.69
450.442	390.69
450.662	363.69
450.883	372.69
451.104	376.69
451.324	359.69
451.545	369.69
451.766	357.69
451.986	355.69
452.207	358.69
452.428	349.69
452.648	362.69
452.869	342.69
453.089	375.69
453.31	344.69
453.53	339.69
453.751	343.69
453.971	341.69
454.192	345.69
454.412	331.69
454.633	321.69
454.853	352.69
455.073	339.69
455.294	359.69
455.514	399.69
455.734	370.69
455.955	348.69
456.175	344.69
456.395	342.69
456.616	339.69
456.836	319.69
457.056	335.69
457.276	333.69
457.497	330.69
457.717	339.69
457.937	336.69
458.157	346.69
458.377	342.69
458.598	344.69
458.818	370.69
459.038	416.69
459.258	413.69
459.478	373.69
459.698	368.69
459.918	395.69
460.138	391.69
460.358	397.69
460.578	409.69
460.798	416.69
461.018	408.69
461.238	379.69
461.458	400.69
461.678	412.69
461.898	388.69
462.118	397.69
462.338	440.69
462.558	442.69
462.777	453.69
462.997	466.69
463.217	476.69
463.437	477.69
463.657	463.69
463.876	441.69
464.096	447.69
464.316	453.69
464.536	428.69
464.755	432.69
464.975	441.69
465.195	449.69
465.414	452.69
465.634	429.69
465.854	389.69
466.073	392.69
466.293	382.69
466.512	390.69
466.732	388.69
466.951	355.69
467.171	357.69
467.391	359.69
467.61	374.69
467.829	373.69
468.049	373.69
468.268	368.69
468.488	371.69
468.707	348.69
468.927	361.69
469.146	356.69
469.365	375.69
469.585	349.69
469.804	364.69
470.023	374.69
470.243	373.69
470.462	384.69
470.681	378.69
470.901	377.69
471.12	370.69
471.339	374.69
471.558	362.69
471.777	368.69
471.997	358.69
472.216	372.69
472.435	374.69
472.654	379.69
472.873	357.69
473.092	358.69
473.311	341.69
473.53	351.69
473.749	366.69
473.968	376.69
474.187	437.69
474.406	430.69
474.625	380.69
474.844	361.69
475.063	353.69
475.282	355.69
475.501	361.69
475.72	380.69
475.939	365.69
476.158	355.69
476.377	355.69
476.596	383.69
476.814	399.69
477.033	379.69
477.252	395.69
477.471	387.69
477.69	398.69
477.908	408.69
478.127	417.69
478.346	390.69
478.564	415.69
478.783	412.69
479.002	428.69
479.22	424.69
479.439	426.69
479.658	419.69
479.876	438.69
480.095	438.69
480.313	481.69
480.532	470.69
480.751	435.69
480.969	454.69
481.188	450.69
481.406	488.69
481.624	447.69
481.843	428.69
482.061	427.69
482.28	420.69
482.498	399.69
482.717	404.69
482.935	397.69
483.153	419.69
483.372	414.69
483.59	427.69
483.808	426.69
484.027	414.69
484.245	408.69
484.463	410.69
484.681	413.69
484.9	393.69
485.118	422.69
485.336	420.69
485.554	446.69
485.772	426.69
485.99	432.69
486.209	415.69
486.427	442.69
486.645	440.69
486.863	447.69
487.081	443.69
487.299	437.69
487.517	421.69
487.735	455.69
487.953	440.69
488.171	449.69
488.389	438.69
488.607	450.69
488.825	449.69
489.043	424.69
489.261	446.69
489.479	436.69
489.696	445.69
489.914	462.69
490.132	444.69
490.35	448.69
490.568	465.69
490.786	475.69
491.003	455.69
491.221	465.69
491.439	478.69
491.657	505.69
491.874	510.69
492.092	516.69
492.31	515.69
492.527	509.69
492.745	493.69
492.963	530.69
493.18	514.69
493.398	497.69
493.615	503.69
493.833	507.69
494.05	500.69
494.268	516.69
494.485	512.69
494.703	496.69
494.92	518.69
495.138	508.69
495.355	513.69
495.573	507.69
495.79	532.69
496.008	516.69
496.225	528.69
496.442	522.69
496.66	511.69
496.877	513.69
497.094	528.69
497.312	518.69
497.529	538.69
497.746	553.69
497.963	565.69
498.181	586.69
498.398	603.69
498.615	605.69
498.832	621.69
499.049	668.69
499.267	680.69
499.484	708.69
499.701	739.69
499.918	787.69
500.135	831.69
500.352	908.69
500.569	945.69
500.786	912.69
501.003	917.69
501.22	847.69
501.437	790.69
501.654	744.69
501.871	698.69
502.088	675.69
502.305	644.69
