Data from 1969.PennyLincolnUp.Lamp.En5.5.200Scan.071719.P1._HRD10591_14-56-49-973.txt Node
Date: Thu Jul 18 14:56:49 EDT 2019
User: cochatt
Spectrometer: HR+D1059
Trigger mode: 1
Integration Time (sec): 1.000000E-1
Scans to average: 1
Electric dark correction enabled: true
Nonlinearity correction enabled: false
Boxcar width: 0
XAxis mode: Wavelengths
Number of Pixels in Spectrum: 2048
>>>>>Begin Spectral Data<<<<<
223.165	-13.69
223.4	-13.69
223.635	-13.69
223.869	-8.69
224.104	-17.69
224.338	-3.69
224.573	-4.69
224.808	-13.69
225.042	3.31
225.277	-9.69
225.511	-20.69
225.746	-1.69
225.98	12.31
226.215	-5.69
226.449	15.31
226.683	22.31
226.918	13.31
227.152	33.31
227.387	50.31
227.621	38.31
227.856	41.31
228.09	53.31
228.324	53.31
228.559	65.31
228.793	65.31
229.027	80.31
229.262	95.31
229.496	101.31
229.73	103.31
229.964	119.31
230.199	111.31
230.433	102.31
230.667	119.31
230.901	107.31
231.136	104.31
231.37	111.31
231.604	94.31
231.838	109.31
232.072	113.31
232.306	111.31
232.541	104.31
232.775	117.31
233.009	112.31
233.243	120.31
233.477	110.31
233.711	116.31
233.945	105.31
234.179	108.31
234.413	112.31
234.647	116.31
234.881	116.31
235.115	90.31
235.349	109.31
235.583	125.31
235.817	128.31
236.051	128.31
236.285	113.31
236.519	120.31
236.753	120.31
236.987	125.31
237.221	160.31
237.455	182.31
237.689	157.31
237.922	111.31
238.156	107.31
238.39	128.31
238.624	128.31
238.858	122.31
239.091	120.31
239.325	119.31
239.559	112.31
239.793	118.31
240.027	128.31
240.26	135.31
240.494	145.31
240.728	130.31
240.961	125.31
241.195	134.31
241.429	126.31
241.662	129.31
241.896	128.31
242.13	123.31
242.363	141.31
242.597	124.31
242.83	132.31
243.064	149.31
243.298	134.31
243.531	127.31
243.765	130.31
243.998	132.31
244.232	116.31
244.465	132.31
244.699	138.31
244.932	141.31
245.166	131.31
245.399	144.31
245.633	130.31
245.866	127.31
246.099	141.31
246.333	129.31
246.566	141.31
246.8	158.31
247.033	150.31
247.266	170.31
247.5	145.31
247.733	162.31
247.966	153.31
248.2	145.31
248.433	145.31
248.666	158.31
248.899	172.31
249.133	201.31
249.366	175.31
249.599	161.31
249.832	174.31
250.066	160.31
250.299	159.31
250.532	166.31
250.765	171.31
250.998	188.31
251.231	202.31
251.465	196.31
251.698	181.31
251.931	172.31
252.164	166.31
252.397	161.31
252.63	174.31
252.863	179.31
253.096	175.31
253.329	200.31
253.562	202.31
253.795	183.31
254.028	179.31
254.261	187.31
254.494	194.31
254.727	228.31
254.96	244.31
255.193	249.31
255.426	200.31
255.659	208.31
255.892	197.31
256.124	204.31
256.357	217.31
256.59	216.31
256.823	189.31
257.056	165.31
257.289	181.31
257.521	180.31
257.754	188.31
257.987	201.31
258.22	196.31
258.452	184.31
258.685	182.31
258.918	183.31
259.151	194.31
259.383	194.31
259.616	194.31
259.849	191.31
260.081	208.31
260.314	213.31
260.547	209.31
260.779	217.31
261.012	204.31
261.244	206.31
261.477	205.31
261.71	197.31
261.942	194.31
262.175	191.31
262.407	200.31
262.64	190.31
262.872	196.31
263.105	198.31
263.337	202.31
263.57	192.31
263.802	198.31
264.035	192.31
264.267	195.31
264.499	184.31
264.732	184.31
264.964	210.31
265.197	180.31
265.429	190.31
265.661	190.31
265.894	192.31
266.126	192.31
266.358	210.31
266.591	207.31
266.823	207.31
267.055	196.31
267.287	197.31
267.52	196.31
267.752	208.31
267.984	209.31
268.216	204.31
268.448	204.31
268.681	221.31
268.913	236.31
269.145	233.31
269.377	235.31
269.609	249.31
269.841	231.31
270.073	227.31
270.306	237.31
270.538	269.31
270.77	264.31
271.002	264.31
271.234	250.31
271.466	247.31
271.698	259.31
271.93	268.31
272.162	266.31
272.394	267.31
272.626	255.31
272.858	254.31
273.09	242.31
273.322	227.31
273.553	225.31
273.785	217.31
274.017	215.31
274.249	235.31
274.481	228.31
274.713	234.31
274.945	239.31
275.176	244.31
275.408	236.31
275.64	236.31
275.872	244.31
276.104	232.31
276.335	233.31
276.567	262.31
276.799	259.31
277.031	269.31
277.262	292.31
277.494	308.31
277.726	260.31
277.957	254.31
278.189	226.31
278.421	236.31
278.652	250.31
278.884	253.31
279.115	224.31
279.347	241.31
279.579	248.31
279.81	245.31
280.042	240.31
280.273	230.31
280.505	258.31
280.736	253.31
280.968	242.31
281.199	249.31
281.431	248.31
281.662	248.31
281.894	229.31
282.125	245.31
282.356	245.31
282.588	263.31
282.819	263.31
283.051	261.31
283.282	259.31
283.513	267.31
283.745	256.31
283.976	266.31
284.207	274.31
284.439	264.31
284.67	260.31
284.901	261.31
285.132	253.31
285.364	239.31
285.595	269.31
285.826	282.31
286.057	260.31
286.288	241.31
286.52	267.31
286.751	254.31
286.982	265.31
287.213	274.31
287.444	267.31
287.675	285.31
287.906	286.31
288.138	286.31
288.369	278.31
288.6	293.31
288.831	273.31
289.062	262.31
289.293	277.31
289.524	292.31
289.755	262.31
289.986	263.31
290.217	283.31
290.448	262.31
290.679	280.31
290.91	266.31
291.141	261.31
291.371	265.31
291.602	250.31
291.833	274.31
292.064	286.31
292.295	272.31
292.526	274.31
292.757	265.31
292.987	279.31
293.218	279.31
293.449	287.31
293.68	295.31
293.91	268.31
294.141	279.31
294.372	270.31
294.603	265.31
294.833	264.31
295.064	275.31
295.295	276.31
295.525	273.31
295.756	284.31
295.987	262.31
296.217	305.31
296.448	278.31
296.679	265.31
296.909	281.31
297.14	284.31
297.37	291.31
297.601	274.31
297.831	287.31
298.062	287.31
298.292	290.31
298.523	295.31
298.753	278.31
298.984	280.31
299.214	309.31
299.445	290.31
299.675	296.31
299.905	285.31
300.136	287.31
300.366	294.31
300.597	296.31
300.827	276.31
301.057	289.31
301.288	293.31
301.518	316.31
301.748	310.31
301.979	304.31
302.209	320.31
302.439	296.31
302.669	317.31
302.9	296.31
303.13	286.31
303.36	302.31
303.59	296.31
303.82	300.31
304.051	304.31
304.281	297.31
304.511	298.31
304.741	289.31
304.971	298.31
305.201	287.31
305.431	276.31
305.661	296.31
305.891	300.31
306.121	314.31
306.352	322.31
306.582	316.31
306.812	308.31
307.042	300.31
307.272	304.31
307.502	313.31
307.731	318.31
307.961	327.31
308.191	315.31
308.421	298.31
308.651	281.31
308.881	293.31
309.111	323.31
309.341	301.31
309.571	313.31
309.8	308.31
310.03	308.31
310.26	336.31
310.49	323.31
310.72	342.31
310.949	347.31
311.179	337.31
311.409	325.31
311.639	348.31
311.868	338.31
312.098	321.31
312.328	350.31
312.557	356.31
312.787	353.31
313.017	374.31
313.246	353.31
313.476	339.31
313.706	342.31
313.935	345.31
314.165	336.31
314.394	367.31
314.624	374.31
314.853	346.31
315.083	370.31
315.312	343.31
315.542	334.31
315.771	319.31
316.001	330.31
316.23	337.31
316.46	317.31
316.689	354.31
316.919	347.31
317.148	353.31
317.377	353.31
317.607	333.31
317.836	334.31
318.065	342.31
318.295	337.31
318.524	327.31
318.753	327.31
318.983	339.31
319.212	322.31
319.441	338.31
319.67	350.31
319.9	330.31
320.129	345.31
320.358	338.31
320.587	324.31
320.816	326.31
321.046	355.31
321.275	349.31
321.504	356.31
321.733	349.31
321.962	350.31
322.191	349.31
322.42	352.31
322.649	378.31
322.878	382.31
323.108	373.31
323.337	379.31
323.566	399.31
323.795	408.31
324.024	450.31
324.253	500.31
324.482	703.31
324.71	986.31
324.939	1310.31
325.168	1083.31
325.397	598.31
325.626	482.31
325.855	405.31
326.084	369.31
326.313	414.31
326.542	414.31
326.77	429.31
326.999	485.31
327.228	631.31
327.457	893.31
327.686	1005.31
327.914	694.31
328.143	532.31
328.372	474.31
328.6	464.31
328.829	455.31
329.058	443.31
329.287	442.31
329.515	422.31
329.744	407.31
329.972	408.31
330.201	421.31
330.43	464.31
330.658	478.31
330.887	490.31
331.115	479.31
331.344	430.31
331.572	409.31
331.801	444.31
332.03	420.31
332.258	401.31
332.486	392.31
332.715	422.31
332.943	410.31
333.172	425.31
333.4	432.31
333.629	438.31
333.857	429.31
334.085	455.31
334.314	493.31
334.542	496.31
334.771	513.31
334.999	445.31
335.227	426.31
335.455	422.31
335.684	402.31
335.912	403.31
336.14	392.31
336.369	422.31
336.597	429.31
336.825	405.31
337.053	401.31
337.281	401.31
337.51	402.31
337.738	412.31
337.966	400.31
338.194	391.31
338.422	395.31
338.65	388.31
338.878	380.31
339.106	394.31
339.334	390.31
339.562	385.31
339.79	366.31
340.018	372.31
340.246	362.31
340.474	384.31
340.702	365.31
340.93	372.31
341.158	366.31
341.386	366.31
341.614	388.31
341.842	377.31
342.07	366.31
342.298	378.31
342.526	376.31
342.754	357.31
342.981	384.31
343.209	348.31
343.437	380.31
343.665	376.31
343.893	402.31
344.12	406.31
344.348	386.31
344.576	381.31
344.804	404.31
345.031	378.31
345.259	381.31
345.487	367.31
345.714	382.31
345.942	363.31
346.17	350.31
346.397	372.31
346.625	364.31
346.853	368.31
347.08	349.31
347.308	350.31
347.535	360.31
347.763	393.31
347.99	369.31
348.218	365.31
348.445	369.31
348.673	367.31
348.9	367.31
349.128	366.31
349.355	352.31
349.583	359.31
349.81	353.31
350.037	333.31
350.265	350.31
350.492	348.31
350.72	344.31
350.947	340.31
351.174	341.31
351.402	357.31
351.629	368.31
351.856	372.31
352.083	348.31
352.311	357.31
352.538	370.31
352.765	350.31
352.992	343.31
353.22	360.31
353.447	325.31
353.674	368.31
353.901	345.31
354.128	343.31
354.355	344.31
354.583	335.31
354.81	336.31
355.037	326.31
355.264	326.31
355.491	331.31
355.718	338.31
355.945	331.31
356.172	330.31
356.399	320.31
356.626	352.31
356.853	348.31
357.08	319.31
357.307	336.31
357.534	345.31
357.761	314.31
357.988	349.31
358.215	323.31
358.441	333.31
358.668	337.31
358.895	343.31
359.122	345.31
359.349	374.31
359.576	367.31
359.802	355.31
360.029	381.31
360.256	387.31
360.483	392.31
360.709	352.31
360.936	338.31
361.163	366.31
361.39	359.31
361.616	353.31
361.843	348.31
362.07	353.31
362.296	354.31
362.523	355.31
362.749	368.31
362.976	347.31
363.203	345.31
363.429	337.31
363.656	327.31
363.882	349.31
364.109	329.31
364.335	360.31
364.562	343.31
364.788	334.31
365.015	346.31
365.241	329.31
365.468	344.31
365.694	353.31
365.92	355.31
366.147	345.31
366.373	307.31
366.599	341.31
366.826	332.31
367.052	337.31
367.278	318.31
367.505	342.31
367.731	341.31
367.957	330.31
368.184	332.31
368.41	334.31
368.636	353.31
368.862	355.31
369.089	348.31
369.315	360.31
369.541	349.31
369.767	353.31
369.993	338.31
370.219	351.31
370.445	354.31
370.672	344.31
370.898	330.31
371.124	338.31
371.35	334.31
371.576	342.31
371.802	365.31
372.028	337.31
372.254	340.31
372.48	353.31
372.706	354.31
372.932	357.31
373.158	365.31
373.384	347.31
373.61	346.31
373.835	347.31
374.061	374.31
374.287	336.31
374.513	354.31
374.739	380.31
374.965	338.31
375.191	369.31
375.416	351.31
375.642	361.31
375.868	355.31
376.094	334.31
376.319	365.31
376.545	330.31
376.771	330.31
376.997	343.31
377.222	357.31
377.448	357.31
377.674	331.31
377.899	341.31
378.125	350.31
378.35	338.31
378.576	346.31
378.802	337.31
379.027	356.31
379.253	340.31
379.478	330.31
379.704	355.31
379.929	367.31
380.155	363.31
380.38	356.31
380.606	357.31
380.831	365.31
381.057	350.31
381.282	364.31
381.507	335.31
381.733	350.31
381.958	335.31
382.184	338.31
382.409	349.31
382.634	358.31
382.86	361.31
383.085	344.31
383.31	356.31
383.535	365.31
383.761	371.31
383.986	374.31
384.211	381.31
384.436	377.31
384.662	352.31
384.887	372.31
385.112	385.31
385.337	376.31
385.562	365.31
385.787	374.31
386.013	380.31
386.238	389.31
386.463	400.31
386.688	391.31
386.913	380.31
387.138	384.31
387.363	390.31
387.588	382.31
387.813	382.31
388.038	363.31
388.263	380.31
388.488	388.31
388.713	384.31
388.938	370.31
389.163	368.31
389.387	389.31
389.612	374.31
389.837	384.31
390.062	368.31
390.287	398.31
390.512	389.31
390.736	386.31
390.961	402.31
391.186	391.31
391.411	408.31
391.636	393.31
391.86	418.31
392.085	411.31
392.31	396.31
392.534	393.31
392.759	405.31
392.984	381.31
393.208	392.31
393.433	396.31
393.658	403.31
393.882	391.31
394.107	394.31
394.331	392.31
394.556	413.31
394.78	410.31
395.005	398.31
395.229	397.31
395.454	415.31
395.678	424.31
395.903	415.31
396.127	394.31
396.352	411.31
396.576	414.31
396.801	400.31
397.025	410.31
397.249	409.31
397.474	421.31
397.698	405.31
397.922	417.31
398.147	423.31
398.371	428.31
398.595	459.31
398.82	454.31
399.044	470.31
399.268	508.31
399.492	516.31
399.717	579.31
399.941	590.31
400.165	552.31
400.389	535.31
400.613	504.31
400.837	474.31
401.062	456.31
401.286	470.31
401.51	446.31
401.734	463.31
401.958	451.31
402.182	465.31
402.406	463.31
402.63	456.31
402.854	457.31
403.078	479.31
403.302	476.31
403.526	495.31
403.75	480.31
403.974	480.31
404.198	501.31
404.422	498.31
404.645	512.31
404.869	487.31
405.093	495.31
405.317	510.31
405.541	518.31
405.765	512.31
405.988	503.31
406.212	500.31
406.436	510.31
406.66	521.31
406.883	506.31
407.107	523.31
407.331	538.31
407.555	597.31
407.778	576.31
408.002	562.31
408.226	534.31
408.449	506.31
408.673	511.31
408.896	520.31
409.12	548.31
409.344	504.31
409.567	466.31
409.791	468.31
410.014	472.31
410.238	472.31
410.461	456.31
410.685	468.31
410.908	453.31
411.132	496.31
411.355	539.31
411.578	472.31
411.802	461.31
412.025	466.31
412.249	478.31
412.472	501.31
412.695	505.31
412.919	490.31
413.142	466.31
413.365	440.31
413.589	462.31
413.812	452.31
414.035	440.31
414.258	459.31
414.482	442.31
414.705	442.31
414.928	442.31
415.151	428.31
415.374	431.31
415.597	439.31
415.821	446.31
416.044	440.31
416.267	425.31
416.49	416.31
416.713	432.31
416.936	424.31
417.159	427.31
417.382	458.31
417.605	457.31
417.828	453.31
418.051	454.31
418.274	452.31
418.497	456.31
418.72	442.31
418.943	451.31
419.166	452.31
419.389	496.31
419.611	478.31
419.834	482.31
420.057	470.31
420.28	479.31
420.503	459.31
420.726	439.31
420.948	476.31
421.171	479.31
421.394	487.31
421.617	463.31
421.839	453.31
422.062	451.31
422.285	453.31
422.507	525.31
422.73	534.31
422.953	537.31
423.175	492.31
423.398	464.31
423.621	477.31
423.843	478.31
424.066	496.31
424.288	478.31
424.511	501.31
424.733	533.31
424.956	544.31
425.178	539.31
425.401	548.31
425.623	583.31
425.846	478.31
426.068	477.31
426.291	485.31
426.513	443.31
426.735	472.31
426.958	502.31
427.18	525.31
427.402	622.31
427.625	672.31
427.847	610.31
428.069	514.31
428.292	466.31
428.514	449.31
428.736	426.31
428.958	428.31
429.181	417.31
429.403	407.31
429.625	423.31
429.847	453.31
430.069	490.31
430.292	483.31
430.514	427.31
430.736	412.31
430.958	423.31
431.18	420.31
431.402	430.31
431.624	413.31
431.846	393.31
432.068	406.31
432.29	412.31
432.512	421.31
432.734	420.31
432.956	403.31
433.178	426.31
433.4	425.31
433.622	410.31
433.844	437.31
434.066	411.31
434.287	405.31
434.509	432.31
434.731	420.31
434.953	445.31
435.175	456.31
435.397	468.31
435.618	463.31
435.84	472.31
436.062	553.31
436.284	586.31
436.505	486.31
436.727	461.31
436.949	430.31
437.17	436.31
437.392	425.31
437.614	438.31
437.835	458.31
438.057	496.31
438.278	564.31
438.5	563.31
438.721	607.31
438.943	566.31
439.165	476.31
439.386	458.31
439.608	463.31
439.829	448.31
440.05	476.31
440.272	521.31
440.493	484.31
440.715	462.31
440.936	446.31
441.158	455.31
441.379	447.31
441.6	457.31
441.822	478.31
442.043	480.31
442.264	547.31
442.486	581.31
442.707	494.31
442.928	484.31
443.149	503.31
443.371	498.31
443.592	546.31
443.813	586.31
444.034	612.31
444.255	543.31
444.476	523.31
444.698	507.31
444.919	508.31
445.14	602.31
445.361	524.31
445.582	534.31
445.803	545.31
446.024	608.31
446.245	585.31
446.466	538.31
446.687	482.31
446.908	466.31
447.129	425.31
447.35	413.31
447.571	438.31
447.792	429.31
448.013	403.31
448.234	448.31
448.455	461.31
448.675	554.31
448.896	590.31
449.117	504.31
449.338	503.31
449.559	570.31
449.779	617.31
450	484.31
450.221	422.31
450.442	421.31
450.662	406.31
450.883	435.31
451.104	416.31
451.324	417.31
451.545	417.31
451.766	401.31
451.986	378.31
452.207	401.31
452.428	384.31
452.648	388.31
452.869	380.31
453.089	401.31
453.31	402.31
453.53	386.31
453.751	393.31
453.971	394.31
454.192	419.31
454.412	380.31
454.633	398.31
454.853	362.31
455.073	398.31
455.294	406.31
455.514	449.31
455.734	426.31
455.955	377.31
456.175	372.31
456.395	354.31
456.616	371.31
456.836	350.31
457.056	362.31
457.276	358.31
457.497	367.31
457.717	349.31
457.937	383.31
458.157	386.31
458.377	388.31
458.598	400.31
458.818	448.31
459.038	491.31
459.258	508.31
459.478	441.31
459.698	406.31
459.918	427.31
460.138	431.31
460.358	442.31
460.578	452.31
460.798	456.31
461.018	459.31
461.238	432.31
461.458	427.31
461.678	440.31
461.898	472.31
462.118	448.31
462.338	454.31
462.558	476.31
462.777	477.31
462.997	478.31
463.217	536.31
463.437	520.31
463.657	512.31
463.876	497.31
464.096	478.31
464.316	478.31
464.536	504.31
464.755	512.31
464.975	474.31
465.195	505.31
465.414	520.31
465.634	468.31
465.854	437.31
466.073	407.31
466.293	426.31
466.512	423.31
466.732	397.31
466.951	393.31
467.171	420.31
467.391	414.31
467.61	408.31
467.829	416.31
468.049	414.31
468.268	413.31
468.488	393.31
468.707	388.31
468.927	390.31
469.146	391.31
469.365	408.31
469.585	405.31
469.804	397.31
470.023	400.31
470.243	416.31
470.462	429.31
470.681	431.31
470.901	425.31
471.12	402.31
471.339	423.31
471.558	411.31
471.777	422.31
471.997	396.31
472.216	402.31
472.435	413.31
472.654	424.31
472.873	406.31
473.092	401.31
473.311	403.31
473.53	407.31
473.749	409.31
473.968	417.31
474.187	517.31
474.406	473.31
474.625	436.31
474.844	387.31
475.063	419.31
475.282	400.31
475.501	408.31
475.72	413.31
475.939	412.31
476.158	407.31
476.377	411.31
476.596	398.31
476.814	418.31
477.033	421.31
477.252	401.31
477.471	426.31
477.69	439.31
477.908	411.31
478.127	448.31
478.346	436.31
478.564	433.31
478.783	438.31
479.002	450.31
479.22	441.31
479.439	476.31
479.658	497.31
479.876	479.31
480.095	505.31
480.313	518.31
480.532	511.31
480.751	492.31
480.969	504.31
481.188	544.31
481.406	557.31
481.624	513.31
481.843	481.31
482.061	468.31
482.28	468.31
482.498	457.31
482.717	455.31
482.935	465.31
483.153	443.31
483.372	458.31
483.59	442.31
483.808	461.31
484.027	449.31
484.245	461.31
484.463	465.31
484.681	490.31
484.9	473.31
485.118	487.31
485.336	461.31
485.554	468.31
485.772	470.31
485.99	490.31
486.209	482.31
486.427	474.31
486.645	473.31
486.863	497.31
487.081	518.31
487.299	500.31
487.517	483.31
487.735	489.31
487.953	510.31
488.171	516.31
488.389	484.31
488.607	491.31
488.825	479.31
489.043	474.31
489.261	499.31
489.479	507.31
489.696	512.31
489.914	496.31
490.132	503.31
490.35	514.31
490.568	527.31
490.786	525.31
491.003	531.31
491.221	533.31
491.439	550.31
491.657	585.31
491.874	589.31
492.092	573.31
492.31	602.31
492.527	580.31
492.745	578.31
492.963	596.31
493.18	600.31
493.398	592.31
493.615	580.31
493.833	592.31
494.05	574.31
494.268	568.31
494.485	570.31
494.703	571.31
494.92	566.31
495.138	572.31
495.355	593.31
495.573	572.31
495.79	602.31
496.008	616.31
496.225	602.31
496.442	593.31
496.66	590.31
496.877	588.31
497.094	587.31
497.312	578.31
497.529	585.31
497.746	615.31
497.963	622.31
498.181	644.31
498.398	652.31
498.615	658.31
498.832	692.31
499.049	717.31
499.267	730.31
499.484	784.31
499.701	806.31
499.918	875.31
500.135	916.31
500.352	1009.31
500.569	1028.31
500.786	1030.31
501.003	995.31
501.22	929.31
501.437	881.31
501.654	840.31
501.871	828.31
