Data from 1969.PennyLincolnUp.Lamp.En5.5.200Scan.071719.P1._HRD10591_14-56-54-972.txt Node
Date: Thu Jul 18 14:56:54 EDT 2019
User: cochatt
Spectrometer: HR+D1059
Trigger mode: 1
Integration Time (sec): 1.000000E-1
Scans to average: 1
Electric dark correction enabled: true
Nonlinearity correction enabled: false
Boxcar width: 0
XAxis mode: Wavelengths
Number of Pixels in Spectrum: 2048
>>>>>Begin Spectral Data<<<<<
223.165	-20.75
223.4	-20.75
223.635	-20.75
223.869	-30.75
224.104	-11.75
224.338	-16.75
224.573	-15.75
224.808	-9.75
225.042	-1.75
225.277	-0.75
225.511	6.25
225.746	2.25
225.98	-2.75
226.215	13.25
226.449	22.25
226.683	28.25
226.918	9.25
227.152	29.25
227.387	46.25
227.621	46.25
227.856	40.25
228.09	48.25
228.324	45.25
228.559	38.25
228.793	52.25
229.027	94.25
229.262	96.25
229.496	106.25
229.73	104.25
229.964	119.25
230.199	109.25
230.433	94.25
230.667	104.25
230.901	85.25
231.136	92.25
231.37	105.25
231.604	101.25
231.838	100.25
232.072	96.25
232.306	97.25
232.541	91.25
232.775	103.25
233.009	104.25
233.243	102.25
233.477	112.25
233.711	102.25
233.945	94.25
234.179	118.25
234.413	107.25
234.647	106.25
234.881	103.25
235.115	104.25
235.349	121.25
235.583	111.25
235.817	101.25
236.051	99.25
236.285	98.25
236.519	108.25
236.753	117.25
236.987	122.25
237.221	141.25
237.455	161.25
237.689	134.25
237.922	107.25
238.156	108.25
238.39	110.25
238.624	115.25
238.858	122.25
239.091	104.25
239.325	114.25
239.559	122.25
239.793	118.25
240.027	117.25
240.26	126.25
240.494	141.25
240.728	133.25
240.961	120.25
241.195	131.25
241.429	118.25
241.662	120.25
241.896	112.25
242.13	122.25
242.363	106.25
242.597	131.25
242.83	123.25
243.064	109.25
243.298	116.25
243.531	111.25
243.765	128.25
243.998	113.25
244.232	117.25
244.465	131.25
244.699	132.25
244.932	121.25
245.166	136.25
245.399	138.25
245.633	121.25
245.866	117.25
246.099	126.25
246.333	131.25
246.566	128.25
246.8	129.25
247.033	146.25
247.266	146.25
247.5	161.25
247.733	145.25
247.966	141.25
248.2	142.25
248.433	152.25
248.666	152.25
248.899	142.25
249.133	161.25
249.366	170.25
249.599	173.25
249.832	150.25
250.066	152.25
250.299	164.25
250.532	168.25
250.765	180.25
250.998	182.25
251.231	182.25
251.465	166.25
251.698	157.25
251.931	176.25
252.164	171.25
252.397	174.25
252.63	154.25
252.863	176.25
253.096	172.25
253.329	192.25
253.562	168.25
253.795	184.25
254.028	193.25
254.261	189.25
254.494	188.25
254.727	206.25
254.96	228.25
255.193	217.25
255.426	186.25
255.659	183.25
255.892	204.25
256.124	190.25
256.357	184.25
256.59	183.25
256.823	167.25
257.056	173.25
257.289	192.25
257.521	185.25
257.754	165.25
257.987	168.25
258.22	173.25
258.452	165.25
258.685	177.25
258.918	169.25
259.151	161.25
259.383	194.25
259.616	194.25
259.849	189.25
260.081	207.25
260.314	202.25
260.547	214.25
260.779	203.25
261.012	187.25
261.244	178.25
261.477	189.25
261.71	184.25
261.942	192.25
262.175	178.25
262.407	185.25
262.64	173.25
262.872	187.25
263.105	182.25
263.337	196.25
263.57	189.25
263.802	188.25
264.035	189.25
264.267	177.25
264.499	179.25
264.732	181.25
264.964	197.25
265.197	177.25
265.429	188.25
265.661	189.25
265.894	164.25
266.126	190.25
266.358	188.25
266.591	198.25
266.823	196.25
267.055	188.25
267.287	197.25
267.52	179.25
267.752	193.25
267.984	195.25
268.216	194.25
268.448	201.25
268.681	217.25
268.913	227.25
269.145	243.25
269.377	223.25
269.609	217.25
269.841	220.25
270.073	212.25
270.306	241.25
270.538	254.25
270.77	250.25
271.002	251.25
271.234	231.25
271.466	253.25
271.698	252.25
271.93	243.25
272.162	260.25
272.394	253.25
272.626	257.25
272.858	247.25
273.09	240.25
273.322	230.25
273.553	234.25
273.785	232.25
274.017	218.25
274.249	234.25
274.481	227.25
274.713	221.25
274.945	226.25
275.176	228.25
275.408	237.25
275.64	232.25
275.872	220.25
276.104	241.25
276.335	242.25
276.567	225.25
276.799	241.25
277.031	262.25
277.262	260.25
277.494	255.25
277.726	263.25
277.957	258.25
278.189	243.25
278.421	238.25
278.652	231.25
278.884	216.25
279.115	214.25
279.347	221.25
279.579	216.25
279.81	223.25
280.042	233.25
280.273	248.25
280.505	250.25
280.736	229.25
280.968	234.25
281.199	236.25
281.431	229.25
281.662	229.25
281.894	217.25
282.125	262.25
282.356	260.25
282.588	243.25
282.819	268.25
283.051	250.25
283.282	229.25
283.513	248.25
283.745	216.25
283.976	234.25
284.207	235.25
284.439	251.25
284.67	247.25
284.901	241.25
285.132	248.25
285.364	240.25
285.595	253.25
285.826	245.25
286.057	240.25
286.288	238.25
286.52	250.25
286.751	237.25
286.982	249.25
287.213	248.25
287.444	261.25
287.675	268.25
287.906	262.25
288.138	270.25
288.369	273.25
288.6	257.25
288.831	258.25
289.062	245.25
289.293	256.25
289.524	273.25
289.755	261.25
289.986	276.25
290.217	260.25
290.448	260.25
290.679	263.25
290.91	263.25
291.141	249.25
291.371	263.25
291.602	238.25
291.833	240.25
292.064	260.25
292.295	266.25
292.526	260.25
292.757	271.25
292.987	256.25
293.218	260.25
293.449	266.25
293.68	262.25
293.91	256.25
294.141	278.25
294.372	260.25
294.603	268.25
294.833	250.25
295.064	254.25
295.295	245.25
295.525	258.25
295.756	276.25
295.987	274.25
296.217	274.25
296.448	273.25
296.679	277.25
296.909	257.25
297.14	256.25
297.37	277.25
297.601	286.25
297.831	269.25
298.062	270.25
298.292	270.25
298.523	283.25
298.753	286.25
298.984	280.25
299.214	259.25
299.445	282.25
299.675	280.25
299.905	283.25
300.136	292.25
300.366	270.25
300.597	275.25
300.827	254.25
301.057	288.25
301.288	294.25
301.518	280.25
301.748	276.25
301.979	295.25
302.209	290.25
302.439	289.25
302.669	281.25
302.9	283.25
303.13	270.25
303.36	294.25
303.59	279.25
303.82	280.25
304.051	299.25
304.281	278.25
304.511	304.25
304.741	291.25
304.971	301.25
305.201	276.25
305.431	296.25
305.661	293.25
305.891	295.25
306.121	272.25
306.352	277.25
306.582	284.25
306.812	279.25
307.042	295.25
307.272	292.25
307.502	288.25
307.731	306.25
307.961	309.25
308.191	286.25
308.421	281.25
308.651	286.25
308.881	304.25
309.111	298.25
309.341	285.25
309.571	284.25
309.8	301.25
310.03	317.25
310.26	315.25
310.49	312.25
310.72	318.25
310.949	327.25
311.179	331.25
311.409	313.25
311.639	324.25
311.868	298.25
312.098	324.25
312.328	328.25
312.557	329.25
312.787	339.25
313.017	320.25
313.246	310.25
313.476	312.25
313.706	318.25
313.935	323.25
314.165	317.25
314.394	339.25
314.624	338.25
314.853	324.25
315.083	315.25
315.312	317.25
315.542	328.25
315.771	316.25
316.001	294.25
316.23	323.25
316.46	333.25
316.689	312.25
316.919	305.25
317.148	326.25
317.377	320.25
317.607	328.25
317.836	325.25
318.065	323.25
318.295	312.25
318.524	340.25
318.753	318.25
318.983	325.25
319.212	353.25
319.441	329.25
319.67	339.25
319.9	330.25
320.129	330.25
320.358	333.25
320.587	328.25
320.816	335.25
321.046	334.25
321.275	341.25
321.504	308.25
321.733	316.25
321.962	320.25
322.191	342.25
322.42	360.25
322.649	359.25
322.878	361.25
323.108	356.25
323.337	366.25
323.566	417.25
323.795	391.25
324.024	421.25
324.253	485.25
324.482	653.25
324.71	894.25
324.939	1204.25
325.168	1001.25
325.397	590.25
325.626	432.25
325.855	386.25
326.084	376.25
326.313	387.25
326.542	380.25
326.77	397.25
326.999	491.25
327.228	582.25
327.457	823.25
327.686	920.25
327.914	654.25
328.143	480.25
328.372	456.25
328.6	449.25
328.829	435.25
329.058	402.25
329.287	420.25
329.515	422.25
329.744	407.25
329.972	429.25
330.201	404.25
330.43	444.25
330.658	440.25
330.887	446.25
331.115	434.25
331.344	393.25
331.572	404.25
331.801	392.25
332.03	413.25
332.258	390.25
332.486	392.25
332.715	406.25
332.943	400.25
333.172	412.25
333.4	420.25
333.629	430.25
333.857	438.25
334.085	434.25
334.314	453.25
334.542	469.25
334.771	469.25
334.999	440.25
335.227	400.25
335.455	380.25
335.684	392.25
335.912	403.25
336.14	388.25
336.369	363.25
336.597	392.25
336.825	402.25
337.053	408.25
337.281	376.25
337.51	376.25
337.738	381.25
337.966	386.25
338.194	369.25
338.422	367.25
338.65	369.25
338.878	350.25
339.106	372.25
339.334	376.25
339.562	362.25
339.79	355.25
340.018	361.25
340.246	354.25
340.474	366.25
340.702	350.25
340.93	348.25
341.158	346.25
341.386	361.25
341.614	364.25
341.842	345.25
342.07	360.25
342.298	326.25
342.526	348.25
342.754	336.25
342.981	347.25
343.209	336.25
343.437	372.25
343.665	378.25
343.893	371.25
344.12	414.25
344.348	394.25
344.576	357.25
344.804	370.25
345.031	355.25
345.259	361.25
345.487	357.25
345.714	361.25
345.942	362.25
346.17	344.25
346.397	344.25
346.625	365.25
346.853	344.25
347.08	334.25
347.308	339.25
347.535	351.25
347.763	348.25
347.99	352.25
348.218	338.25
348.445	344.25
348.673	357.25
348.9	350.25
349.128	340.25
349.355	347.25
349.583	350.25
349.81	331.25
350.037	343.25
350.265	352.25
350.492	336.25
350.72	333.25
350.947	341.25
351.174	338.25
351.402	344.25
351.629	348.25
351.856	346.25
352.083	329.25
352.311	334.25
352.538	356.25
352.765	341.25
352.992	332.25
353.22	355.25
353.447	339.25
353.674	325.25
353.901	332.25
354.128	319.25
354.355	308.25
354.583	321.25
354.81	326.25
355.037	324.25
355.264	334.25
355.491	315.25
355.718	330.25
355.945	322.25
356.172	323.25
356.399	318.25
356.626	338.25
356.853	320.25
357.08	338.25
357.307	313.25
357.534	327.25
357.761	320.25
357.988	314.25
358.215	340.25
358.441	334.25
358.668	334.25
358.895	336.25
359.122	326.25
359.349	334.25
359.576	348.25
359.802	345.25
360.029	339.25
360.256	371.25
360.483	355.25
360.709	347.25
360.936	353.25
361.163	338.25
361.39	332.25
361.616	336.25
361.843	334.25
362.07	322.25
362.296	322.25
362.523	334.25
362.749	346.25
362.976	326.25
363.203	316.25
363.429	334.25
363.656	323.25
363.882	322.25
364.109	321.25
364.335	309.25
364.562	333.25
364.788	324.25
365.015	318.25
365.241	320.25
365.468	314.25
365.694	332.25
365.92	329.25
366.147	318.25
366.373	324.25
366.599	319.25
366.826	307.25
367.052	292.25
367.278	328.25
367.505	336.25
367.731	343.25
367.957	334.25
368.184	332.25
368.41	339.25
368.636	318.25
368.862	337.25
369.089	352.25
369.315	347.25
369.541	325.25
369.767	325.25
369.993	324.25
370.219	334.25
370.445	324.25
370.672	326.25
370.898	318.25
371.124	332.25
371.35	324.25
371.576	330.25
371.802	339.25
372.028	345.25
372.254	313.25
372.48	332.25
372.706	336.25
372.932	341.25
373.158	324.25
373.384	338.25
373.61	342.25
373.835	329.25
374.061	331.25
374.287	339.25
374.513	356.25
374.739	350.25
374.965	356.25
375.191	344.25
375.416	338.25
375.642	342.25
375.868	336.25
376.094	340.25
376.319	323.25
376.545	342.25
376.771	322.25
376.997	324.25
377.222	337.25
377.448	322.25
377.674	331.25
377.899	330.25
378.125	321.25
378.35	301.25
378.576	333.25
378.802	312.25
379.027	334.25
379.253	323.25
379.478	330.25
379.704	324.25
379.929	328.25
380.155	325.25
380.38	332.25
380.606	348.25
380.831	327.25
381.057	331.25
381.282	336.25
381.507	329.25
381.733	336.25
381.958	336.25
382.184	330.25
382.409	334.25
382.634	337.25
382.86	342.25
383.085	337.25
383.31	347.25
383.535	338.25
383.761	348.25
383.986	336.25
384.211	343.25
384.436	362.25
384.662	376.25
384.887	344.25
385.112	366.25
385.337	355.25
385.562	377.25
385.787	352.25
386.013	380.25
386.238	365.25
386.463	380.25
386.688	384.25
386.913	372.25
387.138	394.25
387.363	380.25
387.588	381.25
387.813	362.25
388.038	373.25
388.263	382.25
388.488	364.25
388.713	370.25
388.938	372.25
389.163	358.25
389.387	364.25
389.612	364.25
389.837	368.25
390.062	366.25
390.287	375.25
390.512	368.25
390.736	369.25
390.961	386.25
391.186	374.25
391.411	370.25
391.636	363.25
391.86	390.25
392.085	412.25
392.31	371.25
392.534	385.25
392.759	402.25
392.984	370.25
393.208	388.25
393.433	372.25
393.658	379.25
393.882	387.25
394.107	372.25
394.331	384.25
394.556	401.25
394.78	368.25
395.005	390.25
395.229	412.25
395.454	407.25
395.678	398.25
395.903	389.25
396.127	399.25
396.352	408.25
396.576	402.25
396.801	377.25
397.025	385.25
397.249	398.25
397.474	393.25
397.698	402.25
397.922	399.25
398.147	396.25
398.371	427.25
398.595	423.25
398.82	439.25
399.044	453.25
399.268	484.25
399.492	516.25
399.717	558.25
399.941	552.25
400.165	546.25
400.389	521.25
400.613	483.25
400.837	444.25
401.062	448.25
401.286	411.25
401.51	436.25
401.734	435.25
401.958	449.25
402.182	422.25
402.406	468.25
402.63	455.25
402.854	461.25
403.078	449.25
403.302	459.25
403.526	469.25
403.75	472.25
403.974	485.25
404.198	484.25
404.422	470.25
404.645	482.25
404.869	482.25
405.093	488.25
405.317	489.25
405.541	529.25
405.765	477.25
405.988	463.25
406.212	479.25
406.436	486.25
406.66	512.25
406.883	478.25
407.107	538.25
407.331	529.25
407.555	595.25
407.778	595.25
408.002	534.25
408.226	519.25
408.449	499.25
408.673	501.25
408.896	516.25
409.12	505.25
409.344	487.25
409.567	454.25
409.791	468.25
410.014	472.25
410.238	471.25
410.461	438.25
410.685	461.25
410.908	461.25
411.132	476.25
411.355	477.25
411.578	452.25
411.802	426.25
412.025	438.25
412.249	448.25
412.472	473.25
412.695	483.25
412.919	463.25
413.142	467.25
413.365	426.25
413.589	455.25
413.812	429.25
414.035	434.25
414.258	437.25
414.482	438.25
414.705	413.25
414.928	443.25
415.151	424.25
415.374	434.25
415.597	420.25
415.821	437.25
416.044	428.25
416.267	426.25
416.49	428.25
416.713	425.25
416.936	419.25
417.159	420.25
417.382	412.25
417.605	460.25
417.828	434.25
418.051	448.25
418.274	432.25
418.497	452.25
418.72	413.25
418.943	424.25
419.166	434.25
419.389	446.25
419.611	462.25
419.834	457.25
420.057	448.25
420.28	456.25
420.503	450.25
420.726	418.25
420.948	455.25
421.171	454.25
421.394	471.25
421.617	450.25
421.839	428.25
422.062	456.25
422.285	444.25
422.507	489.25
422.73	509.25
422.953	501.25
423.175	472.25
423.398	457.25
423.621	456.25
423.843	478.25
424.066	475.25
424.288	464.25
424.511	475.25
424.733	494.25
424.956	525.25
425.178	500.25
425.401	507.25
425.623	540.25
425.846	465.25
426.068	452.25
426.291	434.25
426.513	428.25
426.735	437.25
426.958	473.25
427.18	531.25
427.402	590.25
427.625	633.25
427.847	563.25
428.069	479.25
428.292	456.25
428.514	411.25
428.736	416.25
428.958	422.25
429.181	418.25
429.403	411.25
429.625	417.25
429.847	424.25
430.069	462.25
430.292	463.25
430.514	423.25
430.736	409.25
430.958	419.25
431.18	386.25
431.402	408.25
431.624	397.25
431.846	409.25
432.068	415.25
432.29	420.25
432.512	389.25
432.734	410.25
432.956	427.25
433.178	406.25
433.4	412.25
433.622	407.25
433.844	395.25
434.066	395.25
434.287	399.25
434.509	408.25
434.731	416.25
434.953	434.25
435.175	438.25
435.397	453.25
435.618	454.25
435.84	452.25
436.062	530.25
436.284	536.25
436.505	455.25
436.727	449.25
436.949	436.25
437.17	426.25
437.392	393.25
437.614	405.25
437.835	457.25
438.057	495.25
438.278	538.25
438.5	541.25
438.721	576.25
438.943	556.25
439.165	456.25
439.386	430.25
439.608	444.25
439.829	441.25
440.05	464.25
440.272	470.25
440.493	441.25
440.715	429.25
440.936	420.25
441.158	441.25
441.379	419.25
441.6	430.25
441.822	462.25
442.043	450.25
442.264	527.25
442.486	530.25
442.707	463.25
442.928	439.25
443.149	457.25
443.371	480.25
443.592	513.25
443.813	552.25
444.034	566.25
444.255	514.25
444.476	485.25
444.698	487.25
444.919	493.25
445.14	556.25
445.361	516.25
445.582	498.25
445.803	515.25
446.024	553.25
446.245	574.25
446.466	521.25
446.687	450.25
446.908	438.25
447.129	424.25
447.35	409.25
447.571	409.25
447.792	394.25
448.013	410.25
448.234	423.25
448.455	444.25
448.675	526.25
448.896	577.25
449.117	482.25
449.338	499.25
449.559	548.25
449.779	574.25
450	482.25
450.221	416.25
450.442	408.25
450.662	383.25
450.883	409.25
451.104	409.25
451.324	387.25
451.545	375.25
451.766	374.25
451.986	369.25
452.207	363.25
452.428	376.25
452.648	372.25
452.869	351.25
453.089	364.25
453.31	398.25
453.53	363.25
453.751	380.25
453.971	361.25
454.192	370.25
454.412	363.25
454.633	362.25
454.853	361.25
455.073	357.25
455.294	389.25
455.514	420.25
455.734	416.25
455.955	377.25
456.175	364.25
456.395	349.25
456.616	344.25
456.836	351.25
457.056	370.25
457.276	351.25
457.497	344.25
457.717	347.25
457.937	363.25
458.157	349.25
458.377	359.25
458.598	382.25
458.818	408.25
459.038	464.25
459.258	472.25
459.478	431.25
459.698	419.25
459.918	411.25
460.138	398.25
460.358	412.25
460.578	406.25
460.798	436.25
461.018	420.25
461.238	420.25
461.458	421.25
461.678	409.25
461.898	421.25
462.118	445.25
462.338	452.25
462.558	438.25
462.777	469.25
462.997	501.25
463.217	529.25
463.437	512.25
463.657	486.25
463.876	466.25
464.096	467.25
464.316	469.25
464.536	473.25
464.755	459.25
464.975	440.25
465.195	464.25
465.414	498.25
465.634	464.25
465.854	424.25
466.073	420.25
466.293	423.25
466.512	406.25
466.732	388.25
466.951	375.25
467.171	371.25
467.391	409.25
467.61	379.25
467.829	423.25
468.049	386.25
468.268	390.25
468.488	370.25
468.707	373.25
468.927	389.25
469.146	373.25
469.365	376.25
469.585	370.25
469.804	405.25
470.023	394.25
470.243	397.25
470.462	399.25
470.681	418.25
470.901	405.25
471.12	398.25
471.339	378.25
471.558	400.25
471.777	396.25
471.997	368.25
472.216	378.25
472.435	387.25
472.654	410.25
472.873	390.25
473.092	382.25
473.311	388.25
473.53	386.25
473.749	400.25
473.968	425.25
474.187	468.25
474.406	460.25
474.625	419.25
474.844	396.25
475.063	382.25
475.282	381.25
475.501	393.25
475.72	394.25
475.939	389.25
476.158	396.25
476.377	379.25
476.596	403.25
476.814	403.25
477.033	404.25
477.252	411.25
477.471	410.25
477.69	406.25
477.908	416.25
478.127	409.25
478.346	416.25
478.564	453.25
478.783	461.25
479.002	467.25
479.22	462.25
479.439	453.25
479.658	449.25
479.876	458.25
480.095	473.25
480.313	485.25
480.532	494.25
480.751	488.25
480.969	492.25
481.188	539.25
481.406	529.25
481.624	488.25
481.843	432.25
482.061	462.25
482.28	452.25
482.498	434.25
482.717	420.25
482.935	420.25
483.153	442.25
483.372	432.25
483.59	446.25
483.808	464.25
484.027	442.25
484.245	454.25
484.463	433.25
484.681	450.25
484.9	464.25
485.118	437.25
485.336	454.25
485.554	464.25
485.772	478.25
485.99	468.25
486.209	456.25
486.427	449.25
486.645	463.25
486.863	475.25
487.081	483.25
487.299	474.25
487.517	473.25
487.735	461.25
487.953	482.25
488.171	466.25
488.389	457.25
488.607	469.25
488.825	479.25
489.043	469.25
489.261	461.25
489.479	455.25
489.696	458.25
489.914	484.25
490.132	493.25
490.35	514.25
490.568	493.25
490.786	515.25
491.003	494.25
491.221	517.25
491.439	521.25
491.657	553.25
491.874	556.25
492.092	528.25
492.31	551.25
492.527	534.25
492.745	538.25
492.963	553.25
493.18	560.25
493.398	556.25
493.615	538.25
493.833	560.25
494.05	560.25
494.268	556.25
494.485	557.25
494.703	556.25
494.92	541.25
495.138	547.25
495.355	559.25
495.573	559.25
495.79	550.25
496.008	542.25
496.225	537.25
496.442	569.25
496.66	554.25
496.877	573.25
497.094	555.25
497.312	572.25
497.529	593.25
497.746	600.25
497.963	597.25
498.181	604.25
498.398	634.25
498.615	631.25
498.832	678.25
499.049	662.25
499.267	701.25
499.484	769.25
499.701	805.25
499.918	840.25
500.135	898.25
500.352	952.25
500.569	959.25
500.786	992.25
501.003	951.25
501.22	912.25
501.437	862.25
501.654	796.25
501.871	742.25
502.088	733.25
