Data from 1969.PennyLincolnUp.Lamp.En5.5.200Scan.071719.P1._HRD10591_14-56-48-972.txt Node
Date: Thu Jul 18 14:56:48 EDT 2019
User: cochatt
Spectrometer: HR+D1059
Trigger mode: 1
Integration Time (sec): 1.000000E-1
Scans to average: 1
Electric dark correction enabled: true
Nonlinearity correction enabled: false
Boxcar width: 0
XAxis mode: Wavelengths
Number of Pixels in Spectrum: 2048
>>>>>Begin Spectral Data<<<<<
223.165	-12.25
223.4	-12.25
223.635	-12.25
223.869	-22.25
224.104	-21.25
224.338	-20.25
224.573	-22.25
224.808	-20.25
225.042	0.75
225.277	-4.25
225.511	6.75
225.746	-3.25
225.98	3.75
226.215	5.75
226.449	8.75
226.683	33.75
226.918	37.75
227.152	28.75
227.387	40.75
227.621	44.75
227.856	53.75
228.09	61.75
228.324	56.75
228.559	62.75
228.793	71.75
229.027	82.75
229.262	90.75
229.496	96.75
229.73	108.75
229.964	111.75
230.199	107.75
230.433	114.75
230.667	108.75
230.901	111.75
231.136	105.75
231.37	96.75
231.604	105.75
231.838	108.75
232.072	107.75
232.306	104.75
232.541	110.75
232.775	104.75
233.009	102.75
233.243	117.75
233.477	115.75
233.711	113.75
233.945	121.75
234.179	110.75
234.413	102.75
234.647	97.75
234.881	102.75
235.115	103.75
235.349	112.75
235.583	116.75
235.817	113.75
236.051	108.75
236.285	119.75
236.519	119.75
236.753	127.75
236.987	140.75
237.221	141.75
237.455	155.75
237.689	165.75
237.922	122.75
238.156	124.75
238.39	123.75
238.624	112.75
238.858	121.75
239.091	109.75
239.325	119.75
239.559	109.75
239.793	128.75
240.027	123.75
240.26	147.75
240.494	131.75
240.728	132.75
240.961	120.75
241.195	138.75
241.429	113.75
241.662	122.75
241.896	133.75
242.13	103.75
242.363	141.75
242.597	127.75
242.83	117.75
243.064	129.75
243.298	123.75
243.531	130.75
243.765	127.75
243.998	131.75
244.232	137.75
244.465	129.75
244.699	119.75
244.932	128.75
245.166	135.75
245.399	121.75
245.633	129.75
245.866	131.75
246.099	121.75
246.333	141.75
246.566	149.75
246.8	146.75
247.033	137.75
247.266	133.75
247.5	129.75
247.733	151.75
247.966	157.75
248.2	139.75
248.433	151.75
248.666	163.75
248.899	168.75
249.133	177.75
249.366	184.75
249.599	173.75
249.832	155.75
250.066	176.75
250.299	147.75
250.532	171.75
250.765	170.75
250.998	176.75
251.231	176.75
251.465	188.75
251.698	163.75
251.931	175.75
252.164	173.75
252.397	166.75
252.63	175.75
252.863	190.75
253.096	190.75
253.329	205.75
253.562	207.75
253.795	185.75
254.028	172.75
254.261	173.75
254.494	189.75
254.727	207.75
254.96	221.75
255.193	203.75
255.426	197.75
255.659	176.75
255.892	200.75
256.124	215.75
256.357	211.75
256.59	211.75
256.823	165.75
257.056	189.75
257.289	205.75
257.521	173.75
257.754	185.75
257.987	184.75
258.22	176.75
258.452	185.75
258.685	179.75
258.918	177.75
259.151	175.75
259.383	180.75
259.616	187.75
259.849	200.75
260.081	186.75
260.314	209.75
260.547	218.75
260.779	205.75
261.012	191.75
261.244	174.75
261.477	198.75
261.71	192.75
261.942	186.75
262.175	198.75
262.407	195.75
262.64	191.75
262.872	194.75
263.105	187.75
263.337	199.75
263.57	185.75
263.802	187.75
264.035	194.75
264.267	192.75
264.499	175.75
264.732	183.75
264.964	170.75
265.197	172.75
265.429	185.75
265.661	207.75
265.894	189.75
266.126	192.75
266.358	190.75
266.591	176.75
266.823	206.75
267.055	216.75
267.287	210.75
267.52	203.75
267.752	197.75
267.984	194.75
268.216	199.75
268.448	222.75
268.681	200.75
268.913	204.75
269.145	209.75
269.377	243.75
269.609	238.75
269.841	231.75
270.073	228.75
270.306	256.75
270.538	265.75
270.77	243.75
271.002	255.75
271.234	267.75
271.466	261.75
271.698	262.75
271.93	261.75
272.162	244.75
272.394	247.75
272.626	235.75
272.858	264.75
273.09	230.75
273.322	229.75
273.553	228.75
273.785	228.75
274.017	220.75
274.249	211.75
274.481	234.75
274.713	232.75
274.945	223.75
275.176	232.75
275.408	205.75
275.64	218.75
275.872	210.75
276.104	212.75
276.335	219.75
276.567	236.75
276.799	255.75
277.031	251.75
277.262	279.75
277.494	266.75
277.726	251.75
277.957	225.75
278.189	239.75
278.421	244.75
278.652	230.75
278.884	236.75
279.115	224.75
279.347	230.75
279.579	239.75
279.81	222.75
280.042	227.75
280.273	212.75
280.505	237.75
280.736	238.75
280.968	212.75
281.199	240.75
281.431	248.75
281.662	229.75
281.894	233.75
282.125	250.75
282.356	243.75
282.588	268.75
282.819	256.75
283.051	238.75
283.282	250.75
283.513	243.75
283.745	244.75
283.976	252.75
284.207	260.75
284.439	257.75
284.67	248.75
284.901	231.75
285.132	249.75
285.364	259.75
285.595	243.75
285.826	250.75
286.057	248.75
286.288	234.75
286.52	243.75
286.751	252.75
286.982	262.75
287.213	247.75
287.444	250.75
287.675	261.75
287.906	262.75
288.138	269.75
288.369	271.75
288.6	267.75
288.831	248.75
289.062	275.75
289.293	245.75
289.524	278.75
289.755	254.75
289.986	255.75
290.217	273.75
290.448	257.75
290.679	263.75
290.91	254.75
291.141	264.75
291.371	248.75
291.602	253.75
291.833	255.75
292.064	264.75
292.295	261.75
292.526	256.75
292.757	269.75
292.987	279.75
293.218	265.75
293.449	272.75
293.68	268.75
293.91	272.75
294.141	273.75
294.372	280.75
294.603	249.75
294.833	259.75
295.064	252.75
295.295	271.75
295.525	266.75
295.756	257.75
295.987	265.75
296.217	275.75
296.448	281.75
296.679	277.75
296.909	275.75
297.14	277.75
297.37	265.75
297.601	272.75
297.831	270.75
298.062	270.75
298.292	291.75
298.523	270.75
298.753	287.75
298.984	300.75
299.214	265.75
299.445	273.75
299.675	271.75
299.905	288.75
300.136	274.75
300.366	272.75
300.597	267.75
300.827	261.75
301.057	298.75
301.288	291.75
301.518	290.75
301.748	299.75
301.979	291.75
302.209	297.75
302.439	283.75
302.669	291.75
302.9	299.75
303.13	277.75
303.36	295.75
303.59	290.75
303.82	291.75
304.051	302.75
304.281	301.75
304.511	293.75
304.741	285.75
304.971	286.75
305.201	286.75
305.431	291.75
305.661	304.75
305.891	279.75
306.121	293.75
306.352	307.75
306.582	300.75
306.812	307.75
307.042	310.75
307.272	283.75
307.502	284.75
307.731	291.75
307.961	296.75
308.191	286.75
308.421	293.75
308.651	304.75
308.881	294.75
309.111	301.75
309.341	304.75
309.571	316.75
309.8	305.75
310.03	276.75
310.26	324.75
310.49	317.75
310.72	341.75
310.949	336.75
311.179	328.75
311.409	299.75
311.639	298.75
311.868	320.75
312.098	324.75
312.328	331.75
312.557	325.75
312.787	354.75
313.017	329.75
313.246	304.75
313.476	324.75
313.706	348.75
313.935	340.75
314.165	337.75
314.394	343.75
314.624	337.75
314.853	334.75
315.083	332.75
315.312	312.75
315.542	316.75
315.771	357.75
316.001	325.75
316.23	329.75
316.46	330.75
316.689	313.75
316.919	319.75
317.148	315.75
317.377	340.75
317.607	324.75
317.836	316.75
318.065	324.75
318.295	313.75
318.524	329.75
318.753	332.75
318.983	313.75
319.212	299.75
319.441	333.75
319.67	315.75
319.9	327.75
320.129	348.75
320.358	339.75
320.587	340.75
320.816	327.75
321.046	329.75
321.275	333.75
321.504	327.75
321.733	328.75
321.962	335.75
322.191	355.75
322.42	350.75
322.649	363.75
322.878	377.75
323.108	364.75
323.337	371.75
323.566	399.75
323.795	396.75
324.024	412.75
324.253	485.75
324.482	653.75
324.71	895.75
324.939	1176.75
325.168	990.75
325.397	584.75
325.626	444.75
325.855	393.75
326.084	389.75
326.313	363.75
326.542	378.75
326.77	397.75
326.999	453.75
327.228	608.75
327.457	809.75
327.686	893.75
327.914	642.75
328.143	490.75
328.372	447.75
328.6	435.75
328.829	419.75
329.058	437.75
329.287	428.75
329.515	431.75
329.744	384.75
329.972	405.75
330.201	423.75
330.43	443.75
330.658	448.75
330.887	448.75
331.115	444.75
331.344	421.75
331.572	392.75
331.801	394.75
332.03	393.75
332.258	382.75
332.486	381.75
332.715	372.75
332.943	392.75
333.172	388.75
333.4	403.75
333.629	423.75
333.857	434.75
334.085	422.75
334.314	429.75
334.542	467.75
334.771	449.75
334.999	424.75
335.227	400.75
335.455	406.75
335.684	393.75
335.912	402.75
336.14	407.75
336.369	390.75
336.597	380.75
336.825	418.75
337.053	367.75
337.281	383.75
337.51	375.75
337.738	384.75
337.966	367.75
338.194	351.75
338.422	367.75
338.65	373.75
338.878	383.75
339.106	350.75
339.334	379.75
339.562	383.75
339.79	350.75
340.018	357.75
340.246	355.75
340.474	362.75
340.702	372.75
340.93	355.75
341.158	362.75
341.386	355.75
341.614	367.75
341.842	343.75
342.07	345.75
342.298	368.75
342.526	342.75
342.754	352.75
342.981	363.75
343.209	352.75
343.437	365.75
343.665	380.75
343.893	403.75
344.12	388.75
344.348	400.75
344.576	382.75
344.804	371.75
345.031	372.75
345.259	368.75
345.487	377.75
345.714	374.75
345.942	333.75
346.17	354.75
346.397	341.75
346.625	354.75
346.853	336.75
347.08	341.75
347.308	335.75
347.535	351.75
347.763	372.75
347.99	339.75
348.218	348.75
348.445	352.75
348.673	347.75
348.9	343.75
349.128	335.75
349.355	355.75
349.583	334.75
349.81	326.75
350.037	335.75
350.265	345.75
350.492	334.75
350.72	309.75
350.947	323.75
351.174	352.75
351.402	343.75
351.629	338.75
351.856	329.75
352.083	341.75
352.311	363.75
352.538	356.75
352.765	342.75
352.992	342.75
353.22	352.75
353.447	339.75
353.674	337.75
353.901	344.75
354.128	351.75
354.355	336.75
354.583	315.75
354.81	335.75
355.037	330.75
355.264	331.75
355.491	347.75
355.718	311.75
355.945	341.75
356.172	315.75
356.399	324.75
356.626	325.75
356.853	321.75
357.08	317.75
357.307	305.75
357.534	317.75
357.761	321.75
357.988	323.75
358.215	337.75
358.441	324.75
358.668	325.75
358.895	336.75
359.122	303.75
359.349	335.75
359.576	356.75
359.802	346.75
360.029	363.75
360.256	360.75
360.483	342.75
360.709	341.75
360.936	346.75
361.163	348.75
361.39	343.75
361.616	339.75
361.843	334.75
362.07	340.75
362.296	332.75
362.523	337.75
362.749	335.75
362.976	316.75
363.203	338.75
363.429	331.75
363.656	331.75
363.882	335.75
364.109	324.75
364.335	315.75
364.562	317.75
364.788	331.75
365.015	331.75
365.241	324.75
365.468	337.75
365.694	339.75
365.92	331.75
366.147	335.75
366.373	319.75
366.599	321.75
366.826	309.75
367.052	318.75
367.278	321.75
367.505	331.75
367.731	333.75
367.957	325.75
368.184	350.75
368.41	355.75
368.636	330.75
368.862	347.75
369.089	326.75
369.315	307.75
369.541	348.75
369.767	332.75
369.993	324.75
370.219	324.75
370.445	325.75
370.672	336.75
370.898	343.75
371.124	338.75
371.35	343.75
371.576	330.75
371.802	334.75
372.028	333.75
372.254	330.75
372.48	334.75
372.706	335.75
372.932	342.75
373.158	339.75
373.384	341.75
373.61	324.75
373.835	336.75
374.061	320.75
374.287	339.75
374.513	353.75
374.739	348.75
374.965	356.75
375.191	359.75
375.416	357.75
375.642	357.75
375.868	356.75
376.094	351.75
376.319	353.75
376.545	344.75
376.771	346.75
376.997	338.75
377.222	313.75
377.448	328.75
377.674	325.75
377.899	328.75
378.125	317.75
378.35	323.75
378.576	331.75
378.802	340.75
379.027	325.75
379.253	339.75
379.478	316.75
379.704	330.75
379.929	318.75
380.155	332.75
380.38	319.75
380.606	325.75
380.831	349.75
381.057	338.75
381.282	321.75
381.507	331.75
381.733	344.75
381.958	333.75
382.184	329.75
382.409	341.75
382.634	344.75
382.86	349.75
383.085	343.75
383.31	330.75
383.535	351.75
383.761	362.75
383.986	375.75
384.211	372.75
384.436	362.75
384.662	354.75
384.887	370.75
385.112	368.75
385.337	379.75
385.562	371.75
385.787	364.75
386.013	371.75
386.238	381.75
386.463	388.75
386.688	372.75
386.913	379.75
387.138	369.75
387.363	375.75
387.588	375.75
387.813	373.75
388.038	368.75
388.263	377.75
388.488	347.75
388.713	378.75
388.938	383.75
389.163	361.75
389.387	363.75
389.612	354.75
389.837	361.75
390.062	353.75
390.287	360.75
390.512	364.75
390.736	366.75
390.961	357.75
391.186	371.75
391.411	375.75
391.636	404.75
391.86	382.75
392.085	409.75
392.31	397.75
392.534	391.75
392.759	352.75
392.984	363.75
393.208	373.75
393.433	383.75
393.658	363.75
393.882	360.75
394.107	375.75
394.331	381.75
394.556	380.75
394.78	388.75
395.005	385.75
395.229	385.75
395.454	395.75
395.678	380.75
395.903	391.75
396.127	410.75
396.352	383.75
396.576	376.75
396.801	382.75
397.025	411.75
397.249	371.75
397.474	404.75
397.698	413.75
397.922	417.75
398.147	408.75
398.371	403.75
398.595	405.75
398.82	432.75
399.044	454.75
399.268	471.75
399.492	524.75
399.717	556.75
399.941	543.75
400.165	566.75
400.389	556.75
400.613	491.75
400.837	473.75
401.062	434.75
401.286	434.75
401.51	445.75
401.734	440.75
401.958	427.75
402.182	440.75
402.406	451.75
402.63	464.75
402.854	467.75
403.078	456.75
403.302	463.75
403.526	472.75
403.75	460.75
403.974	478.75
404.198	473.75
404.422	463.75
404.645	483.75
404.869	490.75
405.093	484.75
405.317	491.75
405.541	511.75
405.765	492.75
405.988	479.75
406.212	456.75
406.436	494.75
406.66	478.75
406.883	492.75
407.107	515.75
407.331	541.75
407.555	580.75
407.778	568.75
408.002	523.75
408.226	511.75
408.449	487.75
408.673	481.75
408.896	499.75
409.12	515.75
409.344	518.75
409.567	460.75
409.791	462.75
410.014	446.75
410.238	445.75
410.461	439.75
410.685	473.75
410.908	443.75
411.132	472.75
411.355	476.75
411.578	485.75
411.802	432.75
412.025	423.75
412.249	424.75
412.472	479.75
412.695	488.75
412.919	476.75
413.142	448.75
413.365	442.75
413.589	421.75
413.812	445.75
414.035	435.75
414.258	408.75
414.482	424.75
414.705	425.75
414.928	448.75
415.151	404.75
415.374	437.75
415.597	427.75
415.821	423.75
416.044	411.75
416.267	431.75
416.49	424.75
416.713	416.75
416.936	430.75
417.159	427.75
417.382	431.75
417.605	423.75
417.828	429.75
418.051	456.75
418.274	437.75
418.497	441.75
418.72	441.75
418.943	448.75
419.166	450.75
419.389	474.75
419.611	475.75
419.834	460.75
420.057	453.75
420.28	458.75
420.503	433.75
420.726	459.75
420.948	447.75
421.171	457.75
421.394	487.75
421.617	447.75
421.839	428.75
422.062	457.75
422.285	437.75
422.507	484.75
422.73	535.75
422.953	509.75
423.175	460.75
423.398	452.75
423.621	464.75
423.843	473.75
424.066	480.75
424.288	445.75
424.511	479.75
424.733	495.75
424.956	533.75
425.178	519.75
425.401	535.75
425.623	524.75
425.846	471.75
426.068	453.75
426.291	460.75
426.513	437.75
426.735	455.75
426.958	475.75
427.18	516.75
427.402	571.75
427.625	618.75
427.847	559.75
428.069	501.75
428.292	453.75
428.514	430.75
428.736	405.75
428.958	409.75
429.181	409.75
429.403	423.75
429.625	422.75
429.847	435.75
430.069	465.75
430.292	462.75
430.514	430.75
430.736	415.75
430.958	408.75
431.18	400.75
431.402	400.75
431.624	395.75
431.846	400.75
432.068	376.75
432.29	409.75
432.512	395.75
432.734	410.75
432.956	401.75
433.178	401.75
433.4	404.75
433.622	406.75
433.844	400.75
434.066	391.75
434.287	391.75
434.509	403.75
434.731	416.75
434.953	439.75
435.175	423.75
435.397	437.75
435.618	455.75
435.84	479.75
436.062	497.75
436.284	537.75
436.505	462.75
436.727	425.75
436.949	416.75
437.17	401.75
437.392	405.75
437.614	414.75
437.835	416.75
438.057	474.75
438.278	568.75
438.5	535.75
438.721	569.75
438.943	540.75
439.165	462.75
439.386	431.75
439.608	428.75
439.829	442.75
440.05	465.75
440.272	454.75
440.493	460.75
440.715	436.75
440.936	451.75
441.158	433.75
441.379	440.75
441.6	441.75
441.822	453.75
442.043	476.75
442.264	523.75
442.486	539.75
442.707	473.75
442.928	456.75
443.149	465.75
443.371	465.75
443.592	514.75
443.813	540.75
444.034	583.75
444.255	530.75
444.476	494.75
444.698	474.75
444.919	510.75
445.14	564.75
445.361	519.75
445.582	506.75
445.803	526.75
446.024	567.75
446.245	568.75
446.466	525.75
446.687	460.75
446.908	421.75
447.129	417.75
447.35	407.75
447.571	409.75
447.792	395.75
448.013	404.75
448.234	432.75
448.455	443.75
448.675	516.75
448.896	569.75
449.117	475.75
449.338	478.75
449.559	532.75
449.779	591.75
450	474.75
450.221	431.75
450.442	402.75
450.662	385.75
450.883	402.75
451.104	401.75
451.324	396.75
451.545	391.75
451.766	378.75
451.986	380.75
452.207	376.75
452.428	366.75
452.648	358.75
452.869	357.75
453.089	392.75
453.31	383.75
453.53	347.75
453.751	379.75
453.971	363.75
454.192	385.75
454.412	379.75
454.633	368.75
454.853	357.75
455.073	363.75
455.294	381.75
455.514	411.75
455.734	384.75
455.955	359.75
456.175	355.75
456.395	357.75
456.616	364.75
456.836	363.75
457.056	368.75
457.276	349.75
457.497	345.75
457.717	351.75
457.937	348.75
458.157	357.75
458.377	339.75
458.598	393.75
458.818	423.75
459.038	475.75
459.258	485.75
459.478	429.75
459.698	417.75
459.918	410.75
460.138	424.75
460.358	426.75
460.578	419.75
460.798	447.75
461.018	415.75
461.238	436.75
461.458	423.75
461.678	433.75
461.898	436.75
462.118	427.75
462.338	434.75
462.558	456.75
462.777	475.75
462.997	483.75
463.217	534.75
463.437	514.75
463.657	481.75
463.876	469.75
464.096	459.75
464.316	478.75
464.536	466.75
464.755	477.75
464.975	463.75
465.195	478.75
465.414	501.75
465.634	444.75
465.854	424.75
466.073	403.75
466.293	405.75
466.512	384.75
466.732	381.75
466.951	382.75
467.171	405.75
467.391	378.75
467.61	393.75
467.829	389.75
468.049	378.75
468.268	402.75
468.488	362.75
468.707	373.75
468.927	377.75
469.146	374.75
469.365	396.75
469.585	407.75
469.804	369.75
470.023	406.75
470.243	393.75
470.462	407.75
470.681	400.75
470.901	431.75
471.12	393.75
471.339	403.75
471.558	410.75
471.777	384.75
471.997	389.75
472.216	397.75
472.435	394.75
472.654	409.75
472.873	381.75
473.092	415.75
473.311	387.75
473.53	371.75
473.749	397.75
473.968	428.75
474.187	459.75
474.406	485.75
474.625	419.75
474.844	399.75
475.063	381.75
475.282	379.75
475.501	389.75
475.72	391.75
475.939	400.75
476.158	380.75
476.377	395.75
476.596	403.75
476.814	398.75
477.033	405.75
477.252	423.75
477.471	423.75
477.69	427.75
477.908	427.75
478.127	435.75
478.346	437.75
478.564	440.75
478.783	425.75
479.002	444.75
479.22	482.75
479.439	455.75
479.658	474.75
479.876	469.75
480.095	472.75
480.313	474.75
480.532	507.75
480.751	467.75
480.969	480.75
481.188	523.75
481.406	543.75
481.624	466.75
481.843	473.75
482.061	443.75
482.28	439.75
482.498	427.75
482.717	440.75
482.935	432.75
483.153	444.75
483.372	440.75
483.59	452.75
483.808	437.75
484.027	447.75
484.245	452.75
484.463	425.75
484.681	485.75
484.9	449.75
485.118	480.75
485.336	455.75
485.554	460.75
485.772	455.75
485.99	452.75
486.209	455.75
486.427	469.75
486.645	467.75
486.863	473.75
487.081	465.75
487.299	465.75
487.517	446.75
487.735	443.75
487.953	461.75
488.171	486.75
488.389	492.75
488.607	481.75
488.825	461.75
489.043	492.75
489.261	482.75
489.479	486.75
489.696	490.75
489.914	465.75
490.132	499.75
490.35	487.75
490.568	492.75
490.786	499.75
491.003	510.75
491.221	528.75
491.439	528.75
491.657	535.75
491.874	516.75
492.092	553.75
492.31	563.75
492.527	580.75
492.745	534.75
492.963	565.75
493.18	558.75
493.398	568.75
493.615	570.75
493.833	552.75
494.05	531.75
494.268	559.75
494.485	548.75
494.703	574.75
494.92	563.75
495.138	530.75
495.355	565.75
495.573	546.75
495.79	545.75
496.008	559.75
496.225	536.75
496.442	567.75
496.66	560.75
496.877	574.75
497.094	558.75
497.312	579.75
497.529	565.75
497.746	600.75
497.963	596.75
498.181	601.75
498.398	608.75
498.615	644.75
498.832	663.75
499.049	688.75
499.267	722.75
499.484	743.75
499.701	795.75
499.918	826.75
500.135	896.75
500.352	960.75
500.569	985.75
500.786	973.75
501.003	957.75
501.22	896.75
501.437	823.75
501.654	818.75
501.871	764.75
502.088	745.75
