Data from 1969.PennyLincolnUp.Lamp.En5.5.200Scan.071719.P1._HRD10591_14-55-34-972.txt Node
Date: Thu Jul 18 14:55:34 EDT 2019
User: cochatt
Spectrometer: HR+D1059
Trigger mode: 1
Integration Time (sec): 1.000000E-1
Scans to average: 1
Electric dark correction enabled: true
Nonlinearity correction enabled: false
Boxcar width: 0
XAxis mode: Wavelengths
Number of Pixels in Spectrum: 2048
>>>>>Begin Spectral Data<<<<<
223.165	-8.06
223.4	-8.06
223.635	-8.06
223.869	-24.06
224.104	-20.06
224.338	1.94
224.573	-4.06
224.808	-10.06
225.042	-2.06
225.277	-5.06
225.511	1.94
225.746	1.94
225.98	-9.06
226.215	1.94
226.449	12.94
226.683	11.94
226.918	30.94
227.152	18.94
227.387	33.94
227.621	32.94
227.856	38.94
228.09	33.94
228.324	27.94
228.559	65.94
228.793	66.94
229.027	79.94
229.262	83.94
229.496	91.94
229.73	116.94
229.964	113.94
230.199	98.94
230.433	106.94
230.667	95.94
230.901	100.94
231.136	99.94
231.37	108.94
231.604	90.94
231.838	100.94
232.072	97.94
232.306	100.94
232.541	98.94
232.775	106.94
233.009	90.94
233.243	98.94
233.477	107.94
233.711	117.94
233.945	106.94
234.179	79.94
234.413	100.94
234.647	109.94
234.881	101.94
235.115	117.94
235.349	111.94
235.583	108.94
235.817	94.94
236.051	104.94
236.285	100.94
236.519	112.94
236.753	105.94
236.987	111.94
237.221	139.94
237.455	173.94
237.689	128.94
237.922	113.94
238.156	104.94
238.39	95.94
238.624	100.94
238.858	116.94
239.091	100.94
239.325	118.94
239.559	103.94
239.793	116.94
240.027	95.94
240.26	117.94
240.494	126.94
240.728	128.94
240.961	122.94
241.195	121.94
241.429	119.94
241.662	123.94
241.896	111.94
242.13	119.94
242.363	123.94
242.597	123.94
242.83	121.94
243.064	119.94
243.298	141.94
243.531	133.94
243.765	121.94
243.998	121.94
244.232	105.94
244.465	118.94
244.699	116.94
244.932	128.94
245.166	121.94
245.399	122.94
245.633	123.94
245.866	143.94
246.099	141.94
246.333	123.94
246.566	133.94
246.8	138.94
247.033	141.94
247.266	136.94
247.5	124.94
247.733	147.94
247.966	144.94
248.2	145.94
248.433	135.94
248.666	151.94
248.899	151.94
249.133	150.94
249.366	167.94
249.599	152.94
249.832	143.94
250.066	151.94
250.299	158.94
250.532	169.94
250.765	185.94
250.998	172.94
251.231	181.94
251.465	170.94
251.698	167.94
251.931	155.94
252.164	148.94
252.397	151.94
252.63	170.94
252.863	182.94
253.096	163.94
253.329	179.94
253.562	187.94
253.795	174.94
254.028	179.94
254.261	153.94
254.494	186.94
254.727	204.94
254.96	214.94
255.193	210.94
255.426	195.94
255.659	165.94
255.892	198.94
256.124	199.94
256.357	191.94
256.59	172.94
256.823	187.94
257.056	183.94
257.289	174.94
257.521	169.94
257.754	169.94
257.987	183.94
258.22	181.94
258.452	170.94
258.685	193.94
258.918	187.94
259.151	190.94
259.383	166.94
259.616	175.94
259.849	180.94
260.081	205.94
260.314	201.94
260.547	210.94
260.779	202.94
261.012	188.94
261.244	186.94
261.477	204.94
261.71	163.94
261.942	187.94
262.175	199.94
262.407	167.94
262.64	194.94
262.872	181.94
263.105	181.94
263.337	162.94
263.57	180.94
263.802	168.94
264.035	179.94
264.267	159.94
264.499	172.94
264.732	185.94
264.964	187.94
265.197	180.94
265.429	158.94
265.661	203.94
265.894	177.94
266.126	188.94
266.358	179.94
266.591	183.94
266.823	189.94
267.055	191.94
267.287	188.94
267.52	168.94
267.752	185.94
267.984	184.94
268.216	189.94
268.448	200.94
268.681	214.94
268.913	196.94
269.145	202.94
269.377	221.94
269.609	204.94
269.841	220.94
270.073	226.94
270.306	229.94
270.538	226.94
270.77	252.94
271.002	236.94
271.234	233.94
271.466	228.94
271.698	226.94
271.93	260.94
272.162	227.94
272.394	226.94
272.626	247.94
272.858	236.94
273.09	219.94
273.322	221.94
273.553	235.94
273.785	227.94
274.017	202.94
274.249	211.94
274.481	219.94
274.713	203.94
274.945	226.94
275.176	219.94
275.408	214.94
275.64	219.94
275.872	225.94
276.104	211.94
276.335	208.94
276.567	244.94
276.799	239.94
277.031	249.94
277.262	243.94
277.494	263.94
277.726	250.94
277.957	226.94
278.189	235.94
278.421	237.94
278.652	236.94
278.884	214.94
279.115	232.94
279.347	239.94
279.579	219.94
279.81	229.94
280.042	232.94
280.273	220.94
280.505	215.94
280.736	217.94
280.968	225.94
281.199	221.94
281.431	219.94
281.662	252.94
281.894	239.94
282.125	235.94
282.356	239.94
282.588	258.94
282.819	236.94
283.051	239.94
283.282	233.94
283.513	229.94
283.745	241.94
283.976	245.94
284.207	262.94
284.439	255.94
284.67	240.94
284.901	237.94
285.132	247.94
285.364	249.94
285.595	239.94
285.826	234.94
286.057	249.94
286.288	254.94
286.52	248.94
286.751	257.94
286.982	255.94
287.213	246.94
287.444	230.94
287.675	243.94
287.906	258.94
288.138	256.94
288.369	276.94
288.6	268.94
288.831	270.94
289.062	267.94
289.293	257.94
289.524	252.94
289.755	274.94
289.986	260.94
290.217	241.94
290.448	266.94
290.679	252.94
290.91	244.94
291.141	262.94
291.371	263.94
291.602	263.94
291.833	243.94
292.064	239.94
292.295	232.94
292.526	261.94
292.757	251.94
292.987	248.94
293.218	245.94
293.449	264.94
293.68	267.94
293.91	239.94
294.141	250.94
294.372	259.94
294.603	251.94
294.833	252.94
295.064	281.94
295.295	274.94
295.525	257.94
295.756	269.94
295.987	274.94
296.217	273.94
296.448	283.94
296.679	279.94
296.909	263.94
297.14	271.94
297.37	272.94
297.601	265.94
297.831	275.94
298.062	273.94
298.292	269.94
298.523	271.94
298.753	267.94
298.984	270.94
299.214	263.94
299.445	285.94
299.675	271.94
299.905	269.94
300.136	265.94
300.366	280.94
300.597	291.94
300.827	289.94
301.057	303.94
301.288	299.94
301.518	275.94
301.748	283.94
301.979	284.94
302.209	298.94
302.439	279.94
302.669	291.94
302.9	287.94
303.13	275.94
303.36	271.94
303.59	289.94
303.82	266.94
304.051	300.94
304.281	300.94
304.511	291.94
304.741	275.94
304.971	283.94
305.201	287.94
305.431	285.94
305.661	277.94
305.891	287.94
306.121	276.94
306.352	274.94
306.582	309.94
306.812	279.94
307.042	289.94
307.272	275.94
307.502	299.94
307.731	279.94
307.961	292.94
308.191	277.94
308.421	293.94
308.651	284.94
308.881	292.94
309.111	281.94
309.341	284.94
309.571	301.94
309.8	293.94
310.03	283.94
310.26	298.94
310.49	284.94
310.72	320.94
310.949	313.94
311.179	320.94
311.409	296.94
311.639	298.94
311.868	320.94
312.098	299.94
312.328	302.94
312.557	325.94
312.787	319.94
313.017	312.94
313.246	327.94
313.476	325.94
313.706	320.94
313.935	317.94
314.165	316.94
314.394	317.94
314.624	316.94
314.853	325.94
315.083	321.94
315.312	307.94
315.542	299.94
315.771	322.94
316.001	314.94
316.23	316.94
316.46	321.94
316.689	311.94
316.919	330.94
317.148	323.94
317.377	307.94
317.607	327.94
317.836	318.94
318.065	313.94
318.295	324.94
318.524	307.94
318.753	305.94
318.983	304.94
319.212	308.94
319.441	315.94
319.67	329.94
319.9	319.94
320.129	313.94
320.358	308.94
320.587	315.94
320.816	333.94
321.046	324.94
321.275	321.94
321.504	332.94
321.733	321.94
321.962	315.94
322.191	336.94
322.42	335.94
322.649	353.94
322.878	350.94
323.108	339.94
323.337	368.94
323.566	353.94
323.795	383.94
324.024	396.94
324.253	462.94
324.482	605.94
324.71	846.94
324.939	1120.94
325.168	920.94
325.397	538.94
325.626	426.94
325.855	379.94
326.084	371.94
326.313	376.94
326.542	360.94
326.77	389.94
326.999	450.94
327.228	548.94
327.457	755.94
327.686	863.94
327.914	608.94
328.143	473.94
328.372	428.94
328.6	419.94
328.829	400.94
329.058	407.94
329.287	409.94
329.515	425.94
329.744	356.94
329.972	376.94
330.201	399.94
330.43	417.94
330.658	438.94
330.887	441.94
331.115	429.94
331.344	385.94
331.572	385.94
331.801	373.94
332.03	385.94
332.258	401.94
332.486	382.94
332.715	380.94
332.943	379.94
333.172	395.94
333.4	406.94
333.629	407.94
333.857	415.94
334.085	442.94
334.314	428.94
334.542	443.94
334.771	458.94
334.999	427.94
335.227	404.94
335.455	399.94
335.684	401.94
335.912	382.94
336.14	389.94
336.369	373.94
336.597	373.94
336.825	373.94
337.053	361.94
337.281	375.94
337.51	379.94
337.738	378.94
337.966	353.94
338.194	371.94
338.422	373.94
338.65	361.94
338.878	345.94
339.106	363.94
339.334	353.94
339.562	341.94
339.79	343.94
340.018	356.94
340.246	345.94
340.474	354.94
340.702	354.94
340.93	375.94
341.158	360.94
341.386	345.94
341.614	353.94
341.842	364.94
342.07	347.94
342.298	341.94
342.526	341.94
342.754	352.94
342.981	349.94
343.209	336.94
343.437	359.94
343.665	365.94
343.893	379.94
344.12	388.94
344.348	376.94
344.576	369.94
344.804	368.94
345.031	342.94
345.259	361.94
345.487	345.94
345.714	344.94
345.942	359.94
346.17	339.94
346.397	329.94
346.625	331.94
346.853	340.94
347.08	312.94
347.308	342.94
347.535	344.94
347.763	347.94
347.99	341.94
348.218	334.94
348.445	359.94
348.673	357.94
348.9	331.94
349.128	319.94
349.355	322.94
349.583	318.94
349.81	332.94
350.037	343.94
350.265	332.94
350.492	335.94
350.72	324.94
350.947	335.94
351.174	335.94
351.402	342.94
351.629	334.94
351.856	318.94
352.083	326.94
352.311	344.94
352.538	326.94
352.765	340.94
352.992	341.94
353.22	332.94
353.447	324.94
353.674	336.94
353.901	315.94
354.128	329.94
354.355	312.94
354.583	326.94
354.81	319.94
355.037	294.94
355.264	311.94
355.491	305.94
355.718	327.94
355.945	316.94
356.172	328.94
356.399	311.94
356.626	326.94
356.853	331.94
357.08	337.94
357.307	287.94
357.534	329.94
357.761	319.94
357.988	307.94
358.215	328.94
358.441	317.94
358.668	323.94
358.895	324.94
359.122	322.94
359.349	322.94
359.576	336.94
359.802	338.94
360.029	346.94
360.256	346.94
360.483	343.94
360.709	338.94
360.936	327.94
361.163	319.94
361.39	312.94
361.616	355.94
361.843	343.94
362.07	336.94
362.296	327.94
362.523	320.94
362.749	316.94
362.976	329.94
363.203	313.94
363.429	309.94
363.656	324.94
363.882	301.94
364.109	314.94
364.335	322.94
364.562	327.94
364.788	317.94
365.015	335.94
365.241	319.94
365.468	323.94
365.694	333.94
365.92	311.94
366.147	336.94
366.373	294.94
366.599	323.94
366.826	324.94
367.052	319.94
367.278	324.94
367.505	315.94
367.731	313.94
367.957	322.94
368.184	335.94
368.41	341.94
368.636	332.94
368.862	335.94
369.089	335.94
369.315	336.94
369.541	320.94
369.767	316.94
369.993	341.94
370.219	316.94
370.445	323.94
370.672	335.94
370.898	323.94
371.124	326.94
371.35	319.94
371.576	320.94
371.802	317.94
372.028	320.94
372.254	341.94
372.48	338.94
372.706	339.94
372.932	341.94
373.158	344.94
373.384	336.94
373.61	341.94
373.835	332.94
374.061	328.94
374.287	338.94
374.513	317.94
374.739	346.94
374.965	333.94
375.191	341.94
375.416	355.94
375.642	334.94
375.868	345.94
376.094	328.94
376.319	330.94
376.545	319.94
376.771	305.94
376.997	328.94
377.222	340.94
377.448	343.94
377.674	316.94
377.899	332.94
378.125	316.94
378.35	325.94
378.576	330.94
378.802	318.94
379.027	333.94
379.253	346.94
379.478	325.94
379.704	317.94
379.929	308.94
380.155	340.94
380.38	363.94
380.606	338.94
380.831	337.94
381.057	325.94
381.282	343.94
381.507	332.94
381.733	327.94
381.958	341.94
382.184	331.94
382.409	332.94
382.634	328.94
382.86	343.94
383.085	336.94
383.31	344.94
383.535	348.94
383.761	336.94
383.986	356.94
384.211	357.94
384.436	377.94
384.662	367.94
384.887	355.94
385.112	369.94
385.337	371.94
385.562	354.94
385.787	365.94
386.013	382.94
386.238	383.94
386.463	364.94
386.688	373.94
386.913	352.94
387.138	358.94
387.363	352.94
387.588	359.94
387.813	347.94
388.038	352.94
388.263	377.94
388.488	359.94
388.713	374.94
388.938	369.94
389.163	367.94
389.387	381.94
389.612	347.94
389.837	355.94
390.062	356.94
390.287	359.94
390.512	351.94
390.736	374.94
390.961	363.94
391.186	383.94
391.411	365.94
391.636	385.94
391.86	393.94
392.085	375.94
392.31	365.94
392.534	379.94
392.759	387.94
392.984	377.94
393.208	383.94
393.433	384.94
393.658	378.94
393.882	367.94
394.107	377.94
394.331	367.94
394.556	364.94
394.78	385.94
395.005	376.94
395.229	370.94
395.454	401.94
395.678	381.94
395.903	393.94
396.127	386.94
396.352	400.94
396.576	377.94
396.801	383.94
397.025	375.94
397.249	381.94
397.474	387.94
397.698	398.94
397.922	391.94
398.147	412.94
398.371	413.94
398.595	388.94
398.82	434.94
399.044	439.94
399.268	465.94
399.492	518.94
399.717	545.94
399.941	561.94
400.165	531.94
400.389	514.94
400.613	465.94
400.837	449.94
401.062	456.94
401.286	424.94
401.51	417.94
401.734	441.94
401.958	447.94
402.182	433.94
402.406	432.94
402.63	435.94
402.854	444.94
403.078	438.94
403.302	452.94
403.526	453.94
403.75	470.94
403.974	461.94
404.198	485.94
404.422	444.94
404.645	451.94
404.869	461.94
405.093	488.94
405.317	475.94
405.541	501.94
405.765	474.94
405.988	453.94
406.212	472.94
406.436	487.94
406.66	486.94
406.883	484.94
407.107	497.94
407.331	541.94
407.555	568.94
407.778	523.94
408.002	517.94
408.226	492.94
408.449	480.94
408.673	451.94
408.896	509.94
409.12	492.94
409.344	503.94
409.567	459.94
409.791	440.94
410.014	460.94
410.238	451.94
410.461	429.94
410.685	442.94
410.908	457.94
411.132	466.94
411.355	463.94
411.578	461.94
411.802	433.94
412.025	437.94
412.249	451.94
412.472	456.94
412.695	484.94
412.919	466.94
413.142	455.94
413.365	429.94
413.589	425.94
413.812	426.94
414.035	438.94
414.258	427.94
414.482	423.94
414.705	432.94
414.928	410.94
415.151	421.94
415.374	420.94
415.597	415.94
415.821	415.94
416.044	422.94
416.267	416.94
416.49	439.94
416.713	425.94
416.936	424.94
417.159	418.94
417.382	431.94
417.605	439.94
417.828	413.94
418.051	425.94
418.274	425.94
418.497	416.94
418.72	409.94
418.943	429.94
419.166	449.94
419.389	459.94
419.611	479.94
419.834	456.94
420.057	457.94
420.28	461.94
420.503	433.94
420.726	438.94
420.948	452.94
421.171	461.94
421.394	465.94
421.617	436.94
421.839	421.94
422.062	419.94
422.285	427.94
422.507	480.94
422.73	513.94
422.953	479.94
423.175	445.94
423.398	475.94
423.621	447.94
423.843	456.94
424.066	472.94
424.288	450.94
424.511	473.94
424.733	501.94
424.956	522.94
425.178	503.94
425.401	520.94
425.623	514.94
425.846	458.94
426.068	436.94
426.291	425.94
426.513	452.94
426.735	442.94
426.958	472.94
427.18	505.94
427.402	553.94
427.625	613.94
427.847	545.94
428.069	464.94
428.292	440.94
428.514	410.94
428.736	415.94
428.958	421.94
429.181	407.94
429.403	411.94
429.625	412.94
429.847	412.94
430.069	444.94
430.292	476.94
430.514	426.94
430.736	424.94
430.958	413.94
431.18	395.94
431.402	381.94
431.624	393.94
431.846	401.94
432.068	384.94
432.29	389.94
432.512	411.94
432.734	387.94
432.956	413.94
433.178	405.94
433.4	411.94
433.622	429.94
433.844	408.94
434.066	393.94
434.287	401.94
434.509	412.94
434.731	412.94
434.953	442.94
435.175	421.94
435.397	445.94
435.618	449.94
435.84	460.94
436.062	493.94
436.284	529.94
436.505	464.94
436.727	424.94
436.949	435.94
437.17	399.94
437.392	391.94
437.614	395.94
437.835	414.94
438.057	473.94
438.278	534.94
438.5	515.94
438.721	571.94
438.943	542.94
439.165	443.94
439.386	444.94
439.608	433.94
439.829	435.94
440.05	459.94
440.272	479.94
440.493	447.94
440.715	438.94
440.936	418.94
441.158	420.94
441.379	434.94
441.6	434.94
441.822	433.94
442.043	492.94
442.264	500.94
442.486	524.94
442.707	487.94
442.928	454.94
443.149	465.94
443.371	480.94
443.592	499.94
443.813	537.94
444.034	563.94
444.255	503.94
444.476	473.94
444.698	452.94
444.919	486.94
445.14	623.94
445.361	539.94
445.582	471.94
445.803	496.94
446.024	565.94
446.245	561.94
446.466	500.94
446.687	463.94
446.908	421.94
447.129	410.94
447.35	394.94
447.571	406.94
447.792	390.94
448.013	401.94
448.234	417.94
448.455	434.94
448.675	476.94
448.896	533.94
449.117	472.94
449.338	473.94
449.559	522.94
449.779	571.94
450	474.94
450.221	417.94
450.442	391.94
450.662	380.94
450.883	387.94
451.104	407.94
451.324	395.94
451.545	356.94
451.766	389.94
451.986	370.94
452.207	374.94
452.428	371.94
452.648	373.94
452.869	360.94
453.089	372.94
453.31	360.94
453.53	339.94
453.751	374.94
453.971	357.94
454.192	376.94
454.412	354.94
454.633	352.94
454.853	331.94
455.073	352.94
455.294	378.94
455.514	412.94
455.734	386.94
455.955	377.94
456.175	342.94
456.395	313.94
456.616	365.94
456.836	339.94
457.056	350.94
457.276	321.94
457.497	327.94
457.717	352.94
457.937	364.94
458.157	358.94
458.377	364.94
458.598	360.94
458.818	402.94
459.038	440.94
459.258	459.94
459.478	421.94
459.698	375.94
459.918	389.94
460.138	413.94
460.358	403.94
460.578	431.94
460.798	417.94
461.018	444.94
461.238	425.94
461.458	424.94
461.678	409.94
461.898	419.94
462.118	410.94
462.338	424.94
462.558	446.94
462.777	460.94
462.997	485.94
463.217	492.94
463.437	497.94
463.657	463.94
463.876	452.94
464.096	451.94
464.316	465.94
464.536	483.94
464.755	462.94
464.975	455.94
465.195	473.94
465.414	484.94
465.634	452.94
465.854	441.94
466.073	399.94
466.293	406.94
466.512	385.94
466.732	387.94
466.951	369.94
467.171	371.94
467.391	384.94
467.61	370.94
467.829	372.94
468.049	380.94
468.268	388.94
468.488	368.94
468.707	363.94
468.927	365.94
469.146	355.94
469.365	377.94
469.585	371.94
469.804	363.94
470.023	384.94
470.243	403.94
470.462	394.94
470.681	417.94
470.901	405.94
471.12	383.94
471.339	391.94
471.558	396.94
471.777	403.94
471.997	357.94
472.216	379.94
472.435	396.94
472.654	401.94
472.873	370.94
473.092	386.94
473.311	381.94
473.53	351.94
473.749	371.94
473.968	395.94
474.187	447.94
474.406	460.94
474.625	393.94
474.844	387.94
475.063	401.94
475.282	379.94
475.501	387.94
475.72	393.94
475.939	387.94
476.158	383.94
476.377	390.94
476.596	388.94
476.814	395.94
477.033	384.94
477.252	390.94
477.471	406.94
477.69	420.94
477.908	423.94
478.127	429.94
478.346	414.94
478.564	459.94
478.783	440.94
479.002	445.94
479.22	436.94
479.439	453.94
479.658	422.94
479.876	457.94
480.095	469.94
480.313	499.94
480.532	477.94
480.751	484.94
480.969	474.94
481.188	502.94
481.406	511.94
481.624	464.94
481.843	440.94
482.061	438.94
482.28	455.94
482.498	420.94
482.717	439.94
482.935	421.94
483.153	422.94
483.372	431.94
483.59	443.94
483.808	416.94
484.027	421.94
484.245	428.94
484.463	450.94
484.681	433.94
484.9	435.94
485.118	452.94
485.336	442.94
485.554	449.94
485.772	440.94
485.99	457.94
486.209	439.94
486.427	456.94
486.645	432.94
486.863	479.94
487.081	472.94
487.299	465.94
487.517	434.94
487.735	469.94
487.953	472.94
488.171	484.94
488.389	452.94
488.607	465.94
488.825	469.94
489.043	457.94
489.261	473.94
489.479	467.94
489.696	477.94
489.914	470.94
490.132	471.94
490.35	500.94
490.568	483.94
490.786	505.94
491.003	495.94
491.221	526.94
491.439	523.94
491.657	536.94
491.874	530.94
492.092	551.94
492.31	550.94
492.527	525.94
492.745	531.94
492.963	521.94
493.18	540.94
493.398	534.94
493.615	525.94
493.833	553.94
494.05	540.94
494.268	553.94
494.485	564.94
494.703	529.94
494.92	548.94
495.138	544.94
495.355	534.94
495.573	549.94
495.79	553.94
496.008	561.94
496.225	554.94
496.442	566.94
496.66	546.94
496.877	559.94
497.094	542.94
497.312	547.94
497.529	569.94
497.746	589.94
497.963	592.94
498.181	613.94
498.398	609.94
498.615	630.94
498.832	656.94
499.049	663.94
499.267	688.94
499.484	763.94
499.701	808.94
499.918	824.94
500.135	906.94
500.352	962.94
500.569	978.94
500.786	968.94
501.003	915.94
501.22	908.94
501.437	833.94
501.654	769.94
501.871	756.94
502.088	728.94
502.305	700.94
