Data from 1969.PennyLincolnUp.Lamp.En5.5.200Scan.071719.P1._HRD10591_14-54-35-971.txt Node
Date: Thu Jul 18 14:54:35 EDT 2019
User: cochatt
Spectrometer: HR+D1059
Trigger mode: 1
Integration Time (sec): 1.000000E-1
Scans to average: 1
Electric dark correction enabled: true
Nonlinearity correction enabled: false
Boxcar width: 0
XAxis mode: Wavelengths
Number of Pixels in Spectrum: 2048
>>>>>Begin Spectral Data<<<<<
223.165	-23.25
223.4	-23.25
223.635	-23.25
223.869	-15.25
224.104	-21.25
224.338	-13.25
224.573	-8.25
224.808	-6.25
225.042	-9.25
225.277	-7.25
225.511	-9.25
225.746	-7.25
225.98	6.75
226.215	11.75
226.449	17.75
226.683	22.75
226.918	27.75
227.152	33.75
227.387	31.75
227.621	36.75
227.856	42.75
228.09	48.75
228.324	41.75
228.559	70.75
228.793	66.75
229.027	91.75
229.262	95.75
229.496	87.75
229.73	110.75
229.964	103.75
230.199	88.75
230.433	82.75
230.667	90.75
230.901	88.75
231.136	91.75
231.37	101.75
231.604	98.75
231.838	84.75
232.072	103.75
232.306	118.75
232.541	95.75
232.775	93.75
233.009	106.75
233.243	95.75
233.477	105.75
233.711	107.75
233.945	110.75
234.179	99.75
234.413	109.75
234.647	111.75
234.881	103.75
235.115	107.75
235.349	102.75
235.583	107.75
235.817	107.75
236.051	111.75
236.285	112.75
236.519	104.75
236.753	112.75
236.987	111.75
237.221	147.75
237.455	175.75
237.689	128.75
237.922	119.75
238.156	106.75
238.39	107.75
238.624	119.75
238.858	107.75
239.091	97.75
239.325	115.75
239.559	116.75
239.793	107.75
240.027	123.75
240.26	122.75
240.494	126.75
240.728	132.75
240.961	112.75
241.195	127.75
241.429	130.75
241.662	111.75
241.896	107.75
242.13	120.75
242.363	104.75
242.597	132.75
242.83	120.75
243.064	114.75
243.298	125.75
243.531	136.75
243.765	127.75
243.998	134.75
244.232	129.75
244.465	121.75
244.699	136.75
244.932	126.75
245.166	125.75
245.399	127.75
245.633	142.75
245.866	134.75
246.099	118.75
246.333	135.75
246.566	137.75
246.8	150.75
247.033	138.75
247.266	144.75
247.5	144.75
247.733	148.75
247.966	133.75
248.2	158.75
248.433	150.75
248.666	146.75
248.899	149.75
249.133	153.75
249.366	168.75
249.599	159.75
249.832	159.75
250.066	152.75
250.299	150.75
250.532	152.75
250.765	149.75
250.998	173.75
251.231	188.75
251.465	172.75
251.698	171.75
251.931	156.75
252.164	168.75
252.397	170.75
252.63	171.75
252.863	176.75
253.096	160.75
253.329	172.75
253.562	179.75
253.795	162.75
254.028	178.75
254.261	180.75
254.494	184.75
254.727	184.75
254.96	202.75
255.193	188.75
255.426	184.75
255.659	173.75
255.892	164.75
256.124	191.75
256.357	182.75
256.59	190.75
256.823	167.75
257.056	166.75
257.289	173.75
257.521	178.75
257.754	170.75
257.987	178.75
258.22	176.75
258.452	158.75
258.685	162.75
258.918	171.75
259.151	152.75
259.383	172.75
259.616	196.75
259.849	182.75
260.081	192.75
260.314	193.75
260.547	203.75
260.779	194.75
261.012	182.75
261.244	183.75
261.477	186.75
261.71	170.75
261.942	183.75
262.175	186.75
262.407	184.75
262.64	178.75
262.872	184.75
263.105	173.75
263.337	171.75
263.57	185.75
263.802	159.75
264.035	180.75
264.267	173.75
264.499	158.75
264.732	177.75
264.964	186.75
265.197	184.75
265.429	185.75
265.661	187.75
265.894	186.75
266.126	175.75
266.358	182.75
266.591	177.75
266.823	185.75
267.055	192.75
267.287	203.75
267.52	200.75
267.752	182.75
267.984	207.75
268.216	190.75
268.448	205.75
268.681	203.75
268.913	211.75
269.145	217.75
269.377	214.75
269.609	202.75
269.841	201.75
270.073	217.75
270.306	237.75
270.538	235.75
270.77	235.75
271.002	212.75
271.234	223.75
271.466	228.75
271.698	229.75
271.93	239.75
272.162	227.75
272.394	250.75
272.626	234.75
272.858	234.75
273.09	199.75
273.322	213.75
273.553	202.75
273.785	212.75
274.017	211.75
274.249	211.75
274.481	203.75
274.713	223.75
274.945	230.75
275.176	203.75
275.408	218.75
275.64	214.75
275.872	205.75
276.104	230.75
276.335	214.75
276.567	215.75
276.799	226.75
277.031	250.75
277.262	236.75
277.494	260.75
277.726	242.75
277.957	231.75
278.189	233.75
278.421	214.75
278.652	242.75
278.884	223.75
279.115	218.75
279.347	212.75
279.579	236.75
279.81	225.75
280.042	233.75
280.273	230.75
280.505	217.75
280.736	240.75
280.968	212.75
281.199	200.75
281.431	234.75
281.662	234.75
281.894	234.75
282.125	226.75
282.356	238.75
282.588	258.75
282.819	252.75
283.051	224.75
283.282	246.75
283.513	230.75
283.745	228.75
283.976	250.75
284.207	236.75
284.439	230.75
284.67	235.75
284.901	237.75
285.132	244.75
285.364	244.75
285.595	235.75
285.826	230.75
286.057	235.75
286.288	258.75
286.52	241.75
286.751	255.75
286.982	244.75
287.213	226.75
287.444	253.75
287.675	249.75
287.906	257.75
288.138	251.75
288.369	272.75
288.6	264.75
288.831	240.75
289.062	243.75
289.293	247.75
289.524	248.75
289.755	243.75
289.986	244.75
290.217	251.75
290.448	236.75
290.679	252.75
290.91	260.75
291.141	237.75
291.371	244.75
291.602	224.75
291.833	271.75
292.064	258.75
292.295	253.75
292.526	267.75
292.757	258.75
292.987	238.75
293.218	238.75
293.449	251.75
293.68	250.75
293.91	251.75
294.141	245.75
294.372	250.75
294.603	248.75
294.833	244.75
295.064	252.75
295.295	246.75
295.525	251.75
295.756	256.75
295.987	263.75
296.217	258.75
296.448	260.75
296.679	268.75
296.909	269.75
297.14	254.75
297.37	276.75
297.601	266.75
297.831	258.75
298.062	284.75
298.292	245.75
298.523	268.75
298.753	268.75
298.984	259.75
299.214	256.75
299.445	247.75
299.675	278.75
299.905	272.75
300.136	258.75
300.366	255.75
300.597	280.75
300.827	294.75
301.057	278.75
301.288	261.75
301.518	292.75
301.748	280.75
301.979	275.75
302.209	271.75
302.439	294.75
302.669	287.75
302.9	282.75
303.13	281.75
303.36	282.75
303.59	263.75
303.82	281.75
304.051	274.75
304.281	270.75
304.511	296.75
304.741	274.75
304.971	283.75
305.201	280.75
305.431	268.75
305.661	270.75
305.891	285.75
306.121	284.75
306.352	278.75
306.582	272.75
306.812	273.75
307.042	264.75
307.272	296.75
307.502	283.75
307.731	275.75
307.961	283.75
308.191	303.75
308.421	291.75
308.651	283.75
308.881	268.75
309.111	292.75
309.341	282.75
309.571	297.75
309.8	286.75
310.03	291.75
310.26	282.75
310.49	305.75
310.72	303.75
310.949	292.75
311.179	308.75
311.409	288.75
311.639	297.75
311.868	308.75
312.098	308.75
312.328	303.75
312.557	324.75
312.787	311.75
313.017	312.75
313.246	295.75
313.476	298.75
313.706	323.75
313.935	302.75
314.165	310.75
314.394	306.75
314.624	327.75
314.853	309.75
315.083	312.75
315.312	319.75
315.542	329.75
315.771	306.75
316.001	314.75
316.23	300.75
316.46	314.75
316.689	307.75
316.919	295.75
317.148	293.75
317.377	316.75
317.607	326.75
317.836	318.75
318.065	312.75
318.295	306.75
318.524	292.75
318.753	296.75
318.983	290.75
319.212	314.75
319.441	303.75
319.67	304.75
319.9	314.75
320.129	310.75
320.358	332.75
320.587	306.75
320.816	311.75
321.046	319.75
321.275	322.75
321.504	324.75
321.733	310.75
321.962	333.75
322.191	336.75
322.42	334.75
322.649	345.75
322.878	340.75
323.108	340.75
323.337	348.75
323.566	359.75
323.795	353.75
324.024	368.75
324.253	425.75
324.482	582.75
324.71	788.75
324.939	1034.75
325.168	846.75
325.397	523.75
325.626	406.75
325.855	374.75
326.084	349.75
326.313	364.75
326.542	374.75
326.77	375.75
326.999	441.75
327.228	542.75
327.457	714.75
327.686	789.75
327.914	584.75
328.143	444.75
328.372	418.75
328.6	404.75
328.829	399.75
329.058	400.75
329.287	399.75
329.515	372.75
329.744	365.75
329.972	382.75
330.201	384.75
330.43	393.75
330.658	404.75
330.887	425.75
331.115	428.75
331.344	383.75
331.572	366.75
331.801	375.75
332.03	390.75
332.258	381.75
332.486	374.75
332.715	358.75
332.943	380.75
333.172	378.75
333.4	390.75
333.629	384.75
333.857	408.75
334.085	397.75
334.314	439.75
334.542	442.75
334.771	438.75
334.999	403.75
335.227	382.75
335.455	403.75
335.684	382.75
335.912	370.75
336.14	372.75
336.369	363.75
336.597	380.75
336.825	378.75
337.053	381.75
337.281	351.75
337.51	390.75
337.738	373.75
337.966	363.75
338.194	364.75
338.422	361.75
338.65	372.75
338.878	342.75
339.106	352.75
339.334	350.75
339.562	364.75
339.79	349.75
340.018	350.75
340.246	336.75
340.474	352.75
340.702	358.75
340.93	346.75
341.158	359.75
341.386	360.75
341.614	358.75
341.842	341.75
342.07	319.75
342.298	350.75
342.526	356.75
342.754	353.75
342.981	342.75
343.209	342.75
343.437	350.75
343.665	358.75
343.893	365.75
344.12	394.75
344.348	373.75
344.576	388.75
344.804	370.75
345.031	383.75
345.259	374.75
345.487	356.75
345.714	340.75
345.942	333.75
346.17	335.75
346.397	321.75
346.625	328.75
346.853	304.75
347.08	308.75
347.308	322.75
347.535	335.75
347.763	332.75
347.99	328.75
348.218	334.75
348.445	331.75
348.673	320.75
348.9	327.75
349.128	334.75
349.355	318.75
349.583	322.75
349.81	312.75
350.037	310.75
350.265	340.75
350.492	331.75
350.72	324.75
350.947	318.75
351.174	316.75
351.402	351.75
351.629	340.75
351.856	344.75
352.083	314.75
352.311	338.75
352.538	338.75
352.765	336.75
352.992	324.75
353.22	346.75
353.447	346.75
353.674	325.75
353.901	315.75
354.128	314.75
354.355	303.75
354.583	325.75
354.81	313.75
355.037	323.75
355.264	325.75
355.491	327.75
355.718	321.75
355.945	324.75
356.172	314.75
356.399	324.75
356.626	299.75
356.853	303.75
357.08	298.75
357.307	316.75
357.534	314.75
357.761	320.75
357.988	314.75
358.215	307.75
358.441	330.75
358.668	311.75
358.895	318.75
359.122	330.75
359.349	317.75
359.576	318.75
359.802	335.75
360.029	362.75
360.256	354.75
360.483	332.75
360.709	322.75
360.936	331.75
361.163	307.75
361.39	316.75
361.616	306.75
361.843	315.75
362.07	327.75
362.296	332.75
362.523	322.75
362.749	318.75
362.976	316.75
363.203	344.75
363.429	318.75
363.656	327.75
363.882	307.75
364.109	308.75
364.335	320.75
364.562	307.75
364.788	325.75
365.015	321.75
365.241	321.75
365.468	312.75
365.694	323.75
365.92	324.75
366.147	322.75
366.373	308.75
366.599	319.75
366.826	316.75
367.052	327.75
367.278	323.75
367.505	299.75
367.731	325.75
367.957	306.75
368.184	327.75
368.41	306.75
368.636	344.75
368.862	335.75
369.089	317.75
369.315	320.75
369.541	319.75
369.767	318.75
369.993	316.75
370.219	326.75
370.445	317.75
370.672	323.75
370.898	314.75
371.124	335.75
371.35	301.75
371.576	313.75
371.802	322.75
372.028	325.75
372.254	335.75
372.48	336.75
372.706	332.75
372.932	340.75
373.158	339.75
373.384	329.75
373.61	348.75
373.835	332.75
374.061	351.75
374.287	322.75
374.513	336.75
374.739	341.75
374.965	331.75
375.191	343.75
375.416	356.75
375.642	320.75
375.868	334.75
376.094	332.75
376.319	329.75
376.545	330.75
376.771	314.75
376.997	328.75
377.222	338.75
377.448	329.75
377.674	324.75
377.899	317.75
378.125	320.75
378.35	325.75
378.576	326.75
378.802	313.75
379.027	313.75
379.253	309.75
379.478	324.75
379.704	322.75
379.929	328.75
380.155	319.75
380.38	328.75
380.606	323.75
380.831	327.75
381.057	336.75
381.282	329.75
381.507	321.75
381.733	346.75
381.958	319.75
382.184	324.75
382.409	319.75
382.634	343.75
382.86	329.75
383.085	338.75
383.31	335.75
383.535	334.75
383.761	346.75
383.986	339.75
384.211	338.75
384.436	341.75
384.662	371.75
384.887	368.75
385.112	347.75
385.337	362.75
385.562	377.75
385.787	356.75
386.013	366.75
386.238	363.75
386.463	340.75
386.688	361.75
386.913	369.75
387.138	364.75
387.363	361.75
387.588	339.75
387.813	365.75
388.038	364.75
388.263	374.75
388.488	366.75
388.713	350.75
388.938	358.75
389.163	359.75
389.387	344.75
389.612	348.75
389.837	337.75
390.062	375.75
390.287	353.75
390.512	355.75
390.736	350.75
390.961	360.75
391.186	357.75
391.411	386.75
391.636	375.75
391.86	384.75
392.085	388.75
392.31	383.75
392.534	380.75
392.759	366.75
392.984	352.75
393.208	393.75
393.433	386.75
393.658	381.75
393.882	377.75
394.107	355.75
394.331	376.75
394.556	374.75
394.78	381.75
395.005	372.75
395.229	388.75
395.454	399.75
395.678	396.75
395.903	389.75
396.127	387.75
396.352	416.75
396.576	392.75
396.801	388.75
397.025	392.75
397.249	399.75
397.474	382.75
397.698	396.75
397.922	390.75
398.147	399.75
398.371	408.75
398.595	408.75
398.82	407.75
399.044	432.75
399.268	478.75
399.492	494.75
399.717	551.75
399.941	547.75
400.165	532.75
400.389	521.75
400.613	486.75
400.837	440.75
401.062	410.75
401.286	418.75
401.51	411.75
401.734	417.75
401.958	412.75
402.182	432.75
402.406	436.75
402.63	427.75
402.854	434.75
403.078	451.75
403.302	434.75
403.526	440.75
403.75	476.75
403.974	462.75
404.198	453.75
404.422	452.75
404.645	463.75
404.869	458.75
405.093	471.75
405.317	486.75
405.541	481.75
405.765	460.75
405.988	438.75
406.212	459.75
406.436	440.75
406.66	478.75
406.883	469.75
407.107	471.75
407.331	503.75
407.555	534.75
407.778	534.75
408.002	494.75
408.226	504.75
408.449	468.75
408.673	476.75
408.896	476.75
409.12	456.75
409.344	472.75
409.567	436.75
409.791	451.75
410.014	428.75
410.238	438.75
410.461	434.75
410.685	445.75
410.908	462.75
411.132	457.75
411.355	464.75
411.578	438.75
411.802	421.75
412.025	445.75
412.249	444.75
412.472	451.75
412.695	468.75
412.919	447.75
413.142	432.75
413.365	441.75
413.589	427.75
413.812	412.75
414.035	411.75
414.258	410.75
414.482	412.75
414.705	412.75
414.928	407.75
415.151	398.75
415.374	406.75
415.597	394.75
415.821	413.75
416.044	397.75
416.267	428.75
416.49	428.75
416.713	409.75
416.936	413.75
417.159	411.75
417.382	415.75
417.605	407.75
417.828	427.75
418.051	446.75
418.274	406.75
418.497	408.75
418.72	402.75
418.943	427.75
419.166	448.75
419.389	462.75
419.611	442.75
419.834	438.75
420.057	447.75
420.28	423.75
420.503	417.75
420.726	426.75
420.948	429.75
421.171	446.75
421.394	464.75
421.617	432.75
421.839	399.75
422.062	440.75
422.285	431.75
422.507	451.75
422.73	492.75
422.953	472.75
423.175	456.75
423.398	436.75
423.621	437.75
423.843	439.75
424.066	455.75
424.288	457.75
424.511	465.75
424.733	485.75
424.956	517.75
425.178	510.75
425.401	480.75
425.623	502.75
425.846	459.75
426.068	444.75
426.291	422.75
426.513	411.75
426.735	438.75
426.958	429.75
427.18	482.75
427.402	536.75
427.625	592.75
427.847	508.75
428.069	469.75
428.292	422.75
428.514	425.75
428.736	426.75
428.958	385.75
429.181	407.75
429.403	396.75
429.625	394.75
429.847	437.75
430.069	448.75
430.292	456.75
430.514	406.75
430.736	394.75
430.958	387.75
431.18	367.75
431.402	384.75
431.624	388.75
431.846	405.75
432.068	384.75
432.29	394.75
432.512	389.75
432.734	399.75
432.956	390.75
433.178	397.75
433.4	383.75
433.622	400.75
433.844	403.75
434.066	401.75
434.287	388.75
434.509	394.75
434.731	420.75
434.953	419.75
435.175	408.75
435.397	449.75
435.618	436.75
435.84	445.75
436.062	483.75
436.284	496.75
436.505	456.75
436.727	420.75
436.949	416.75
437.17	395.75
437.392	394.75
437.614	393.75
437.835	422.75
438.057	463.75
438.278	480.75
438.5	510.75
438.721	547.75
438.943	522.75
439.165	450.75
439.386	427.75
439.608	427.75
439.829	414.75
440.05	439.75
440.272	462.75
440.493	431.75
440.715	429.75
440.936	403.75
441.158	411.75
441.379	430.75
441.6	428.75
441.822	435.75
442.043	463.75
442.264	493.75
442.486	515.75
442.707	458.75
442.928	441.75
443.149	442.75
443.371	451.75
443.592	466.75
443.813	524.75
444.034	559.75
444.255	487.75
444.476	466.75
444.698	466.75
444.919	470.75
445.14	571.75
445.361	518.75
445.582	470.75
445.803	499.75
446.024	523.75
446.245	521.75
446.466	481.75
446.687	429.75
446.908	438.75
447.129	414.75
447.35	416.75
447.571	391.75
447.792	392.75
448.013	371.75
448.234	390.75
448.455	432.75
448.675	461.75
448.896	519.75
449.117	463.75
449.338	446.75
449.559	489.75
449.779	524.75
450	437.75
450.221	400.75
450.442	380.75
450.662	396.75
450.883	381.75
451.104	383.75
451.324	383.75
451.545	378.75
451.766	357.75
451.986	359.75
452.207	377.75
452.428	349.75
452.648	367.75
452.869	362.75
453.089	365.75
453.31	357.75
453.53	376.75
453.751	349.75
453.971	357.75
454.192	360.75
454.412	362.75
454.633	353.75
454.853	356.75
455.073	364.75
455.294	359.75
455.514	402.75
455.734	390.75
455.955	375.75
456.175	335.75
456.395	341.75
456.616	359.75
456.836	337.75
457.056	332.75
457.276	330.75
457.497	343.75
457.717	346.75
457.937	345.75
458.157	352.75
458.377	341.75
458.598	359.75
458.818	406.75
459.038	427.75
459.258	453.75
459.478	401.75
459.698	390.75
459.918	404.75
460.138	383.75
460.358	403.75
460.578	406.75
460.798	431.75
461.018	419.75
461.238	414.75
461.458	398.75
461.678	414.75
461.898	429.75
462.118	420.75
462.338	455.75
462.558	434.75
462.777	436.75
462.997	479.75
463.217	480.75
463.437	489.75
463.657	456.75
463.876	465.75
464.096	472.75
464.316	464.75
464.536	460.75
464.755	438.75
464.975	444.75
465.195	455.75
465.414	450.75
465.634	403.75
465.854	404.75
466.073	387.75
466.293	382.75
466.512	383.75
466.732	388.75
466.951	384.75
467.171	378.75
467.391	374.75
467.61	381.75
467.829	378.75
468.049	376.75
468.268	379.75
468.488	367.75
468.707	358.75
468.927	357.75
469.146	382.75
469.365	370.75
469.585	361.75
469.804	389.75
470.023	359.75
470.243	371.75
470.462	375.75
470.681	399.75
470.901	393.75
471.12	379.75
471.339	387.75
471.558	379.75
471.777	376.75
471.997	381.75
472.216	382.75
472.435	393.75
472.654	383.75
472.873	368.75
473.092	378.75
473.311	377.75
473.53	379.75
473.749	375.75
473.968	382.75
474.187	446.75
474.406	429.75
474.625	384.75
474.844	388.75
475.063	366.75
475.282	365.75
475.501	371.75
475.72	382.75
475.939	366.75
476.158	388.75
476.377	381.75
476.596	372.75
476.814	406.75
477.033	381.75
477.252	413.75
477.471	395.75
477.69	396.75
477.908	409.75
478.127	419.75
478.346	408.75
478.564	429.75
478.783	442.75
479.002	439.75
479.22	439.75
479.439	455.75
479.658	449.75
479.876	459.75
480.095	444.75
480.313	470.75
480.532	464.75
480.751	451.75
480.969	432.75
481.188	486.75
481.406	512.75
481.624	468.75
481.843	448.75
482.061	421.75
482.28	459.75
482.498	434.75
482.717	420.75
482.935	434.75
483.153	414.75
483.372	426.75
483.59	403.75
483.808	392.75
484.027	439.75
484.245	414.75
484.463	434.75
484.681	429.75
484.9	442.75
485.118	420.75
485.336	425.75
485.554	423.75
485.772	445.75
485.99	431.75
486.209	443.75
486.427	446.75
486.645	442.75
486.863	443.75
487.081	454.75
487.299	444.75
487.517	441.75
487.735	464.75
487.953	446.75
488.171	484.75
488.389	462.75
488.607	475.75
488.825	458.75
489.043	438.75
489.261	457.75
489.479	452.75
489.696	471.75
489.914	482.75
490.132	488.75
490.35	476.75
490.568	470.75
490.786	491.75
491.003	512.75
491.221	474.75
491.439	515.75
491.657	520.75
491.874	504.75
492.092	520.75
492.31	541.75
492.527	514.75
492.745	522.75
492.963	535.75
493.18	519.75
493.398	538.75
493.615	525.75
493.833	538.75
494.05	504.75
494.268	508.75
494.485	521.75
494.703	533.75
494.92	522.75
495.138	534.75
495.355	547.75
495.573	542.75
495.79	547.75
496.008	523.75
496.225	543.75
496.442	540.75
496.66	537.75
496.877	538.75
497.094	550.75
497.312	530.75
497.529	568.75
497.746	579.75
497.963	580.75
498.181	596.75
498.398	593.75
498.615	594.75
498.832	620.75
499.049	640.75
499.267	688.75
499.484	712.75
499.701	741.75
499.918	797.75
500.135	867.75
500.352	923.75
500.569	965.75
500.786	960.75
501.003	922.75
501.22	866.75
501.437	807.75
501.654	754.75
501.871	739.75
502.088	703.75
