Data from 1969.PennyLincolnUp.Lamp.En5.5.200Scan.071719.P1._HRD10591_14-55-37-973.txt Node
Date: Thu Jul 18 14:55:37 EDT 2019
User: cochatt
Spectrometer: HR+D1059
Trigger mode: 1
Integration Time (sec): 1.000000E-1
Scans to average: 1
Electric dark correction enabled: true
Nonlinearity correction enabled: false
Boxcar width: 0
XAxis mode: Wavelengths
Number of Pixels in Spectrum: 2048
>>>>>Begin Spectral Data<<<<<
223.165	-18.75
223.4	-18.75
223.635	-18.75
223.869	-26.75
224.104	-3.75
224.338	-16.75
224.573	-21.75
224.808	-0.75
225.042	-4.75
225.277	-3.75
225.511	2.25
225.746	15.25
225.98	2.25
226.215	10.25
226.449	6.25
226.683	14.25
226.918	9.25
227.152	37.25
227.387	21.25
227.621	26.25
227.856	47.25
228.09	36.25
228.324	54.25
228.559	62.25
228.793	58.25
229.027	80.25
229.262	96.25
229.496	109.25
229.73	96.25
229.964	120.25
230.199	100.25
230.433	109.25
230.667	103.25
230.901	94.25
231.136	97.25
231.37	100.25
231.604	110.25
231.838	104.25
232.072	93.25
232.306	84.25
232.541	114.25
232.775	100.25
233.009	102.25
233.243	115.25
233.477	99.25
233.711	90.25
233.945	120.25
234.179	90.25
234.413	106.25
234.647	103.25
234.881	110.25
235.115	107.25
235.349	116.25
235.583	116.25
235.817	122.25
236.051	130.25
236.285	107.25
236.519	101.25
236.753	116.25
236.987	122.25
237.221	142.25
237.455	158.25
237.689	142.25
237.922	120.25
238.156	116.25
238.39	120.25
238.624	108.25
238.858	102.25
239.091	127.25
239.325	126.25
239.559	120.25
239.793	100.25
240.027	114.25
240.26	124.25
240.494	127.25
240.728	124.25
240.961	124.25
241.195	133.25
241.429	126.25
241.662	122.25
241.896	124.25
242.13	118.25
242.363	118.25
242.597	121.25
242.83	111.25
243.064	126.25
243.298	135.25
243.531	132.25
243.765	136.25
243.998	120.25
244.232	138.25
244.465	126.25
244.699	119.25
244.932	126.25
245.166	132.25
245.399	126.25
245.633	141.25
245.866	119.25
246.099	126.25
246.333	123.25
246.566	118.25
246.8	138.25
247.033	126.25
247.266	142.25
247.5	139.25
247.733	134.25
247.966	154.25
248.2	148.25
248.433	135.25
248.666	135.25
248.899	150.25
249.133	158.25
249.366	158.25
249.599	177.25
249.832	163.25
250.066	162.25
250.299	145.25
250.532	142.25
250.765	174.25
250.998	185.25
251.231	175.25
251.465	192.25
251.698	163.25
251.931	173.25
252.164	153.25
252.397	156.25
252.63	157.25
252.863	171.25
253.096	182.25
253.329	178.25
253.562	173.25
253.795	169.25
254.028	207.25
254.261	175.25
254.494	199.25
254.727	190.25
254.96	214.25
255.193	214.25
255.426	196.25
255.659	173.25
255.892	206.25
256.124	192.25
256.357	197.25
256.59	186.25
256.823	188.25
257.056	186.25
257.289	173.25
257.521	172.25
257.754	158.25
257.987	184.25
258.22	167.25
258.452	158.25
258.685	176.25
258.918	184.25
259.151	191.25
259.383	190.25
259.616	167.25
259.849	179.25
260.081	175.25
260.314	197.25
260.547	208.25
260.779	195.25
261.012	180.25
261.244	194.25
261.477	192.25
261.71	186.25
261.942	182.25
262.175	189.25
262.407	196.25
262.64	190.25
262.872	171.25
263.105	199.25
263.337	183.25
263.57	173.25
263.802	182.25
264.035	173.25
264.267	169.25
264.499	185.25
264.732	196.25
264.964	178.25
265.197	186.25
265.429	184.25
265.661	182.25
265.894	175.25
266.126	174.25
266.358	181.25
266.591	185.25
266.823	205.25
267.055	188.25
267.287	192.25
267.52	199.25
267.752	194.25
267.984	212.25
268.216	194.25
268.448	217.25
268.681	203.25
268.913	215.25
269.145	221.25
269.377	220.25
269.609	208.25
269.841	227.25
270.073	236.25
270.306	246.25
270.538	255.25
270.77	254.25
271.002	250.25
271.234	236.25
271.466	247.25
271.698	239.25
271.93	255.25
272.162	264.25
272.394	232.25
272.626	250.25
272.858	226.25
273.09	233.25
273.322	211.25
273.553	218.25
273.785	226.25
274.017	233.25
274.249	202.25
274.481	218.25
274.713	228.25
274.945	228.25
275.176	227.25
275.408	222.25
275.64	239.25
275.872	231.25
276.104	245.25
276.335	232.25
276.567	226.25
276.799	230.25
277.031	231.25
277.262	253.25
277.494	267.25
277.726	230.25
277.957	240.25
278.189	233.25
278.421	218.25
278.652	219.25
278.884	226.25
279.115	238.25
279.347	238.25
279.579	222.25
279.81	235.25
280.042	220.25
280.273	234.25
280.505	222.25
280.736	229.25
280.968	217.25
281.199	238.25
281.431	236.25
281.662	231.25
281.894	232.25
282.125	256.25
282.356	231.25
282.588	256.25
282.819	242.25
283.051	230.25
283.282	235.25
283.513	243.25
283.745	228.25
283.976	242.25
284.207	251.25
284.439	247.25
284.67	246.25
284.901	234.25
285.132	239.25
285.364	262.25
285.595	256.25
285.826	259.25
286.057	244.25
286.288	246.25
286.52	254.25
286.751	244.25
286.982	266.25
287.213	262.25
287.444	249.25
287.675	266.25
287.906	243.25
288.138	270.25
288.369	266.25
288.6	278.25
288.831	267.25
289.062	258.25
289.293	248.25
289.524	251.25
289.755	250.25
289.986	254.25
290.217	256.25
290.448	261.25
290.679	264.25
290.91	260.25
291.141	258.25
291.371	250.25
291.602	232.25
291.833	249.25
292.064	260.25
292.295	265.25
292.526	271.25
292.757	266.25
292.987	265.25
293.218	269.25
293.449	252.25
293.68	262.25
293.91	257.25
294.141	242.25
294.372	256.25
294.603	254.25
294.833	260.25
295.064	263.25
295.295	271.25
295.525	252.25
295.756	273.25
295.987	270.25
296.217	270.25
296.448	275.25
296.679	284.25
296.909	261.25
297.14	265.25
297.37	272.25
297.601	274.25
297.831	278.25
298.062	289.25
298.292	265.25
298.523	269.25
298.753	268.25
298.984	246.25
299.214	273.25
299.445	278.25
299.675	266.25
299.905	282.25
300.136	285.25
300.366	277.25
300.597	264.25
300.827	268.25
301.057	266.25
301.288	295.25
301.518	302.25
301.748	283.25
301.979	255.25
302.209	302.25
302.439	291.25
302.669	272.25
302.9	291.25
303.13	288.25
303.36	294.25
303.59	286.25
303.82	283.25
304.051	288.25
304.281	280.25
304.511	292.25
304.741	280.25
304.971	278.25
305.201	288.25
305.431	271.25
305.661	282.25
305.891	279.25
306.121	291.25
306.352	271.25
306.582	299.25
306.812	278.25
307.042	300.25
307.272	290.25
307.502	290.25
307.731	279.25
307.961	288.25
308.191	264.25
308.421	287.25
308.651	312.25
308.881	278.25
309.111	314.25
309.341	276.25
309.571	284.25
309.8	291.25
310.03	297.25
310.26	298.25
310.49	317.25
310.72	311.25
310.949	306.25
311.179	329.25
311.409	323.25
311.639	333.25
311.868	333.25
312.098	307.25
312.328	308.25
312.557	332.25
312.787	307.25
313.017	316.25
313.246	310.25
313.476	312.25
313.706	295.25
313.935	303.25
314.165	336.25
314.394	343.25
314.624	338.25
314.853	346.25
315.083	316.25
315.312	299.25
315.542	318.25
315.771	320.25
316.001	320.25
316.23	346.25
316.46	306.25
316.689	321.25
316.919	327.25
317.148	331.25
317.377	322.25
317.607	323.25
317.836	316.25
318.065	326.25
318.295	312.25
318.524	335.25
318.753	321.25
318.983	321.25
319.212	300.25
319.441	326.25
319.67	323.25
319.9	308.25
320.129	321.25
320.358	331.25
320.587	307.25
320.816	326.25
321.046	313.25
321.275	330.25
321.504	315.25
321.733	339.25
321.962	326.25
322.191	325.25
322.42	344.25
322.649	354.25
322.878	337.25
323.108	364.25
323.337	363.25
323.566	370.25
323.795	387.25
324.024	414.25
324.253	484.25
324.482	624.25
324.71	890.25
324.939	1146.25
325.168	935.25
325.397	532.25
325.626	434.25
325.855	384.25
326.084	377.25
326.313	382.25
326.542	371.25
326.77	405.25
326.999	462.25
327.228	556.25
327.457	786.25
327.686	876.25
327.914	600.25
328.143	461.25
328.372	432.25
328.6	435.25
328.829	406.25
329.058	414.25
329.287	424.25
329.515	422.25
329.744	382.25
329.972	390.25
330.201	414.25
330.43	421.25
330.658	429.25
330.887	447.25
331.115	437.25
331.344	427.25
331.572	376.25
331.801	366.25
332.03	376.25
332.258	394.25
332.486	386.25
332.715	395.25
332.943	388.25
333.172	393.25
333.4	407.25
333.629	426.25
333.857	434.25
334.085	439.25
334.314	459.25
334.542	439.25
334.771	486.25
334.999	406.25
335.227	390.25
335.455	391.25
335.684	400.25
335.912	389.25
336.14	392.25
336.369	379.25
336.597	388.25
336.825	396.25
337.053	382.25
337.281	366.25
337.51	367.25
337.738	371.25
337.966	366.25
338.194	370.25
338.422	375.25
338.65	377.25
338.878	338.25
339.106	370.25
339.334	350.25
339.562	337.25
339.79	354.25
340.018	344.25
340.246	349.25
340.474	378.25
340.702	352.25
340.93	382.25
341.158	372.25
341.386	332.25
341.614	367.25
341.842	375.25
342.07	352.25
342.298	328.25
342.526	351.25
342.754	344.25
342.981	341.25
343.209	323.25
343.437	386.25
343.665	374.25
343.893	354.25
344.12	384.25
344.348	384.25
344.576	382.25
344.804	358.25
345.031	378.25
345.259	368.25
345.487	371.25
345.714	349.25
345.942	359.25
346.17	331.25
346.397	341.25
346.625	319.25
346.853	336.25
347.08	336.25
347.308	359.25
347.535	332.25
347.763	351.25
347.99	339.25
348.218	322.25
348.445	363.25
348.673	349.25
348.9	345.25
349.128	318.25
349.355	338.25
349.583	326.25
349.81	337.25
350.037	338.25
350.265	333.25
350.492	314.25
350.72	336.25
350.947	331.25
351.174	329.25
351.402	340.25
351.629	351.25
351.856	336.25
352.083	348.25
352.311	350.25
352.538	326.25
352.765	338.25
352.992	335.25
353.22	344.25
353.447	354.25
353.674	327.25
353.901	338.25
354.128	341.25
354.355	317.25
354.583	308.25
354.81	310.25
355.037	315.25
355.264	293.25
355.491	326.25
355.718	317.25
355.945	318.25
356.172	315.25
356.399	311.25
356.626	327.25
356.853	303.25
357.08	330.25
357.307	314.25
357.534	320.25
357.761	302.25
357.988	326.25
358.215	314.25
358.441	330.25
358.668	310.25
358.895	338.25
359.122	330.25
359.349	323.25
359.576	327.25
359.802	356.25
360.029	345.25
360.256	366.25
360.483	358.25
360.709	347.25
360.936	332.25
361.163	310.25
361.39	308.25
361.616	330.25
361.843	345.25
362.07	323.25
362.296	340.25
362.523	344.25
362.749	329.25
362.976	320.25
363.203	322.25
363.429	334.25
363.656	344.25
363.882	309.25
364.109	311.25
364.335	323.25
364.562	314.25
364.788	319.25
365.015	337.25
365.241	336.25
365.468	321.25
365.694	324.25
365.92	342.25
366.147	306.25
366.373	324.25
366.599	320.25
366.826	314.25
367.052	319.25
367.278	324.25
367.505	339.25
367.731	327.25
367.957	337.25
368.184	319.25
368.41	318.25
368.636	333.25
368.862	333.25
369.089	324.25
369.315	322.25
369.541	332.25
369.767	322.25
369.993	345.25
370.219	335.25
370.445	346.25
370.672	329.25
370.898	327.25
371.124	333.25
371.35	332.25
371.576	331.25
371.802	330.25
372.028	331.25
372.254	331.25
372.48	353.25
372.706	335.25
372.932	347.25
373.158	328.25
373.384	351.25
373.61	330.25
373.835	333.25
374.061	343.25
374.287	331.25
374.513	331.25
374.739	353.25
374.965	350.25
375.191	336.25
375.416	362.25
375.642	335.25
375.868	332.25
376.094	319.25
376.319	343.25
376.545	333.25
376.771	327.25
376.997	319.25
377.222	343.25
377.448	334.25
377.674	326.25
377.899	315.25
378.125	330.25
378.35	319.25
378.576	330.25
378.802	336.25
379.027	328.25
379.253	345.25
379.478	333.25
379.704	340.25
379.929	312.25
380.155	333.25
380.38	318.25
380.606	338.25
380.831	326.25
381.057	328.25
381.282	334.25
381.507	317.25
381.733	313.25
381.958	335.25
382.184	336.25
382.409	319.25
382.634	345.25
382.86	343.25
383.085	337.25
383.31	342.25
383.535	362.25
383.761	348.25
383.986	343.25
384.211	366.25
384.436	352.25
384.662	354.25
384.887	367.25
385.112	359.25
385.337	374.25
385.562	361.25
385.787	375.25
386.013	367.25
386.238	380.25
386.463	364.25
386.688	360.25
386.913	359.25
387.138	360.25
387.363	350.25
387.588	352.25
387.813	377.25
388.038	370.25
388.263	357.25
388.488	368.25
388.713	368.25
388.938	359.25
389.163	354.25
389.387	354.25
389.612	365.25
389.837	361.25
390.062	370.25
390.287	372.25
390.512	361.25
390.736	347.25
390.961	362.25
391.186	373.25
391.411	362.25
391.636	388.25
391.86	398.25
392.085	410.25
392.31	401.25
392.534	390.25
392.759	377.25
392.984	374.25
393.208	376.25
393.433	379.25
393.658	377.25
393.882	381.25
394.107	378.25
394.331	374.25
394.556	372.25
394.78	376.25
395.005	375.25
395.229	376.25
395.454	384.25
395.678	414.25
395.903	407.25
396.127	400.25
396.352	411.25
396.576	371.25
396.801	387.25
397.025	393.25
397.249	391.25
397.474	411.25
397.698	419.25
397.922	411.25
398.147	400.25
398.371	390.25
398.595	426.25
398.82	429.25
399.044	448.25
399.268	454.25
399.492	512.25
399.717	558.25
399.941	537.25
400.165	533.25
400.389	502.25
400.613	458.25
400.837	430.25
401.062	439.25
401.286	438.25
401.51	436.25
401.734	418.25
401.958	445.25
402.182	450.25
402.406	442.25
402.63	415.25
402.854	469.25
403.078	453.25
403.302	464.25
403.526	456.25
403.75	457.25
403.974	456.25
404.198	440.25
404.422	465.25
404.645	471.25
404.869	477.25
405.093	482.25
405.317	502.25
405.541	532.25
405.765	469.25
405.988	477.25
406.212	463.25
406.436	468.25
406.66	495.25
406.883	479.25
407.107	498.25
407.331	506.25
407.555	555.25
407.778	574.25
408.002	535.25
408.226	504.25
408.449	476.25
408.673	480.25
408.896	487.25
409.12	488.25
409.344	466.25
409.567	469.25
409.791	448.25
410.014	459.25
410.238	457.25
410.461	467.25
410.685	440.25
410.908	456.25
411.132	483.25
411.355	494.25
411.578	469.25
411.802	440.25
412.025	420.25
412.249	434.25
412.472	452.25
412.695	474.25
412.919	455.25
413.142	430.25
413.365	418.25
413.589	418.25
413.812	424.25
414.035	421.25
414.258	422.25
414.482	425.25
414.705	428.25
414.928	410.25
415.151	422.25
415.374	424.25
415.597	407.25
415.821	404.25
416.044	404.25
416.267	404.25
416.49	404.25
416.713	403.25
416.936	419.25
417.159	412.25
417.382	426.25
417.605	411.25
417.828	430.25
418.051	432.25
418.274	428.25
418.497	412.25
418.72	440.25
418.943	419.25
419.166	431.25
419.389	464.25
419.611	447.25
419.834	441.25
420.057	448.25
420.28	451.25
420.503	434.25
420.726	439.25
420.948	438.25
421.171	451.25
421.394	484.25
421.617	437.25
421.839	430.25
422.062	438.25
422.285	429.25
422.507	480.25
422.73	487.25
422.953	505.25
423.175	461.25
423.398	454.25
423.621	452.25
423.843	475.25
424.066	460.25
424.288	447.25
424.511	471.25
424.733	501.25
424.956	519.25
425.178	535.25
425.401	502.25
425.623	517.25
425.846	468.25
426.068	439.25
426.291	452.25
426.513	450.25
426.735	440.25
426.958	441.25
427.18	510.25
427.402	573.25
427.625	629.25
427.847	523.25
428.069	475.25
428.292	460.25
428.514	420.25
428.736	418.25
428.958	423.25
429.181	398.25
429.403	392.25
429.625	414.25
429.847	433.25
430.069	454.25
430.292	462.25
430.514	403.25
430.736	394.25
430.958	379.25
431.18	386.25
431.402	386.25
431.624	384.25
431.846	384.25
432.068	382.25
432.29	396.25
432.512	380.25
432.734	392.25
432.956	407.25
433.178	397.25
433.4	382.25
433.622	402.25
433.844	392.25
434.066	404.25
434.287	406.25
434.509	430.25
434.731	417.25
434.953	410.25
435.175	423.25
435.397	458.25
435.618	426.25
435.84	465.25
436.062	497.25
436.284	523.25
436.505	437.25
436.727	406.25
436.949	416.25
437.17	416.25
437.392	397.25
437.614	400.25
437.835	429.25
438.057	468.25
438.278	527.25
438.5	525.25
438.721	556.25
438.943	530.25
439.165	466.25
439.386	438.25
439.608	426.25
439.829	443.25
440.05	434.25
440.272	464.25
440.493	452.25
440.715	448.25
440.936	404.25
441.158	415.25
441.379	412.25
441.6	425.25
441.822	442.25
442.043	477.25
442.264	519.25
442.486	510.25
442.707	462.25
442.928	461.25
443.149	454.25
443.371	467.25
443.592	510.25
443.813	538.25
444.034	558.25
444.255	498.25
444.476	485.25
444.698	457.25
444.919	459.25
445.14	609.25
445.361	541.25
445.582	473.25
445.803	499.25
446.024	578.25
446.245	543.25
446.466	498.25
446.687	438.25
446.908	429.25
447.129	421.25
447.35	434.25
447.571	400.25
447.792	412.25
448.013	399.25
448.234	414.25
448.455	422.25
448.675	518.25
448.896	548.25
449.117	491.25
449.338	471.25
449.559	519.25
449.779	552.25
450	474.25
450.221	439.25
450.442	400.25
450.662	383.25
450.883	396.25
451.104	410.25
451.324	399.25
451.545	359.25
451.766	388.25
451.986	381.25
452.207	354.25
452.428	370.25
452.648	369.25
452.869	336.25
453.089	378.25
453.31	372.25
453.53	381.25
453.751	364.25
453.971	355.25
454.192	363.25
454.412	374.25
454.633	360.25
454.853	361.25
455.073	340.25
455.294	374.25
455.514	414.25
455.734	399.25
455.955	367.25
456.175	348.25
456.395	352.25
456.616	330.25
456.836	350.25
457.056	342.25
457.276	336.25
457.497	336.25
457.717	350.25
457.937	362.25
458.157	366.25
458.377	358.25
458.598	380.25
458.818	408.25
459.038	461.25
459.258	459.25
459.478	427.25
459.698	393.25
459.918	396.25
460.138	414.25
460.358	434.25
460.578	457.25
460.798	449.25
461.018	419.25
461.238	416.25
461.458	421.25
461.678	417.25
461.898	409.25
462.118	431.25
462.338	434.25
462.558	443.25
462.777	449.25
462.997	494.25
463.217	506.25
463.437	500.25
463.657	481.25
463.876	468.25
464.096	456.25
464.316	479.25
464.536	456.25
464.755	472.25
464.975	440.25
465.195	477.25
465.414	488.25
465.634	427.25
465.854	409.25
466.073	406.25
466.293	394.25
466.512	378.25
466.732	383.25
466.951	398.25
467.171	374.25
467.391	387.25
467.61	396.25
467.829	389.25
468.049	385.25
468.268	391.25
468.488	381.25
468.707	378.25
468.927	379.25
469.146	366.25
469.365	380.25
469.585	395.25
469.804	371.25
470.023	380.25
470.243	390.25
470.462	382.25
470.681	415.25
470.901	421.25
471.12	362.25
471.339	383.25
471.558	381.25
471.777	404.25
471.997	392.25
472.216	367.25
472.435	400.25
472.654	381.25
472.873	370.25
473.092	377.25
473.311	356.25
473.53	373.25
473.749	378.25
473.968	418.25
474.187	453.25
474.406	471.25
474.625	422.25
474.844	379.25
475.063	376.25
475.282	370.25
475.501	377.25
475.72	401.25
475.939	392.25
476.158	380.25
476.377	387.25
476.596	381.25
476.814	404.25
477.033	392.25
477.252	394.25
477.471	426.25
477.69	405.25
477.908	422.25
478.127	450.25
478.346	426.25
478.564	434.25
478.783	413.25
479.002	447.25
479.22	431.25
479.439	450.25
479.658	464.25
479.876	443.25
480.095	464.25
480.313	479.25
480.532	476.25
480.751	472.25
480.969	494.25
481.188	503.25
481.406	534.25
481.624	483.25
481.843	456.25
482.061	446.25
482.28	440.25
482.498	429.25
482.717	426.25
482.935	423.25
483.153	438.25
483.372	434.25
483.59	437.25
483.808	421.25
484.027	440.25
484.245	436.25
484.463	441.25
484.681	458.25
484.9	448.25
485.118	471.25
485.336	440.25
485.554	442.25
485.772	451.25
485.99	464.25
486.209	461.25
486.427	456.25
486.645	431.25
486.863	470.25
487.081	463.25
487.299	462.25
487.517	463.25
487.735	451.25
487.953	460.25
488.171	447.25
488.389	454.25
488.607	470.25
488.825	447.25
489.043	453.25
489.261	470.25
489.479	466.25
489.696	472.25
489.914	485.25
490.132	495.25
490.35	493.25
490.568	488.25
490.786	502.25
491.003	514.25
491.221	516.25
491.439	526.25
491.657	541.25
491.874	542.25
492.092	546.25
492.31	562.25
492.527	546.25
492.745	557.25
492.963	534.25
493.18	549.25
493.398	556.25
493.615	520.25
493.833	547.25
494.05	540.25
494.268	573.25
494.485	528.25
494.703	567.25
494.92	534.25
495.138	544.25
495.355	568.25
495.573	547.25
495.79	566.25
496.008	554.25
496.225	572.25
496.442	570.25
496.66	549.25
496.877	556.25
497.094	558.25
497.312	553.25
497.529	563.25
497.746	578.25
497.963	591.25
498.181	609.25
498.398	604.25
498.615	623.25
498.832	640.25
499.049	651.25
499.267	714.25
499.484	738.25
499.701	803.25
499.918	853.25
500.135	882.25
500.352	976.25
500.569	962.25
500.786	980.25
501.003	922.25
501.22	895.25
501.437	853.25
501.654	782.25
501.871	742.25
502.088	728.25
