Data from 1969.PennyLincolnUp.Lamp.En5.5.200Scan.071719.P1._HRD10591_14-55-12-972.txt Node
Date: Thu Jul 18 14:55:12 EDT 2019
User: cochatt
Spectrometer: HR+D1059
Trigger mode: 1
Integration Time (sec): 1.000000E-1
Scans to average: 1
Electric dark correction enabled: true
Nonlinearity correction enabled: false
Boxcar width: 0
XAxis mode: Wavelengths
Number of Pixels in Spectrum: 2048
>>>>>Begin Spectral Data<<<<<
223.165	-18.06
223.4	-18.06
223.635	-18.06
223.869	-21.06
224.104	-14.06
224.338	-16.06
224.573	-17.06
224.808	-18.06
225.042	-9.06
225.277	3.94
225.511	-4.06
225.746	1.94
225.98	11.94
226.215	-0.06
226.449	14.94
226.683	25.94
226.918	33.94
227.152	24.94
227.387	36.94
227.621	41.94
227.856	53.94
228.09	35.94
228.324	48.94
228.559	66.94
228.793	56.94
229.027	72.94
229.262	91.94
229.496	102.94
229.73	122.94
229.964	112.94
230.199	111.94
230.433	95.94
230.667	117.94
230.901	102.94
231.136	101.94
231.37	118.94
231.604	99.94
231.838	102.94
232.072	107.94
232.306	117.94
232.541	104.94
232.775	108.94
233.009	103.94
233.243	104.94
233.477	110.94
233.711	116.94
233.945	124.94
234.179	117.94
234.413	103.94
234.647	109.94
234.881	102.94
235.115	110.94
235.349	113.94
235.583	108.94
235.817	116.94
236.051	117.94
236.285	102.94
236.519	104.94
236.753	104.94
236.987	125.94
237.221	143.94
237.455	172.94
237.689	125.94
237.922	128.94
238.156	101.94
238.39	110.94
238.624	123.94
238.858	128.94
239.091	108.94
239.325	97.94
239.559	109.94
239.793	127.94
240.027	123.94
240.26	116.94
240.494	129.94
240.728	126.94
240.961	117.94
241.195	126.94
241.429	118.94
241.662	113.94
241.896	100.94
242.13	100.94
242.363	120.94
242.597	121.94
242.83	133.94
243.064	124.94
243.298	120.94
243.531	129.94
243.765	115.94
243.998	112.94
244.232	122.94
244.465	121.94
244.699	140.94
244.932	130.94
245.166	137.94
245.399	125.94
245.633	135.94
245.866	123.94
246.099	125.94
246.333	139.94
246.566	120.94
246.8	135.94
247.033	135.94
247.266	149.94
247.5	147.94
247.733	140.94
247.966	131.94
248.2	147.94
248.433	141.94
248.666	138.94
248.899	137.94
249.133	150.94
249.366	176.94
249.599	154.94
249.832	161.94
250.066	155.94
250.299	143.94
250.532	171.94
250.765	161.94
250.998	183.94
251.231	183.94
251.465	183.94
251.698	167.94
251.931	172.94
252.164	165.94
252.397	159.94
252.63	158.94
252.863	163.94
253.096	183.94
253.329	181.94
253.562	180.94
253.795	154.94
254.028	184.94
254.261	181.94
254.494	187.94
254.727	206.94
254.96	199.94
255.193	219.94
255.426	189.94
255.659	189.94
255.892	184.94
256.124	197.94
256.357	190.94
256.59	197.94
256.823	175.94
257.056	182.94
257.289	173.94
257.521	176.94
257.754	173.94
257.987	169.94
258.22	165.94
258.452	166.94
258.685	182.94
258.918	188.94
259.151	166.94
259.383	189.94
259.616	170.94
259.849	179.94
260.081	189.94
260.314	199.94
260.547	220.94
260.779	177.94
261.012	169.94
261.244	188.94
261.477	186.94
261.71	192.94
261.942	196.94
262.175	188.94
262.407	188.94
262.64	176.94
262.872	186.94
263.105	166.94
263.337	179.94
263.57	163.94
263.802	177.94
264.035	181.94
264.267	181.94
264.499	166.94
264.732	193.94
264.964	179.94
265.197	184.94
265.429	180.94
265.661	193.94
265.894	167.94
266.126	191.94
266.358	174.94
266.591	174.94
266.823	190.94
267.055	185.94
267.287	198.94
267.52	189.94
267.752	179.94
267.984	188.94
268.216	188.94
268.448	200.94
268.681	217.94
268.913	193.94
269.145	208.94
269.377	210.94
269.609	220.94
269.841	223.94
270.073	214.94
270.306	216.94
270.538	255.94
270.77	243.94
271.002	238.94
271.234	223.94
271.466	231.94
271.698	249.94
271.93	250.94
272.162	252.94
272.394	248.94
272.626	226.94
272.858	239.94
273.09	229.94
273.322	207.94
273.553	213.94
273.785	218.94
274.017	200.94
274.249	200.94
274.481	203.94
274.713	222.94
274.945	207.94
275.176	219.94
275.408	205.94
275.64	218.94
275.872	228.94
276.104	222.94
276.335	228.94
276.567	226.94
276.799	235.94
277.031	232.94
277.262	249.94
277.494	260.94
277.726	255.94
277.957	229.94
278.189	212.94
278.421	225.94
278.652	214.94
278.884	220.94
279.115	227.94
279.347	225.94
279.579	228.94
279.81	213.94
280.042	231.94
280.273	220.94
280.505	209.94
280.736	219.94
280.968	223.94
281.199	224.94
281.431	248.94
281.662	233.94
281.894	225.94
282.125	232.94
282.356	232.94
282.588	246.94
282.819	243.94
283.051	228.94
283.282	236.94
283.513	243.94
283.745	247.94
283.976	253.94
284.207	240.94
284.439	235.94
284.67	247.94
284.901	227.94
285.132	243.94
285.364	250.94
285.595	237.94
285.826	240.94
286.057	239.94
286.288	222.94
286.52	247.94
286.751	214.94
286.982	241.94
287.213	243.94
287.444	249.94
287.675	258.94
287.906	243.94
288.138	245.94
288.369	271.94
288.6	255.94
288.831	251.94
289.062	259.94
289.293	253.94
289.524	251.94
289.755	255.94
289.986	265.94
290.217	254.94
290.448	264.94
290.679	267.94
290.91	263.94
291.141	252.94
291.371	257.94
291.602	237.94
291.833	244.94
292.064	259.94
292.295	244.94
292.526	264.94
292.757	256.94
292.987	252.94
293.218	258.94
293.449	276.94
293.68	269.94
293.91	227.94
294.141	266.94
294.372	247.94
294.603	253.94
294.833	283.94
295.064	235.94
295.295	265.94
295.525	245.94
295.756	256.94
295.987	263.94
296.217	266.94
296.448	249.94
296.679	260.94
296.909	254.94
297.14	247.94
297.37	269.94
297.601	246.94
297.831	248.94
298.062	269.94
298.292	256.94
298.523	259.94
298.753	266.94
298.984	276.94
299.214	285.94
299.445	259.94
299.675	263.94
299.905	282.94
300.136	269.94
300.366	261.94
300.597	274.94
300.827	273.94
301.057	301.94
301.288	281.94
301.518	280.94
301.748	287.94
301.979	280.94
302.209	276.94
302.439	281.94
302.669	291.94
302.9	290.94
303.13	276.94
303.36	283.94
303.59	273.94
303.82	293.94
304.051	278.94
304.281	289.94
304.511	279.94
304.741	283.94
304.971	276.94
305.201	282.94
305.431	288.94
305.661	279.94
305.891	281.94
306.121	285.94
306.352	298.94
306.582	286.94
306.812	281.94
307.042	278.94
307.272	292.94
307.502	290.94
307.731	260.94
307.961	279.94
308.191	287.94
308.421	285.94
308.651	304.94
308.881	281.94
309.111	288.94
309.341	291.94
309.571	296.94
309.8	282.94
310.03	279.94
310.26	311.94
310.49	312.94
310.72	311.94
310.949	308.94
311.179	310.94
311.409	300.94
311.639	299.94
311.868	294.94
312.098	315.94
312.328	318.94
312.557	304.94
312.787	302.94
313.017	308.94
313.246	307.94
313.476	295.94
313.706	314.94
313.935	324.94
314.165	314.94
314.394	342.94
314.624	324.94
314.853	319.94
315.083	307.94
315.312	312.94
315.542	314.94
315.771	319.94
316.001	301.94
316.23	310.94
316.46	291.94
316.689	311.94
316.919	301.94
317.148	326.94
317.377	299.94
317.607	316.94
317.836	299.94
318.065	302.94
318.295	320.94
318.524	309.94
318.753	317.94
318.983	327.94
319.212	308.94
319.441	319.94
319.67	310.94
319.9	323.94
320.129	307.94
320.358	316.94
320.587	309.94
320.816	307.94
321.046	303.94
321.275	318.94
321.504	310.94
321.733	316.94
321.962	317.94
322.191	316.94
322.42	320.94
322.649	317.94
322.878	331.94
323.108	331.94
323.337	332.94
323.566	349.94
323.795	372.94
324.024	407.94
324.253	439.94
324.482	599.94
324.71	795.94
324.939	1040.94
325.168	860.94
325.397	499.94
325.626	396.94
325.855	366.94
326.084	375.94
326.313	360.94
326.542	374.94
326.77	375.94
326.999	423.94
327.228	541.94
327.457	733.94
327.686	812.94
327.914	580.94
328.143	460.94
328.372	409.94
328.6	395.94
328.829	408.94
329.058	399.94
329.287	395.94
329.515	377.94
329.744	364.94
329.972	367.94
330.201	374.94
330.43	405.94
330.658	410.94
330.887	423.94
331.115	395.94
331.344	380.94
331.572	372.94
331.801	360.94
332.03	357.94
332.258	386.94
332.486	350.94
332.715	372.94
332.943	368.94
333.172	398.94
333.4	401.94
333.629	407.94
333.857	400.94
334.085	408.94
334.314	424.94
334.542	427.94
334.771	428.94
334.999	391.94
335.227	393.94
335.455	377.94
335.684	394.94
335.912	387.94
336.14	391.94
336.369	371.94
336.597	379.94
336.825	379.94
337.053	362.94
337.281	359.94
337.51	372.94
337.738	359.94
337.966	358.94
338.194	372.94
338.422	366.94
338.65	378.94
338.878	343.94
339.106	351.94
339.334	363.94
339.562	359.94
339.79	351.94
340.018	340.94
340.246	349.94
340.474	342.94
340.702	353.94
340.93	346.94
341.158	334.94
341.386	342.94
341.614	347.94
341.842	331.94
342.07	358.94
342.298	350.94
342.526	340.94
342.754	328.94
342.981	353.94
343.209	359.94
343.437	344.94
343.665	352.94
343.893	370.94
344.12	387.94
344.348	384.94
344.576	364.94
344.804	349.94
345.031	367.94
345.259	358.94
345.487	342.94
345.714	331.94
345.942	327.94
346.17	353.94
346.397	339.94
346.625	336.94
346.853	319.94
347.08	349.94
347.308	345.94
347.535	340.94
347.763	342.94
347.99	322.94
348.218	347.94
348.445	338.94
348.673	326.94
348.9	324.94
349.128	332.94
349.355	296.94
349.583	315.94
349.81	319.94
350.037	313.94
350.265	319.94
350.492	330.94
350.72	321.94
350.947	338.94
351.174	319.94
351.402	317.94
351.629	328.94
351.856	320.94
352.083	323.94
352.311	321.94
352.538	332.94
352.765	336.94
352.992	343.94
353.22	335.94
353.447	331.94
353.674	328.94
353.901	339.94
354.128	307.94
354.355	337.94
354.583	296.94
354.81	325.94
355.037	315.94
355.264	304.94
355.491	301.94
355.718	319.94
355.945	325.94
356.172	327.94
356.399	304.94
356.626	320.94
356.853	310.94
357.08	308.94
357.307	316.94
357.534	305.94
357.761	328.94
357.988	304.94
358.215	315.94
358.441	293.94
358.668	310.94
358.895	323.94
359.122	332.94
359.349	345.94
359.576	309.94
359.802	326.94
360.029	333.94
360.256	341.94
360.483	323.94
360.709	322.94
360.936	324.94
361.163	329.94
361.39	325.94
361.616	336.94
361.843	317.94
362.07	317.94
362.296	321.94
362.523	326.94
362.749	317.94
362.976	307.94
363.203	323.94
363.429	314.94
363.656	316.94
363.882	313.94
364.109	313.94
364.335	332.94
364.562	336.94
364.788	306.94
365.015	307.94
365.241	334.94
365.468	321.94
365.694	313.94
365.92	329.94
366.147	332.94
366.373	312.94
366.599	328.94
366.826	297.94
367.052	304.94
367.278	313.94
367.505	317.94
367.731	323.94
367.957	317.94
368.184	313.94
368.41	319.94
368.636	316.94
368.862	313.94
369.089	316.94
369.315	319.94
369.541	303.94
369.767	325.94
369.993	328.94
370.219	331.94
370.445	324.94
370.672	318.94
370.898	309.94
371.124	325.94
371.35	319.94
371.576	332.94
371.802	332.94
372.028	323.94
372.254	320.94
372.48	317.94
372.706	337.94
372.932	327.94
373.158	321.94
373.384	333.94
373.61	330.94
373.835	328.94
374.061	326.94
374.287	301.94
374.513	328.94
374.739	311.94
374.965	351.94
375.191	346.94
375.416	342.94
375.642	332.94
375.868	327.94
376.094	332.94
376.319	339.94
376.545	357.94
376.771	337.94
376.997	326.94
377.222	320.94
377.448	324.94
377.674	313.94
377.899	295.94
378.125	334.94
378.35	311.94
378.576	328.94
378.802	324.94
379.027	335.94
379.253	315.94
379.478	324.94
379.704	323.94
379.929	328.94
380.155	335.94
380.38	344.94
380.606	331.94
380.831	335.94
381.057	342.94
381.282	329.94
381.507	316.94
381.733	328.94
381.958	322.94
382.184	329.94
382.409	323.94
382.634	331.94
382.86	329.94
383.085	329.94
383.31	349.94
383.535	337.94
383.761	360.94
383.986	322.94
384.211	348.94
384.436	345.94
384.662	345.94
384.887	357.94
385.112	356.94
385.337	356.94
385.562	359.94
385.787	365.94
386.013	376.94
386.238	363.94
386.463	370.94
386.688	371.94
386.913	362.94
387.138	367.94
387.363	363.94
387.588	335.94
387.813	359.94
388.038	349.94
388.263	358.94
388.488	353.94
388.713	354.94
388.938	372.94
389.163	355.94
389.387	365.94
389.612	342.94
389.837	331.94
390.062	336.94
390.287	360.94
390.512	348.94
390.736	360.94
390.961	359.94
391.186	358.94
391.411	376.94
391.636	393.94
391.86	379.94
392.085	387.94
392.31	383.94
392.534	363.94
392.759	373.94
392.984	359.94
393.208	373.94
393.433	372.94
393.658	354.94
393.882	367.94
394.107	357.94
394.331	365.94
394.556	359.94
394.78	362.94
395.005	382.94
395.229	364.94
395.454	357.94
395.678	394.94
395.903	379.94
396.127	380.94
396.352	392.94
396.576	396.94
396.801	369.94
397.025	381.94
397.249	375.94
397.474	378.94
397.698	368.94
397.922	389.94
398.147	399.94
398.371	395.94
398.595	390.94
398.82	418.94
399.044	439.94
399.268	465.94
399.492	489.94
399.717	540.94
399.941	547.94
400.165	523.94
400.389	503.94
400.613	459.94
400.837	431.94
401.062	414.94
401.286	424.94
401.51	429.94
401.734	425.94
401.958	413.94
402.182	423.94
402.406	435.94
402.63	447.94
402.854	430.94
403.078	439.94
403.302	444.94
403.526	457.94
403.75	447.94
403.974	465.94
404.198	461.94
404.422	462.94
404.645	453.94
404.869	458.94
405.093	465.94
405.317	495.94
405.541	490.94
405.765	462.94
405.988	449.94
406.212	468.94
406.436	462.94
406.66	479.94
406.883	468.94
407.107	498.94
407.331	501.94
407.555	555.94
407.778	563.94
408.002	530.94
408.226	493.94
408.449	478.94
408.673	481.94
408.896	471.94
409.12	506.94
409.344	488.94
409.567	441.94
409.791	461.94
410.014	430.94
410.238	439.94
410.461	451.94
410.685	438.94
410.908	455.94
411.132	456.94
411.355	460.94
411.578	473.94
411.802	423.94
412.025	444.94
412.249	432.94
412.472	447.94
412.695	463.94
412.919	456.94
413.142	422.94
413.365	432.94
413.589	424.94
413.812	390.94
414.035	417.94
414.258	409.94
414.482	410.94
414.705	419.94
414.928	405.94
415.151	417.94
415.374	422.94
415.597	424.94
415.821	406.94
416.044	425.94
416.267	421.94
416.49	424.94
416.713	416.94
416.936	425.94
417.159	413.94
417.382	404.94
417.605	418.94
417.828	419.94
418.051	422.94
418.274	417.94
418.497	412.94
418.72	424.94
418.943	408.94
419.166	425.94
419.389	431.94
419.611	458.94
419.834	441.94
420.057	431.94
420.28	433.94
420.503	438.94
420.726	431.94
420.948	426.94
421.171	450.94
421.394	467.94
421.617	438.94
421.839	428.94
422.062	407.94
422.285	450.94
422.507	466.94
422.73	503.94
422.953	457.94
423.175	457.94
423.398	448.94
423.621	419.94
423.843	439.94
424.066	468.94
424.288	441.94
424.511	456.94
424.733	504.94
424.956	521.94
425.178	499.94
425.401	500.94
425.623	502.94
425.846	456.94
426.068	408.94
426.291	420.94
426.513	435.94
426.735	429.94
426.958	445.94
427.18	488.94
427.402	562.94
427.625	598.94
427.847	515.94
428.069	462.94
428.292	423.94
428.514	431.94
428.736	412.94
428.958	401.94
429.181	402.94
429.403	389.94
429.625	433.94
429.847	404.94
430.069	457.94
430.292	456.94
430.514	388.94
430.736	396.94
430.958	379.94
431.18	395.94
431.402	399.94
431.624	381.94
431.846	391.94
432.068	380.94
432.29	397.94
432.512	397.94
432.734	385.94
432.956	389.94
433.178	398.94
433.4	366.94
433.622	366.94
433.844	391.94
434.066	387.94
434.287	373.94
434.509	396.94
434.731	404.94
434.953	406.94
435.175	424.94
435.397	460.94
435.618	416.94
435.84	453.94
436.062	489.94
436.284	500.94
436.505	437.94
436.727	424.94
436.949	402.94
437.17	394.94
437.392	381.94
437.614	406.94
437.835	410.94
438.057	465.94
438.278	505.94
438.5	511.94
438.721	544.94
438.943	508.94
439.165	449.94
439.386	432.94
439.608	426.94
439.829	423.94
440.05	437.94
440.272	443.94
440.493	433.94
440.715	413.94
440.936	416.94
441.158	413.94
441.379	410.94
441.6	438.94
441.822	456.94
442.043	472.94
442.264	503.94
442.486	507.94
442.707	448.94
442.928	469.94
443.149	455.94
443.371	439.94
443.592	502.94
443.813	541.94
444.034	531.94
444.255	483.94
444.476	465.94
444.698	461.94
444.919	479.94
445.14	573.94
445.361	502.94
445.582	470.94
445.803	488.94
446.024	544.94
446.245	517.94
446.466	486.94
446.687	441.94
446.908	412.94
447.129	405.94
447.35	386.94
447.571	394.94
447.792	399.94
448.013	398.94
448.234	395.94
448.455	431.94
448.675	483.94
448.896	535.94
449.117	452.94
449.338	451.94
449.559	489.94
449.779	558.94
450	456.94
450.221	421.94
450.442	398.94
450.662	394.94
450.883	388.94
451.104	389.94
451.324	376.94
451.545	369.94
451.766	363.94
451.986	351.94
452.207	352.94
452.428	364.94
452.648	344.94
452.869	368.94
453.089	371.94
453.31	368.94
453.53	352.94
453.751	374.94
453.971	353.94
454.192	375.94
454.412	350.94
454.633	336.94
454.853	347.94
455.073	345.94
455.294	358.94
455.514	389.94
455.734	393.94
455.955	334.94
456.175	336.94
456.395	346.94
456.616	335.94
456.836	347.94
457.056	355.94
457.276	334.94
457.497	341.94
457.717	343.94
457.937	353.94
458.157	360.94
458.377	345.94
458.598	371.94
458.818	386.94
459.038	428.94
459.258	425.94
459.478	412.94
459.698	391.94
459.918	411.94
460.138	392.94
460.358	403.94
460.578	439.94
460.798	417.94
461.018	409.94
461.238	415.94
461.458	422.94
461.678	401.94
461.898	415.94
462.118	420.94
462.338	447.94
462.558	443.94
462.777	469.94
462.997	468.94
463.217	485.94
463.437	486.94
463.657	469.94
463.876	478.94
464.096	453.94
464.316	458.94
464.536	450.94
464.755	461.94
464.975	455.94
465.195	453.94
465.414	470.94
465.634	414.94
465.854	412.94
466.073	408.94
466.293	386.94
466.512	380.94
466.732	381.94
466.951	366.94
467.171	365.94
467.391	358.94
467.61	373.94
467.829	367.94
468.049	383.94
468.268	371.94
468.488	372.94
468.707	344.94
468.927	367.94
469.146	369.94
469.365	362.94
469.585	368.94
469.804	383.94
470.023	400.94
470.243	407.94
470.462	386.94
470.681	392.94
470.901	402.94
471.12	394.94
471.339	371.94
471.558	393.94
471.777	358.94
471.997	382.94
472.216	392.94
472.435	393.94
472.654	387.94
472.873	362.94
473.092	373.94
473.311	349.94
473.53	362.94
473.749	401.94
473.968	395.94
474.187	450.94
474.406	440.94
474.625	394.94
474.844	389.94
475.063	377.94
475.282	390.94
475.501	373.94
475.72	373.94
475.939	396.94
476.158	367.94
476.377	387.94
476.596	387.94
476.814	380.94
477.033	387.94
477.252	386.94
477.471	405.94
477.69	405.94
477.908	410.94
478.127	415.94
478.346	426.94
478.564	420.94
478.783	430.94
479.002	447.94
479.22	430.94
479.439	439.94
479.658	434.94
479.876	447.94
480.095	444.94
480.313	477.94
480.532	469.94
480.751	469.94
480.969	458.94
481.188	506.94
481.406	511.94
481.624	442.94
481.843	437.94
482.061	427.94
482.28	421.94
482.498	431.94
482.717	408.94
482.935	398.94
483.153	402.94
483.372	431.94
483.59	424.94
483.808	411.94
484.027	435.94
484.245	413.94
484.463	419.94
484.681	432.94
484.9	431.94
485.118	430.94
485.336	435.94
485.554	460.94
485.772	454.94
485.99	444.94
486.209	447.94
486.427	462.94
486.645	453.94
486.863	449.94
487.081	461.94
487.299	437.94
487.517	442.94
487.735	446.94
487.953	475.94
488.171	461.94
488.389	433.94
488.607	437.94
488.825	468.94
489.043	456.94
489.261	466.94
489.479	464.94
489.696	465.94
489.914	447.94
490.132	475.94
490.35	477.94
490.568	488.94
490.786	490.94
491.003	497.94
491.221	483.94
491.439	504.94
491.657	511.94
491.874	523.94
492.092	499.94
492.31	505.94
492.527	543.94
492.745	525.94
492.963	526.94
493.18	534.94
493.398	544.94
493.615	529.94
493.833	534.94
494.05	519.94
494.268	524.94
494.485	507.94
494.703	542.94
494.92	537.94
495.138	545.94
495.355	539.94
495.573	535.94
495.79	535.94
496.008	540.94
496.225	537.94
496.442	536.94
496.66	545.94
496.877	523.94
497.094	521.94
497.312	538.94
497.529	557.94
497.746	558.94
497.963	585.94
498.181	606.94
498.398	613.94
498.615	623.94
498.832	623.94
499.049	664.94
499.267	691.94
499.484	746.94
499.701	773.94
499.918	833.94
500.135	865.94
500.352	970.94
500.569	951.94
500.786	990.94
501.003	905.94
501.22	861.94
501.437	857.94
501.654	792.94
501.871	735.94
502.088	686.94
