Data from 1969.PennyLincolnUp.Lamp.En5.5.200Scan.071719.P1._HRD10591_14-55-09-973.txt Node
Date: Thu Jul 18 14:55:09 EDT 2019
User: cochatt
Spectrometer: HR+D1059
Trigger mode: 1
Integration Time (sec): 1.000000E-1
Scans to average: 1
Electric dark correction enabled: true
Nonlinearity correction enabled: false
Boxcar width: 0
XAxis mode: Wavelengths
Number of Pixels in Spectrum: 2048
>>>>>Begin Spectral Data<<<<<
223.165	-7.75
223.4	-7.75
223.635	-7.75
223.869	-26.75
224.104	-20.75
224.338	-15.75
224.573	-12.75
224.808	-5.75
225.042	-12.75
225.277	-3.75
225.511	-2.75
225.746	11.25
225.98	11.25
226.215	10.25
226.449	6.25
226.683	8.25
226.918	28.25
227.152	33.25
227.387	22.25
227.621	35.25
227.856	58.25
228.09	32.25
228.324	46.25
228.559	61.25
228.793	73.25
229.027	77.25
229.262	77.25
229.496	97.25
229.73	102.25
229.964	99.25
230.199	116.25
230.433	97.25
230.667	92.25
230.901	88.25
231.136	96.25
231.37	104.25
231.604	96.25
231.838	101.25
232.072	97.25
232.306	105.25
232.541	105.25
232.775	99.25
233.009	109.25
233.243	105.25
233.477	92.25
233.711	112.25
233.945	113.25
234.179	106.25
234.413	101.25
234.647	100.25
234.881	117.25
235.115	102.25
235.349	114.25
235.583	96.25
235.817	112.25
236.051	120.25
236.285	118.25
236.519	110.25
236.753	108.25
236.987	105.25
237.221	136.25
237.455	170.25
237.689	135.25
237.922	119.25
238.156	114.25
238.39	113.25
238.624	100.25
238.858	88.25
239.091	119.25
239.325	113.25
239.559	120.25
239.793	115.25
240.027	117.25
240.26	115.25
240.494	133.25
240.728	132.25
240.961	124.25
241.195	113.25
241.429	113.25
241.662	130.25
241.896	104.25
242.13	114.25
242.363	130.25
242.597	128.25
242.83	129.25
243.064	102.25
243.298	110.25
243.531	120.25
243.765	113.25
243.998	124.25
244.232	123.25
244.465	133.25
244.699	135.25
244.932	115.25
245.166	136.25
245.399	132.25
245.633	117.25
245.866	118.25
246.099	126.25
246.333	130.25
246.566	121.25
246.8	124.25
247.033	134.25
247.266	132.25
247.5	135.25
247.733	150.25
247.966	135.25
248.2	129.25
248.433	131.25
248.666	141.25
248.899	152.25
249.133	151.25
249.366	140.25
249.599	152.25
249.832	158.25
250.066	149.25
250.299	143.25
250.532	153.25
250.765	155.25
250.998	187.25
251.231	190.25
251.465	161.25
251.698	158.25
251.931	154.25
252.164	164.25
252.397	170.25
252.63	152.25
252.863	165.25
253.096	178.25
253.329	182.25
253.562	190.25
253.795	173.25
254.028	178.25
254.261	168.25
254.494	178.25
254.727	205.25
254.96	208.25
255.193	208.25
255.426	211.25
255.659	179.25
255.892	197.25
256.124	173.25
256.357	187.25
256.59	185.25
256.823	163.25
257.056	163.25
257.289	161.25
257.521	157.25
257.754	168.25
257.987	158.25
258.22	165.25
258.452	166.25
258.685	171.25
258.918	172.25
259.151	170.25
259.383	190.25
259.616	171.25
259.849	184.25
260.081	185.25
260.314	187.25
260.547	213.25
260.779	219.25
261.012	187.25
261.244	167.25
261.477	179.25
261.71	164.25
261.942	180.25
262.175	179.25
262.407	173.25
262.64	162.25
262.872	170.25
263.105	162.25
263.337	158.25
263.57	156.25
263.802	191.25
264.035	172.25
264.267	164.25
264.499	178.25
264.732	191.25
264.964	168.25
265.197	189.25
265.429	180.25
265.661	182.25
265.894	181.25
266.126	181.25
266.358	170.25
266.591	188.25
266.823	197.25
267.055	197.25
267.287	211.25
267.52	173.25
267.752	172.25
267.984	190.25
268.216	212.25
268.448	190.25
268.681	177.25
268.913	192.25
269.145	206.25
269.377	224.25
269.609	216.25
269.841	210.25
270.073	211.25
270.306	213.25
270.538	268.25
270.77	248.25
271.002	224.25
271.234	230.25
271.466	224.25
271.698	249.25
271.93	247.25
272.162	253.25
272.394	242.25
272.626	229.25
272.858	216.25
273.09	216.25
273.322	223.25
273.553	205.25
273.785	204.25
274.017	203.25
274.249	215.25
274.481	238.25
274.713	199.25
274.945	225.25
275.176	235.25
275.408	214.25
275.64	222.25
275.872	220.25
276.104	215.25
276.335	209.25
276.567	215.25
276.799	242.25
277.031	242.25
277.262	243.25
277.494	246.25
277.726	241.25
277.957	242.25
278.189	224.25
278.421	235.25
278.652	233.25
278.884	214.25
279.115	221.25
279.347	217.25
279.579	218.25
279.81	230.25
280.042	227.25
280.273	221.25
280.505	224.25
280.736	214.25
280.968	232.25
281.199	215.25
281.431	228.25
281.662	220.25
281.894	233.25
282.125	228.25
282.356	228.25
282.588	240.25
282.819	224.25
283.051	228.25
283.282	240.25
283.513	245.25
283.745	233.25
283.976	229.25
284.207	228.25
284.439	237.25
284.67	237.25
284.901	242.25
285.132	244.25
285.364	232.25
285.595	248.25
285.826	245.25
286.057	250.25
286.288	253.25
286.52	246.25
286.751	236.25
286.982	244.25
287.213	254.25
287.444	225.25
287.675	242.25
287.906	247.25
288.138	259.25
288.369	258.25
288.6	254.25
288.831	253.25
289.062	265.25
289.293	244.25
289.524	238.25
289.755	250.25
289.986	245.25
290.217	242.25
290.448	244.25
290.679	247.25
290.91	244.25
291.141	257.25
291.371	262.25
291.602	259.25
291.833	253.25
292.064	262.25
292.295	252.25
292.526	251.25
292.757	255.25
292.987	248.25
293.218	255.25
293.449	245.25
293.68	257.25
293.91	247.25
294.141	249.25
294.372	258.25
294.603	259.25
294.833	252.25
295.064	276.25
295.295	261.25
295.525	257.25
295.756	261.25
295.987	253.25
296.217	265.25
296.448	285.25
296.679	258.25
296.909	277.25
297.14	264.25
297.37	269.25
297.601	265.25
297.831	265.25
298.062	268.25
298.292	265.25
298.523	274.25
298.753	270.25
298.984	262.25
299.214	268.25
299.445	282.25
299.675	296.25
299.905	263.25
300.136	274.25
300.366	286.25
300.597	287.25
300.827	296.25
301.057	281.25
301.288	278.25
301.518	263.25
301.748	280.25
301.979	275.25
302.209	293.25
302.439	288.25
302.669	290.25
302.9	281.25
303.13	281.25
303.36	294.25
303.59	295.25
303.82	298.25
304.051	289.25
304.281	274.25
304.511	290.25
304.741	286.25
304.971	289.25
305.201	276.25
305.431	268.25
305.661	278.25
305.891	277.25
306.121	284.25
306.352	290.25
306.582	289.25
306.812	281.25
307.042	278.25
307.272	269.25
307.502	276.25
307.731	278.25
307.961	273.25
308.191	278.25
308.421	289.25
308.651	271.25
308.881	280.25
309.111	278.25
309.341	293.25
309.571	314.25
309.8	288.25
310.03	304.25
310.26	304.25
310.49	312.25
310.72	318.25
310.949	315.25
311.179	317.25
311.409	315.25
311.639	315.25
311.868	308.25
312.098	298.25
312.328	316.25
312.557	325.25
312.787	328.25
313.017	337.25
313.246	309.25
313.476	327.25
313.706	315.25
313.935	321.25
314.165	332.25
314.394	312.25
314.624	290.25
314.853	310.25
315.083	338.25
315.312	323.25
315.542	285.25
315.771	313.25
316.001	312.25
316.23	309.25
316.46	301.25
316.689	304.25
316.919	300.25
317.148	317.25
317.377	318.25
317.607	327.25
317.836	316.25
318.065	318.25
318.295	323.25
318.524	319.25
318.753	310.25
318.983	300.25
319.212	330.25
319.441	289.25
319.67	314.25
319.9	312.25
320.129	300.25
320.358	310.25
320.587	310.25
320.816	316.25
321.046	328.25
321.275	328.25
321.504	319.25
321.733	320.25
321.962	332.25
322.191	318.25
322.42	320.25
322.649	334.25
322.878	340.25
323.108	338.25
323.337	353.25
323.566	363.25
323.795	375.25
324.024	375.25
324.253	424.25
324.482	573.25
324.71	802.25
324.939	1074.25
325.168	883.25
325.397	526.25
325.626	407.25
325.855	378.25
326.084	359.25
326.313	375.25
326.542	355.25
326.77	390.25
326.999	439.25
327.228	550.25
327.457	739.25
327.686	818.25
327.914	562.25
328.143	449.25
328.372	406.25
328.6	389.25
328.829	417.25
329.058	407.25
329.287	395.25
329.515	384.25
329.744	373.25
329.972	388.25
330.201	370.25
330.43	381.25
330.658	401.25
330.887	415.25
331.115	420.25
331.344	379.25
331.572	355.25
331.801	378.25
332.03	388.25
332.258	374.25
332.486	389.25
332.715	380.25
332.943	374.25
333.172	390.25
333.4	400.25
333.629	381.25
333.857	413.25
334.085	408.25
334.314	421.25
334.542	442.25
334.771	434.25
334.999	445.25
335.227	389.25
335.455	389.25
335.684	380.25
335.912	387.25
336.14	363.25
336.369	370.25
336.597	388.25
336.825	376.25
337.053	381.25
337.281	378.25
337.51	359.25
337.738	369.25
337.966	348.25
338.194	356.25
338.422	354.25
338.65	356.25
338.878	361.25
339.106	373.25
339.334	352.25
339.562	338.25
339.79	335.25
340.018	326.25
340.246	325.25
340.474	364.25
340.702	365.25
340.93	355.25
341.158	357.25
341.386	340.25
341.614	333.25
341.842	345.25
342.07	349.25
342.298	345.25
342.526	362.25
342.754	331.25
342.981	346.25
343.209	338.25
343.437	363.25
343.665	366.25
343.893	378.25
344.12	391.25
344.348	350.25
344.576	365.25
344.804	385.25
345.031	353.25
345.259	358.25
345.487	355.25
345.714	333.25
345.942	339.25
346.17	316.25
346.397	328.25
346.625	316.25
346.853	324.25
347.08	337.25
347.308	359.25
347.535	335.25
347.763	340.25
347.99	344.25
348.218	336.25
348.445	339.25
348.673	345.25
348.9	327.25
349.128	338.25
349.355	315.25
349.583	322.25
349.81	334.25
350.037	338.25
350.265	306.25
350.492	314.25
350.72	323.25
350.947	330.25
351.174	320.25
351.402	344.25
351.629	339.25
351.856	318.25
352.083	337.25
352.311	346.25
352.538	341.25
352.765	341.25
352.992	321.25
353.22	340.25
353.447	307.25
353.674	307.25
353.901	313.25
354.128	321.25
354.355	322.25
354.583	321.25
354.81	345.25
355.037	319.25
355.264	318.25
355.491	322.25
355.718	304.25
355.945	308.25
356.172	320.25
356.399	329.25
356.626	309.25
356.853	299.25
357.08	307.25
357.307	305.25
357.534	322.25
357.761	318.25
357.988	327.25
358.215	321.25
358.441	297.25
358.668	320.25
358.895	324.25
359.122	324.25
359.349	317.25
359.576	321.25
359.802	343.25
360.029	333.25
360.256	334.25
360.483	328.25
360.709	325.25
360.936	337.25
361.163	320.25
361.39	334.25
361.616	342.25
361.843	333.25
362.07	330.25
362.296	333.25
362.523	338.25
362.749	337.25
362.976	333.25
363.203	316.25
363.429	322.25
363.656	322.25
363.882	319.25
364.109	308.25
364.335	313.25
364.562	288.25
364.788	345.25
365.015	332.25
365.241	316.25
365.468	312.25
365.694	317.25
365.92	330.25
366.147	312.25
366.373	311.25
366.599	313.25
366.826	306.25
367.052	313.25
367.278	317.25
367.505	312.25
367.731	314.25
367.957	320.25
368.184	305.25
368.41	318.25
368.636	329.25
368.862	346.25
369.089	325.25
369.315	319.25
369.541	310.25
369.767	326.25
369.993	309.25
370.219	313.25
370.445	321.25
370.672	331.25
370.898	308.25
371.124	310.25
371.35	331.25
371.576	349.25
371.802	313.25
372.028	326.25
372.254	305.25
372.48	319.25
372.706	320.25
372.932	321.25
373.158	324.25
373.384	326.25
373.61	325.25
373.835	301.25
374.061	340.25
374.287	324.25
374.513	331.25
374.739	326.25
374.965	337.25
375.191	347.25
375.416	329.25
375.642	336.25
375.868	319.25
376.094	334.25
376.319	332.25
376.545	318.25
376.771	324.25
376.997	336.25
377.222	318.25
377.448	342.25
377.674	352.25
377.899	311.25
378.125	315.25
378.35	328.25
378.576	306.25
378.802	330.25
379.027	338.25
379.253	320.25
379.478	326.25
379.704	337.25
379.929	317.25
380.155	311.25
380.38	324.25
380.606	330.25
380.831	330.25
381.057	332.25
381.282	333.25
381.507	316.25
381.733	337.25
381.958	335.25
382.184	356.25
382.409	353.25
382.634	333.25
382.86	346.25
383.085	338.25
383.31	340.25
383.535	338.25
383.761	330.25
383.986	332.25
384.211	354.25
384.436	352.25
384.662	369.25
384.887	360.25
385.112	353.25
385.337	362.25
385.562	358.25
385.787	361.25
386.013	358.25
386.238	376.25
386.463	375.25
386.688	372.25
386.913	348.25
387.138	358.25
387.363	352.25
387.588	360.25
387.813	353.25
388.038	379.25
388.263	362.25
388.488	371.25
388.713	356.25
388.938	358.25
389.163	353.25
389.387	354.25
389.612	347.25
389.837	358.25
390.062	350.25
390.287	365.25
390.512	368.25
390.736	366.25
390.961	368.25
391.186	365.25
391.411	358.25
391.636	374.25
391.86	404.25
392.085	400.25
392.31	389.25
392.534	388.25
392.759	359.25
392.984	353.25
393.208	392.25
393.433	371.25
393.658	357.25
393.882	370.25
394.107	368.25
394.331	369.25
394.556	368.25
394.78	377.25
395.005	377.25
395.229	373.25
395.454	377.25
395.678	390.25
395.903	376.25
396.127	382.25
396.352	393.25
396.576	382.25
396.801	359.25
397.025	380.25
397.249	390.25
397.474	394.25
397.698	395.25
397.922	393.25
398.147	398.25
398.371	424.25
398.595	423.25
398.82	417.25
399.044	479.25
399.268	458.25
399.492	510.25
399.717	549.25
399.941	529.25
400.165	533.25
400.389	500.25
400.613	483.25
400.837	455.25
401.062	436.25
401.286	440.25
401.51	423.25
401.734	421.25
401.958	444.25
402.182	413.25
402.406	429.25
402.63	442.25
402.854	443.25
403.078	434.25
403.302	435.25
403.526	457.25
403.75	457.25
403.974	484.25
404.198	465.25
404.422	466.25
404.645	475.25
404.869	452.25
405.093	488.25
405.317	490.25
405.541	512.25
405.765	475.25
405.988	467.25
406.212	470.25
406.436	476.25
406.66	486.25
406.883	465.25
407.107	490.25
407.331	504.25
407.555	560.25
407.778	545.25
408.002	508.25
408.226	504.25
408.449	500.25
408.673	467.25
408.896	473.25
409.12	500.25
409.344	480.25
409.567	436.25
409.791	455.25
410.014	445.25
410.238	438.25
410.461	423.25
410.685	437.25
410.908	440.25
411.132	453.25
411.355	480.25
411.578	457.25
411.802	436.25
412.025	417.25
412.249	437.25
412.472	459.25
412.695	468.25
412.919	474.25
413.142	444.25
413.365	406.25
413.589	405.25
413.812	421.25
414.035	397.25
414.258	404.25
414.482	422.25
414.705	425.25
414.928	411.25
415.151	421.25
415.374	414.25
415.597	413.25
415.821	410.25
416.044	405.25
416.267	414.25
416.49	397.25
416.713	402.25
416.936	411.25
417.159	426.25
417.382	419.25
417.605	402.25
417.828	422.25
418.051	442.25
418.274	438.25
418.497	424.25
418.72	414.25
418.943	410.25
419.166	435.25
419.389	458.25
419.611	434.25
419.834	433.25
420.057	461.25
420.28	445.25
420.503	434.25
420.726	440.25
420.948	425.25
421.171	462.25
421.394	477.25
421.617	443.25
421.839	414.25
422.062	428.25
422.285	446.25
422.507	466.25
422.73	492.25
422.953	482.25
423.175	462.25
423.398	450.25
423.621	424.25
423.843	453.25
424.066	463.25
424.288	464.25
424.511	472.25
424.733	484.25
424.956	525.25
425.178	504.25
425.401	511.25
425.623	502.25
425.846	424.25
426.068	429.25
426.291	433.25
426.513	426.25
426.735	442.25
426.958	459.25
427.18	512.25
427.402	561.25
427.625	572.25
427.847	530.25
428.069	486.25
428.292	451.25
428.514	394.25
428.736	396.25
428.958	405.25
429.181	401.25
429.403	409.25
429.625	416.25
429.847	418.25
430.069	443.25
430.292	434.25
430.514	391.25
430.736	397.25
430.958	375.25
431.18	400.25
431.402	380.25
431.624	371.25
431.846	378.25
432.068	384.25
432.29	384.25
432.512	376.25
432.734	405.25
432.956	389.25
433.178	396.25
433.4	378.25
433.622	406.25
433.844	382.25
434.066	399.25
434.287	408.25
434.509	388.25
434.731	412.25
434.953	401.25
435.175	422.25
435.397	444.25
435.618	421.25
435.84	456.25
436.062	497.25
436.284	511.25
436.505	459.25
436.727	450.25
436.949	413.25
437.17	397.25
437.392	381.25
437.614	399.25
437.835	415.25
438.057	474.25
438.278	506.25
438.5	526.25
438.721	550.25
438.943	521.25
439.165	434.25
439.386	429.25
439.608	420.25
439.829	405.25
440.05	434.25
440.272	449.25
440.493	441.25
440.715	434.25
440.936	422.25
441.158	409.25
441.379	405.25
441.6	429.25
441.822	450.25
442.043	449.25
442.264	486.25
442.486	508.25
442.707	455.25
442.928	463.25
443.149	476.25
443.371	452.25
443.592	508.25
443.813	549.25
444.034	541.25
444.255	477.25
444.476	470.25
444.698	476.25
444.919	485.25
445.14	547.25
445.361	500.25
445.582	489.25
445.803	494.25
446.024	524.25
446.245	532.25
446.466	473.25
446.687	452.25
446.908	424.25
447.129	405.25
447.35	389.25
447.571	388.25
447.792	394.25
448.013	423.25
448.234	412.25
448.455	425.25
448.675	504.25
448.896	535.25
449.117	461.25
449.338	436.25
449.559	507.25
449.779	549.25
450	455.25
450.221	396.25
450.442	385.25
450.662	394.25
450.883	392.25
451.104	386.25
451.324	379.25
451.545	354.25
451.766	367.25
451.986	374.25
452.207	364.25
452.428	362.25
452.648	364.25
452.869	361.25
453.089	349.25
453.31	370.25
453.53	361.25
453.751	363.25
453.971	358.25
454.192	346.25
454.412	372.25
454.633	357.25
454.853	341.25
455.073	353.25
455.294	370.25
455.514	406.25
455.734	400.25
455.955	366.25
456.175	347.25
456.395	349.25
456.616	314.25
456.836	343.25
457.056	336.25
457.276	329.25
457.497	348.25
457.717	348.25
457.937	346.25
458.157	353.25
458.377	363.25
458.598	375.25
458.818	396.25
459.038	429.25
459.258	467.25
459.478	426.25
459.698	420.25
459.918	392.25
460.138	396.25
460.358	398.25
460.578	417.25
460.798	421.25
461.018	435.25
461.238	416.25
461.458	444.25
461.678	422.25
461.898	420.25
462.118	425.25
462.338	415.25
462.558	435.25
462.777	446.25
462.997	456.25
463.217	496.25
463.437	483.25
463.657	449.25
463.876	469.25
464.096	460.25
464.316	473.25
464.536	473.25
464.755	456.25
464.975	456.25
465.195	475.25
465.414	478.25
465.634	428.25
465.854	398.25
466.073	392.25
466.293	394.25
466.512	370.25
466.732	383.25
466.951	363.25
467.171	378.25
467.391	362.25
467.61	387.25
467.829	365.25
468.049	387.25
468.268	374.25
468.488	381.25
468.707	360.25
468.927	358.25
469.146	368.25
469.365	402.25
469.585	396.25
469.804	383.25
470.023	374.25
470.243	389.25
470.462	391.25
470.681	405.25
470.901	381.25
471.12	380.25
471.339	355.25
471.558	373.25
471.777	370.25
471.997	383.25
472.216	374.25
472.435	370.25
472.654	382.25
472.873	378.25
473.092	370.25
473.311	370.25
473.53	361.25
473.749	371.25
473.968	390.25
474.187	469.25
474.406	455.25
474.625	406.25
474.844	358.25
475.063	373.25
475.282	363.25
475.501	340.25
475.72	388.25
475.939	392.25
476.158	392.25
476.377	385.25
476.596	371.25
476.814	392.25
477.033	393.25
477.252	411.25
477.471	398.25
477.69	410.25
477.908	432.25
478.127	434.25
478.346	427.25
478.564	439.25
478.783	437.25
479.002	449.25
479.22	427.25
479.439	441.25
479.658	436.25
479.876	448.25
480.095	461.25
480.313	464.25
480.532	468.25
480.751	457.25
480.969	469.25
481.188	486.25
481.406	515.25
481.624	460.25
481.843	439.25
482.061	434.25
482.28	429.25
482.498	418.25
482.717	426.25
482.935	429.25
483.153	425.25
483.372	433.25
483.59	444.25
483.808	417.25
484.027	460.25
484.245	425.25
484.463	432.25
484.681	450.25
484.9	403.25
485.118	437.25
485.336	439.25
485.554	437.25
485.772	442.25
485.99	428.25
486.209	458.25
486.427	418.25
486.645	458.25
486.863	460.25
487.081	456.25
487.299	463.25
487.517	454.25
487.735	442.25
487.953	458.25
488.171	463.25
488.389	458.25
488.607	489.25
488.825	463.25
489.043	444.25
489.261	464.25
489.479	482.25
489.696	472.25
489.914	452.25
490.132	465.25
490.35	475.25
490.568	486.25
490.786	477.25
491.003	485.25
491.221	498.25
491.439	516.25
491.657	506.25
491.874	521.25
492.092	533.25
492.31	501.25
492.527	518.25
492.745	529.25
492.963	504.25
493.18	531.25
493.398	547.25
493.615	555.25
493.833	532.25
494.05	533.25
494.268	547.25
494.485	536.25
494.703	532.25
494.92	547.25
495.138	513.25
495.355	517.25
495.573	533.25
495.79	538.25
496.008	546.25
496.225	531.25
496.442	537.25
496.66	558.25
496.877	522.25
497.094	529.25
497.312	544.25
497.529	556.25
497.746	564.25
497.963	554.25
498.181	601.25
498.398	593.25
498.615	611.25
498.832	640.25
499.049	692.25
499.267	681.25
499.484	724.25
499.701	774.25
499.918	836.25
500.135	861.25
500.352	968.25
500.569	950.25
500.786	958.25
501.003	926.25
501.22	876.25
501.437	826.25
501.654	744.25
501.871	738.25
502.088	721.25
502.305	663.25
