Data from 1969.PennyLincolnUp.Lamp.En5.5.200Scan.071719.P1._HRD10591_14-55-27-973.txt Node
Date: Thu Jul 18 14:55:27 EDT 2019
User: cochatt
Spectrometer: HR+D1059
Trigger mode: 1
Integration Time (sec): 1.000000E-1
Scans to average: 1
Electric dark correction enabled: true
Nonlinearity correction enabled: false
Boxcar width: 0
XAxis mode: Wavelengths
Number of Pixels in Spectrum: 2048
>>>>>Begin Spectral Data<<<<<
223.165	-6.88
223.4	-6.88
223.635	-6.88
223.869	-10.88
224.104	-27.88
224.338	-12.88
224.573	-17.88
224.808	-9.88
225.042	-6.88
225.277	-14.88
225.511	-8.88
225.746	9.12
225.98	14.12
226.215	14.12
226.449	3.12
226.683	19.12
226.918	25.12
227.152	32.12
227.387	38.12
227.621	50.12
227.856	43.12
228.09	37.12
228.324	41.12
228.559	56.12
228.793	60.12
229.027	85.12
229.262	107.12
229.496	86.12
229.73	99.12
229.964	124.12
230.199	91.12
230.433	96.12
230.667	96.12
230.901	103.12
231.136	94.12
231.37	88.12
231.604	105.12
231.838	112.12
232.072	81.12
232.306	105.12
232.541	112.12
232.775	85.12
233.009	96.12
233.243	101.12
233.477	102.12
233.711	104.12
233.945	109.12
234.179	116.12
234.413	111.12
234.647	104.12
234.881	109.12
235.115	100.12
235.349	119.12
235.583	110.12
235.817	101.12
236.051	115.12
236.285	105.12
236.519	121.12
236.753	113.12
236.987	125.12
237.221	131.12
237.455	150.12
237.689	127.12
237.922	113.12
238.156	112.12
238.39	100.12
238.624	106.12
238.858	108.12
239.091	107.12
239.325	108.12
239.559	116.12
239.793	103.12
240.027	109.12
240.26	121.12
240.494	139.12
240.728	116.12
240.961	128.12
241.195	115.12
241.429	108.12
241.662	122.12
241.896	109.12
242.13	116.12
242.363	108.12
242.597	121.12
242.83	122.12
243.064	120.12
243.298	115.12
243.531	119.12
243.765	120.12
243.998	121.12
244.232	121.12
244.465	123.12
244.699	108.12
244.932	119.12
245.166	125.12
245.399	115.12
245.633	118.12
245.866	120.12
246.099	123.12
246.333	128.12
246.566	135.12
246.8	121.12
247.033	117.12
247.266	152.12
247.5	130.12
247.733	145.12
247.966	136.12
248.2	124.12
248.433	138.12
248.666	129.12
248.899	154.12
249.133	171.12
249.366	166.12
249.599	166.12
249.832	151.12
250.066	153.12
250.299	161.12
250.532	159.12
250.765	163.12
250.998	171.12
251.231	168.12
251.465	166.12
251.698	152.12
251.931	154.12
252.164	162.12
252.397	169.12
252.63	159.12
252.863	161.12
253.096	171.12
253.329	170.12
253.562	192.12
253.795	180.12
254.028	188.12
254.261	179.12
254.494	160.12
254.727	199.12
254.96	204.12
255.193	198.12
255.426	191.12
255.659	187.12
255.892	183.12
256.124	172.12
256.357	175.12
256.59	195.12
256.823	173.12
257.056	169.12
257.289	179.12
257.521	166.12
257.754	177.12
257.987	176.12
258.22	191.12
258.452	179.12
258.685	169.12
258.918	157.12
259.151	167.12
259.383	184.12
259.616	165.12
259.849	173.12
260.081	202.12
260.314	187.12
260.547	200.12
260.779	194.12
261.012	188.12
261.244	173.12
261.477	188.12
261.71	176.12
261.942	198.12
262.175	183.12
262.407	184.12
262.64	182.12
262.872	181.12
263.105	185.12
263.337	182.12
263.57	172.12
263.802	167.12
264.035	178.12
264.267	188.12
264.499	179.12
264.732	181.12
264.964	175.12
265.197	175.12
265.429	188.12
265.661	191.12
265.894	200.12
266.126	188.12
266.358	199.12
266.591	175.12
266.823	181.12
267.055	191.12
267.287	189.12
267.52	172.12
267.752	204.12
267.984	199.12
268.216	205.12
268.448	213.12
268.681	195.12
268.913	195.12
269.145	203.12
269.377	209.12
269.609	213.12
269.841	205.12
270.073	209.12
270.306	228.12
270.538	248.12
270.77	241.12
271.002	232.12
271.234	215.12
271.466	223.12
271.698	246.12
271.93	226.12
272.162	234.12
272.394	250.12
272.626	220.12
272.858	232.12
273.09	233.12
273.322	238.12
273.553	222.12
273.785	211.12
274.017	221.12
274.249	221.12
274.481	202.12
274.713	209.12
274.945	239.12
275.176	205.12
275.408	219.12
275.64	200.12
275.872	197.12
276.104	208.12
276.335	223.12
276.567	232.12
276.799	232.12
277.031	245.12
277.262	260.12
277.494	249.12
277.726	242.12
277.957	216.12
278.189	227.12
278.421	235.12
278.652	205.12
278.884	233.12
279.115	234.12
279.347	225.12
279.579	212.12
279.81	227.12
280.042	232.12
280.273	233.12
280.505	216.12
280.736	211.12
280.968	229.12
281.199	239.12
281.431	221.12
281.662	240.12
281.894	236.12
282.125	243.12
282.356	257.12
282.588	252.12
282.819	247.12
283.051	260.12
283.282	244.12
283.513	231.12
283.745	245.12
283.976	239.12
284.207	231.12
284.439	251.12
284.67	247.12
284.901	244.12
285.132	261.12
285.364	225.12
285.595	237.12
285.826	232.12
286.057	243.12
286.288	234.12
286.52	245.12
286.751	226.12
286.982	249.12
287.213	239.12
287.444	261.12
287.675	249.12
287.906	247.12
288.138	255.12
288.369	267.12
288.6	268.12
288.831	250.12
289.062	276.12
289.293	244.12
289.524	264.12
289.755	249.12
289.986	250.12
290.217	269.12
290.448	258.12
290.679	276.12
290.91	244.12
291.141	244.12
291.371	235.12
291.602	257.12
291.833	255.12
292.064	255.12
292.295	262.12
292.526	255.12
292.757	257.12
292.987	267.12
293.218	261.12
293.449	267.12
293.68	270.12
293.91	240.12
294.141	265.12
294.372	255.12
294.603	255.12
294.833	247.12
295.064	246.12
295.295	233.12
295.525	277.12
295.756	262.12
295.987	255.12
296.217	280.12
296.448	282.12
296.679	280.12
296.909	269.12
297.14	273.12
297.37	273.12
297.601	280.12
297.831	260.12
298.062	275.12
298.292	269.12
298.523	264.12
298.753	270.12
298.984	265.12
299.214	260.12
299.445	265.12
299.675	263.12
299.905	283.12
300.136	279.12
300.366	290.12
300.597	273.12
300.827	276.12
301.057	305.12
301.288	290.12
301.518	281.12
301.748	274.12
301.979	289.12
302.209	291.12
302.439	283.12
302.669	287.12
302.9	282.12
303.13	263.12
303.36	289.12
303.59	288.12
303.82	280.12
304.051	278.12
304.281	287.12
304.511	275.12
304.741	277.12
304.971	286.12
305.201	291.12
305.431	284.12
305.661	275.12
305.891	264.12
306.121	289.12
306.352	279.12
306.582	277.12
306.812	279.12
307.042	279.12
307.272	270.12
307.502	279.12
307.731	272.12
307.961	289.12
308.191	285.12
308.421	291.12
308.651	279.12
308.881	313.12
309.111	300.12
309.341	300.12
309.571	312.12
309.8	304.12
310.03	295.12
310.26	307.12
310.49	296.12
310.72	318.12
310.949	308.12
311.179	307.12
311.409	306.12
311.639	305.12
311.868	312.12
312.098	320.12
312.328	324.12
312.557	316.12
312.787	317.12
313.017	322.12
313.246	315.12
313.476	308.12
313.706	326.12
313.935	297.12
314.165	341.12
314.394	331.12
314.624	315.12
314.853	315.12
315.083	325.12
315.312	317.12
315.542	318.12
315.771	300.12
316.001	317.12
316.23	309.12
316.46	303.12
316.689	305.12
316.919	313.12
317.148	317.12
317.377	325.12
317.607	327.12
317.836	324.12
318.065	315.12
318.295	310.12
318.524	306.12
318.753	313.12
318.983	296.12
319.212	309.12
319.441	307.12
319.67	324.12
319.9	314.12
320.129	307.12
320.358	308.12
320.587	311.12
320.816	299.12
321.046	308.12
321.275	323.12
321.504	320.12
321.733	332.12
321.962	315.12
322.191	338.12
322.42	335.12
322.649	341.12
322.878	359.12
323.108	367.12
323.337	371.12
323.566	361.12
323.795	377.12
324.024	373.12
324.253	431.12
324.482	562.12
324.71	818.12
324.939	1052.12
325.168	888.12
325.397	521.12
325.626	415.12
325.855	375.12
326.084	358.12
326.313	355.12
326.542	357.12
326.77	380.12
326.999	431.12
327.228	555.12
327.457	736.12
327.686	830.12
327.914	583.12
328.143	454.12
328.372	425.12
328.6	397.12
328.829	391.12
329.058	396.12
329.287	428.12
329.515	391.12
329.744	377.12
329.972	376.12
330.201	383.12
330.43	418.12
330.658	404.12
330.887	444.12
331.115	431.12
331.344	389.12
331.572	393.12
331.801	386.12
332.03	396.12
332.258	374.12
332.486	361.12
332.715	386.12
332.943	380.12
333.172	393.12
333.4	380.12
333.629	394.12
333.857	406.12
334.085	400.12
334.314	410.12
334.542	428.12
334.771	455.12
334.999	420.12
335.227	395.12
335.455	394.12
335.684	375.12
335.912	371.12
336.14	386.12
336.369	377.12
336.597	375.12
336.825	368.12
337.053	372.12
337.281	376.12
337.51	373.12
337.738	373.12
337.966	351.12
338.194	357.12
338.422	367.12
338.65	355.12
338.878	348.12
339.106	345.12
339.334	351.12
339.562	359.12
339.79	360.12
340.018	345.12
340.246	356.12
340.474	355.12
340.702	333.12
340.93	337.12
341.158	333.12
341.386	343.12
341.614	362.12
341.842	348.12
342.07	348.12
342.298	348.12
342.526	348.12
342.754	338.12
342.981	368.12
343.209	346.12
343.437	354.12
343.665	366.12
343.893	370.12
344.12	373.12
344.348	375.12
344.576	375.12
344.804	373.12
345.031	336.12
345.259	341.12
345.487	349.12
345.714	356.12
345.942	328.12
346.17	333.12
346.397	340.12
346.625	323.12
346.853	328.12
347.08	332.12
347.308	348.12
347.535	329.12
347.763	345.12
347.99	334.12
348.218	336.12
348.445	334.12
348.673	343.12
348.9	333.12
349.128	314.12
349.355	324.12
349.583	324.12
349.81	306.12
350.037	320.12
350.265	332.12
350.492	335.12
350.72	346.12
350.947	342.12
351.174	339.12
351.402	342.12
351.629	335.12
351.856	340.12
352.083	331.12
352.311	344.12
352.538	341.12
352.765	335.12
352.992	339.12
353.22	346.12
353.447	313.12
353.674	337.12
353.901	329.12
354.128	336.12
354.355	309.12
354.583	329.12
354.81	308.12
355.037	320.12
355.264	309.12
355.491	325.12
355.718	328.12
355.945	317.12
356.172	305.12
356.399	308.12
356.626	311.12
356.853	322.12
357.08	317.12
357.307	319.12
357.534	310.12
357.761	320.12
357.988	327.12
358.215	315.12
358.441	318.12
358.668	309.12
358.895	323.12
359.122	337.12
359.349	339.12
359.576	330.12
359.802	348.12
360.029	352.12
360.256	349.12
360.483	354.12
360.709	353.12
360.936	331.12
361.163	319.12
361.39	330.12
361.616	306.12
361.843	321.12
362.07	333.12
362.296	333.12
362.523	330.12
362.749	317.12
362.976	321.12
363.203	310.12
363.429	322.12
363.656	300.12
363.882	323.12
364.109	335.12
364.335	326.12
364.562	320.12
364.788	312.12
365.015	320.12
365.241	320.12
365.468	321.12
365.694	329.12
365.92	322.12
366.147	310.12
366.373	319.12
366.599	331.12
366.826	331.12
367.052	321.12
367.278	303.12
367.505	313.12
367.731	323.12
367.957	324.12
368.184	317.12
368.41	332.12
368.636	329.12
368.862	305.12
369.089	330.12
369.315	310.12
369.541	312.12
369.767	324.12
369.993	306.12
370.219	313.12
370.445	329.12
370.672	322.12
370.898	315.12
371.124	325.12
371.35	345.12
371.576	332.12
371.802	329.12
372.028	336.12
372.254	329.12
372.48	326.12
372.706	342.12
372.932	322.12
373.158	340.12
373.384	331.12
373.61	347.12
373.835	343.12
374.061	329.12
374.287	328.12
374.513	349.12
374.739	343.12
374.965	344.12
375.191	372.12
375.416	362.12
375.642	325.12
375.868	340.12
376.094	341.12
376.319	322.12
376.545	333.12
376.771	335.12
376.997	322.12
377.222	325.12
377.448	333.12
377.674	324.12
377.899	336.12
378.125	315.12
378.35	330.12
378.576	329.12
378.802	323.12
379.027	320.12
379.253	320.12
379.478	319.12
379.704	329.12
379.929	332.12
380.155	326.12
380.38	328.12
380.606	332.12
380.831	315.12
381.057	340.12
381.282	343.12
381.507	324.12
381.733	320.12
381.958	305.12
382.184	319.12
382.409	333.12
382.634	340.12
382.86	316.12
383.085	341.12
383.31	347.12
383.535	351.12
383.761	332.12
383.986	348.12
384.211	353.12
384.436	368.12
384.662	355.12
384.887	367.12
385.112	369.12
385.337	364.12
385.562	348.12
385.787	371.12
386.013	381.12
386.238	381.12
386.463	380.12
386.688	373.12
386.913	385.12
387.138	378.12
387.363	357.12
387.588	358.12
387.813	369.12
388.038	364.12
388.263	373.12
388.488	377.12
388.713	351.12
388.938	364.12
389.163	359.12
389.387	367.12
389.612	347.12
389.837	358.12
390.062	346.12
390.287	365.12
390.512	369.12
390.736	364.12
390.961	362.12
391.186	377.12
391.411	361.12
391.636	373.12
391.86	380.12
392.085	393.12
392.31	384.12
392.534	383.12
392.759	384.12
392.984	381.12
393.208	373.12
393.433	360.12
393.658	369.12
393.882	361.12
394.107	369.12
394.331	361.12
394.556	360.12
394.78	358.12
395.005	389.12
395.229	379.12
395.454	379.12
395.678	380.12
395.903	376.12
396.127	407.12
396.352	409.12
396.576	393.12
396.801	385.12
397.025	385.12
397.249	380.12
397.474	396.12
397.698	412.12
397.922	388.12
398.147	400.12
398.371	410.12
398.595	422.12
398.82	414.12
399.044	448.12
399.268	480.12
399.492	523.12
399.717	554.12
399.941	546.12
400.165	546.12
400.389	525.12
400.613	470.12
400.837	436.12
401.062	442.12
401.286	431.12
401.51	427.12
401.734	419.12
401.958	433.12
402.182	406.12
402.406	440.12
402.63	430.12
402.854	442.12
403.078	438.12
403.302	438.12
403.526	465.12
403.75	466.12
403.974	467.12
404.198	445.12
404.422	467.12
404.645	474.12
404.869	465.12
405.093	459.12
405.317	478.12
405.541	511.12
405.765	479.12
405.988	455.12
406.212	461.12
406.436	493.12
406.66	481.12
406.883	476.12
407.107	521.12
407.331	522.12
407.555	554.12
407.778	549.12
408.002	516.12
408.226	488.12
408.449	498.12
408.673	487.12
408.896	485.12
409.12	478.12
409.344	489.12
409.567	456.12
409.791	455.12
410.014	451.12
410.238	432.12
410.461	462.12
410.685	461.12
410.908	459.12
411.132	465.12
411.355	469.12
411.578	456.12
411.802	443.12
412.025	449.12
412.249	464.12
412.472	479.12
412.695	475.12
412.919	460.12
413.142	443.12
413.365	439.12
413.589	425.12
413.812	398.12
414.035	441.12
414.258	409.12
414.482	429.12
414.705	417.12
414.928	416.12
415.151	418.12
415.374	432.12
415.597	418.12
415.821	422.12
416.044	417.12
416.267	417.12
416.49	399.12
416.713	415.12
416.936	413.12
417.159	415.12
417.382	409.12
417.605	395.12
417.828	448.12
418.051	426.12
418.274	434.12
418.497	432.12
418.72	424.12
418.943	412.12
419.166	414.12
419.389	478.12
419.611	444.12
419.834	456.12
420.057	451.12
420.28	432.12
420.503	450.12
420.726	444.12
420.948	447.12
421.171	466.12
421.394	475.12
421.617	437.12
421.839	427.12
422.062	431.12
422.285	428.12
422.507	464.12
422.73	506.12
422.953	484.12
423.175	470.12
423.398	451.12
423.621	470.12
423.843	475.12
424.066	461.12
424.288	445.12
424.511	450.12
424.733	475.12
424.956	529.12
425.178	495.12
425.401	502.12
425.623	518.12
425.846	452.12
426.068	422.12
426.291	434.12
426.513	428.12
426.735	459.12
426.958	456.12
427.18	496.12
427.402	559.12
427.625	583.12
427.847	529.12
428.069	483.12
428.292	455.12
428.514	424.12
428.736	399.12
428.958	396.12
429.181	406.12
429.403	419.12
429.625	416.12
429.847	429.12
430.069	453.12
430.292	465.12
430.514	419.12
430.736	409.12
430.958	396.12
431.18	375.12
431.402	383.12
431.624	369.12
431.846	383.12
432.068	395.12
432.29	390.12
432.512	401.12
432.734	389.12
432.956	395.12
433.178	396.12
433.4	375.12
433.622	398.12
433.844	386.12
434.066	408.12
434.287	407.12
434.509	382.12
434.731	425.12
434.953	426.12
435.175	436.12
435.397	437.12
435.618	426.12
435.84	458.12
436.062	479.12
436.284	514.12
436.505	455.12
436.727	419.12
436.949	392.12
437.17	399.12
437.392	390.12
437.614	387.12
437.835	409.12
438.057	468.12
438.278	513.12
438.5	523.12
438.721	551.12
438.943	515.12
439.165	444.12
439.386	437.12
439.608	431.12
439.829	435.12
440.05	434.12
440.272	459.12
440.493	438.12
440.715	425.12
440.936	412.12
441.158	403.12
441.379	416.12
441.6	440.12
441.822	439.12
442.043	460.12
442.264	516.12
442.486	517.12
442.707	455.12
442.928	454.12
443.149	446.12
443.371	468.12
443.592	488.12
443.813	536.12
444.034	567.12
444.255	523.12
444.476	463.12
444.698	475.12
444.919	472.12
445.14	603.12
445.361	525.12
445.582	466.12
445.803	509.12
446.024	528.12
446.245	516.12
446.466	487.12
446.687	449.12
446.908	426.12
447.129	402.12
447.35	396.12
447.571	392.12
447.792	400.12
448.013	418.12
448.234	413.12
448.455	442.12
448.675	485.12
448.896	529.12
449.117	468.12
449.338	444.12
449.559	519.12
449.779	567.12
450	455.12
450.221	405.12
450.442	406.12
450.662	377.12
450.883	408.12
451.104	415.12
451.324	392.12
451.545	391.12
451.766	370.12
451.986	374.12
452.207	367.12
452.428	370.12
452.648	383.12
452.869	392.12
453.089	344.12
453.31	371.12
453.53	364.12
453.751	356.12
453.971	368.12
454.192	372.12
454.412	352.12
454.633	373.12
454.853	352.12
455.073	359.12
455.294	381.12
455.514	403.12
455.734	379.12
455.955	360.12
456.175	354.12
456.395	347.12
456.616	328.12
456.836	331.12
457.056	343.12
457.276	326.12
457.497	349.12
457.717	364.12
457.937	359.12
458.157	354.12
458.377	348.12
458.598	372.12
458.818	411.12
459.038	453.12
459.258	463.12
459.478	436.12
459.698	409.12
459.918	408.12
460.138	395.12
460.358	418.12
460.578	415.12
460.798	417.12
461.018	442.12
461.238	410.12
461.458	423.12
461.678	423.12
461.898	441.12
462.118	407.12
462.338	444.12
462.558	456.12
462.777	452.12
462.997	506.12
463.217	487.12
463.437	515.12
463.657	489.12
463.876	481.12
464.096	452.12
464.316	467.12
464.536	471.12
464.755	467.12
464.975	455.12
465.195	452.12
465.414	462.12
465.634	448.12
465.854	406.12
466.073	403.12
466.293	410.12
466.512	383.12
466.732	371.12
466.951	397.12
467.171	381.12
467.391	383.12
467.61	373.12
467.829	412.12
468.049	391.12
468.268	387.12
468.488	368.12
468.707	371.12
468.927	367.12
469.146	368.12
469.365	367.12
469.585	370.12
469.804	378.12
470.023	402.12
470.243	410.12
470.462	387.12
470.681	416.12
470.901	398.12
471.12	394.12
471.339	388.12
471.558	385.12
471.777	382.12
471.997	376.12
472.216	380.12
472.435	401.12
472.654	398.12
472.873	370.12
473.092	374.12
473.311	385.12
473.53	381.12
473.749	405.12
473.968	400.12
474.187	455.12
474.406	461.12
474.625	393.12
474.844	390.12
475.063	368.12
475.282	377.12
475.501	380.12
475.72	391.12
475.939	401.12
476.158	389.12
476.377	372.12
476.596	383.12
476.814	377.12
477.033	379.12
477.252	391.12
477.471	384.12
477.69	431.12
477.908	433.12
478.127	428.12
478.346	443.12
478.564	448.12
478.783	446.12
479.002	444.12
479.22	452.12
479.439	456.12
479.658	449.12
479.876	455.12
480.095	445.12
480.313	491.12
480.532	481.12
480.751	462.12
480.969	500.12
481.188	520.12
481.406	516.12
481.624	450.12
481.843	444.12
482.061	441.12
482.28	429.12
482.498	429.12
482.717	451.12
482.935	437.12
483.153	454.12
483.372	449.12
483.59	443.12
483.808	416.12
484.027	421.12
484.245	436.12
484.463	444.12
484.681	449.12
484.9	460.12
485.118	450.12
485.336	449.12
485.554	463.12
485.772	438.12
485.99	451.12
486.209	457.12
486.427	456.12
486.645	473.12
486.863	480.12
487.081	458.12
487.299	450.12
487.517	467.12
487.735	438.12
487.953	436.12
488.171	465.12
488.389	460.12
488.607	470.12
488.825	447.12
489.043	441.12
489.261	471.12
489.479	473.12
489.696	462.12
489.914	458.12
490.132	480.12
490.35	456.12
490.568	483.12
490.786	461.12
491.003	484.12
491.221	518.12
491.439	497.12
491.657	509.12
491.874	534.12
492.092	517.12
492.31	521.12
492.527	523.12
492.745	533.12
492.963	546.12
493.18	526.12
493.398	544.12
493.615	544.12
493.833	555.12
494.05	542.12
494.268	557.12
494.485	555.12
494.703	540.12
494.92	546.12
495.138	534.12
495.355	549.12
495.573	559.12
495.79	533.12
496.008	537.12
496.225	551.12
496.442	523.12
496.66	549.12
496.877	515.12
497.094	537.12
497.312	543.12
497.529	559.12
497.746	571.12
497.963	570.12
498.181	605.12
498.398	597.12
498.615	636.12
498.832	642.12
499.049	673.12
499.267	707.12
499.484	757.12
499.701	800.12
499.918	834.12
500.135	908.12
500.352	973.12
500.569	969.12
500.786	963.12
501.003	936.12
501.22	879.12
501.437	816.12
501.654	765.12
501.871	743.12
502.088	689.12
