Data from 1969.PennyLincolnUp.Lamp.En5.5.200Scan.071719.P1._HRD10591_14-56-43-972.txt Node
Date: Thu Jul 18 14:56:43 EDT 2019
User: cochatt
Spectrometer: HR+D1059
Trigger mode: 1
Integration Time (sec): 1.000000E-1
Scans to average: 1
Electric dark correction enabled: true
Nonlinearity correction enabled: false
Boxcar width: 0
XAxis mode: Wavelengths
Number of Pixels in Spectrum: 2048
>>>>>Begin Spectral Data<<<<<
223.165	-14.19
223.4	-14.19
223.635	-14.19
223.869	-19.19
224.104	-11.19
224.338	-15.19
224.573	0.81
224.808	-11.19
225.042	-9.19
225.277	-13.19
225.511	-8.19
225.746	12.81
225.98	6.81
226.215	5.81
226.449	20.81
226.683	16.81
226.918	12.81
227.152	24.81
227.387	34.81
227.621	36.81
227.856	45.81
228.09	46.81
228.324	53.81
228.559	61.81
228.793	54.81
229.027	83.81
229.262	86.81
229.496	110.81
229.73	114.81
229.964	126.81
230.199	108.81
230.433	107.81
230.667	116.81
230.901	98.81
231.136	95.81
231.37	97.81
231.604	89.81
231.838	121.81
232.072	102.81
232.306	116.81
232.541	90.81
232.775	117.81
233.009	102.81
233.243	92.81
233.477	98.81
233.711	107.81
233.945	119.81
234.179	110.81
234.413	112.81
234.647	105.81
234.881	84.81
235.115	112.81
235.349	115.81
235.583	110.81
235.817	105.81
236.051	110.81
236.285	112.81
236.519	121.81
236.753	116.81
236.987	129.81
237.221	138.81
237.455	154.81
237.689	129.81
237.922	130.81
238.156	124.81
238.39	102.81
238.624	105.81
238.858	113.81
239.091	110.81
239.325	117.81
239.559	115.81
239.793	121.81
240.027	105.81
240.26	125.81
240.494	125.81
240.728	138.81
240.961	131.81
241.195	132.81
241.429	132.81
241.662	123.81
241.896	112.81
242.13	127.81
242.363	120.81
242.597	117.81
242.83	134.81
243.064	128.81
243.298	117.81
243.531	122.81
243.765	120.81
243.998	125.81
244.232	125.81
244.465	126.81
244.699	125.81
244.932	125.81
245.166	134.81
245.399	136.81
245.633	142.81
245.866	138.81
246.099	133.81
246.333	133.81
246.566	137.81
246.8	143.81
247.033	140.81
247.266	128.81
247.5	139.81
247.733	147.81
247.966	157.81
248.2	147.81
248.433	146.81
248.666	159.81
248.899	154.81
249.133	165.81
249.366	171.81
249.599	144.81
249.832	162.81
250.066	156.81
250.299	147.81
250.532	144.81
250.765	164.81
250.998	182.81
251.231	194.81
251.465	171.81
251.698	187.81
251.931	177.81
252.164	174.81
252.397	157.81
252.63	169.81
252.863	182.81
253.096	186.81
253.329	182.81
253.562	181.81
253.795	177.81
254.028	173.81
254.261	184.81
254.494	197.81
254.727	208.81
254.96	229.81
255.193	203.81
255.426	203.81
255.659	179.81
255.892	177.81
256.124	185.81
256.357	195.81
256.59	191.81
256.823	195.81
257.056	182.81
257.289	176.81
257.521	190.81
257.754	186.81
257.987	180.81
258.22	186.81
258.452	178.81
258.685	179.81
258.918	168.81
259.151	172.81
259.383	193.81
259.616	187.81
259.849	189.81
260.081	195.81
260.314	226.81
260.547	212.81
260.779	194.81
261.012	179.81
261.244	185.81
261.477	186.81
261.71	182.81
261.942	194.81
262.175	196.81
262.407	180.81
262.64	167.81
262.872	186.81
263.105	179.81
263.337	172.81
263.57	198.81
263.802	206.81
264.035	182.81
264.267	185.81
264.499	194.81
264.732	193.81
264.964	201.81
265.197	176.81
265.429	191.81
265.661	174.81
265.894	190.81
266.126	210.81
266.358	187.81
266.591	187.81
266.823	181.81
267.055	187.81
267.287	197.81
267.52	195.81
267.752	204.81
267.984	195.81
268.216	193.81
268.448	212.81
268.681	218.81
268.913	211.81
269.145	234.81
269.377	219.81
269.609	245.81
269.841	219.81
270.073	227.81
270.306	253.81
270.538	244.81
270.77	268.81
271.002	241.81
271.234	234.81
271.466	270.81
271.698	266.81
271.93	261.81
272.162	241.81
272.394	262.81
272.626	250.81
272.858	243.81
273.09	236.81
273.322	256.81
273.553	217.81
273.785	220.81
274.017	217.81
274.249	238.81
274.481	229.81
274.713	230.81
274.945	232.81
275.176	234.81
275.408	230.81
275.64	238.81
275.872	232.81
276.104	222.81
276.335	212.81
276.567	233.81
276.799	236.81
277.031	234.81
277.262	267.81
277.494	274.81
277.726	258.81
277.957	257.81
278.189	236.81
278.421	227.81
278.652	237.81
278.884	245.81
279.115	244.81
279.347	235.81
279.579	231.81
279.81	237.81
280.042	261.81
280.273	225.81
280.505	244.81
280.736	232.81
280.968	229.81
281.199	224.81
281.431	234.81
281.662	261.81
281.894	242.81
282.125	242.81
282.356	247.81
282.588	254.81
282.819	259.81
283.051	243.81
283.282	238.81
283.513	255.81
283.745	244.81
283.976	254.81
284.207	244.81
284.439	251.81
284.67	260.81
284.901	252.81
285.132	249.81
285.364	256.81
285.595	259.81
285.826	234.81
286.057	234.81
286.288	223.81
286.52	255.81
286.751	266.81
286.982	264.81
287.213	232.81
287.444	253.81
287.675	251.81
287.906	281.81
288.138	270.81
288.369	267.81
288.6	264.81
288.831	256.81
289.062	265.81
289.293	261.81
289.524	286.81
289.755	268.81
289.986	263.81
290.217	249.81
290.448	277.81
290.679	274.81
290.91	268.81
291.141	252.81
291.371	263.81
291.602	270.81
291.833	271.81
292.064	262.81
292.295	261.81
292.526	277.81
292.757	256.81
292.987	263.81
293.218	267.81
293.449	253.81
293.68	243.81
293.91	244.81
294.141	250.81
294.372	265.81
294.603	260.81
294.833	269.81
295.064	265.81
295.295	254.81
295.525	263.81
295.756	266.81
295.987	275.81
296.217	298.81
296.448	294.81
296.679	273.81
296.909	262.81
297.14	282.81
297.37	280.81
297.601	281.81
297.831	279.81
298.062	286.81
298.292	284.81
298.523	276.81
298.753	293.81
298.984	281.81
299.214	267.81
299.445	278.81
299.675	292.81
299.905	295.81
300.136	277.81
300.366	300.81
300.597	300.81
300.827	306.81
301.057	289.81
301.288	310.81
301.518	295.81
301.748	301.81
301.979	312.81
302.209	291.81
302.439	315.81
302.669	290.81
302.9	296.81
303.13	293.81
303.36	304.81
303.59	295.81
303.82	294.81
304.051	291.81
304.281	281.81
304.511	315.81
304.741	300.81
304.971	302.81
305.201	290.81
305.431	297.81
305.661	277.81
305.891	307.81
306.121	309.81
306.352	299.81
306.582	317.81
306.812	292.81
307.042	317.81
307.272	299.81
307.502	307.81
307.731	302.81
307.961	289.81
308.191	292.81
308.421	309.81
308.651	295.81
308.881	304.81
309.111	306.81
309.341	295.81
309.571	320.81
309.8	303.81
310.03	301.81
310.26	326.81
310.49	308.81
310.72	318.81
310.949	341.81
311.179	326.81
311.409	310.81
311.639	321.81
311.868	314.81
312.098	330.81
312.328	344.81
312.557	320.81
312.787	347.81
313.017	358.81
313.246	332.81
313.476	323.81
313.706	342.81
313.935	321.81
314.165	329.81
314.394	344.81
314.624	334.81
314.853	323.81
315.083	336.81
315.312	314.81
315.542	308.81
315.771	322.81
316.001	318.81
316.23	337.81
316.46	322.81
316.689	312.81
316.919	332.81
317.148	332.81
317.377	330.81
317.607	326.81
317.836	330.81
318.065	327.81
318.295	323.81
318.524	301.81
318.753	324.81
318.983	337.81
319.212	302.81
319.441	349.81
319.67	330.81
319.9	319.81
320.129	324.81
320.358	320.81
320.587	332.81
320.816	338.81
321.046	337.81
321.275	340.81
321.504	335.81
321.733	350.81
321.962	344.81
322.191	348.81
322.42	352.81
322.649	363.81
322.878	370.81
323.108	361.81
323.337	390.81
323.566	392.81
323.795	406.81
324.024	421.81
324.253	478.81
324.482	654.81
324.71	934.81
324.939	1222.81
325.168	1054.81
325.397	584.81
325.626	446.81
325.855	389.81
326.084	378.81
326.313	375.81
326.542	381.81
326.77	425.81
326.999	471.81
327.228	614.81
327.457	836.81
327.686	921.81
327.914	635.81
328.143	502.81
328.372	437.81
328.6	446.81
328.829	428.81
329.058	432.81
329.287	456.81
329.515	426.81
329.744	411.81
329.972	404.81
330.201	418.81
330.43	453.81
330.658	472.81
330.887	470.81
331.115	452.81
331.344	421.81
331.572	407.81
331.801	408.81
332.03	388.81
332.258	416.81
332.486	391.81
332.715	393.81
332.943	410.81
333.172	410.81
333.4	434.81
333.629	419.81
333.857	430.81
334.085	433.81
334.314	446.81
334.542	459.81
334.771	470.81
334.999	450.81
335.227	412.81
335.455	405.81
335.684	420.81
335.912	404.81
336.14	390.81
336.369	377.81
336.597	410.81
336.825	387.81
337.053	399.81
337.281	381.81
337.51	383.81
337.738	384.81
337.966	369.81
338.194	393.81
338.422	384.81
338.65	382.81
338.878	369.81
339.106	348.81
339.334	380.81
339.562	374.81
339.79	374.81
340.018	380.81
340.246	372.81
340.474	370.81
340.702	354.81
340.93	356.81
341.158	362.81
341.386	347.81
341.614	360.81
341.842	358.81
342.07	375.81
342.298	375.81
342.526	362.81
342.754	359.81
342.981	362.81
343.209	365.81
343.437	339.81
343.665	378.81
343.893	398.81
344.12	393.81
344.348	366.81
344.576	359.81
344.804	384.81
345.031	378.81
345.259	345.81
345.487	369.81
345.714	354.81
345.942	356.81
346.17	337.81
346.397	345.81
346.625	341.81
346.853	356.81
347.08	345.81
347.308	336.81
347.535	350.81
347.763	375.81
347.99	370.81
348.218	347.81
348.445	352.81
348.673	349.81
348.9	348.81
349.128	353.81
349.355	345.81
349.583	330.81
349.81	348.81
350.037	330.81
350.265	331.81
350.492	342.81
350.72	326.81
350.947	319.81
351.174	341.81
351.402	330.81
351.629	344.81
351.856	335.81
352.083	345.81
352.311	337.81
352.538	346.81
352.765	342.81
352.992	343.81
353.22	335.81
353.447	343.81
353.674	342.81
353.901	351.81
354.128	324.81
354.355	316.81
354.583	323.81
354.81	339.81
355.037	317.81
355.264	336.81
355.491	320.81
355.718	324.81
355.945	310.81
356.172	316.81
356.399	333.81
356.626	321.81
356.853	318.81
357.08	324.81
357.307	315.81
357.534	352.81
357.761	327.81
357.988	319.81
358.215	329.81
358.441	315.81
358.668	322.81
358.895	324.81
359.122	330.81
359.349	337.81
359.576	324.81
359.802	368.81
360.029	355.81
360.256	388.81
360.483	356.81
360.709	346.81
360.936	333.81
361.163	358.81
361.39	352.81
361.616	324.81
361.843	351.81
362.07	338.81
362.296	352.81
362.523	333.81
362.749	331.81
362.976	340.81
363.203	340.81
363.429	338.81
363.656	333.81
363.882	323.81
364.109	334.81
364.335	306.81
364.562	330.81
364.788	329.81
365.015	334.81
365.241	316.81
365.468	335.81
365.694	331.81
365.92	327.81
366.147	315.81
366.373	332.81
366.599	320.81
366.826	313.81
367.052	333.81
367.278	307.81
367.505	328.81
367.731	332.81
367.957	340.81
368.184	314.81
368.41	321.81
368.636	345.81
368.862	314.81
369.089	342.81
369.315	339.81
369.541	322.81
369.767	349.81
369.993	335.81
370.219	337.81
370.445	325.81
370.672	337.81
370.898	348.81
371.124	339.81
371.35	333.81
371.576	328.81
371.802	333.81
372.028	336.81
372.254	326.81
372.48	346.81
372.706	331.81
372.932	337.81
373.158	349.81
373.384	355.81
373.61	348.81
373.835	331.81
374.061	341.81
374.287	361.81
374.513	342.81
374.739	353.81
374.965	356.81
375.191	347.81
375.416	366.81
375.642	350.81
375.868	363.81
376.094	324.81
376.319	357.81
376.545	335.81
376.771	338.81
376.997	345.81
377.222	333.81
377.448	337.81
377.674	343.81
377.899	354.81
378.125	329.81
378.35	341.81
378.576	344.81
378.802	332.81
379.027	342.81
379.253	334.81
379.478	314.81
379.704	326.81
379.929	330.81
380.155	344.81
380.38	341.81
380.606	337.81
380.831	327.81
381.057	343.81
381.282	336.81
381.507	329.81
381.733	350.81
381.958	348.81
382.184	351.81
382.409	354.81
382.634	366.81
382.86	343.81
383.085	347.81
383.31	360.81
383.535	339.81
383.761	362.81
383.986	355.81
384.211	368.81
384.436	370.81
384.662	352.81
384.887	364.81
385.112	350.81
385.337	374.81
385.562	366.81
385.787	368.81
386.013	376.81
386.238	390.81
386.463	396.81
386.688	373.81
386.913	362.81
387.138	363.81
387.363	381.81
387.588	374.81
387.813	380.81
388.038	371.81
388.263	374.81
388.488	387.81
388.713	365.81
388.938	378.81
389.163	380.81
389.387	352.81
389.612	364.81
389.837	387.81
390.062	375.81
390.287	343.81
390.512	352.81
390.736	362.81
390.961	392.81
391.186	384.81
391.411	397.81
391.636	398.81
391.86	410.81
392.085	396.81
392.31	382.81
392.534	393.81
392.759	390.81
392.984	371.81
393.208	369.81
393.433	390.81
393.658	386.81
393.882	371.81
394.107	366.81
394.331	390.81
394.556	395.81
394.78	390.81
395.005	385.81
395.229	372.81
395.454	398.81
395.678	407.81
395.903	412.81
396.127	386.81
396.352	405.81
396.576	389.81
396.801	404.81
397.025	419.81
397.249	394.81
397.474	400.81
397.698	403.81
397.922	425.81
398.147	408.81
398.371	424.81
398.595	429.81
398.82	425.81
399.044	468.81
399.268	483.81
399.492	522.81
399.717	596.81
399.941	555.81
400.165	570.81
400.389	524.81
400.613	488.81
400.837	461.81
401.062	433.81
401.286	437.81
401.51	426.81
401.734	420.81
401.958	443.81
402.182	455.81
402.406	438.81
402.63	446.81
402.854	443.81
403.078	462.81
403.302	474.81
403.526	482.81
403.75	477.81
403.974	468.81
404.198	451.81
404.422	483.81
404.645	472.81
404.869	491.81
405.093	493.81
405.317	521.81
405.541	529.81
405.765	514.81
405.988	477.81
406.212	479.81
406.436	506.81
406.66	520.81
406.883	481.81
407.107	526.81
407.331	549.81
407.555	581.81
407.778	578.81
408.002	562.81
408.226	505.81
408.449	492.81
408.673	493.81
408.896	503.81
409.12	524.81
409.344	493.81
409.567	466.81
409.791	459.81
410.014	470.81
410.238	448.81
410.461	461.81
410.685	456.81
410.908	439.81
411.132	476.81
411.355	498.81
411.578	477.81
411.802	455.81
412.025	461.81
412.249	474.81
412.472	482.81
412.695	487.81
412.919	482.81
413.142	449.81
413.365	447.81
413.589	430.81
413.812	429.81
414.035	431.81
414.258	414.81
414.482	424.81
414.705	444.81
414.928	428.81
415.151	436.81
415.374	437.81
415.597	436.81
415.821	411.81
416.044	426.81
416.267	430.81
416.49	419.81
416.713	410.81
416.936	427.81
417.159	425.81
417.382	427.81
417.605	427.81
417.828	451.81
418.051	453.81
418.274	460.81
418.497	439.81
418.72	424.81
418.943	424.81
419.166	438.81
419.389	487.81
419.611	475.81
419.834	452.81
420.057	448.81
420.28	453.81
420.503	423.81
420.726	448.81
420.948	445.81
421.171	455.81
421.394	484.81
421.617	449.81
421.839	429.81
422.062	441.81
422.285	477.81
422.507	508.81
422.73	518.81
422.953	522.81
423.175	490.81
423.398	474.81
423.621	450.81
423.843	477.81
424.066	484.81
424.288	476.81
424.511	497.81
424.733	502.81
424.956	571.81
425.178	550.81
425.401	562.81
425.623	547.81
425.846	475.81
426.068	450.81
426.291	447.81
426.513	449.81
426.735	448.81
426.958	470.81
427.18	538.81
427.402	592.81
427.625	633.81
427.847	576.81
428.069	489.81
428.292	456.81
428.514	415.81
428.736	429.81
428.958	419.81
429.181	421.81
429.403	397.81
429.625	427.81
429.847	418.81
430.069	460.81
430.292	474.81
430.514	425.81
430.736	424.81
430.958	432.81
431.18	415.81
431.402	390.81
431.624	399.81
431.846	397.81
432.068	416.81
432.29	400.81
432.512	417.81
432.734	427.81
432.956	442.81
433.178	420.81
433.4	428.81
433.622	419.81
433.844	421.81
434.066	422.81
434.287	443.81
434.509	412.81
434.731	408.81
434.953	436.81
435.175	443.81
435.397	470.81
435.618	457.81
435.84	480.81
436.062	519.81
436.284	552.81
436.505	484.81
436.727	449.81
436.949	438.81
437.17	426.81
437.392	410.81
437.614	413.81
437.835	438.81
438.057	506.81
438.278	531.81
438.5	557.81
438.721	585.81
438.943	565.81
439.165	483.81
439.386	452.81
439.608	463.81
439.829	443.81
440.05	465.81
440.272	497.81
440.493	440.81
440.715	464.81
440.936	451.81
441.158	429.81
441.379	426.81
441.6	441.81
441.822	464.81
442.043	501.81
442.264	546.81
442.486	545.81
442.707	479.81
442.928	469.81
443.149	446.81
443.371	489.81
443.592	518.81
443.813	568.81
444.034	592.81
444.255	534.81
444.476	512.81
444.698	498.81
444.919	490.81
445.14	608.81
445.361	499.81
445.582	481.81
445.803	527.81
446.024	570.81
446.245	567.81
446.466	519.81
446.687	461.81
446.908	457.81
447.129	430.81
447.35	423.81
447.571	401.81
447.792	388.81
448.013	417.81
448.234	420.81
448.455	432.81
448.675	516.81
448.896	576.81
449.117	519.81
449.338	505.81
449.559	564.81
449.779	580.81
450	476.81
450.221	442.81
450.442	404.81
450.662	388.81
450.883	401.81
451.104	421.81
451.324	405.81
451.545	390.81
451.766	390.81
451.986	386.81
452.207	362.81
452.428	387.81
452.648	378.81
452.869	365.81
453.089	378.81
453.31	386.81
453.53	391.81
453.751	392.81
453.971	374.81
454.192	396.81
454.412	359.81
454.633	352.81
454.853	369.81
455.073	368.81
455.294	392.81
455.514	433.81
455.734	426.81
455.955	371.81
456.175	333.81
456.395	368.81
456.616	338.81
456.836	362.81
457.056	365.81
457.276	346.81
457.497	353.81
457.717	366.81
457.937	358.81
458.157	380.81
458.377	372.81
458.598	377.81
458.818	400.81
459.038	475.81
459.258	476.81
459.478	414.81
459.698	417.81
459.918	416.81
460.138	418.81
460.358	421.81
460.578	413.81
460.798	437.81
461.018	436.81
461.238	445.81
461.458	421.81
461.678	442.81
461.898	429.81
462.118	428.81
462.338	453.81
462.558	461.81
462.777	476.81
462.997	478.81
463.217	497.81
463.437	532.81
463.657	474.81
463.876	464.81
464.096	505.81
464.316	476.81
464.536	494.81
464.755	463.81
464.975	468.81
465.195	474.81
465.414	516.81
465.634	469.81
465.854	436.81
466.073	411.81
466.293	396.81
466.512	403.81
466.732	390.81
466.951	406.81
467.171	390.81
467.391	399.81
467.61	405.81
467.829	385.81
468.049	391.81
468.268	396.81
468.488	365.81
468.707	376.81
468.927	391.81
469.146	380.81
469.365	374.81
469.585	384.81
469.804	398.81
470.023	414.81
470.243	406.81
470.462	419.81
470.681	421.81
470.901	417.81
471.12	418.81
471.339	403.81
471.558	403.81
471.777	389.81
471.997	380.81
472.216	390.81
472.435	430.81
472.654	436.81
472.873	406.81
473.092	377.81
473.311	408.81
473.53	373.81
473.749	403.81
473.968	416.81
474.187	476.81
474.406	492.81
474.625	416.81
474.844	429.81
475.063	393.81
475.282	397.81
475.501	399.81
475.72	404.81
475.939	390.81
476.158	398.81
476.377	412.81
476.596	393.81
476.814	396.81
477.033	399.81
477.252	416.81
477.471	446.81
477.69	434.81
477.908	434.81
478.127	441.81
478.346	418.81
478.564	436.81
478.783	439.81
479.002	455.81
479.22	460.81
479.439	478.81
479.658	469.81
479.876	475.81
480.095	484.81
480.313	512.81
480.532	500.81
480.751	491.81
480.969	498.81
481.188	529.81
481.406	527.81
481.624	481.81
481.843	457.81
482.061	463.81
482.28	434.81
482.498	441.81
482.717	412.81
482.935	452.81
483.153	433.81
483.372	463.81
483.59	473.81
483.808	444.81
484.027	440.81
484.245	457.81
484.463	455.81
484.681	454.81
484.9	461.81
485.118	476.81
485.336	468.81
485.554	462.81
485.772	463.81
485.99	464.81
486.209	472.81
486.427	495.81
486.645	473.81
486.863	490.81
487.081	478.81
487.299	484.81
487.517	476.81
487.735	498.81
487.953	478.81
488.171	473.81
488.389	487.81
488.607	483.81
488.825	476.81
489.043	482.81
489.261	481.81
489.479	485.81
489.696	490.81
489.914	516.81
490.132	489.81
490.35	514.81
490.568	497.81
490.786	524.81
491.003	520.81
491.221	520.81
491.439	542.81
491.657	552.81
491.874	548.81
492.092	542.81
492.31	557.81
492.527	565.81
492.745	564.81
492.963	568.81
493.18	546.81
493.398	576.81
493.615	568.81
493.833	561.81
494.05	566.81
494.268	576.81
494.485	564.81
494.703	582.81
494.92	574.81
495.138	556.81
495.355	576.81
495.573	570.81
495.79	568.81
496.008	567.81
496.225	590.81
496.442	576.81
496.66	569.81
496.877	572.81
497.094	567.81
497.312	600.81
497.529	571.81
497.746	596.81
497.963	600.81
498.181	607.81
498.398	646.81
498.615	645.81
498.832	674.81
499.049	705.81
499.267	738.81
499.484	766.81
499.701	813.81
499.918	843.81
500.135	938.81
500.352	1008.81
500.569	997.81
500.786	988.81
501.003	962.81
501.22	944.81
501.437	865.81
501.654	813.81
501.871	775.81
502.088	727.81
