Data from 1969.PennyLincolnUp.Lamp.En5.5.200Scan.071719.P1._HRD10591_14-54-38-972.txt Node
Date: Thu Jul 18 14:54:38 EDT 2019
User: cochatt
Spectrometer: HR+D1059
Trigger mode: 1
Integration Time (sec): 1.000000E-1
Scans to average: 1
Electric dark correction enabled: true
Nonlinearity correction enabled: false
Boxcar width: 0
XAxis mode: Wavelengths
Number of Pixels in Spectrum: 2048
>>>>>Begin Spectral Data<<<<<
223.165	-9.19
223.4	-9.19
223.635	-9.19
223.869	-5.19
224.104	-28.19
224.338	-12.19
224.573	-29.19
224.808	-14.19
225.042	-8.19
225.277	-1.19
225.511	3.81
225.746	5.81
225.98	6.81
226.215	9.81
226.449	8.81
226.683	25.81
226.918	30.81
227.152	15.81
227.387	38.81
227.621	32.81
227.856	38.81
228.09	56.81
228.324	49.81
228.559	45.81
228.793	75.81
229.027	76.81
229.262	81.81
229.496	94.81
229.73	103.81
229.964	100.81
230.199	111.81
230.433	99.81
230.667	95.81
230.901	110.81
231.136	113.81
231.37	88.81
231.604	91.81
231.838	97.81
232.072	96.81
232.306	109.81
232.541	93.81
232.775	105.81
233.009	94.81
233.243	101.81
233.477	104.81
233.711	100.81
233.945	105.81
234.179	107.81
234.413	110.81
234.647	116.81
234.881	101.81
235.115	105.81
235.349	91.81
235.583	114.81
235.817	119.81
236.051	114.81
236.285	116.81
236.519	111.81
236.753	112.81
236.987	120.81
237.221	134.81
237.455	154.81
237.689	142.81
237.922	102.81
238.156	114.81
238.39	100.81
238.624	92.81
238.858	104.81
239.091	114.81
239.325	97.81
239.559	102.81
239.793	109.81
240.027	119.81
240.26	107.81
240.494	128.81
240.728	125.81
240.961	122.81
241.195	120.81
241.429	116.81
241.662	121.81
241.896	125.81
242.13	121.81
242.363	110.81
242.597	119.81
242.83	123.81
243.064	110.81
243.298	125.81
243.531	121.81
243.765	117.81
243.998	109.81
244.232	122.81
244.465	123.81
244.699	115.81
244.932	109.81
245.166	121.81
245.399	118.81
245.633	128.81
245.866	116.81
246.099	125.81
246.333	111.81
246.566	115.81
246.8	119.81
247.033	133.81
247.266	123.81
247.5	125.81
247.733	127.81
247.966	130.81
248.2	137.81
248.433	124.81
248.666	139.81
248.899	144.81
249.133	161.81
249.366	175.81
249.599	149.81
249.832	164.81
250.066	145.81
250.299	148.81
250.532	139.81
250.765	162.81
250.998	169.81
251.231	177.81
251.465	161.81
251.698	148.81
251.931	156.81
252.164	150.81
252.397	179.81
252.63	161.81
252.863	157.81
253.096	166.81
253.329	175.81
253.562	174.81
253.795	190.81
254.028	162.81
254.261	165.81
254.494	175.81
254.727	185.81
254.96	193.81
255.193	194.81
255.426	182.81
255.659	174.81
255.892	164.81
256.124	175.81
256.357	187.81
256.59	187.81
256.823	174.81
257.056	189.81
257.289	160.81
257.521	166.81
257.754	170.81
257.987	155.81
258.22	155.81
258.452	161.81
258.685	182.81
258.918	169.81
259.151	171.81
259.383	164.81
259.616	177.81
259.849	178.81
260.081	184.81
260.314	183.81
260.547	202.81
260.779	204.81
261.012	186.81
261.244	177.81
261.477	180.81
261.71	187.81
261.942	178.81
262.175	170.81
262.407	195.81
262.64	158.81
262.872	158.81
263.105	182.81
263.337	175.81
263.57	163.81
263.802	177.81
264.035	173.81
264.267	182.81
264.499	179.81
264.732	168.81
264.964	185.81
265.197	178.81
265.429	193.81
265.661	188.81
265.894	182.81
266.126	170.81
266.358	167.81
266.591	190.81
266.823	173.81
267.055	204.81
267.287	209.81
267.52	184.81
267.752	192.81
267.984	191.81
268.216	185.81
268.448	174.81
268.681	194.81
268.913	208.81
269.145	210.81
269.377	213.81
269.609	224.81
269.841	204.81
270.073	205.81
270.306	237.81
270.538	225.81
270.77	225.81
271.002	221.81
271.234	219.81
271.466	227.81
271.698	229.81
271.93	237.81
272.162	244.81
272.394	242.81
272.626	244.81
272.858	219.81
273.09	231.81
273.322	219.81
273.553	208.81
273.785	203.81
274.017	197.81
274.249	203.81
274.481	208.81
274.713	209.81
274.945	221.81
275.176	217.81
275.408	205.81
275.64	221.81
275.872	211.81
276.104	201.81
276.335	210.81
276.567	217.81
276.799	232.81
277.031	240.81
277.262	240.81
277.494	260.81
277.726	251.81
277.957	237.81
278.189	218.81
278.421	208.81
278.652	216.81
278.884	209.81
279.115	207.81
279.347	214.81
279.579	216.81
279.81	212.81
280.042	202.81
280.273	219.81
280.505	232.81
280.736	202.81
280.968	214.81
281.199	210.81
281.431	217.81
281.662	249.81
281.894	230.81
282.125	235.81
282.356	235.81
282.588	244.81
282.819	237.81
283.051	231.81
283.282	225.81
283.513	231.81
283.745	229.81
283.976	226.81
284.207	246.81
284.439	250.81
284.67	225.81
284.901	234.81
285.132	257.81
285.364	238.81
285.595	239.81
285.826	230.81
286.057	239.81
286.288	245.81
286.52	238.81
286.751	239.81
286.982	243.81
287.213	229.81
287.444	234.81
287.675	240.81
287.906	237.81
288.138	251.81
288.369	255.81
288.6	247.81
288.831	240.81
289.062	265.81
289.293	238.81
289.524	258.81
289.755	239.81
289.986	221.81
290.217	244.81
290.448	253.81
290.679	247.81
290.91	238.81
291.141	239.81
291.371	247.81
291.602	253.81
291.833	234.81
292.064	247.81
292.295	255.81
292.526	238.81
292.757	232.81
292.987	240.81
293.218	246.81
293.449	255.81
293.68	261.81
293.91	240.81
294.141	252.81
294.372	228.81
294.603	241.81
294.833	259.81
295.064	234.81
295.295	249.81
295.525	257.81
295.756	267.81
295.987	267.81
296.217	277.81
296.448	269.81
296.679	258.81
296.909	245.81
297.14	257.81
297.37	258.81
297.601	248.81
297.831	263.81
298.062	257.81
298.292	266.81
298.523	275.81
298.753	273.81
298.984	264.81
299.214	277.81
299.445	265.81
299.675	262.81
299.905	267.81
300.136	262.81
300.366	267.81
300.597	285.81
300.827	262.81
301.057	269.81
301.288	278.81
301.518	283.81
301.748	286.81
301.979	271.81
302.209	255.81
302.439	292.81
302.669	269.81
302.9	291.81
303.13	267.81
303.36	298.81
303.59	291.81
303.82	285.81
304.051	305.81
304.281	287.81
304.511	276.81
304.741	275.81
304.971	263.81
305.201	268.81
305.431	288.81
305.661	266.81
305.891	280.81
306.121	286.81
306.352	274.81
306.582	286.81
306.812	272.81
307.042	262.81
307.272	275.81
307.502	282.81
307.731	259.81
307.961	261.81
308.191	267.81
308.421	273.81
308.651	266.81
308.881	265.81
309.111	266.81
309.341	283.81
309.571	278.81
309.8	277.81
310.03	296.81
310.26	305.81
310.49	293.81
310.72	290.81
310.949	298.81
311.179	319.81
311.409	292.81
311.639	305.81
311.868	309.81
312.098	294.81
312.328	297.81
312.557	291.81
312.787	305.81
313.017	299.81
313.246	309.81
313.476	317.81
313.706	301.81
313.935	295.81
314.165	297.81
314.394	319.81
314.624	324.81
314.853	313.81
315.083	306.81
315.312	319.81
315.542	298.81
315.771	311.81
316.001	298.81
316.23	298.81
316.46	292.81
316.689	311.81
316.919	301.81
317.148	293.81
317.377	304.81
317.607	303.81
317.836	314.81
318.065	297.81
318.295	295.81
318.524	291.81
318.753	299.81
318.983	301.81
319.212	285.81
319.441	307.81
319.67	301.81
319.9	303.81
320.129	290.81
320.358	307.81
320.587	305.81
320.816	315.81
321.046	304.81
321.275	315.81
321.504	309.81
321.733	312.81
321.962	325.81
322.191	332.81
322.42	341.81
322.649	320.81
322.878	349.81
323.108	343.81
323.337	344.81
323.566	340.81
323.795	367.81
324.024	377.81
324.253	437.81
324.482	575.81
324.71	820.81
324.939	1081.81
325.168	905.81
325.397	518.81
325.626	404.81
325.855	372.81
326.084	332.81
326.313	339.81
326.542	355.81
326.77	402.81
326.999	424.81
327.228	546.81
327.457	715.81
327.686	836.81
327.914	567.81
328.143	435.81
328.372	403.81
328.6	397.81
328.829	384.81
329.058	411.81
329.287	405.81
329.515	401.81
329.744	370.81
329.972	369.81
330.201	388.81
330.43	403.81
330.658	398.81
330.887	416.81
331.115	394.81
331.344	374.81
331.572	372.81
331.801	362.81
332.03	357.81
332.258	371.81
332.486	368.81
332.715	368.81
332.943	382.81
333.172	379.81
333.4	393.81
333.629	383.81
333.857	385.81
334.085	393.81
334.314	399.81
334.542	426.81
334.771	443.81
334.999	409.81
335.227	389.81
335.455	385.81
335.684	398.81
335.912	379.81
336.14	360.81
336.369	377.81
336.597	377.81
336.825	362.81
337.053	369.81
337.281	362.81
337.51	365.81
337.738	371.81
337.966	362.81
338.194	350.81
338.422	365.81
338.65	356.81
338.878	361.81
339.106	361.81
339.334	349.81
339.562	361.81
339.79	338.81
340.018	330.81
340.246	347.81
340.474	355.81
340.702	329.81
340.93	355.81
341.158	326.81
341.386	339.81
341.614	346.81
341.842	340.81
342.07	313.81
342.298	351.81
342.526	335.81
342.754	343.81
342.981	323.81
343.209	339.81
343.437	354.81
343.665	345.81
343.893	361.81
344.12	371.81
344.348	372.81
344.576	343.81
344.804	362.81
345.031	333.81
345.259	335.81
345.487	339.81
345.714	356.81
345.942	354.81
346.17	323.81
346.397	339.81
346.625	313.81
346.853	326.81
347.08	320.81
347.308	314.81
347.535	328.81
347.763	332.81
347.99	357.81
348.218	334.81
348.445	337.81
348.673	335.81
348.9	325.81
349.128	316.81
349.355	320.81
349.583	326.81
349.81	317.81
350.037	303.81
350.265	314.81
350.492	309.81
350.72	323.81
350.947	322.81
351.174	319.81
351.402	326.81
351.629	327.81
351.856	320.81
352.083	321.81
352.311	325.81
352.538	322.81
352.765	320.81
352.992	341.81
353.22	319.81
353.447	318.81
353.674	314.81
353.901	305.81
354.128	324.81
354.355	326.81
354.583	302.81
354.81	317.81
355.037	325.81
355.264	310.81
355.491	327.81
355.718	302.81
355.945	322.81
356.172	314.81
356.399	302.81
356.626	320.81
356.853	314.81
357.08	333.81
357.307	309.81
357.534	319.81
357.761	309.81
357.988	321.81
358.215	289.81
358.441	317.81
358.668	331.81
358.895	303.81
359.122	293.81
359.349	334.81
359.576	335.81
359.802	327.81
360.029	347.81
360.256	365.81
360.483	327.81
360.709	313.81
360.936	341.81
361.163	321.81
361.39	331.81
361.616	320.81
361.843	315.81
362.07	322.81
362.296	316.81
362.523	313.81
362.749	325.81
362.976	314.81
363.203	302.81
363.429	313.81
363.656	311.81
363.882	337.81
364.109	308.81
364.335	312.81
364.562	317.81
364.788	308.81
365.015	319.81
365.241	298.81
365.468	314.81
365.694	309.81
365.92	318.81
366.147	302.81
366.373	298.81
366.599	320.81
366.826	304.81
367.052	304.81
367.278	291.81
367.505	311.81
367.731	311.81
367.957	324.81
368.184	303.81
368.41	317.81
368.636	333.81
368.862	335.81
369.089	334.81
369.315	311.81
369.541	326.81
369.767	323.81
369.993	311.81
370.219	330.81
370.445	305.81
370.672	311.81
370.898	318.81
371.124	335.81
371.35	316.81
371.576	326.81
371.802	319.81
372.028	332.81
372.254	329.81
372.48	334.81
372.706	315.81
372.932	344.81
373.158	343.81
373.384	312.81
373.61	304.81
373.835	346.81
374.061	330.81
374.287	315.81
374.513	322.81
374.739	352.81
374.965	326.81
375.191	331.81
375.416	318.81
375.642	325.81
375.868	321.81
376.094	336.81
376.319	338.81
376.545	329.81
376.771	320.81
376.997	319.81
377.222	317.81
377.448	322.81
377.674	313.81
377.899	320.81
378.125	309.81
378.35	311.81
378.576	310.81
378.802	316.81
379.027	333.81
379.253	322.81
379.478	331.81
379.704	296.81
379.929	316.81
380.155	319.81
380.38	311.81
380.606	325.81
380.831	303.81
381.057	326.81
381.282	322.81
381.507	314.81
381.733	343.81
381.958	337.81
382.184	319.81
382.409	326.81
382.634	337.81
382.86	338.81
383.085	331.81
383.31	329.81
383.535	319.81
383.761	337.81
383.986	360.81
384.211	357.81
384.436	341.81
384.662	335.81
384.887	345.81
385.112	351.81
385.337	355.81
385.562	367.81
385.787	357.81
386.013	369.81
386.238	359.81
386.463	359.81
386.688	367.81
386.913	361.81
387.138	345.81
387.363	351.81
387.588	366.81
387.813	378.81
388.038	355.81
388.263	359.81
388.488	361.81
388.713	343.81
388.938	347.81
389.163	360.81
389.387	349.81
389.612	342.81
389.837	341.81
390.062	347.81
390.287	374.81
390.512	345.81
390.736	347.81
390.961	359.81
391.186	369.81
391.411	361.81
391.636	371.81
391.86	393.81
392.085	374.81
392.31	375.81
392.534	381.81
392.759	382.81
392.984	378.81
393.208	375.81
393.433	371.81
393.658	361.81
393.882	357.81
394.107	372.81
394.331	365.81
394.556	363.81
394.78	371.81
395.005	369.81
395.229	367.81
395.454	377.81
395.678	357.81
395.903	389.81
396.127	384.81
396.352	386.81
396.576	368.81
396.801	374.81
397.025	382.81
397.249	376.81
397.474	399.81
397.698	392.81
397.922	393.81
398.147	399.81
398.371	403.81
398.595	397.81
398.82	415.81
399.044	429.81
399.268	450.81
399.492	498.81
399.717	540.81
399.941	527.81
400.165	528.81
400.389	501.81
400.613	445.81
400.837	419.81
401.062	405.81
401.286	402.81
401.51	419.81
401.734	415.81
401.958	418.81
402.182	429.81
402.406	436.81
402.63	443.81
402.854	418.81
403.078	450.81
403.302	454.81
403.526	469.81
403.75	469.81
403.974	424.81
404.198	445.81
404.422	478.81
404.645	445.81
404.869	445.81
405.093	474.81
405.317	478.81
405.541	514.81
405.765	479.81
405.988	475.81
406.212	465.81
406.436	472.81
406.66	510.81
406.883	484.81
407.107	495.81
407.331	499.81
407.555	545.81
407.778	566.81
408.002	521.81
408.226	474.81
408.449	469.81
408.673	474.81
408.896	480.81
409.12	482.81
409.344	483.81
409.567	441.81
409.791	440.81
410.014	418.81
410.238	448.81
410.461	442.81
410.685	449.81
410.908	456.81
411.132	447.81
411.355	473.81
411.578	451.81
411.802	430.81
412.025	422.81
412.249	441.81
412.472	458.81
412.695	467.81
412.919	457.81
413.142	425.81
413.365	436.81
413.589	446.81
413.812	416.81
414.035	425.81
414.258	415.81
414.482	413.81
414.705	411.81
414.928	392.81
415.151	407.81
415.374	392.81
415.597	405.81
415.821	400.81
416.044	399.81
416.267	399.81
416.49	407.81
416.713	403.81
416.936	413.81
417.159	378.81
417.382	403.81
417.605	414.81
417.828	405.81
418.051	411.81
418.274	422.81
418.497	436.81
418.72	421.81
418.943	415.81
419.166	439.81
419.389	430.81
419.611	440.81
419.834	437.81
420.057	440.81
420.28	439.81
420.503	413.81
420.726	443.81
420.948	421.81
421.171	451.81
421.394	456.81
421.617	436.81
421.839	407.81
422.062	419.81
422.285	428.81
422.507	456.81
422.73	499.81
422.953	487.81
423.175	452.81
423.398	427.81
423.621	442.81
423.843	476.81
424.066	431.81
424.288	442.81
424.511	460.81
424.733	497.81
424.956	511.81
425.178	495.81
425.401	498.81
425.623	495.81
425.846	461.81
426.068	429.81
426.291	433.81
426.513	417.81
426.735	412.81
426.958	451.81
427.18	484.81
427.402	554.81
427.625	593.81
427.847	519.81
428.069	468.81
428.292	433.81
428.514	415.81
428.736	393.81
428.958	411.81
429.181	390.81
429.403	392.81
429.625	403.81
429.847	397.81
430.069	448.81
430.292	445.81
430.514	401.81
430.736	407.81
430.958	390.81
431.18	373.81
431.402	383.81
431.624	388.81
431.846	392.81
432.068	400.81
432.29	379.81
432.512	373.81
432.734	403.81
432.956	385.81
433.178	378.81
433.4	381.81
433.622	385.81
433.844	400.81
434.066	389.81
434.287	384.81
434.509	384.81
434.731	421.81
434.953	403.81
435.175	411.81
435.397	454.81
435.618	410.81
435.84	447.81
436.062	478.81
436.284	495.81
436.505	452.81
436.727	411.81
436.949	402.81
437.17	404.81
437.392	382.81
437.614	381.81
437.835	409.81
438.057	435.81
438.278	517.81
438.5	501.81
438.721	538.81
438.943	510.81
439.165	456.81
439.386	415.81
439.608	417.81
439.829	420.81
440.05	442.81
440.272	451.81
440.493	454.81
440.715	423.81
440.936	401.81
441.158	405.81
441.379	417.81
441.6	431.81
441.822	441.81
442.043	447.81
442.264	498.81
442.486	495.81
442.707	461.81
442.928	453.81
443.149	453.81
443.371	458.81
443.592	501.81
443.813	544.81
444.034	528.81
444.255	501.81
444.476	471.81
444.698	458.81
444.919	470.81
445.14	567.81
445.361	519.81
445.582	465.81
445.803	497.81
446.024	518.81
446.245	525.81
446.466	488.81
446.687	429.81
446.908	405.81
447.129	392.81
447.35	410.81
447.571	387.81
447.792	379.81
448.013	399.81
448.234	409.81
448.455	417.81
448.675	478.81
448.896	523.81
449.117	476.81
449.338	459.81
449.559	499.81
449.779	536.81
450	459.81
450.221	413.81
450.442	400.81
450.662	383.81
450.883	389.81
451.104	387.81
451.324	377.81
451.545	368.81
451.766	362.81
451.986	361.81
452.207	343.81
452.428	354.81
452.648	350.81
452.869	356.81
453.089	358.81
453.31	359.81
453.53	348.81
453.751	379.81
453.971	353.81
454.192	349.81
454.412	358.81
454.633	358.81
454.853	355.81
455.073	361.81
455.294	349.81
455.514	398.81
455.734	373.81
455.955	353.81
456.175	349.81
456.395	338.81
456.616	334.81
456.836	361.81
457.056	317.81
457.276	309.81
457.497	336.81
457.717	355.81
457.937	344.81
458.157	346.81
458.377	350.81
458.598	381.81
458.818	401.81
459.038	445.81
459.258	444.81
459.478	415.81
459.698	395.81
459.918	396.81
460.138	403.81
460.358	407.81
460.578	419.81
460.798	422.81
461.018	423.81
461.238	411.81
461.458	404.81
461.678	405.81
461.898	420.81
462.118	443.81
462.338	441.81
462.558	440.81
462.777	453.81
462.997	474.81
463.217	498.81
463.437	503.81
463.657	481.81
463.876	451.81
464.096	449.81
464.316	462.81
464.536	455.81
464.755	429.81
464.975	463.81
465.195	448.81
465.414	469.81
465.634	431.81
465.854	407.81
466.073	399.81
466.293	400.81
466.512	373.81
466.732	372.81
466.951	376.81
467.171	376.81
467.391	367.81
467.61	376.81
467.829	362.81
468.049	375.81
468.268	371.81
468.488	391.81
468.707	379.81
468.927	367.81
469.146	367.81
469.365	366.81
469.585	386.81
469.804	368.81
470.023	374.81
470.243	384.81
470.462	385.81
470.681	395.81
470.901	392.81
471.12	374.81
471.339	387.81
471.558	401.81
471.777	377.81
471.997	382.81
472.216	381.81
472.435	422.81
472.654	399.81
472.873	355.81
473.092	356.81
473.311	374.81
473.53	355.81
473.749	363.81
473.968	408.81
474.187	449.81
474.406	437.81
474.625	391.81
474.844	385.81
475.063	373.81
475.282	367.81
475.501	361.81
475.72	381.81
475.939	381.81
476.158	367.81
476.377	378.81
476.596	369.81
476.814	387.81
477.033	389.81
477.252	417.81
477.471	393.81
477.69	381.81
477.908	391.81
478.127	405.81
478.346	416.81
478.564	426.81
478.783	422.81
479.002	454.81
479.22	415.81
479.439	429.81
479.658	450.81
479.876	446.81
480.095	454.81
480.313	477.81
480.532	466.81
480.751	473.81
480.969	464.81
481.188	487.81
481.406	515.81
481.624	461.81
481.843	452.81
482.061	417.81
482.28	418.81
482.498	426.81
482.717	449.81
482.935	405.81
483.153	419.81
483.372	444.81
483.59	424.81
483.808	447.81
484.027	426.81
484.245	413.81
484.463	438.81
484.681	447.81
484.9	455.81
485.118	451.81
485.336	423.81
485.554	449.81
485.772	436.81
485.99	407.81
486.209	455.81
486.427	445.81
486.645	447.81
486.863	458.81
487.081	459.81
487.299	447.81
487.517	456.81
487.735	449.81
487.953	449.81
488.171	467.81
488.389	465.81
488.607	455.81
488.825	469.81
489.043	454.81
489.261	464.81
489.479	452.81
489.696	484.81
489.914	457.81
490.132	454.81
490.35	477.81
490.568	439.81
490.786	487.81
491.003	471.81
491.221	497.81
491.439	495.81
491.657	511.81
491.874	519.81
492.092	513.81
492.31	516.81
492.527	519.81
492.745	511.81
492.963	517.81
493.18	526.81
493.398	523.81
493.615	533.81
493.833	517.81
494.05	523.81
494.268	511.81
494.485	515.81
494.703	545.81
494.92	515.81
495.138	544.81
495.355	539.81
495.573	538.81
495.79	518.81
496.008	530.81
496.225	532.81
496.442	536.81
496.66	530.81
496.877	527.81
497.094	539.81
497.312	546.81
497.529	563.81
497.746	563.81
497.963	571.81
498.181	614.81
498.398	610.81
498.615	619.81
498.832	627.81
499.049	663.81
499.267	671.81
499.484	698.81
499.701	795.81
499.918	811.81
500.135	854.81
500.352	961.81
500.569	924.81
500.786	969.81
501.003	918.81
501.22	854.81
501.437	825.81
501.654	778.81
501.871	731.81
502.088	702.81
502.305	647.81
