Data from 1969.PennyLincolnUp.Lamp.En5.5.200Scan.071719.P1._HRD10591_14-54-28-971.txt Node
Date: Thu Jul 18 14:54:28 EDT 2019
User: cochatt
Spectrometer: HR+D1059
Trigger mode: 1
Integration Time (sec): 1.000000E-1
Scans to average: 1
Electric dark correction enabled: true
Nonlinearity correction enabled: false
Boxcar width: 0
XAxis mode: Wavelengths
Number of Pixels in Spectrum: 2048
>>>>>Begin Spectral Data<<<<<
223.165	-16.75
223.4	-16.75
223.635	-16.75
223.869	-17.75
224.104	-23.75
224.338	-17.75
224.573	-15.75
224.808	-11.75
225.042	-8.75
225.277	-6.75
225.511	6.25
225.746	13.25
225.98	15.25
226.215	2.25
226.449	8.25
226.683	24.25
226.918	19.25
227.152	30.25
227.387	46.25
227.621	39.25
227.856	27.25
228.09	43.25
228.324	39.25
228.559	49.25
228.793	58.25
229.027	70.25
229.262	81.25
229.496	100.25
229.73	104.25
229.964	111.25
230.199	130.25
230.433	100.25
230.667	100.25
230.901	91.25
231.136	90.25
231.37	99.25
231.604	90.25
231.838	101.25
232.072	98.25
232.306	105.25
232.541	98.25
232.775	107.25
233.009	114.25
233.243	96.25
233.477	103.25
233.711	94.25
233.945	102.25
234.179	113.25
234.413	110.25
234.647	106.25
234.881	103.25
235.115	109.25
235.349	119.25
235.583	110.25
235.817	107.25
236.051	107.25
236.285	108.25
236.519	109.25
236.753	99.25
236.987	130.25
237.221	126.25
237.455	161.25
237.689	127.25
237.922	105.25
238.156	102.25
238.39	115.25
238.624	105.25
238.858	104.25
239.091	103.25
239.325	99.25
239.559	115.25
239.793	114.25
240.027	111.25
240.26	105.25
240.494	126.25
240.728	123.25
240.961	120.25
241.195	123.25
241.429	114.25
241.662	114.25
241.896	113.25
242.13	97.25
242.363	100.25
242.597	105.25
242.83	114.25
243.064	101.25
243.298	113.25
243.531	122.25
243.765	121.25
243.998	111.25
244.232	114.25
244.465	116.25
244.699	126.25
244.932	116.25
245.166	134.25
245.399	140.25
245.633	133.25
245.866	116.25
246.099	116.25
246.333	122.25
246.566	135.25
246.8	123.25
247.033	126.25
247.266	135.25
247.5	142.25
247.733	144.25
247.966	151.25
248.2	146.25
248.433	130.25
248.666	136.25
248.899	150.25
249.133	162.25
249.366	151.25
249.599	160.25
249.832	143.25
250.066	132.25
250.299	139.25
250.532	163.25
250.765	151.25
250.998	164.25
251.231	178.25
251.465	159.25
251.698	160.25
251.931	146.25
252.164	158.25
252.397	169.25
252.63	172.25
252.863	154.25
253.096	159.25
253.329	151.25
253.562	171.25
253.795	165.25
254.028	168.25
254.261	184.25
254.494	178.25
254.727	194.25
254.96	215.25
255.193	199.25
255.426	177.25
255.659	174.25
255.892	178.25
256.124	171.25
256.357	184.25
256.59	188.25
256.823	169.25
257.056	163.25
257.289	155.25
257.521	179.25
257.754	166.25
257.987	172.25
258.22	174.25
258.452	161.25
258.685	172.25
258.918	157.25
259.151	176.25
259.383	184.25
259.616	160.25
259.849	191.25
260.081	198.25
260.314	198.25
260.547	197.25
260.779	190.25
261.012	182.25
261.244	185.25
261.477	182.25
261.71	179.25
261.942	183.25
262.175	171.25
262.407	197.25
262.64	158.25
262.872	177.25
263.105	174.25
263.337	189.25
263.57	174.25
263.802	175.25
264.035	179.25
264.267	186.25
264.499	163.25
264.732	168.25
264.964	193.25
265.197	174.25
265.429	176.25
265.661	155.25
265.894	168.25
266.126	179.25
266.358	180.25
266.591	191.25
266.823	179.25
267.055	192.25
267.287	182.25
267.52	188.25
267.752	196.25
267.984	173.25
268.216	182.25
268.448	194.25
268.681	190.25
268.913	199.25
269.145	198.25
269.377	215.25
269.609	219.25
269.841	220.25
270.073	207.25
270.306	234.25
270.538	242.25
270.77	239.25
271.002	234.25
271.234	228.25
271.466	232.25
271.698	229.25
271.93	249.25
272.162	237.25
272.394	240.25
272.626	210.25
272.858	209.25
273.09	214.25
273.322	198.25
273.553	218.25
273.785	208.25
274.017	219.25
274.249	205.25
274.481	224.25
274.713	201.25
274.945	215.25
275.176	228.25
275.408	216.25
275.64	219.25
275.872	222.25
276.104	216.25
276.335	199.25
276.567	231.25
276.799	226.25
277.031	227.25
277.262	252.25
277.494	252.25
277.726	232.25
277.957	223.25
278.189	223.25
278.421	242.25
278.652	236.25
278.884	216.25
279.115	222.25
279.347	224.25
279.579	221.25
279.81	222.25
280.042	212.25
280.273	240.25
280.505	225.25
280.736	213.25
280.968	221.25
281.199	247.25
281.431	222.25
281.662	215.25
281.894	243.25
282.125	221.25
282.356	231.25
282.588	251.25
282.819	254.25
283.051	233.25
283.282	225.25
283.513	239.25
283.745	244.25
283.976	241.25
284.207	256.25
284.439	247.25
284.67	230.25
284.901	215.25
285.132	227.25
285.364	228.25
285.595	242.25
285.826	232.25
286.057	250.25
286.288	225.25
286.52	233.25
286.751	231.25
286.982	232.25
287.213	228.25
287.444	235.25
287.675	266.25
287.906	244.25
288.138	241.25
288.369	259.25
288.6	247.25
288.831	257.25
289.062	258.25
289.293	249.25
289.524	232.25
289.755	247.25
289.986	247.25
290.217	255.25
290.448	256.25
290.679	247.25
290.91	242.25
291.141	243.25
291.371	248.25
291.602	265.25
291.833	259.25
292.064	248.25
292.295	242.25
292.526	249.25
292.757	242.25
292.987	226.25
293.218	252.25
293.449	254.25
293.68	252.25
293.91	247.25
294.141	259.25
294.372	251.25
294.603	260.25
294.833	259.25
295.064	259.25
295.295	263.25
295.525	245.25
295.756	242.25
295.987	255.25
296.217	286.25
296.448	264.25
296.679	266.25
296.909	246.25
297.14	259.25
297.37	259.25
297.601	254.25
297.831	246.25
298.062	255.25
298.292	272.25
298.523	278.25
298.753	277.25
298.984	263.25
299.214	263.25
299.445	264.25
299.675	259.25
299.905	248.25
300.136	264.25
300.366	264.25
300.597	283.25
300.827	280.25
301.057	278.25
301.288	267.25
301.518	272.25
301.748	276.25
301.979	282.25
302.209	275.25
302.439	286.25
302.669	284.25
302.9	274.25
303.13	278.25
303.36	289.25
303.59	288.25
303.82	272.25
304.051	280.25
304.281	272.25
304.511	286.25
304.741	273.25
304.971	271.25
305.201	266.25
305.431	278.25
305.661	276.25
305.891	259.25
306.121	278.25
306.352	281.25
306.582	258.25
306.812	278.25
307.042	275.25
307.272	272.25
307.502	276.25
307.731	271.25
307.961	306.25
308.191	274.25
308.421	276.25
308.651	284.25
308.881	279.25
309.111	288.25
309.341	294.25
309.571	290.25
309.8	286.25
310.03	292.25
310.26	295.25
310.49	292.25
310.72	293.25
310.949	318.25
311.179	314.25
311.409	309.25
311.639	293.25
311.868	310.25
312.098	303.25
312.328	298.25
312.557	304.25
312.787	295.25
313.017	317.25
313.246	332.25
313.476	306.25
313.706	315.25
313.935	322.25
314.165	296.25
314.394	314.25
314.624	302.25
314.853	311.25
315.083	321.25
315.312	305.25
315.542	317.25
315.771	295.25
316.001	309.25
316.23	289.25
316.46	312.25
316.689	314.25
316.919	305.25
317.148	300.25
317.377	308.25
317.607	323.25
317.836	320.25
318.065	281.25
318.295	302.25
318.524	323.25
318.753	302.25
318.983	303.25
319.212	311.25
319.441	305.25
319.67	303.25
319.9	315.25
320.129	316.25
320.358	308.25
320.587	307.25
320.816	304.25
321.046	304.25
321.275	316.25
321.504	313.25
321.733	308.25
321.962	320.25
322.191	324.25
322.42	338.25
322.649	320.25
322.878	363.25
323.108	369.25
323.337	351.25
323.566	354.25
323.795	374.25
324.024	378.25
324.253	437.25
324.482	585.25
324.71	806.25
324.939	1090.25
325.168	902.25
325.397	510.25
325.626	402.25
325.855	358.25
326.084	372.25
326.313	370.25
326.542	351.25
326.77	374.25
326.999	416.25
327.228	531.25
327.457	708.25
327.686	796.25
327.914	574.25
328.143	434.25
328.372	408.25
328.6	402.25
328.829	387.25
329.058	390.25
329.287	398.25
329.515	377.25
329.744	381.25
329.972	388.25
330.201	386.25
330.43	407.25
330.658	421.25
330.887	411.25
331.115	427.25
331.344	379.25
331.572	378.25
331.801	385.25
332.03	374.25
332.258	367.25
332.486	352.25
332.715	382.25
332.943	366.25
333.172	373.25
333.4	387.25
333.629	384.25
333.857	405.25
334.085	403.25
334.314	417.25
334.542	433.25
334.771	433.25
334.999	400.25
335.227	404.25
335.455	374.25
335.684	366.25
335.912	371.25
336.14	371.25
336.369	375.25
336.597	370.25
336.825	381.25
337.053	373.25
337.281	353.25
337.51	342.25
337.738	352.25
337.966	381.25
338.194	374.25
338.422	362.25
338.65	344.25
338.878	327.25
339.106	348.25
339.334	356.25
339.562	338.25
339.79	360.25
340.018	335.25
340.246	343.25
340.474	336.25
340.702	346.25
340.93	343.25
341.158	350.25
341.386	352.25
341.614	343.25
341.842	339.25
342.07	359.25
342.298	371.25
342.526	322.25
342.754	328.25
342.981	357.25
343.209	345.25
343.437	355.25
343.665	354.25
343.893	366.25
344.12	377.25
344.348	370.25
344.576	357.25
344.804	350.25
345.031	340.25
345.259	363.25
345.487	345.25
345.714	335.25
345.942	321.25
346.17	330.25
346.397	312.25
346.625	350.25
346.853	341.25
347.08	319.25
347.308	322.25
347.535	329.25
347.763	326.25
347.99	335.25
348.218	320.25
348.445	324.25
348.673	334.25
348.9	326.25
349.128	328.25
349.355	316.25
349.583	313.25
349.81	312.25
350.037	313.25
350.265	322.25
350.492	322.25
350.72	328.25
350.947	331.25
351.174	324.25
351.402	305.25
351.629	326.25
351.856	322.25
352.083	328.25
352.311	318.25
352.538	315.25
352.765	339.25
352.992	335.25
353.22	315.25
353.447	322.25
353.674	340.25
353.901	310.25
354.128	308.25
354.355	305.25
354.583	317.25
354.81	297.25
355.037	329.25
355.264	303.25
355.491	310.25
355.718	300.25
355.945	320.25
356.172	315.25
356.399	308.25
356.626	293.25
356.853	310.25
357.08	303.25
357.307	310.25
357.534	327.25
357.761	309.25
357.988	306.25
358.215	319.25
358.441	318.25
358.668	320.25
358.895	327.25
359.122	318.25
359.349	318.25
359.576	335.25
359.802	336.25
360.029	360.25
360.256	338.25
360.483	334.25
360.709	327.25
360.936	321.25
361.163	299.25
361.39	294.25
361.616	321.25
361.843	323.25
362.07	328.25
362.296	350.25
362.523	337.25
362.749	302.25
362.976	305.25
363.203	320.25
363.429	298.25
363.656	323.25
363.882	319.25
364.109	308.25
364.335	315.25
364.562	310.25
364.788	303.25
365.015	310.25
365.241	312.25
365.468	319.25
365.694	303.25
365.92	304.25
366.147	309.25
366.373	312.25
366.599	313.25
366.826	318.25
367.052	302.25
367.278	302.25
367.505	314.25
367.731	318.25
367.957	307.25
368.184	325.25
368.41	313.25
368.636	336.25
368.862	336.25
369.089	328.25
369.315	322.25
369.541	324.25
369.767	313.25
369.993	308.25
370.219	315.25
370.445	309.25
370.672	327.25
370.898	310.25
371.124	322.25
371.35	310.25
371.576	308.25
371.802	319.25
372.028	314.25
372.254	336.25
372.48	334.25
372.706	319.25
372.932	337.25
373.158	340.25
373.384	324.25
373.61	313.25
373.835	329.25
374.061	320.25
374.287	320.25
374.513	346.25
374.739	341.25
374.965	340.25
375.191	336.25
375.416	341.25
375.642	345.25
375.868	323.25
376.094	334.25
376.319	314.25
376.545	330.25
376.771	314.25
376.997	306.25
377.222	314.25
377.448	337.25
377.674	328.25
377.899	331.25
378.125	310.25
378.35	301.25
378.576	343.25
378.802	324.25
379.027	315.25
379.253	302.25
379.478	309.25
379.704	311.25
379.929	308.25
380.155	332.25
380.38	320.25
380.606	318.25
380.831	336.25
381.057	328.25
381.282	294.25
381.507	325.25
381.733	345.25
381.958	321.25
382.184	319.25
382.409	343.25
382.634	331.25
382.86	303.25
383.085	337.25
383.31	344.25
383.535	327.25
383.761	329.25
383.986	339.25
384.211	348.25
384.436	342.25
384.662	356.25
384.887	356.25
385.112	346.25
385.337	364.25
385.562	373.25
385.787	359.25
386.013	388.25
386.238	375.25
386.463	368.25
386.688	364.25
386.913	350.25
387.138	357.25
387.363	354.25
387.588	354.25
387.813	355.25
388.038	355.25
388.263	355.25
388.488	382.25
388.713	359.25
388.938	370.25
389.163	346.25
389.387	364.25
389.612	363.25
389.837	347.25
390.062	356.25
390.287	360.25
390.512	356.25
390.736	367.25
390.961	376.25
391.186	370.25
391.411	363.25
391.636	366.25
391.86	378.25
392.085	395.25
392.31	372.25
392.534	372.25
392.759	379.25
392.984	362.25
393.208	354.25
393.433	363.25
393.658	371.25
393.882	376.25
394.107	385.25
394.331	386.25
394.556	377.25
394.78	379.25
395.005	366.25
395.229	372.25
395.454	371.25
395.678	398.25
395.903	385.25
396.127	403.25
396.352	374.25
396.576	359.25
396.801	374.25
397.025	384.25
397.249	358.25
397.474	398.25
397.698	387.25
397.922	376.25
398.147	411.25
398.371	402.25
398.595	440.25
398.82	423.25
399.044	444.25
399.268	447.25
399.492	502.25
399.717	524.25
399.941	562.25
400.165	510.25
400.389	496.25
400.613	466.25
400.837	402.25
401.062	421.25
401.286	432.25
401.51	425.25
401.734	398.25
401.958	423.25
402.182	404.25
402.406	439.25
402.63	438.25
402.854	435.25
403.078	434.25
403.302	439.25
403.526	448.25
403.75	476.25
403.974	465.25
404.198	446.25
404.422	458.25
404.645	452.25
404.869	455.25
405.093	450.25
405.317	475.25
405.541	503.25
405.765	474.25
405.988	436.25
406.212	464.25
406.436	466.25
406.66	471.25
406.883	472.25
407.107	483.25
407.331	512.25
407.555	520.25
407.778	535.25
408.002	511.25
408.226	476.25
408.449	473.25
408.673	479.25
408.896	461.25
409.12	490.25
409.344	469.25
409.567	433.25
409.791	442.25
410.014	433.25
410.238	454.25
410.461	453.25
410.685	426.25
410.908	442.25
411.132	474.25
411.355	457.25
411.578	464.25
411.802	432.25
412.025	444.25
412.249	451.25
412.472	457.25
412.695	475.25
412.919	442.25
413.142	421.25
413.365	409.25
413.589	417.25
413.812	410.25
414.035	425.25
414.258	411.25
414.482	424.25
414.705	432.25
414.928	428.25
415.151	392.25
415.374	431.25
415.597	404.25
415.821	424.25
416.044	404.25
416.267	399.25
416.49	393.25
416.713	425.25
416.936	400.25
417.159	422.25
417.382	424.25
417.605	415.25
417.828	414.25
418.051	415.25
418.274	425.25
418.497	430.25
418.72	426.25
418.943	417.25
419.166	440.25
419.389	423.25
419.611	450.25
419.834	467.25
420.057	432.25
420.28	449.25
420.503	432.25
420.726	416.25
420.948	434.25
421.171	457.25
421.394	459.25
421.617	442.25
421.839	420.25
422.062	446.25
422.285	401.25
422.507	461.25
422.73	503.25
422.953	501.25
423.175	461.25
423.398	446.25
423.621	442.25
423.843	447.25
424.066	447.25
424.288	471.25
424.511	462.25
424.733	499.25
424.956	522.25
425.178	503.25
425.401	514.25
425.623	502.25
425.846	466.25
426.068	409.25
426.291	435.25
426.513	421.25
426.735	424.25
426.958	463.25
427.18	502.25
427.402	562.25
427.625	578.25
427.847	511.25
428.069	463.25
428.292	422.25
428.514	403.25
428.736	406.25
428.958	393.25
429.181	408.25
429.403	407.25
429.625	403.25
429.847	400.25
430.069	458.25
430.292	434.25
430.514	401.25
430.736	403.25
430.958	404.25
431.18	404.25
431.402	386.25
431.624	363.25
431.846	380.25
432.068	375.25
432.29	382.25
432.512	380.25
432.734	393.25
432.956	376.25
433.178	382.25
433.4	394.25
433.622	408.25
433.844	376.25
434.066	399.25
434.287	398.25
434.509	406.25
434.731	391.25
434.953	427.25
435.175	433.25
435.397	446.25
435.618	432.25
435.84	441.25
436.062	501.25
436.284	512.25
436.505	457.25
436.727	423.25
436.949	416.25
437.17	407.25
437.392	404.25
437.614	404.25
437.835	423.25
438.057	455.25
438.278	509.25
438.5	483.25
438.721	534.25
438.943	522.25
439.165	427.25
439.386	420.25
439.608	425.25
439.829	423.25
440.05	451.25
440.272	455.25
440.493	432.25
440.715	403.25
440.936	404.25
441.158	397.25
441.379	431.25
441.6	430.25
441.822	437.25
442.043	458.25
442.264	498.25
442.486	500.25
442.707	455.25
442.928	424.25
443.149	440.25
443.371	446.25
443.592	488.25
443.813	541.25
444.034	564.25
444.255	472.25
444.476	455.25
444.698	478.25
444.919	469.25
445.14	545.25
445.361	496.25
445.582	460.25
445.803	503.25
446.024	529.25
446.245	536.25
446.466	502.25
446.687	441.25
446.908	427.25
447.129	405.25
447.35	398.25
447.571	406.25
447.792	371.25
448.013	382.25
448.234	398.25
448.455	441.25
448.675	479.25
448.896	538.25
449.117	467.25
449.338	440.25
449.559	503.25
449.779	568.25
450	454.25
450.221	398.25
450.442	377.25
450.662	386.25
450.883	372.25
451.104	384.25
451.324	379.25
451.545	370.25
451.766	349.25
451.986	364.25
452.207	345.25
452.428	346.25
452.648	360.25
452.869	353.25
453.089	368.25
453.31	352.25
453.53	350.25
453.751	358.25
453.971	352.25
454.192	361.25
454.412	368.25
454.633	356.25
454.853	342.25
455.073	356.25
455.294	372.25
455.514	404.25
455.734	400.25
455.955	365.25
456.175	353.25
456.395	328.25
456.616	337.25
456.836	337.25
457.056	335.25
457.276	323.25
457.497	337.25
457.717	331.25
457.937	347.25
458.157	349.25
458.377	338.25
458.598	376.25
458.818	390.25
459.038	422.25
459.258	425.25
459.478	404.25
459.698	384.25
459.918	370.25
460.138	396.25
460.358	411.25
460.578	412.25
460.798	402.25
461.018	407.25
461.238	415.25
461.458	408.25
461.678	406.25
461.898	429.25
462.118	401.25
462.338	432.25
462.558	450.25
462.777	440.25
462.997	469.25
463.217	498.25
463.437	501.25
463.657	474.25
463.876	448.25
464.096	473.25
464.316	458.25
464.536	462.25
464.755	456.25
464.975	434.25
465.195	453.25
465.414	475.25
465.634	442.25
465.854	403.25
466.073	404.25
466.293	368.25
466.512	368.25
466.732	361.25
466.951	346.25
467.171	364.25
467.391	386.25
467.61	386.25
467.829	373.25
468.049	374.25
468.268	383.25
468.488	382.25
468.707	355.25
468.927	348.25
469.146	364.25
469.365	350.25
469.585	355.25
469.804	376.25
470.023	384.25
470.243	405.25
470.462	389.25
470.681	397.25
470.901	383.25
471.12	380.25
471.339	382.25
471.558	388.25
471.777	384.25
471.997	370.25
472.216	391.25
472.435	415.25
472.654	375.25
472.873	356.25
473.092	377.25
473.311	384.25
473.53	367.25
473.749	382.25
473.968	387.25
474.187	450.25
474.406	454.25
474.625	397.25
474.844	383.25
475.063	380.25
475.282	361.25
475.501	364.25
475.72	373.25
475.939	383.25
476.158	375.25
476.377	398.25
476.596	374.25
476.814	389.25
477.033	412.25
477.252	396.25
477.471	403.25
477.69	414.25
477.908	413.25
478.127	419.25
478.346	419.25
478.564	430.25
478.783	408.25
479.002	440.25
479.22	434.25
479.439	439.25
479.658	440.25
479.876	439.25
480.095	432.25
480.313	469.25
480.532	478.25
480.751	452.25
480.969	475.25
481.188	470.25
481.406	488.25
481.624	455.25
481.843	438.25
482.061	418.25
482.28	452.25
482.498	405.25
482.717	414.25
482.935	434.25
483.153	420.25
483.372	416.25
483.59	419.25
483.808	439.25
484.027	433.25
484.245	428.25
484.463	414.25
484.681	453.25
484.9	435.25
485.118	448.25
485.336	417.25
485.554	443.25
485.772	454.25
485.99	466.25
486.209	442.25
486.427	436.25
486.645	431.25
486.863	459.25
487.081	468.25
487.299	451.25
487.517	447.25
487.735	424.25
487.953	430.25
488.171	472.25
488.389	454.25
488.607	431.25
488.825	450.25
489.043	458.25
489.261	439.25
489.479	461.25
489.696	449.25
489.914	467.25
490.132	458.25
490.35	471.25
490.568	474.25
490.786	495.25
491.003	502.25
491.221	485.25
491.439	510.25
491.657	506.25
491.874	530.25
492.092	541.25
492.31	525.25
492.527	515.25
492.745	511.25
492.963	535.25
493.18	517.25
493.398	528.25
493.615	547.25
493.833	538.25
494.05	514.25
494.268	529.25
494.485	518.25
494.703	535.25
494.92	522.25
495.138	520.25
495.355	506.25
495.573	520.25
495.79	539.25
496.008	526.25
496.225	538.25
496.442	528.25
496.66	548.25
496.877	553.25
497.094	534.25
497.312	538.25
497.529	549.25
497.746	578.25
497.963	582.25
498.181	582.25
498.398	607.25
498.615	616.25
498.832	629.25
499.049	681.25
499.267	705.25
499.484	724.25
499.701	786.25
499.918	810.25
500.135	843.25
500.352	934.25
500.569	978.25
500.786	954.25
501.003	908.25
501.22	862.25
501.437	776.25
501.654	731.25
501.871	730.25
502.088	679.25
