Data from 1969.PennyLincolnUp.Lamp.En5.5.200Scan.071719.P1._HRD10591_14-55-36-972.txt Node
Date: Thu Jul 18 14:55:36 EDT 2019
User: cochatt
Spectrometer: HR+D1059
Trigger mode: 1
Integration Time (sec): 1.000000E-1
Scans to average: 1
Electric dark correction enabled: true
Nonlinearity correction enabled: false
Boxcar width: 0
XAxis mode: Wavelengths
Number of Pixels in Spectrum: 2048
>>>>>Begin Spectral Data<<<<<
223.165	-4.25
223.4	-4.25
223.635	-4.25
223.869	-0.25
224.104	-21.25
224.338	-16.25
224.573	-20.25
224.808	2.75
225.042	0.75
225.277	-22.25
225.511	-9.25
225.746	-5.25
225.98	7.75
226.215	11.75
226.449	20.75
226.683	14.75
226.918	19.75
227.152	20.75
227.387	30.75
227.621	27.75
227.856	45.75
228.09	46.75
228.324	35.75
228.559	61.75
228.793	52.75
229.027	87.75
229.262	72.75
229.496	83.75
229.73	111.75
229.964	129.75
230.199	85.75
230.433	104.75
230.667	88.75
230.901	90.75
231.136	99.75
231.37	96.75
231.604	111.75
231.838	104.75
232.072	95.75
232.306	115.75
232.541	94.75
232.775	97.75
233.009	103.75
233.243	106.75
233.477	110.75
233.711	95.75
233.945	104.75
234.179	102.75
234.413	112.75
234.647	113.75
234.881	95.75
235.115	109.75
235.349	94.75
235.583	115.75
235.817	104.75
236.051	112.75
236.285	118.75
236.519	112.75
236.753	114.75
236.987	131.75
237.221	155.75
237.455	164.75
237.689	133.75
237.922	110.75
238.156	117.75
238.39	105.75
238.624	92.75
238.858	112.75
239.091	117.75
239.325	117.75
239.559	117.75
239.793	102.75
240.027	123.75
240.26	108.75
240.494	133.75
240.728	123.75
240.961	130.75
241.195	136.75
241.429	112.75
241.662	115.75
241.896	108.75
242.13	108.75
242.363	113.75
242.597	120.75
242.83	123.75
243.064	131.75
243.298	124.75
243.531	111.75
243.765	129.75
243.998	127.75
244.232	123.75
244.465	134.75
244.699	130.75
244.932	151.75
245.166	135.75
245.399	131.75
245.633	119.75
245.866	124.75
246.099	121.75
246.333	129.75
246.566	141.75
246.8	137.75
247.033	136.75
247.266	145.75
247.5	139.75
247.733	141.75
247.966	147.75
248.2	131.75
248.433	155.75
248.666	149.75
248.899	154.75
249.133	162.75
249.366	167.75
249.599	145.75
249.832	148.75
250.066	161.75
250.299	168.75
250.532	159.75
250.765	163.75
250.998	167.75
251.231	177.75
251.465	167.75
251.698	175.75
251.931	145.75
252.164	156.75
252.397	164.75
252.63	164.75
252.863	161.75
253.096	161.75
253.329	175.75
253.562	170.75
253.795	187.75
254.028	184.75
254.261	183.75
254.494	173.75
254.727	197.75
254.96	203.75
255.193	203.75
255.426	182.75
255.659	179.75
255.892	180.75
256.124	204.75
256.357	171.75
256.59	202.75
256.823	173.75
257.056	176.75
257.289	185.75
257.521	167.75
257.754	157.75
257.987	171.75
258.22	187.75
258.452	164.75
258.685	159.75
258.918	174.75
259.151	176.75
259.383	184.75
259.616	181.75
259.849	193.75
260.081	184.75
260.314	185.75
260.547	188.75
260.779	195.75
261.012	193.75
261.244	174.75
261.477	190.75
261.71	173.75
261.942	188.75
262.175	192.75
262.407	188.75
262.64	179.75
262.872	183.75
263.105	187.75
263.337	189.75
263.57	185.75
263.802	186.75
264.035	169.75
264.267	176.75
264.499	177.75
264.732	187.75
264.964	168.75
265.197	171.75
265.429	185.75
265.661	170.75
265.894	176.75
266.126	189.75
266.358	175.75
266.591	216.75
266.823	206.75
267.055	195.75
267.287	212.75
267.52	213.75
267.752	183.75
267.984	185.75
268.216	190.75
268.448	180.75
268.681	203.75
268.913	231.75
269.145	225.75
269.377	236.75
269.609	213.75
269.841	215.75
270.073	227.75
270.306	224.75
270.538	246.75
270.77	248.75
271.002	222.75
271.234	239.75
271.466	248.75
271.698	247.75
271.93	237.75
272.162	241.75
272.394	239.75
272.626	230.75
272.858	254.75
273.09	245.75
273.322	208.75
273.553	207.75
273.785	233.75
274.017	226.75
274.249	214.75
274.481	209.75
274.713	225.75
274.945	219.75
275.176	214.75
275.408	215.75
275.64	222.75
275.872	206.75
276.104	224.75
276.335	220.75
276.567	231.75
276.799	233.75
277.031	244.75
277.262	254.75
277.494	256.75
277.726	260.75
277.957	247.75
278.189	240.75
278.421	238.75
278.652	231.75
278.884	225.75
279.115	235.75
279.347	227.75
279.579	230.75
279.81	226.75
280.042	224.75
280.273	245.75
280.505	221.75
280.736	223.75
280.968	225.75
281.199	235.75
281.431	239.75
281.662	220.75
281.894	239.75
282.125	232.75
282.356	252.75
282.588	256.75
282.819	263.75
283.051	238.75
283.282	241.75
283.513	229.75
283.745	241.75
283.976	240.75
284.207	245.75
284.439	263.75
284.67	248.75
284.901	236.75
285.132	250.75
285.364	232.75
285.595	234.75
285.826	219.75
286.057	263.75
286.288	260.75
286.52	233.75
286.751	255.75
286.982	267.75
287.213	250.75
287.444	244.75
287.675	257.75
287.906	239.75
288.138	259.75
288.369	265.75
288.6	260.75
288.831	252.75
289.062	255.75
289.293	265.75
289.524	254.75
289.755	250.75
289.986	256.75
290.217	245.75
290.448	257.75
290.679	257.75
290.91	247.75
291.141	265.75
291.371	259.75
291.602	237.75
291.833	265.75
292.064	250.75
292.295	274.75
292.526	279.75
292.757	267.75
292.987	245.75
293.218	257.75
293.449	256.75
293.68	263.75
293.91	245.75
294.141	248.75
294.372	248.75
294.603	256.75
294.833	272.75
295.064	259.75
295.295	264.75
295.525	271.75
295.756	266.75
295.987	267.75
296.217	292.75
296.448	263.75
296.679	260.75
296.909	263.75
297.14	269.75
297.37	273.75
297.601	269.75
297.831	252.75
298.062	250.75
298.292	275.75
298.523	281.75
298.753	264.75
298.984	277.75
299.214	259.75
299.445	267.75
299.675	279.75
299.905	279.75
300.136	267.75
300.366	265.75
300.597	279.75
300.827	280.75
301.057	294.75
301.288	293.75
301.518	295.75
301.748	289.75
301.979	282.75
302.209	295.75
302.439	286.75
302.669	283.75
302.9	297.75
303.13	289.75
303.36	295.75
303.59	286.75
303.82	305.75
304.051	286.75
304.281	293.75
304.511	275.75
304.741	297.75
304.971	275.75
305.201	297.75
305.431	283.75
305.661	294.75
305.891	288.75
306.121	283.75
306.352	291.75
306.582	270.75
306.812	275.75
307.042	260.75
307.272	287.75
307.502	277.75
307.731	283.75
307.961	289.75
308.191	279.75
308.421	281.75
308.651	285.75
308.881	308.75
309.111	305.75
309.341	296.75
309.571	305.75
309.8	304.75
310.03	297.75
310.26	301.75
310.49	310.75
310.72	315.75
310.949	318.75
311.179	321.75
311.409	313.75
311.639	299.75
311.868	326.75
312.098	315.75
312.328	319.75
312.557	310.75
312.787	328.75
313.017	321.75
313.246	327.75
313.476	325.75
313.706	312.75
313.935	307.75
314.165	321.75
314.394	337.75
314.624	333.75
314.853	309.75
315.083	333.75
315.312	288.75
315.542	313.75
315.771	305.75
316.001	313.75
316.23	312.75
316.46	318.75
316.689	337.75
316.919	312.75
317.148	319.75
317.377	340.75
317.607	309.75
317.836	331.75
318.065	303.75
318.295	314.75
318.524	304.75
318.753	307.75
318.983	307.75
319.212	320.75
319.441	308.75
319.67	331.75
319.9	319.75
320.129	315.75
320.358	312.75
320.587	336.75
320.816	311.75
321.046	323.75
321.275	322.75
321.504	316.75
321.733	327.75
321.962	330.75
322.191	337.75
322.42	342.75
322.649	341.75
322.878	343.75
323.108	356.75
323.337	369.75
323.566	358.75
323.795	397.75
324.024	395.75
324.253	456.75
324.482	597.75
324.71	824.75
324.939	1084.75
325.168	891.75
325.397	519.75
325.626	425.75
325.855	376.75
326.084	354.75
326.313	381.75
326.542	360.75
326.77	395.75
326.999	437.75
327.228	552.75
327.457	748.75
327.686	844.75
327.914	600.75
328.143	447.75
328.372	414.75
328.6	422.75
328.829	399.75
329.058	402.75
329.287	413.75
329.515	403.75
329.744	393.75
329.972	390.75
330.201	393.75
330.43	402.75
330.658	433.75
330.887	427.75
331.115	412.75
331.344	391.75
331.572	377.75
331.801	397.75
332.03	399.75
332.258	368.75
332.486	379.75
332.715	375.75
332.943	385.75
333.172	391.75
333.4	412.75
333.629	415.75
333.857	400.75
334.085	405.75
334.314	430.75
334.542	445.75
334.771	438.75
334.999	421.75
335.227	388.75
335.455	379.75
335.684	401.75
335.912	379.75
336.14	393.75
336.369	358.75
336.597	395.75
336.825	389.75
337.053	380.75
337.281	368.75
337.51	366.75
337.738	351.75
337.966	365.75
338.194	362.75
338.422	341.75
338.65	357.75
338.878	359.75
339.106	346.75
339.334	347.75
339.562	337.75
339.79	344.75
340.018	352.75
340.246	333.75
340.474	339.75
340.702	349.75
340.93	364.75
341.158	364.75
341.386	380.75
341.614	351.75
341.842	341.75
342.07	343.75
342.298	334.75
342.526	354.75
342.754	384.75
342.981	339.75
343.209	343.75
343.437	365.75
343.665	360.75
343.893	394.75
344.12	384.75
344.348	380.75
344.576	375.75
344.804	360.75
345.031	365.75
345.259	373.75
345.487	364.75
345.714	360.75
345.942	358.75
346.17	350.75
346.397	327.75
346.625	341.75
346.853	336.75
347.08	335.75
347.308	337.75
347.535	318.75
347.763	337.75
347.99	343.75
348.218	331.75
348.445	337.75
348.673	348.75
348.9	323.75
349.128	343.75
349.355	339.75
349.583	329.75
349.81	330.75
350.037	319.75
350.265	335.75
350.492	332.75
350.72	342.75
350.947	315.75
351.174	315.75
351.402	357.75
351.629	343.75
351.856	334.75
352.083	336.75
352.311	344.75
352.538	343.75
352.765	337.75
352.992	335.75
353.22	343.75
353.447	326.75
353.674	327.75
353.901	318.75
354.128	331.75
354.355	311.75
354.583	311.75
354.81	328.75
355.037	315.75
355.264	309.75
355.491	324.75
355.718	304.75
355.945	304.75
356.172	313.75
356.399	319.75
356.626	316.75
356.853	316.75
357.08	320.75
357.307	343.75
357.534	336.75
357.761	331.75
357.988	335.75
358.215	324.75
358.441	308.75
358.668	315.75
358.895	333.75
359.122	335.75
359.349	330.75
359.576	346.75
359.802	345.75
360.029	339.75
360.256	353.75
360.483	346.75
360.709	312.75
360.936	333.75
361.163	339.75
361.39	338.75
361.616	333.75
361.843	324.75
362.07	330.75
362.296	323.75
362.523	327.75
362.749	344.75
362.976	321.75
363.203	321.75
363.429	340.75
363.656	317.75
363.882	319.75
364.109	320.75
364.335	316.75
364.562	320.75
364.788	317.75
365.015	316.75
365.241	329.75
365.468	315.75
365.694	304.75
365.92	340.75
366.147	317.75
366.373	301.75
366.599	319.75
366.826	321.75
367.052	316.75
367.278	327.75
367.505	333.75
367.731	338.75
367.957	323.75
368.184	331.75
368.41	327.75
368.636	331.75
368.862	331.75
369.089	325.75
369.315	296.75
369.541	323.75
369.767	323.75
369.993	317.75
370.219	315.75
370.445	323.75
370.672	317.75
370.898	317.75
371.124	336.75
371.35	334.75
371.576	350.75
371.802	325.75
372.028	341.75
372.254	331.75
372.48	336.75
372.706	325.75
372.932	348.75
373.158	342.75
373.384	336.75
373.61	321.75
373.835	333.75
374.061	314.75
374.287	346.75
374.513	329.75
374.739	346.75
374.965	332.75
375.191	347.75
375.416	327.75
375.642	329.75
375.868	316.75
376.094	331.75
376.319	320.75
376.545	350.75
376.771	320.75
376.997	328.75
377.222	321.75
377.448	314.75
377.674	330.75
377.899	320.75
378.125	340.75
378.35	342.75
378.576	314.75
378.802	324.75
379.027	326.75
379.253	319.75
379.478	320.75
379.704	327.75
379.929	337.75
380.155	321.75
380.38	325.75
380.606	323.75
380.831	340.75
381.057	333.75
381.282	323.75
381.507	331.75
381.733	326.75
381.958	348.75
382.184	334.75
382.409	334.75
382.634	347.75
382.86	332.75
383.085	327.75
383.31	352.75
383.535	350.75
383.761	335.75
383.986	356.75
384.211	371.75
384.436	360.75
384.662	353.75
384.887	344.75
385.112	355.75
385.337	371.75
385.562	381.75
385.787	371.75
386.013	384.75
386.238	380.75
386.463	355.75
386.688	374.75
386.913	368.75
387.138	342.75
387.363	348.75
387.588	371.75
387.813	350.75
388.038	365.75
388.263	365.75
388.488	366.75
388.713	380.75
388.938	383.75
389.163	382.75
389.387	356.75
389.612	340.75
389.837	335.75
390.062	353.75
390.287	352.75
390.512	361.75
390.736	368.75
390.961	387.75
391.186	369.75
391.411	375.75
391.636	387.75
391.86	377.75
392.085	397.75
392.31	396.75
392.534	371.75
392.759	382.75
392.984	364.75
393.208	375.75
393.433	356.75
393.658	364.75
393.882	363.75
394.107	379.75
394.331	371.75
394.556	369.75
394.78	367.75
395.005	367.75
395.229	354.75
395.454	367.75
395.678	382.75
395.903	405.75
396.127	397.75
396.352	402.75
396.576	387.75
396.801	373.75
397.025	379.75
397.249	380.75
397.474	384.75
397.698	396.75
397.922	411.75
398.147	405.75
398.371	410.75
398.595	411.75
398.82	430.75
399.044	431.75
399.268	468.75
399.492	517.75
399.717	527.75
399.941	552.75
400.165	557.75
400.389	509.75
400.613	475.75
400.837	424.75
401.062	439.75
401.286	410.75
401.51	439.75
401.734	428.75
401.958	419.75
402.182	432.75
402.406	443.75
402.63	457.75
402.854	428.75
403.078	433.75
403.302	432.75
403.526	469.75
403.75	457.75
403.974	468.75
404.198	486.75
404.422	466.75
404.645	458.75
404.869	481.75
405.093	480.75
405.317	505.75
405.541	501.75
405.765	462.75
405.988	468.75
406.212	465.75
406.436	477.75
406.66	491.75
406.883	462.75
407.107	487.75
407.331	535.75
407.555	569.75
407.778	567.75
408.002	549.75
408.226	498.75
408.449	497.75
408.673	470.75
408.896	506.75
409.12	515.75
409.344	490.75
409.567	437.75
409.791	455.75
410.014	463.75
410.238	441.75
410.461	452.75
410.685	445.75
410.908	448.75
411.132	473.75
411.355	451.75
411.578	459.75
411.802	421.75
412.025	447.75
412.249	443.75
412.472	470.75
412.695	479.75
412.919	471.75
413.142	429.75
413.365	447.75
413.589	453.75
413.812	416.75
414.035	412.75
414.258	429.75
414.482	439.75
414.705	435.75
414.928	424.75
415.151	432.75
415.374	420.75
415.597	409.75
415.821	415.75
416.044	417.75
416.267	443.75
416.49	424.75
416.713	431.75
416.936	408.75
417.159	414.75
417.382	413.75
417.605	423.75
417.828	425.75
418.051	443.75
418.274	435.75
418.497	424.75
418.72	443.75
418.943	426.75
419.166	453.75
419.389	467.75
419.611	455.75
419.834	443.75
420.057	442.75
420.28	449.75
420.503	434.75
420.726	432.75
420.948	437.75
421.171	465.75
421.394	456.75
421.617	434.75
421.839	442.75
422.062	437.75
422.285	433.75
422.507	478.75
422.73	509.75
422.953	497.75
423.175	470.75
423.398	455.75
423.621	442.75
423.843	465.75
424.066	459.75
424.288	473.75
424.511	446.75
424.733	484.75
424.956	530.75
425.178	502.75
425.401	524.75
425.623	519.75
425.846	471.75
426.068	461.75
426.291	445.75
426.513	425.75
426.735	443.75
426.958	451.75
427.18	505.75
427.402	561.75
427.625	588.75
427.847	520.75
428.069	479.75
428.292	451.75
428.514	409.75
428.736	414.75
428.958	396.75
429.181	393.75
429.403	393.75
429.625	412.75
429.847	404.75
430.069	464.75
430.292	454.75
430.514	419.75
430.736	419.75
430.958	398.75
431.18	394.75
431.402	393.75
431.624	383.75
431.846	376.75
432.068	377.75
432.29	402.75
432.512	392.75
432.734	401.75
432.956	395.75
433.178	398.75
433.4	395.75
433.622	382.75
433.844	382.75
434.066	393.75
434.287	383.75
434.509	405.75
434.731	416.75
434.953	441.75
435.175	441.75
435.397	443.75
435.618	427.75
435.84	465.75
436.062	511.75
436.284	530.75
436.505	459.75
436.727	405.75
436.949	413.75
437.17	406.75
437.392	397.75
437.614	401.75
437.835	413.75
438.057	462.75
438.278	517.75
438.5	508.75
438.721	543.75
438.943	529.75
439.165	439.75
439.386	430.75
439.608	439.75
439.829	430.75
440.05	441.75
440.272	443.75
440.493	445.75
440.715	415.75
440.936	422.75
441.158	402.75
441.379	417.75
441.6	436.75
441.822	453.75
442.043	469.75
442.264	506.75
442.486	504.75
442.707	460.75
442.928	455.75
443.149	458.75
443.371	466.75
443.592	482.75
443.813	547.75
444.034	576.75
444.255	485.75
444.476	481.75
444.698	480.75
444.919	482.75
445.14	613.75
445.361	571.75
445.582	493.75
445.803	507.75
446.024	535.75
446.245	537.75
446.466	504.75
446.687	430.75
446.908	417.75
447.129	408.75
447.35	406.75
447.571	384.75
447.792	382.75
448.013	400.75
448.234	417.75
448.455	439.75
448.675	495.75
448.896	549.75
449.117	482.75
449.338	475.75
449.559	505.75
449.779	583.75
450	462.75
450.221	397.75
450.442	395.75
450.662	369.75
450.883	383.75
451.104	413.75
451.324	387.75
451.545	389.75
451.766	381.75
451.986	364.75
452.207	366.75
452.428	366.75
452.648	360.75
452.869	377.75
453.089	376.75
453.31	373.75
453.53	365.75
453.751	371.75
453.971	339.75
454.192	373.75
454.412	365.75
454.633	349.75
454.853	361.75
455.073	356.75
455.294	374.75
455.514	407.75
455.734	390.75
455.955	374.75
456.175	358.75
456.395	347.75
456.616	343.75
456.836	350.75
457.056	350.75
457.276	336.75
457.497	345.75
457.717	337.75
457.937	358.75
458.157	349.75
458.377	357.75
458.598	367.75
458.818	391.75
459.038	440.75
459.258	444.75
459.478	428.75
459.698	409.75
459.918	392.75
460.138	399.75
460.358	418.75
460.578	419.75
460.798	425.75
461.018	436.75
461.238	413.75
461.458	430.75
461.678	427.75
461.898	425.75
462.118	437.75
462.338	451.75
462.558	455.75
462.777	459.75
462.997	491.75
463.217	500.75
463.437	497.75
463.657	477.75
463.876	460.75
464.096	462.75
464.316	457.75
464.536	473.75
464.755	466.75
464.975	453.75
465.195	476.75
465.414	480.75
465.634	445.75
465.854	419.75
466.073	409.75
466.293	409.75
466.512	367.75
466.732	385.75
466.951	397.75
467.171	371.75
467.391	389.75
467.61	395.75
467.829	381.75
468.049	398.75
468.268	374.75
468.488	387.75
468.707	397.75
468.927	381.75
469.146	369.75
469.365	379.75
469.585	381.75
469.804	399.75
470.023	396.75
470.243	403.75
470.462	397.75
470.681	414.75
470.901	405.75
471.12	387.75
471.339	391.75
471.558	389.75
471.777	389.75
471.997	390.75
472.216	383.75
472.435	389.75
472.654	393.75
472.873	350.75
473.092	370.75
473.311	371.75
473.53	384.75
473.749	399.75
473.968	413.75
474.187	424.75
474.406	473.75
474.625	415.75
474.844	378.75
475.063	359.75
475.282	383.75
475.501	385.75
475.72	378.75
475.939	375.75
476.158	377.75
476.377	390.75
476.596	390.75
476.814	400.75
477.033	388.75
477.252	383.75
477.471	401.75
477.69	397.75
477.908	417.75
478.127	423.75
478.346	436.75
478.564	439.75
478.783	439.75
479.002	448.75
479.22	451.75
479.439	453.75
479.658	442.75
479.876	465.75
480.095	453.75
480.313	504.75
480.532	471.75
480.751	477.75
480.969	470.75
481.188	513.75
481.406	518.75
481.624	461.75
481.843	423.75
482.061	424.75
482.28	447.75
482.498	436.75
482.717	441.75
482.935	437.75
483.153	449.75
483.372	419.75
483.59	437.75
483.808	426.75
484.027	433.75
484.245	429.75
484.463	447.75
484.681	435.75
484.9	447.75
485.118	447.75
485.336	453.75
485.554	453.75
485.772	429.75
485.99	465.75
486.209	454.75
486.427	459.75
486.645	453.75
486.863	463.75
487.081	456.75
487.299	454.75
487.517	451.75
487.735	462.75
487.953	462.75
488.171	455.75
488.389	472.75
488.607	472.75
488.825	456.75
489.043	471.75
489.261	468.75
489.479	472.75
489.696	467.75
489.914	510.75
490.132	474.75
490.35	462.75
490.568	481.75
490.786	497.75
491.003	506.75
491.221	517.75
491.439	520.75
491.657	537.75
491.874	527.75
492.092	517.75
492.31	537.75
492.527	543.75
492.745	539.75
492.963	543.75
493.18	560.75
493.398	561.75
493.615	542.75
493.833	543.75
494.05	535.75
494.268	560.75
494.485	546.75
494.703	553.75
494.92	549.75
495.138	538.75
495.355	541.75
495.573	540.75
495.79	520.75
496.008	547.75
496.225	539.75
496.442	546.75
496.66	556.75
496.877	553.75
497.094	556.75
497.312	546.75
497.529	587.75
497.746	590.75
497.963	563.75
498.181	611.75
498.398	615.75
498.615	637.75
498.832	655.75
499.049	688.75
499.267	700.75
499.484	742.75
499.701	770.75
499.918	831.75
500.135	908.75
500.352	933.75
500.569	976.75
500.786	976.75
501.003	928.75
501.22	892.75
501.437	810.75
501.654	798.75
501.871	761.75
502.088	717.75
502.305	687.75
