Data from 1969.PennyLincolnUp.Lamp.En5.5.200Scan.071719.P1._HRD10591_14-56-01-975.txt Node
Date: Thu Jul 18 14:56:01 EDT 2019
User: cochatt
Spectrometer: HR+D1059
Trigger mode: 1
Integration Time (sec): 1.000000E-1
Scans to average: 1
Electric dark correction enabled: true
Nonlinearity correction enabled: false
Boxcar width: 0
XAxis mode: Wavelengths
Number of Pixels in Spectrum: 2048
>>>>>Begin Spectral Data<<<<<
223.165	-12.25
223.4	-12.25
223.635	-12.25
223.869	-8.25
224.104	-21.25
224.338	-12.25
224.573	-17.25
224.808	-16.25
225.042	-11.25
225.277	-2.25
225.511	3.75
225.746	7.75
225.98	10.75
226.215	11.75
226.449	6.75
226.683	12.75
226.918	19.75
227.152	27.75
227.387	30.75
227.621	40.75
227.856	47.75
228.09	47.75
228.324	59.75
228.559	56.75
228.793	63.75
229.027	87.75
229.262	95.75
229.496	90.75
229.73	119.75
229.964	112.75
230.199	103.75
230.433	100.75
230.667	108.75
230.901	106.75
231.136	100.75
231.37	107.75
231.604	109.75
231.838	96.75
232.072	100.75
232.306	114.75
232.541	106.75
232.775	110.75
233.009	96.75
233.243	101.75
233.477	105.75
233.711	108.75
233.945	115.75
234.179	108.75
234.413	105.75
234.647	115.75
234.881	107.75
235.115	113.75
235.349	94.75
235.583	88.75
235.817	109.75
236.051	115.75
236.285	117.75
236.519	108.75
236.753	105.75
236.987	125.75
237.221	138.75
237.455	165.75
237.689	139.75
237.922	116.75
238.156	110.75
238.39	117.75
238.624	107.75
238.858	106.75
239.091	110.75
239.325	111.75
239.559	120.75
239.793	100.75
240.027	119.75
240.26	134.75
240.494	136.75
240.728	136.75
240.961	133.75
241.195	124.75
241.429	140.75
241.662	118.75
241.896	116.75
242.13	112.75
242.363	114.75
242.597	117.75
242.83	117.75
243.064	123.75
243.298	137.75
243.531	125.75
243.765	127.75
243.998	125.75
244.232	149.75
244.465	137.75
244.699	127.75
244.932	123.75
245.166	143.75
245.399	134.75
245.633	126.75
245.866	132.75
246.099	130.75
246.333	129.75
246.566	123.75
246.8	132.75
247.033	135.75
247.266	126.75
247.5	139.75
247.733	140.75
247.966	135.75
248.2	155.75
248.433	141.75
248.666	137.75
248.899	143.75
249.133	167.75
249.366	183.75
249.599	170.75
249.832	157.75
250.066	158.75
250.299	155.75
250.532	152.75
250.765	182.75
250.998	172.75
251.231	173.75
251.465	174.75
251.698	157.75
251.931	168.75
252.164	181.75
252.397	157.75
252.63	160.75
252.863	158.75
253.096	184.75
253.329	193.75
253.562	185.75
253.795	170.75
254.028	170.75
254.261	198.75
254.494	185.75
254.727	208.75
254.96	221.75
255.193	213.75
255.426	199.75
255.659	199.75
255.892	200.75
256.124	188.75
256.357	195.75
256.59	177.75
256.823	183.75
257.056	193.75
257.289	186.75
257.521	182.75
257.754	179.75
257.987	182.75
258.22	189.75
258.452	167.75
258.685	172.75
258.918	172.75
259.151	167.75
259.383	181.75
259.616	183.75
259.849	187.75
260.081	213.75
260.314	208.75
260.547	221.75
260.779	189.75
261.012	199.75
261.244	195.75
261.477	188.75
261.71	183.75
261.942	203.75
262.175	199.75
262.407	194.75
262.64	185.75
262.872	177.75
263.105	182.75
263.337	183.75
263.57	197.75
263.802	196.75
264.035	187.75
264.267	184.75
264.499	173.75
264.732	185.75
264.964	173.75
265.197	173.75
265.429	185.75
265.661	185.75
265.894	176.75
266.126	176.75
266.358	197.75
266.591	192.75
266.823	197.75
267.055	204.75
267.287	197.75
267.52	194.75
267.752	209.75
267.984	211.75
268.216	201.75
268.448	196.75
268.681	203.75
268.913	216.75
269.145	223.75
269.377	224.75
269.609	216.75
269.841	217.75
270.073	229.75
270.306	239.75
270.538	261.75
270.77	239.75
271.002	240.75
271.234	242.75
271.466	230.75
271.698	252.75
271.93	243.75
272.162	260.75
272.394	248.75
272.626	243.75
272.858	233.75
273.09	223.75
273.322	215.75
273.553	222.75
273.785	234.75
274.017	225.75
274.249	226.75
274.481	228.75
274.713	237.75
274.945	220.75
275.176	228.75
275.408	233.75
275.64	227.75
275.872	212.75
276.104	211.75
276.335	222.75
276.567	221.75
276.799	236.75
277.031	257.75
277.262	257.75
277.494	252.75
277.726	245.75
277.957	242.75
278.189	238.75
278.421	232.75
278.652	216.75
278.884	243.75
279.115	233.75
279.347	243.75
279.579	216.75
279.81	233.75
280.042	216.75
280.273	224.75
280.505	232.75
280.736	235.75
280.968	209.75
281.199	254.75
281.431	237.75
281.662	229.75
281.894	254.75
282.125	245.75
282.356	258.75
282.588	246.75
282.819	230.75
283.051	232.75
283.282	221.75
283.513	230.75
283.745	239.75
283.976	248.75
284.207	250.75
284.439	270.75
284.67	238.75
284.901	248.75
285.132	235.75
285.364	237.75
285.595	247.75
285.826	231.75
286.057	255.75
286.288	232.75
286.52	259.75
286.751	231.75
286.982	248.75
287.213	270.75
287.444	266.75
287.675	258.75
287.906	267.75
288.138	261.75
288.369	262.75
288.6	272.75
288.831	245.75
289.062	265.75
289.293	270.75
289.524	253.75
289.755	246.75
289.986	263.75
290.217	251.75
290.448	260.75
290.679	235.75
290.91	259.75
291.141	263.75
291.371	280.75
291.602	257.75
291.833	251.75
292.064	254.75
292.295	256.75
292.526	279.75
292.757	254.75
292.987	267.75
293.218	257.75
293.449	270.75
293.68	262.75
293.91	266.75
294.141	259.75
294.372	238.75
294.603	259.75
294.833	257.75
295.064	266.75
295.295	268.75
295.525	253.75
295.756	248.75
295.987	273.75
296.217	260.75
296.448	291.75
296.679	260.75
296.909	263.75
297.14	281.75
297.37	263.75
297.601	272.75
297.831	279.75
298.062	292.75
298.292	262.75
298.523	271.75
298.753	268.75
298.984	301.75
299.214	276.75
299.445	275.75
299.675	265.75
299.905	269.75
300.136	301.75
300.366	282.75
300.597	256.75
300.827	293.75
301.057	271.75
301.288	289.75
301.518	288.75
301.748	292.75
301.979	288.75
302.209	292.75
302.439	297.75
302.669	284.75
302.9	294.75
303.13	283.75
303.36	274.75
303.59	281.75
303.82	290.75
304.051	300.75
304.281	293.75
304.511	293.75
304.741	283.75
304.971	278.75
305.201	291.75
305.431	280.75
305.661	291.75
305.891	273.75
306.121	287.75
306.352	301.75
306.582	277.75
306.812	285.75
307.042	285.75
307.272	284.75
307.502	289.75
307.731	288.75
307.961	299.75
308.191	287.75
308.421	312.75
308.651	280.75
308.881	299.75
309.111	279.75
309.341	311.75
309.571	285.75
309.8	309.75
310.03	307.75
310.26	312.75
310.49	321.75
310.72	316.75
310.949	326.75
311.179	320.75
311.409	299.75
311.639	319.75
311.868	333.75
312.098	321.75
312.328	319.75
312.557	330.75
312.787	339.75
313.017	331.75
313.246	318.75
313.476	304.75
313.706	324.75
313.935	313.75
314.165	329.75
314.394	345.75
314.624	341.75
314.853	336.75
315.083	326.75
315.312	328.75
315.542	330.75
315.771	322.75
316.001	326.75
316.23	321.75
316.46	317.75
316.689	327.75
316.919	339.75
317.148	332.75
317.377	327.75
317.607	320.75
317.836	323.75
318.065	321.75
318.295	310.75
318.524	301.75
318.753	323.75
318.983	310.75
319.212	320.75
319.441	313.75
319.67	344.75
319.9	325.75
320.129	312.75
320.358	315.75
320.587	326.75
320.816	333.75
321.046	355.75
321.275	364.75
321.504	330.75
321.733	327.75
321.962	320.75
322.191	343.75
322.42	337.75
322.649	334.75
322.878	353.75
323.108	363.75
323.337	368.75
323.566	389.75
323.795	377.75
324.024	417.75
324.253	476.75
324.482	653.75
324.71	903.75
324.939	1173.75
325.168	980.75
325.397	564.75
325.626	448.75
325.855	393.75
326.084	371.75
326.313	390.75
326.542	400.75
326.77	416.75
326.999	455.75
327.228	588.75
327.457	809.75
327.686	888.75
327.914	644.75
328.143	488.75
328.372	446.75
328.6	418.75
328.829	409.75
329.058	419.75
329.287	423.75
329.515	418.75
329.744	385.75
329.972	407.75
330.201	417.75
330.43	444.75
330.658	447.75
330.887	456.75
331.115	439.75
331.344	407.75
331.572	385.75
331.801	387.75
332.03	393.75
332.258	398.75
332.486	397.75
332.715	382.75
332.943	395.75
333.172	384.75
333.4	397.75
333.629	397.75
333.857	406.75
334.085	419.75
334.314	443.75
334.542	446.75
334.771	480.75
334.999	430.75
335.227	418.75
335.455	391.75
335.684	399.75
335.912	390.75
336.14	395.75
336.369	392.75
336.597	395.75
336.825	409.75
337.053	382.75
337.281	375.75
337.51	388.75
337.738	363.75
337.966	366.75
338.194	365.75
338.422	380.75
338.65	355.75
338.878	372.75
339.106	347.75
339.334	375.75
339.562	368.75
339.79	361.75
340.018	358.75
340.246	338.75
340.474	359.75
340.702	360.75
340.93	348.75
341.158	349.75
341.386	353.75
341.614	361.75
341.842	351.75
342.07	358.75
342.298	371.75
342.526	348.75
342.754	339.75
342.981	337.75
343.209	347.75
343.437	348.75
343.665	378.75
343.893	393.75
344.12	406.75
344.348	369.75
344.576	364.75
344.804	371.75
345.031	361.75
345.259	364.75
345.487	370.75
345.714	356.75
345.942	350.75
346.17	340.75
346.397	345.75
346.625	351.75
346.853	343.75
347.08	362.75
347.308	328.75
347.535	347.75
347.763	335.75
347.99	337.75
348.218	344.75
348.445	345.75
348.673	367.75
348.9	343.75
349.128	359.75
349.355	332.75
349.583	330.75
349.81	342.75
350.037	327.75
350.265	328.75
350.492	342.75
350.72	337.75
350.947	349.75
351.174	332.75
351.402	335.75
351.629	315.75
351.856	332.75
352.083	336.75
352.311	330.75
352.538	352.75
352.765	343.75
352.992	347.75
353.22	342.75
353.447	329.75
353.674	326.75
353.901	341.75
354.128	304.75
354.355	333.75
354.583	326.75
354.81	311.75
355.037	343.75
355.264	325.75
355.491	332.75
355.718	325.75
355.945	324.75
356.172	312.75
356.399	324.75
356.626	310.75
356.853	312.75
357.08	304.75
357.307	344.75
357.534	338.75
357.761	325.75
357.988	326.75
358.215	345.75
358.441	326.75
358.668	334.75
358.895	320.75
359.122	334.75
359.349	331.75
359.576	332.75
359.802	360.75
360.029	362.75
360.256	355.75
360.483	338.75
360.709	336.75
360.936	341.75
361.163	315.75
361.39	356.75
361.616	345.75
361.843	344.75
362.07	329.75
362.296	352.75
362.523	339.75
362.749	318.75
362.976	339.75
363.203	329.75
363.429	316.75
363.656	341.75
363.882	340.75
364.109	319.75
364.335	320.75
364.562	316.75
364.788	301.75
365.015	331.75
365.241	335.75
365.468	323.75
365.694	341.75
365.92	335.75
366.147	332.75
366.373	309.75
366.599	336.75
366.826	305.75
367.052	312.75
367.278	323.75
367.505	333.75
367.731	336.75
367.957	328.75
368.184	320.75
368.41	336.75
368.636	322.75
368.862	340.75
369.089	320.75
369.315	320.75
369.541	332.75
369.767	310.75
369.993	313.75
370.219	325.75
370.445	336.75
370.672	318.75
370.898	327.75
371.124	341.75
371.35	337.75
371.576	331.75
371.802	343.75
372.028	340.75
372.254	311.75
372.48	330.75
372.706	352.75
372.932	360.75
373.158	336.75
373.384	331.75
373.61	349.75
373.835	339.75
374.061	342.75
374.287	366.75
374.513	341.75
374.739	352.75
374.965	351.75
375.191	340.75
375.416	354.75
375.642	343.75
375.868	346.75
376.094	328.75
376.319	342.75
376.545	332.75
376.771	355.75
376.997	338.75
377.222	331.75
377.448	323.75
377.674	330.75
377.899	329.75
378.125	327.75
378.35	318.75
378.576	321.75
378.802	336.75
379.027	333.75
379.253	316.75
379.478	323.75
379.704	341.75
379.929	327.75
380.155	329.75
380.38	334.75
380.606	339.75
380.831	346.75
381.057	341.75
381.282	321.75
381.507	328.75
381.733	324.75
381.958	332.75
382.184	346.75
382.409	332.75
382.634	362.75
382.86	346.75
383.085	351.75
383.31	344.75
383.535	335.75
383.761	350.75
383.986	351.75
384.211	332.75
384.436	359.75
384.662	367.75
384.887	375.75
385.112	365.75
385.337	377.75
385.562	375.75
385.787	356.75
386.013	363.75
386.238	360.75
386.463	378.75
386.688	391.75
386.913	381.75
387.138	368.75
387.363	380.75
387.588	365.75
387.813	355.75
388.038	365.75
388.263	356.75
388.488	369.75
388.713	361.75
388.938	372.75
389.163	356.75
389.387	357.75
389.612	353.75
389.837	357.75
390.062	379.75
390.287	379.75
390.512	356.75
390.736	387.75
390.961	360.75
391.186	364.75
391.411	378.75
391.636	375.75
391.86	391.75
392.085	384.75
392.31	380.75
392.534	392.75
392.759	385.75
392.984	390.75
393.208	385.75
393.433	364.75
393.658	381.75
393.882	367.75
394.107	379.75
394.331	379.75
394.556	388.75
394.78	366.75
395.005	370.75
395.229	363.75
395.454	375.75
395.678	403.75
395.903	385.75
396.127	402.75
396.352	384.75
396.576	386.75
396.801	400.75
397.025	392.75
397.249	384.75
397.474	419.75
397.698	396.75
397.922	420.75
398.147	429.75
398.371	441.75
398.595	408.75
398.82	415.75
399.044	436.75
399.268	478.75
399.492	525.75
399.717	558.75
399.941	558.75
400.165	543.75
400.389	511.75
400.613	491.75
400.837	470.75
401.062	440.75
401.286	416.75
401.51	439.75
401.734	438.75
401.958	453.75
402.182	451.75
402.406	444.75
402.63	465.75
402.854	451.75
403.078	444.75
403.302	464.75
403.526	476.75
403.75	441.75
403.974	469.75
404.198	448.75
404.422	483.75
404.645	468.75
404.869	480.75
405.093	476.75
405.317	510.75
405.541	511.75
405.765	470.75
405.988	462.75
406.212	464.75
406.436	465.75
406.66	497.75
406.883	502.75
407.107	487.75
407.331	534.75
407.555	579.75
407.778	556.75
408.002	528.75
408.226	499.75
408.449	480.75
408.673	487.75
408.896	517.75
409.12	513.75
409.344	496.75
409.567	459.75
409.791	476.75
410.014	450.75
410.238	413.75
410.461	444.75
410.685	439.75
410.908	455.75
411.132	485.75
411.355	486.75
411.578	481.75
411.802	445.75
412.025	433.75
412.249	443.75
412.472	460.75
412.695	497.75
412.919	469.75
413.142	453.75
413.365	444.75
413.589	425.75
413.812	427.75
414.035	419.75
414.258	432.75
414.482	447.75
414.705	423.75
414.928	443.75
415.151	433.75
415.374	421.75
415.597	427.75
415.821	444.75
416.044	411.75
416.267	417.75
416.49	416.75
416.713	390.75
416.936	429.75
417.159	417.75
417.382	446.75
417.605	443.75
417.828	432.75
418.051	441.75
418.274	433.75
418.497	433.75
418.72	423.75
418.943	439.75
419.166	430.75
419.389	467.75
419.611	458.75
419.834	446.75
420.057	441.75
420.28	457.75
420.503	436.75
420.726	435.75
420.948	446.75
421.171	476.75
421.394	477.75
421.617	454.75
421.839	446.75
422.062	425.75
422.285	459.75
422.507	479.75
422.73	515.75
422.953	509.75
423.175	451.75
423.398	443.75
423.621	459.75
423.843	465.75
424.066	464.75
424.288	454.75
424.511	488.75
424.733	496.75
424.956	536.75
425.178	515.75
425.401	524.75
425.623	509.75
425.846	470.75
426.068	453.75
426.291	439.75
426.513	456.75
426.735	455.75
426.958	439.75
427.18	492.75
427.402	586.75
427.625	634.75
427.847	540.75
428.069	487.75
428.292	437.75
428.514	431.75
428.736	417.75
428.958	436.75
429.181	403.75
429.403	398.75
429.625	415.75
429.847	437.75
430.069	469.75
430.292	447.75
430.514	428.75
430.736	424.75
430.958	424.75
431.18	413.75
431.402	413.75
431.624	410.75
431.846	392.75
432.068	395.75
432.29	377.75
432.512	400.75
432.734	399.75
432.956	392.75
433.178	407.75
433.4	415.75
433.622	393.75
433.844	417.75
434.066	386.75
434.287	397.75
434.509	417.75
434.731	425.75
434.953	445.75
435.175	453.75
435.397	468.75
435.618	447.75
435.84	455.75
436.062	538.75
436.284	527.75
436.505	452.75
436.727	426.75
436.949	441.75
437.17	419.75
437.392	397.75
437.614	433.75
437.835	431.75
438.057	474.75
438.278	523.75
438.5	515.75
438.721	569.75
438.943	552.75
439.165	481.75
439.386	437.75
439.608	425.75
439.829	447.75
440.05	446.75
440.272	453.75
440.493	450.75
440.715	430.75
440.936	433.75
441.158	420.75
441.379	429.75
441.6	441.75
441.822	479.75
442.043	479.75
442.264	521.75
442.486	539.75
442.707	486.75
442.928	462.75
443.149	451.75
443.371	480.75
443.592	505.75
443.813	543.75
444.034	580.75
444.255	503.75
444.476	496.75
444.698	489.75
444.919	472.75
445.14	600.75
445.361	537.75
445.582	478.75
445.803	498.75
446.024	544.75
446.245	567.75
446.466	523.75
446.687	458.75
446.908	439.75
447.129	424.75
447.35	404.75
447.571	399.75
447.792	398.75
448.013	390.75
448.234	407.75
448.455	441.75
448.675	511.75
448.896	550.75
449.117	475.75
449.338	461.75
449.559	548.75
449.779	591.75
450	495.75
450.221	426.75
450.442	406.75
450.662	399.75
450.883	386.75
451.104	392.75
451.324	401.75
451.545	359.75
451.766	371.75
451.986	366.75
452.207	363.75
452.428	369.75
452.648	366.75
452.869	368.75
453.089	377.75
453.31	379.75
453.53	366.75
453.751	371.75
453.971	361.75
454.192	369.75
454.412	374.75
454.633	371.75
454.853	377.75
455.073	352.75
455.294	383.75
455.514	414.75
455.734	387.75
455.955	357.75
456.175	340.75
456.395	355.75
456.616	353.75
456.836	365.75
457.056	344.75
457.276	337.75
457.497	346.75
457.717	349.75
457.937	350.75
458.157	371.75
458.377	375.75
458.598	365.75
458.818	400.75
459.038	463.75
459.258	471.75
459.478	418.75
459.698	405.75
459.918	412.75
460.138	406.75
460.358	420.75
460.578	431.75
460.798	444.75
461.018	425.75
461.238	437.75
461.458	425.75
461.678	417.75
461.898	436.75
462.118	453.75
462.338	442.75
462.558	464.75
462.777	465.75
462.997	473.75
463.217	505.75
463.437	507.75
463.657	475.75
463.876	487.75
464.096	464.75
464.316	488.75
464.536	472.75
464.755	470.75
464.975	459.75
465.195	472.75
465.414	507.75
465.634	438.75
465.854	423.75
466.073	418.75
466.293	406.75
466.512	400.75
466.732	375.75
466.951	383.75
467.171	380.75
467.391	393.75
467.61	391.75
467.829	379.75
468.049	409.75
468.268	391.75
468.488	380.75
468.707	373.75
468.927	376.75
469.146	381.75
469.365	388.75
469.585	395.75
469.804	392.75
470.023	403.75
470.243	396.75
470.462	403.75
470.681	399.75
470.901	414.75
471.12	397.75
471.339	401.75
471.558	393.75
471.777	384.75
471.997	371.75
472.216	398.75
472.435	407.75
472.654	406.75
472.873	381.75
473.092	393.75
473.311	367.75
473.53	378.75
473.749	395.75
473.968	407.75
474.187	467.75
474.406	446.75
474.625	400.75
474.844	373.75
475.063	389.75
475.282	401.75
475.501	391.75
475.72	410.75
475.939	395.75
476.158	368.75
476.377	399.75
476.596	395.75
476.814	406.75
477.033	399.75
477.252	409.75
477.471	423.75
477.69	428.75
477.908	451.75
478.127	423.75
478.346	437.75
478.564	455.75
478.783	430.75
479.002	439.75
479.22	428.75
479.439	458.75
479.658	469.75
479.876	470.75
480.095	482.75
480.313	496.75
480.532	461.75
480.751	474.75
480.969	499.75
481.188	530.75
481.406	531.75
481.624	476.75
481.843	451.75
482.061	459.75
482.28	433.75
482.498	406.75
482.717	430.75
482.935	433.75
483.153	434.75
483.372	419.75
483.59	429.75
483.808	437.75
484.027	466.75
484.245	445.75
484.463	449.75
484.681	457.75
484.9	447.75
485.118	444.75
485.336	433.75
485.554	451.75
485.772	462.75
485.99	475.75
486.209	452.75
486.427	449.75
486.645	449.75
486.863	464.75
487.081	487.75
487.299	465.75
487.517	470.75
487.735	477.75
487.953	479.75
488.171	472.75
488.389	472.75
488.607	487.75
488.825	465.75
489.043	493.75
489.261	469.75
489.479	467.75
489.696	482.75
489.914	484.75
490.132	500.75
490.35	493.75
490.568	507.75
490.786	507.75
491.003	505.75
491.221	507.75
491.439	540.75
491.657	530.75
491.874	533.75
492.092	559.75
492.31	537.75
492.527	563.75
492.745	568.75
492.963	569.75
493.18	548.75
493.398	542.75
493.615	561.75
493.833	553.75
494.05	555.75
494.268	548.75
494.485	558.75
494.703	561.75
494.92	580.75
495.138	571.75
495.355	566.75
495.573	556.75
495.79	561.75
496.008	557.75
496.225	559.75
496.442	556.75
496.66	566.75
496.877	574.75
497.094	585.75
497.312	583.75
497.529	575.75
497.746	574.75
497.963	588.75
498.181	623.75
498.398	612.75
498.615	648.75
498.832	676.75
499.049	700.75
499.267	725.75
499.484	763.75
499.701	807.75
499.918	847.75
500.135	880.75
500.352	952.75
500.569	992.75
500.786	968.75
501.003	965.75
501.22	870.75
501.437	836.75
501.654	818.75
501.871	779.75
502.088	720.75
