Data from 1969.PennyLincolnUp.Lamp.En5.5.200Scan.071719.P1._HRD10591_14-55-55-972.txt Node
Date: Thu Jul 18 14:55:55 EDT 2019
User: cochatt
Spectrometer: HR+D1059
Trigger mode: 1
Integration Time (sec): 1.000000E-1
Scans to average: 1
Electric dark correction enabled: true
Nonlinearity correction enabled: false
Boxcar width: 0
XAxis mode: Wavelengths
Number of Pixels in Spectrum: 2048
>>>>>Begin Spectral Data<<<<<
223.165	-1.5
223.4	-1.5
223.635	-1.5
223.869	-4.5
224.104	-17.5
224.338	-14.5
224.573	-23.5
224.808	-19.5
225.042	-6.5
225.277	-0.5
225.511	-3.5
225.746	18.5
225.98	-0.5
226.215	8.5
226.449	7.5
226.683	3.5
226.918	23.5
227.152	30.5
227.387	16.5
227.621	26.5
227.856	49.5
228.09	34.5
228.324	38.5
228.559	64.5
228.793	48.5
229.027	75.5
229.262	92.5
229.496	96.5
229.73	107.5
229.964	121.5
230.199	105.5
230.433	98.5
230.667	89.5
230.901	91.5
231.136	100.5
231.37	96.5
231.604	101.5
231.838	106.5
232.072	96.5
232.306	96.5
232.541	98.5
232.775	104.5
233.009	94.5
233.243	107.5
233.477	100.5
233.711	111.5
233.945	110.5
234.179	102.5
234.413	108.5
234.647	92.5
234.881	103.5
235.115	112.5
235.349	110.5
235.583	110.5
235.817	111.5
236.051	109.5
236.285	107.5
236.519	115.5
236.753	94.5
236.987	121.5
237.221	136.5
237.455	158.5
237.689	154.5
237.922	117.5
238.156	118.5
238.39	112.5
238.624	122.5
238.858	116.5
239.091	110.5
239.325	109.5
239.559	107.5
239.793	108.5
240.027	123.5
240.26	117.5
240.494	133.5
240.728	149.5
240.961	133.5
241.195	138.5
241.429	122.5
241.662	113.5
241.896	129.5
242.13	116.5
242.363	115.5
242.597	124.5
242.83	131.5
243.064	121.5
243.298	129.5
243.531	123.5
243.765	120.5
243.998	130.5
244.232	120.5
244.465	118.5
244.699	125.5
244.932	136.5
245.166	122.5
245.399	136.5
245.633	128.5
245.866	127.5
246.099	121.5
246.333	128.5
246.566	137.5
246.8	122.5
247.033	123.5
247.266	133.5
247.5	140.5
247.733	154.5
247.966	139.5
248.2	146.5
248.433	155.5
248.666	148.5
248.899	163.5
249.133	168.5
249.366	172.5
249.599	174.5
249.832	161.5
250.066	146.5
250.299	146.5
250.532	155.5
250.765	167.5
250.998	174.5
251.231	185.5
251.465	165.5
251.698	165.5
251.931	168.5
252.164	180.5
252.397	169.5
252.63	178.5
252.863	151.5
253.096	171.5
253.329	180.5
253.562	174.5
253.795	164.5
254.028	184.5
254.261	170.5
254.494	182.5
254.727	218.5
254.96	213.5
255.193	201.5
255.426	208.5
255.659	182.5
255.892	182.5
256.124	186.5
256.357	207.5
256.59	191.5
256.823	188.5
257.056	180.5
257.289	171.5
257.521	168.5
257.754	176.5
257.987	168.5
258.22	176.5
258.452	168.5
258.685	178.5
258.918	176.5
259.151	158.5
259.383	186.5
259.616	184.5
259.849	194.5
260.081	195.5
260.314	205.5
260.547	201.5
260.779	202.5
261.012	197.5
261.244	203.5
261.477	186.5
261.71	176.5
261.942	206.5
262.175	188.5
262.407	190.5
262.64	187.5
262.872	185.5
263.105	187.5
263.337	189.5
263.57	185.5
263.802	171.5
264.035	171.5
264.267	190.5
264.499	197.5
264.732	191.5
264.964	183.5
265.197	184.5
265.429	194.5
265.661	192.5
265.894	195.5
266.126	198.5
266.358	194.5
266.591	192.5
266.823	201.5
267.055	186.5
267.287	184.5
267.52	178.5
267.752	190.5
267.984	201.5
268.216	195.5
268.448	196.5
268.681	202.5
268.913	198.5
269.145	232.5
269.377	228.5
269.609	223.5
269.841	229.5
270.073	220.5
270.306	235.5
270.538	244.5
270.77	259.5
271.002	265.5
271.234	235.5
271.466	230.5
271.698	268.5
271.93	250.5
272.162	258.5
272.394	271.5
272.626	249.5
272.858	222.5
273.09	227.5
273.322	231.5
273.553	208.5
273.785	208.5
274.017	215.5
274.249	218.5
274.481	228.5
274.713	208.5
274.945	211.5
275.176	219.5
275.408	234.5
275.64	225.5
275.872	219.5
276.104	234.5
276.335	243.5
276.567	224.5
276.799	243.5
277.031	245.5
277.262	262.5
277.494	256.5
277.726	255.5
277.957	240.5
278.189	220.5
278.421	243.5
278.652	217.5
278.884	235.5
279.115	250.5
279.347	224.5
279.579	222.5
279.81	239.5
280.042	252.5
280.273	225.5
280.505	258.5
280.736	248.5
280.968	242.5
281.199	225.5
281.431	229.5
281.662	229.5
281.894	235.5
282.125	244.5
282.356	255.5
282.588	271.5
282.819	263.5
283.051	240.5
283.282	229.5
283.513	239.5
283.745	231.5
283.976	229.5
284.207	261.5
284.439	271.5
284.67	246.5
284.901	240.5
285.132	239.5
285.364	244.5
285.595	234.5
285.826	256.5
286.057	234.5
286.288	240.5
286.52	244.5
286.751	265.5
286.982	249.5
287.213	255.5
287.444	247.5
287.675	252.5
287.906	255.5
288.138	268.5
288.369	256.5
288.6	265.5
288.831	261.5
289.062	261.5
289.293	257.5
289.524	246.5
289.755	268.5
289.986	243.5
290.217	249.5
290.448	245.5
290.679	258.5
290.91	264.5
291.141	261.5
291.371	239.5
291.602	260.5
291.833	263.5
292.064	259.5
292.295	245.5
292.526	258.5
292.757	265.5
292.987	249.5
293.218	248.5
293.449	259.5
293.68	258.5
293.91	268.5
294.141	259.5
294.372	234.5
294.603	274.5
294.833	256.5
295.064	263.5
295.295	266.5
295.525	254.5
295.756	248.5
295.987	270.5
296.217	293.5
296.448	285.5
296.679	274.5
296.909	274.5
297.14	273.5
297.37	296.5
297.601	274.5
297.831	281.5
298.062	267.5
298.292	255.5
298.523	270.5
298.753	279.5
298.984	275.5
299.214	292.5
299.445	270.5
299.675	288.5
299.905	280.5
300.136	294.5
300.366	278.5
300.597	276.5
300.827	282.5
301.057	273.5
301.288	287.5
301.518	287.5
301.748	296.5
301.979	288.5
302.209	278.5
302.439	303.5
302.669	305.5
302.9	304.5
303.13	310.5
303.36	291.5
303.59	304.5
303.82	281.5
304.051	290.5
304.281	305.5
304.511	304.5
304.741	285.5
304.971	286.5
305.201	295.5
305.431	291.5
305.661	296.5
305.891	300.5
306.121	268.5
306.352	301.5
306.582	299.5
306.812	278.5
307.042	311.5
307.272	296.5
307.502	279.5
307.731	302.5
307.961	278.5
308.191	298.5
308.421	290.5
308.651	284.5
308.881	274.5
309.111	295.5
309.341	293.5
309.571	307.5
309.8	299.5
310.03	304.5
310.26	310.5
310.49	319.5
310.72	311.5
310.949	330.5
311.179	332.5
311.409	321.5
311.639	340.5
311.868	309.5
312.098	322.5
312.328	336.5
312.557	347.5
312.787	329.5
313.017	328.5
313.246	332.5
313.476	312.5
313.706	326.5
313.935	338.5
314.165	356.5
314.394	324.5
314.624	328.5
314.853	322.5
315.083	331.5
315.312	332.5
315.542	321.5
315.771	320.5
316.001	311.5
316.23	310.5
316.46	346.5
316.689	330.5
316.919	317.5
317.148	326.5
317.377	321.5
317.607	306.5
317.836	307.5
318.065	323.5
318.295	308.5
318.524	321.5
318.753	325.5
318.983	316.5
319.212	303.5
319.441	315.5
319.67	325.5
319.9	311.5
320.129	329.5
320.358	314.5
320.587	311.5
320.816	315.5
321.046	333.5
321.275	324.5
321.504	314.5
321.733	331.5
321.962	339.5
322.191	327.5
322.42	331.5
322.649	352.5
322.878	358.5
323.108	346.5
323.337	351.5
323.566	392.5
323.795	408.5
324.024	418.5
324.253	484.5
324.482	650.5
324.71	919.5
324.939	1186.5
325.168	1013.5
325.397	572.5
325.626	416.5
325.855	394.5
326.084	393.5
326.313	374.5
326.542	386.5
326.77	418.5
326.999	451.5
327.228	606.5
327.457	838.5
327.686	934.5
327.914	660.5
328.143	481.5
328.372	423.5
328.6	424.5
328.829	427.5
329.058	418.5
329.287	419.5
329.515	410.5
329.744	384.5
329.972	386.5
330.201	396.5
330.43	430.5
330.658	452.5
330.887	450.5
331.115	455.5
331.344	419.5
331.572	378.5
331.801	394.5
332.03	400.5
332.258	397.5
332.486	389.5
332.715	397.5
332.943	404.5
333.172	402.5
333.4	401.5
333.629	433.5
333.857	435.5
334.085	435.5
334.314	438.5
334.542	458.5
334.771	450.5
334.999	422.5
335.227	383.5
335.455	387.5
335.684	391.5
335.912	394.5
336.14	404.5
336.369	377.5
336.597	382.5
336.825	402.5
337.053	384.5
337.281	370.5
337.51	367.5
337.738	378.5
337.966	378.5
338.194	367.5
338.422	371.5
338.65	376.5
338.878	367.5
339.106	367.5
339.334	361.5
339.562	351.5
339.79	368.5
340.018	382.5
340.246	380.5
340.474	364.5
340.702	398.5
340.93	344.5
341.158	372.5
341.386	350.5
341.614	345.5
341.842	375.5
342.07	362.5
342.298	366.5
342.526	345.5
342.754	342.5
342.981	356.5
343.209	352.5
343.437	361.5
343.665	374.5
343.893	376.5
344.12	371.5
344.348	405.5
344.576	367.5
344.804	363.5
345.031	370.5
345.259	356.5
345.487	357.5
345.714	354.5
345.942	359.5
346.17	353.5
346.397	334.5
346.625	351.5
346.853	342.5
347.08	347.5
347.308	345.5
347.535	339.5
347.763	350.5
347.99	366.5
348.218	342.5
348.445	363.5
348.673	349.5
348.9	348.5
349.128	336.5
349.355	346.5
349.583	338.5
349.81	335.5
350.037	334.5
350.265	345.5
350.492	337.5
350.72	330.5
350.947	330.5
351.174	346.5
351.402	347.5
351.629	339.5
351.856	325.5
352.083	359.5
352.311	345.5
352.538	362.5
352.765	355.5
352.992	353.5
353.22	331.5
353.447	331.5
353.674	333.5
353.901	325.5
354.128	323.5
354.355	311.5
354.583	326.5
354.81	342.5
355.037	338.5
355.264	327.5
355.491	325.5
355.718	325.5
355.945	327.5
356.172	330.5
356.399	319.5
356.626	335.5
356.853	322.5
357.08	320.5
357.307	322.5
357.534	322.5
357.761	328.5
357.988	322.5
358.215	320.5
358.441	323.5
358.668	335.5
358.895	344.5
359.122	345.5
359.349	336.5
359.576	336.5
359.802	357.5
360.029	359.5
360.256	375.5
360.483	357.5
360.709	347.5
360.936	345.5
361.163	340.5
361.39	332.5
361.616	329.5
361.843	339.5
362.07	337.5
362.296	335.5
362.523	314.5
362.749	351.5
362.976	332.5
363.203	352.5
363.429	323.5
363.656	330.5
363.882	326.5
364.109	336.5
364.335	327.5
364.562	328.5
364.788	325.5
365.015	327.5
365.241	331.5
365.468	353.5
365.694	346.5
365.92	315.5
366.147	313.5
366.373	343.5
366.599	322.5
366.826	318.5
367.052	326.5
367.278	329.5
367.505	310.5
367.731	329.5
367.957	338.5
368.184	328.5
368.41	358.5
368.636	334.5
368.862	344.5
369.089	333.5
369.315	322.5
369.541	328.5
369.767	328.5
369.993	339.5
370.219	326.5
370.445	320.5
370.672	332.5
370.898	306.5
371.124	330.5
371.35	330.5
371.576	334.5
371.802	349.5
372.028	352.5
372.254	321.5
372.48	348.5
372.706	354.5
372.932	358.5
373.158	334.5
373.384	331.5
373.61	341.5
373.835	324.5
374.061	325.5
374.287	348.5
374.513	346.5
374.739	336.5
374.965	362.5
375.191	358.5
375.416	347.5
375.642	348.5
375.868	339.5
376.094	323.5
376.319	323.5
376.545	343.5
376.771	326.5
376.997	333.5
377.222	335.5
377.448	338.5
377.674	326.5
377.899	326.5
378.125	329.5
378.35	334.5
378.576	340.5
378.802	338.5
379.027	327.5
379.253	346.5
379.478	332.5
379.704	322.5
379.929	316.5
380.155	340.5
380.38	339.5
380.606	331.5
380.831	340.5
381.057	337.5
381.282	344.5
381.507	321.5
381.733	346.5
381.958	333.5
382.184	343.5
382.409	329.5
382.634	335.5
382.86	339.5
383.085	328.5
383.31	358.5
383.535	345.5
383.761	342.5
383.986	349.5
384.211	363.5
384.436	368.5
384.662	368.5
384.887	371.5
385.112	375.5
385.337	361.5
385.562	348.5
385.787	390.5
386.013	390.5
386.238	380.5
386.463	375.5
386.688	379.5
386.913	388.5
387.138	370.5
387.363	355.5
387.588	378.5
387.813	372.5
388.038	370.5
388.263	369.5
388.488	373.5
388.713	382.5
388.938	364.5
389.163	382.5
389.387	384.5
389.612	377.5
389.837	362.5
390.062	387.5
390.287	373.5
390.512	374.5
390.736	373.5
390.961	375.5
391.186	371.5
391.411	392.5
391.636	385.5
391.86	365.5
392.085	407.5
392.31	396.5
392.534	391.5
392.759	379.5
392.984	399.5
393.208	375.5
393.433	375.5
393.658	348.5
393.882	365.5
394.107	378.5
394.331	384.5
394.556	376.5
394.78	388.5
395.005	388.5
395.229	387.5
395.454	384.5
395.678	395.5
395.903	380.5
396.127	419.5
396.352	432.5
396.576	400.5
396.801	386.5
397.025	401.5
397.249	407.5
397.474	410.5
397.698	410.5
397.922	415.5
398.147	409.5
398.371	402.5
398.595	409.5
398.82	412.5
399.044	450.5
399.268	463.5
399.492	516.5
399.717	541.5
399.941	567.5
400.165	559.5
400.389	519.5
400.613	492.5
400.837	451.5
401.062	445.5
401.286	430.5
401.51	435.5
401.734	434.5
401.958	412.5
402.182	432.5
402.406	455.5
402.63	474.5
402.854	457.5
403.078	451.5
403.302	475.5
403.526	483.5
403.75	457.5
403.974	478.5
404.198	472.5
404.422	475.5
404.645	461.5
404.869	442.5
405.093	497.5
405.317	500.5
405.541	537.5
405.765	508.5
405.988	476.5
406.212	463.5
406.436	486.5
406.66	498.5
406.883	483.5
407.107	530.5
407.331	535.5
407.555	586.5
407.778	560.5
408.002	558.5
408.226	508.5
408.449	488.5
408.673	481.5
408.896	498.5
409.12	517.5
409.344	510.5
409.567	479.5
409.791	445.5
410.014	462.5
410.238	464.5
410.461	449.5
410.685	446.5
410.908	481.5
411.132	474.5
411.355	476.5
411.578	483.5
411.802	467.5
412.025	449.5
412.249	469.5
412.472	460.5
412.695	492.5
412.919	465.5
413.142	454.5
413.365	440.5
413.589	439.5
413.812	435.5
414.035	427.5
414.258	433.5
414.482	420.5
414.705	427.5
414.928	440.5
415.151	428.5
415.374	418.5
415.597	426.5
415.821	422.5
416.044	424.5
416.267	442.5
416.49	433.5
416.713	418.5
416.936	415.5
417.159	412.5
417.382	438.5
417.605	434.5
417.828	440.5
418.051	451.5
418.274	432.5
418.497	446.5
418.72	435.5
418.943	435.5
419.166	450.5
419.389	478.5
419.611	471.5
419.834	460.5
420.057	456.5
420.28	424.5
420.503	435.5
420.726	448.5
420.948	454.5
421.171	462.5
421.394	460.5
421.617	457.5
421.839	442.5
422.062	441.5
422.285	447.5
422.507	487.5
422.73	507.5
422.953	484.5
423.175	469.5
423.398	446.5
423.621	482.5
423.843	491.5
424.066	480.5
424.288	466.5
424.511	482.5
424.733	499.5
424.956	548.5
425.178	542.5
425.401	521.5
425.623	530.5
425.846	472.5
426.068	452.5
426.291	463.5
426.513	451.5
426.735	443.5
426.958	466.5
427.18	545.5
427.402	595.5
427.625	632.5
427.847	562.5
428.069	513.5
428.292	468.5
428.514	439.5
428.736	416.5
428.958	406.5
429.181	407.5
429.403	420.5
429.625	396.5
429.847	424.5
430.069	463.5
430.292	463.5
430.514	423.5
430.736	422.5
430.958	408.5
431.18	407.5
431.402	404.5
431.624	403.5
431.846	391.5
432.068	406.5
432.29	404.5
432.512	392.5
432.734	404.5
432.956	414.5
433.178	409.5
433.4	385.5
433.622	408.5
433.844	416.5
434.066	408.5
434.287	407.5
434.509	427.5
434.731	432.5
434.953	441.5
435.175	442.5
435.397	464.5
435.618	455.5
435.84	474.5
436.062	524.5
436.284	569.5
436.505	490.5
436.727	435.5
436.949	419.5
437.17	419.5
437.392	407.5
437.614	387.5
437.835	417.5
438.057	476.5
438.278	523.5
438.5	556.5
438.721	576.5
438.943	540.5
439.165	490.5
439.386	434.5
439.608	453.5
439.829	439.5
440.05	436.5
440.272	459.5
440.493	434.5
440.715	434.5
440.936	413.5
441.158	429.5
441.379	423.5
441.6	460.5
441.822	468.5
442.043	488.5
442.264	540.5
442.486	529.5
442.707	502.5
442.928	466.5
443.149	478.5
443.371	469.5
443.592	531.5
443.813	588.5
444.034	628.5
444.255	523.5
444.476	460.5
444.698	500.5
444.919	498.5
445.14	588.5
445.361	528.5
445.582	484.5
445.803	521.5
446.024	574.5
446.245	553.5
446.466	534.5
446.687	465.5
446.908	444.5
447.129	441.5
447.35	406.5
447.571	392.5
447.792	390.5
448.013	418.5
448.234	438.5
448.455	455.5
448.675	513.5
448.896	587.5
449.117	485.5
449.338	472.5
449.559	560.5
449.779	596.5
450	505.5
450.221	443.5
450.442	395.5
450.662	419.5
450.883	414.5
451.104	411.5
451.324	406.5
451.545	400.5
451.766	378.5
451.986	378.5
452.207	369.5
452.428	368.5
452.648	362.5
452.869	378.5
453.089	377.5
453.31	381.5
453.53	377.5
453.751	360.5
453.971	380.5
454.192	365.5
454.412	392.5
454.633	366.5
454.853	390.5
455.073	382.5
455.294	381.5
455.514	445.5
455.734	409.5
455.955	370.5
456.175	376.5
456.395	348.5
456.616	345.5
456.836	343.5
457.056	360.5
457.276	352.5
457.497	344.5
457.717	363.5
457.937	363.5
458.157	372.5
458.377	375.5
458.598	374.5
458.818	424.5
459.038	469.5
459.258	457.5
459.478	420.5
459.698	422.5
459.918	406.5
460.138	418.5
460.358	431.5
460.578	436.5
460.798	432.5
461.018	427.5
461.238	420.5
461.458	427.5
461.678	426.5
461.898	445.5
462.118	444.5
462.338	449.5
462.558	455.5
462.777	476.5
462.997	502.5
463.217	506.5
463.437	513.5
463.657	483.5
463.876	452.5
464.096	483.5
464.316	467.5
464.536	476.5
464.755	460.5
464.975	472.5
465.195	475.5
465.414	491.5
465.634	453.5
465.854	430.5
466.073	423.5
466.293	414.5
466.512	391.5
466.732	397.5
466.951	400.5
467.171	388.5
467.391	402.5
467.61	413.5
467.829	402.5
468.049	414.5
468.268	392.5
468.488	374.5
468.707	361.5
468.927	400.5
469.146	356.5
469.365	380.5
469.585	391.5
469.804	400.5
470.023	404.5
470.243	389.5
470.462	406.5
470.681	414.5
470.901	417.5
471.12	403.5
471.339	392.5
471.558	413.5
471.777	394.5
471.997	385.5
472.216	370.5
472.435	414.5
472.654	409.5
472.873	372.5
473.092	390.5
473.311	386.5
473.53	389.5
473.749	396.5
473.968	422.5
474.187	458.5
474.406	479.5
474.625	410.5
474.844	379.5
475.063	414.5
475.282	372.5
475.501	407.5
475.72	382.5
475.939	398.5
476.158	371.5
476.377	387.5
476.596	395.5
476.814	415.5
477.033	406.5
477.252	420.5
477.471	410.5
477.69	402.5
477.908	431.5
478.127	420.5
478.346	433.5
478.564	445.5
478.783	442.5
479.002	446.5
479.22	484.5
479.439	476.5
479.658	471.5
479.876	457.5
480.095	483.5
480.313	494.5
480.532	508.5
480.751	474.5
480.969	489.5
481.188	542.5
481.406	541.5
481.624	486.5
481.843	452.5
482.061	449.5
482.28	450.5
482.498	448.5
482.717	432.5
482.935	437.5
483.153	450.5
483.372	448.5
483.59	448.5
483.808	436.5
484.027	449.5
484.245	441.5
484.463	449.5
484.681	476.5
484.9	459.5
485.118	471.5
485.336	463.5
485.554	443.5
485.772	456.5
485.99	458.5
486.209	474.5
486.427	460.5
486.645	468.5
486.863	476.5
487.081	463.5
487.299	462.5
487.517	465.5
487.735	464.5
487.953	496.5
488.171	486.5
488.389	487.5
488.607	475.5
488.825	463.5
489.043	457.5
489.261	466.5
489.479	488.5
489.696	484.5
489.914	478.5
490.132	502.5
490.35	499.5
490.568	501.5
490.786	486.5
491.003	514.5
491.221	523.5
491.439	545.5
491.657	553.5
491.874	551.5
492.092	534.5
492.31	546.5
492.527	583.5
492.745	555.5
492.963	557.5
493.18	554.5
493.398	566.5
493.615	563.5
493.833	532.5
494.05	547.5
494.268	575.5
494.485	546.5
494.703	571.5
494.92	560.5
495.138	560.5
495.355	556.5
495.573	572.5
495.79	579.5
496.008	548.5
496.225	563.5
496.442	567.5
496.66	563.5
496.877	553.5
497.094	588.5
497.312	564.5
497.529	603.5
497.746	614.5
497.963	603.5
498.181	628.5
498.398	632.5
498.615	643.5
498.832	645.5
499.049	705.5
499.267	718.5
499.484	772.5
499.701	787.5
499.918	860.5
500.135	901.5
500.352	988.5
500.569	979.5
500.786	997.5
501.003	965.5
501.22	901.5
501.437	843.5
501.654	810.5
501.871	794.5
502.088	720.5
502.305	690.5
502.522	658.5
502.739	673.5
502.956	633.5
503.172	613.5
503.389	620.5
503.606	602.5
503.823	586.5
504.04	598.5
504.256	578.5
504.473	585.5
504.69	565.5
504.907	582.5
505.123	566.5
505.34	528.5
505.557	530.5
505.773	525.5
505.99	554.5
506.207	538.5
506.423	523.5
506.64	519.5
506.856	521.5
507.073	511.5
507.289	491.5
507.506	514.5
507.722	511.5
507.939	514.5
508.155	482.5
508.372	504.5
508.588	471.5
508.805	478.5
509.021	472.5
509.238	472.5
509.454	513.5
509.67	494.5
509.887	468.5
510.103	481.5
510.319	484.5
510.536	519.5
510.752	805.5
510.968	648.5
511.184	485.5
511.401	456.5
511.617	466.5
511.833	464.5
512.049	467.5
512.265	453.5
512.481	488.5
512.698	459.5
512.914	460.5
513.13	464.5
513.346	451.5
513.562	443.5
513.778	468.5
513.994	451.5
514.21	467.5
514.426	456.5
514.642	502.5
514.858	501.5
515.074	521.5
515.29	600.5
515.506	862.5
515.721	719.5
515.937	545.5
516.153	523.5
516.369	482.5
516.585	507.5
516.801	473.5
517.016	516.5
517.232	513.5
517.448	502.5
517.664	547.5
517.879	525.5
518.095	542.5
518.311	507.5
518.527	495.5
518.742	501.5
518.958	492.5
519.173	512.5
519.389	478.5
519.605	488.5
519.82	477.5
520.036	466.5
520.251	477.5
