Data from 1969.PennyLincolnUp.Lamp.En5.5.200Scan.071719.P1._HRD10591_14-57-00-972.txt Node
Date: Thu Jul 18 14:57:00 EDT 2019
User: cochatt
Spectrometer: HR+D1059
Trigger mode: 1
Integration Time (sec): 1.000000E-1
Scans to average: 1
Electric dark correction enabled: true
Nonlinearity correction enabled: false
Boxcar width: 0
XAxis mode: Wavelengths
Number of Pixels in Spectrum: 2048
>>>>>Begin Spectral Data<<<<<
223.165	-14.62
223.4	-14.62
223.635	-14.62
223.869	-21.62
224.104	-25.62
224.338	-12.62
224.573	-21.62
224.808	-18.62
225.042	-12.62
225.277	-3.62
225.511	3.38
225.746	14.38
225.98	19.38
226.215	10.38
226.449	9.38
226.683	10.38
226.918	24.38
227.152	39.38
227.387	37.38
227.621	35.38
227.856	45.38
228.09	55.38
228.324	46.38
228.559	49.38
228.793	49.38
229.027	76.38
229.262	83.38
229.496	90.38
229.73	101.38
229.964	125.38
230.199	102.38
230.433	94.38
230.667	106.38
230.901	103.38
231.136	104.38
231.37	97.38
231.604	116.38
231.838	105.38
232.072	113.38
232.306	110.38
232.541	100.38
232.775	100.38
233.009	104.38
233.243	102.38
233.477	110.38
233.711	92.38
233.945	108.38
234.179	108.38
234.413	105.38
234.647	101.38
234.881	111.38
235.115	117.38
235.349	99.38
235.583	113.38
235.817	105.38
236.051	123.38
236.285	125.38
236.519	114.38
236.753	113.38
236.987	121.38
237.221	136.38
237.455	153.38
237.689	137.38
237.922	120.38
238.156	105.38
238.39	118.38
238.624	105.38
238.858	109.38
239.091	98.38
239.325	107.38
239.559	117.38
239.793	110.38
240.027	118.38
240.26	123.38
240.494	127.38
240.728	146.38
240.961	115.38
241.195	130.38
241.429	131.38
241.662	114.38
241.896	119.38
242.13	126.38
242.363	123.38
242.597	132.38
242.83	120.38
243.064	118.38
243.298	120.38
243.531	135.38
243.765	127.38
243.998	117.38
244.232	130.38
244.465	139.38
244.699	139.38
244.932	134.38
245.166	127.38
245.399	121.38
245.633	126.38
245.866	126.38
246.099	123.38
246.333	127.38
246.566	131.38
246.8	133.38
247.033	142.38
247.266	137.38
247.5	148.38
247.733	149.38
247.966	144.38
248.2	136.38
248.433	131.38
248.666	147.38
248.899	151.38
249.133	175.38
249.366	181.38
249.599	165.38
249.832	149.38
250.066	158.38
250.299	161.38
250.532	152.38
250.765	186.38
250.998	184.38
251.231	196.38
251.465	187.38
251.698	181.38
251.931	157.38
252.164	166.38
252.397	159.38
252.63	150.38
252.863	154.38
253.096	167.38
253.329	175.38
253.562	190.38
253.795	164.38
254.028	173.38
254.261	186.38
254.494	183.38
254.727	203.38
254.96	232.38
255.193	219.38
255.426	202.38
255.659	181.38
255.892	177.38
256.124	190.38
256.357	183.38
256.59	187.38
256.823	179.38
257.056	190.38
257.289	176.38
257.521	181.38
257.754	176.38
257.987	179.38
258.22	183.38
258.452	183.38
258.685	190.38
258.918	178.38
259.151	180.38
259.383	171.38
259.616	184.38
259.849	189.38
260.081	197.38
260.314	208.38
260.547	205.38
260.779	207.38
261.012	185.38
261.244	187.38
261.477	189.38
261.71	185.38
261.942	178.38
262.175	193.38
262.407	181.38
262.64	185.38
262.872	183.38
263.105	168.38
263.337	193.38
263.57	183.38
263.802	171.38
264.035	175.38
264.267	178.38
264.499	169.38
264.732	172.38
264.964	179.38
265.197	161.38
265.429	168.38
265.661	184.38
265.894	173.38
266.126	177.38
266.358	179.38
266.591	198.38
266.823	173.38
267.055	192.38
267.287	193.38
267.52	184.38
267.752	186.38
267.984	201.38
268.216	193.38
268.448	201.38
268.681	196.38
268.913	204.38
269.145	236.38
269.377	213.38
269.609	220.38
269.841	231.38
270.073	219.38
270.306	234.38
270.538	255.38
270.77	245.38
271.002	236.38
271.234	226.38
271.466	232.38
271.698	253.38
271.93	245.38
272.162	265.38
272.394	257.38
272.626	242.38
272.858	225.38
273.09	239.38
273.322	225.38
273.553	216.38
273.785	223.38
274.017	229.38
274.249	220.38
274.481	219.38
274.713	220.38
274.945	234.38
275.176	216.38
275.408	244.38
275.64	226.38
275.872	231.38
276.104	229.38
276.335	222.38
276.567	228.38
276.799	242.38
277.031	250.38
277.262	255.38
277.494	262.38
277.726	279.38
277.957	235.38
278.189	221.38
278.421	251.38
278.652	230.38
278.884	234.38
279.115	217.38
279.347	235.38
279.579	228.38
279.81	227.38
280.042	239.38
280.273	228.38
280.505	235.38
280.736	244.38
280.968	243.38
281.199	234.38
281.431	237.38
281.662	231.38
281.894	246.38
282.125	226.38
282.356	250.38
282.588	259.38
282.819	251.38
283.051	237.38
283.282	234.38
283.513	241.38
283.745	241.38
283.976	247.38
284.207	244.38
284.439	245.38
284.67	232.38
284.901	257.38
285.132	243.38
285.364	245.38
285.595	250.38
285.826	249.38
286.057	244.38
286.288	263.38
286.52	244.38
286.751	234.38
286.982	253.38
287.213	257.38
287.444	260.38
287.675	242.38
287.906	278.38
288.138	260.38
288.369	249.38
288.6	260.38
288.831	251.38
289.062	262.38
289.293	260.38
289.524	248.38
289.755	260.38
289.986	249.38
290.217	261.38
290.448	260.38
290.679	243.38
290.91	241.38
291.141	254.38
291.371	258.38
291.602	252.38
291.833	245.38
292.064	250.38
292.295	242.38
292.526	262.38
292.757	252.38
292.987	243.38
293.218	263.38
293.449	265.38
293.68	261.38
293.91	273.38
294.141	263.38
294.372	268.38
294.603	257.38
294.833	267.38
295.064	249.38
295.295	259.38
295.525	286.38
295.756	271.38
295.987	272.38
296.217	273.38
296.448	278.38
296.679	270.38
296.909	270.38
297.14	260.38
297.37	274.38
297.601	269.38
297.831	261.38
298.062	263.38
298.292	283.38
298.523	285.38
298.753	270.38
298.984	265.38
299.214	270.38
299.445	270.38
299.675	279.38
299.905	279.38
300.136	294.38
300.366	289.38
300.597	283.38
300.827	295.38
301.057	306.38
301.288	300.38
301.518	293.38
301.748	292.38
301.979	287.38
302.209	284.38
302.439	294.38
302.669	287.38
302.9	291.38
303.13	281.38
303.36	303.38
303.59	286.38
303.82	290.38
304.051	293.38
304.281	301.38
304.511	312.38
304.741	305.38
304.971	296.38
305.201	281.38
305.431	285.38
305.661	280.38
305.891	314.38
306.121	281.38
306.352	275.38
306.582	294.38
306.812	286.38
307.042	300.38
307.272	291.38
307.502	277.38
307.731	268.38
307.961	290.38
308.191	285.38
308.421	290.38
308.651	309.38
308.881	281.38
309.111	308.38
309.341	308.38
309.571	302.38
309.8	302.38
310.03	308.38
310.26	302.38
310.49	299.38
310.72	318.38
310.949	334.38
311.179	346.38
311.409	302.38
311.639	316.38
311.868	342.38
312.098	325.38
312.328	331.38
312.557	317.38
312.787	337.38
313.017	319.38
313.246	319.38
313.476	317.38
313.706	335.38
313.935	326.38
314.165	334.38
314.394	325.38
314.624	309.38
314.853	325.38
315.083	309.38
315.312	326.38
315.542	339.38
315.771	311.38
316.001	316.38
316.23	302.38
316.46	316.38
316.689	337.38
316.919	311.38
317.148	319.38
317.377	330.38
317.607	319.38
317.836	316.38
318.065	318.38
318.295	336.38
318.524	333.38
318.753	321.38
318.983	315.38
319.212	317.38
319.441	302.38
319.67	323.38
319.9	324.38
320.129	320.38
320.358	329.38
320.587	321.38
320.816	317.38
321.046	319.38
321.275	306.38
321.504	307.38
321.733	322.38
321.962	317.38
322.191	333.38
322.42	329.38
322.649	362.38
322.878	358.38
323.108	341.38
323.337	379.38
323.566	365.38
323.795	393.38
324.024	418.38
324.253	462.38
324.482	606.38
324.71	927.38
324.939	1211.38
325.168	961.38
325.397	565.38
325.626	433.38
325.855	391.38
326.084	376.38
326.313	379.38
326.542	389.38
326.77	413.38
326.999	461.38
327.228	581.38
327.457	831.38
327.686	885.38
327.914	651.38
328.143	471.38
328.372	457.38
328.6	420.38
328.829	426.38
329.058	417.38
329.287	408.38
329.515	402.38
329.744	382.38
329.972	404.38
330.201	411.38
330.43	442.38
330.658	447.38
330.887	450.38
331.115	413.38
331.344	401.38
331.572	382.38
331.801	381.38
332.03	387.38
332.258	372.38
332.486	370.38
332.715	399.38
332.943	386.38
333.172	408.38
333.4	411.38
333.629	406.38
333.857	419.38
334.085	411.38
334.314	445.38
334.542	460.38
334.771	442.38
334.999	424.38
335.227	405.38
335.455	434.38
335.684	400.38
335.912	385.38
336.14	369.38
336.369	389.38
336.597	372.38
336.825	386.38
337.053	392.38
337.281	389.38
337.51	372.38
337.738	375.38
337.966	378.38
338.194	356.38
338.422	377.38
338.65	376.38
338.878	366.38
339.106	369.38
339.334	359.38
339.562	350.38
339.79	383.38
340.018	351.38
340.246	360.38
340.474	362.38
340.702	359.38
340.93	363.38
341.158	349.38
341.386	357.38
341.614	364.38
341.842	352.38
342.07	346.38
342.298	351.38
342.526	347.38
342.754	354.38
342.981	340.38
343.209	348.38
343.437	375.38
343.665	382.38
343.893	397.38
344.12	391.38
344.348	371.38
344.576	376.38
344.804	364.38
345.031	343.38
345.259	373.38
345.487	374.38
345.714	346.38
345.942	354.38
346.17	339.38
346.397	333.38
346.625	376.38
346.853	349.38
347.08	313.38
347.308	343.38
347.535	330.38
347.763	342.38
347.99	348.38
348.218	337.38
348.445	355.38
348.673	347.38
348.9	330.38
349.128	323.38
349.355	321.38
349.583	344.38
349.81	321.38
350.037	328.38
350.265	325.38
350.492	314.38
350.72	341.38
350.947	325.38
351.174	335.38
351.402	349.38
351.629	333.38
351.856	334.38
352.083	338.38
352.311	334.38
352.538	354.38
352.765	345.38
352.992	346.38
353.22	326.38
353.447	317.38
353.674	325.38
353.901	320.38
354.128	329.38
354.355	309.38
354.583	322.38
354.81	325.38
355.037	330.38
355.264	337.38
355.491	309.38
355.718	314.38
355.945	317.38
356.172	329.38
356.399	310.38
356.626	334.38
356.853	325.38
357.08	329.38
357.307	303.38
357.534	331.38
357.761	324.38
357.988	317.38
358.215	330.38
358.441	317.38
358.668	321.38
358.895	324.38
359.122	335.38
359.349	351.38
359.576	345.38
359.802	357.38
360.029	359.38
360.256	355.38
360.483	362.38
360.709	341.38
360.936	345.38
361.163	331.38
361.39	334.38
361.616	324.38
361.843	339.38
362.07	335.38
362.296	337.38
362.523	331.38
362.749	327.38
362.976	339.38
363.203	345.38
363.429	312.38
363.656	332.38
363.882	335.38
364.109	333.38
364.335	334.38
364.562	339.38
364.788	334.38
365.015	320.38
365.241	315.38
365.468	336.38
365.694	349.38
365.92	333.38
366.147	333.38
366.373	297.38
366.599	307.38
366.826	307.38
367.052	322.38
367.278	311.38
367.505	333.38
367.731	323.38
367.957	318.38
368.184	324.38
368.41	326.38
368.636	326.38
368.862	346.38
369.089	338.38
369.315	329.38
369.541	315.38
369.767	326.38
369.993	333.38
370.219	332.38
370.445	321.38
370.672	334.38
370.898	324.38
371.124	308.38
371.35	329.38
371.576	338.38
371.802	330.38
372.028	341.38
372.254	334.38
372.48	336.38
372.706	339.38
372.932	335.38
373.158	335.38
373.384	342.38
373.61	334.38
373.835	323.38
374.061	319.38
374.287	328.38
374.513	337.38
374.739	347.38
374.965	349.38
375.191	347.38
375.416	338.38
375.642	341.38
375.868	356.38
376.094	336.38
376.319	334.38
376.545	337.38
376.771	331.38
376.997	316.38
377.222	321.38
377.448	322.38
377.674	334.38
377.899	319.38
378.125	330.38
378.35	325.38
378.576	341.38
378.802	323.38
379.027	347.38
379.253	338.38
379.478	313.38
379.704	331.38
379.929	316.38
380.155	348.38
380.38	326.38
380.606	333.38
380.831	340.38
381.057	340.38
381.282	329.38
381.507	321.38
381.733	330.38
381.958	335.38
382.184	342.38
382.409	337.38
382.634	337.38
382.86	341.38
383.085	349.38
383.31	347.38
383.535	351.38
383.761	338.38
383.986	338.38
384.211	359.38
384.436	351.38
384.662	371.38
384.887	377.38
385.112	356.38
385.337	381.38
385.562	359.38
385.787	369.38
386.013	393.38
386.238	382.38
386.463	382.38
386.688	361.38
386.913	373.38
387.138	361.38
387.363	363.38
387.588	375.38
387.813	382.38
388.038	373.38
388.263	362.38
388.488	373.38
388.713	378.38
388.938	378.38
389.163	393.38
389.387	362.38
389.612	356.38
389.837	360.38
390.062	370.38
390.287	375.38
390.512	373.38
390.736	375.38
390.961	379.38
391.186	365.38
391.411	382.38
391.636	381.38
391.86	388.38
392.085	401.38
392.31	409.38
392.534	392.38
392.759	379.38
392.984	391.38
393.208	374.38
393.433	364.38
393.658	384.38
393.882	353.38
394.107	376.38
394.331	381.38
394.556	363.38
394.78	408.38
395.005	377.38
395.229	400.38
395.454	387.38
395.678	381.38
395.903	393.38
396.127	397.38
396.352	412.38
396.576	397.38
396.801	377.38
397.025	370.38
397.249	385.38
397.474	403.38
397.698	403.38
397.922	408.38
398.147	429.38
398.371	418.38
398.595	418.38
398.82	417.38
399.044	452.38
399.268	490.38
399.492	503.38
399.717	531.38
399.941	542.38
400.165	540.38
400.389	512.38
400.613	475.38
400.837	444.38
401.062	432.38
401.286	449.38
401.51	430.38
401.734	419.38
401.958	419.38
402.182	419.38
402.406	451.38
402.63	461.38
402.854	462.38
403.078	465.38
403.302	452.38
403.526	454.38
403.75	463.38
403.974	456.38
404.198	456.38
404.422	467.38
404.645	481.38
404.869	461.38
405.093	518.38
405.317	509.38
405.541	529.38
405.765	481.38
405.988	475.38
406.212	471.38
406.436	482.38
406.66	500.38
406.883	491.38
407.107	508.38
407.331	529.38
407.555	581.38
407.778	571.38
408.002	523.38
408.226	486.38
408.449	470.38
408.673	485.38
408.896	489.38
409.12	519.38
409.344	490.38
409.567	459.38
409.791	467.38
410.014	452.38
410.238	439.38
410.461	461.38
410.685	469.38
410.908	463.38
411.132	464.38
411.355	479.38
411.578	465.38
411.802	451.38
412.025	445.38
412.249	456.38
412.472	459.38
412.695	482.38
412.919	463.38
413.142	454.38
413.365	444.38
413.589	411.38
413.812	414.38
414.035	423.38
414.258	424.38
414.482	425.38
414.705	434.38
414.928	427.38
415.151	417.38
415.374	430.38
415.597	411.38
415.821	416.38
416.044	421.38
416.267	426.38
416.49	419.38
416.713	405.38
416.936	405.38
417.159	448.38
417.382	441.38
417.605	424.38
417.828	441.38
418.051	442.38
418.274	418.38
418.497	423.38
418.72	429.38
418.943	436.38
419.166	452.38
419.389	465.38
419.611	445.38
419.834	444.38
420.057	452.38
420.28	438.38
420.503	447.38
420.726	424.38
420.948	435.38
421.171	460.38
421.394	480.38
421.617	426.38
421.839	427.38
422.062	428.38
422.285	437.38
422.507	458.38
422.73	502.38
422.953	492.38
423.175	467.38
423.398	472.38
423.621	459.38
423.843	468.38
424.066	476.38
424.288	469.38
424.511	454.38
424.733	479.38
424.956	543.38
425.178	522.38
425.401	518.38
425.623	517.38
425.846	467.38
426.068	457.38
426.291	430.38
426.513	429.38
426.735	452.38
426.958	454.38
427.18	517.38
427.402	573.38
427.625	617.38
427.847	555.38
428.069	475.38
428.292	454.38
428.514	420.38
428.736	422.38
428.958	425.38
429.181	408.38
429.403	407.38
429.625	412.38
429.847	439.38
430.069	460.38
430.292	460.38
430.514	419.38
430.736	405.38
430.958	407.38
431.18	412.38
431.402	422.38
431.624	373.38
431.846	392.38
432.068	395.38
432.29	419.38
432.512	398.38
432.734	410.38
432.956	411.38
433.178	397.38
433.4	413.38
433.622	408.38
433.844	412.38
434.066	429.38
434.287	413.38
434.509	411.38
434.731	417.38
434.953	420.38
435.175	443.38
435.397	470.38
435.618	439.38
435.84	463.38
436.062	503.38
436.284	553.38
436.505	465.38
436.727	442.38
436.949	434.38
437.17	421.38
437.392	420.38
437.614	408.38
437.835	444.38
438.057	476.38
438.278	541.38
438.5	545.38
438.721	581.38
438.943	559.38
439.165	474.38
439.386	425.38
439.608	443.38
439.829	423.38
440.05	441.38
440.272	463.38
440.493	441.38
440.715	420.38
440.936	420.38
441.158	448.38
441.379	448.38
441.6	428.38
441.822	448.38
442.043	474.38
442.264	513.38
442.486	541.38
442.707	482.38
442.928	445.38
443.149	462.38
443.371	467.38
443.592	487.38
443.813	542.38
444.034	591.38
444.255	519.38
444.476	462.38
444.698	481.38
444.919	496.38
445.14	558.38
445.361	513.38
445.582	493.38
445.803	508.38
446.024	569.38
446.245	542.38
446.466	514.38
446.687	449.38
446.908	450.38
447.129	410.38
447.35	411.38
447.571	406.38
447.792	407.38
448.013	412.38
448.234	417.38
448.455	454.38
448.675	509.38
448.896	571.38
449.117	468.38
449.338	462.38
449.559	559.38
449.779	578.38
450	498.38
450.221	427.38
450.442	391.38
450.662	393.38
450.883	396.38
451.104	420.38
451.324	395.38
451.545	385.38
451.766	372.38
451.986	363.38
452.207	375.38
452.428	359.38
452.648	352.38
452.869	385.38
453.089	378.38
453.31	389.38
453.53	376.38
453.751	359.38
453.971	379.38
454.192	366.38
454.412	362.38
454.633	350.38
454.853	361.38
455.073	367.38
455.294	382.38
455.514	413.38
455.734	385.38
455.955	361.38
456.175	347.38
456.395	342.38
456.616	340.38
456.836	340.38
457.056	345.38
457.276	349.38
457.497	342.38
457.717	341.38
457.937	354.38
458.157	367.38
458.377	365.38
458.598	381.38
458.818	415.38
459.038	466.38
459.258	455.38
459.478	415.38
459.698	418.38
459.918	405.38
460.138	406.38
460.358	405.38
460.578	410.38
460.798	425.38
461.018	429.38
461.238	439.38
461.458	431.38
461.678	429.38
461.898	422.38
462.118	439.38
462.338	455.38
462.558	448.38
462.777	476.38
462.997	480.38
463.217	494.38
463.437	506.38
463.657	483.38
463.876	462.38
464.096	473.38
464.316	475.38
464.536	477.38
464.755	461.38
464.975	460.38
465.195	450.38
465.414	517.38
465.634	455.38
465.854	438.38
466.073	414.38
466.293	403.38
466.512	405.38
466.732	369.38
466.951	382.38
467.171	385.38
467.391	374.38
467.61	387.38
467.829	383.38
468.049	392.38
468.268	389.38
468.488	380.38
468.707	361.38
468.927	347.38
469.146	374.38
469.365	390.38
469.585	378.38
469.804	364.38
470.023	377.38
470.243	381.38
470.462	418.38
470.681	397.38
470.901	426.38
471.12	391.38
471.339	387.38
471.558	379.38
471.777	417.38
471.997	375.38
472.216	391.38
472.435	393.38
472.654	393.38
472.873	374.38
473.092	371.38
473.311	381.38
473.53	390.38
473.749	409.38
473.968	419.38
474.187	471.38
474.406	465.38
474.625	424.38
474.844	370.38
475.063	377.38
475.282	381.38
475.501	392.38
475.72	371.38
475.939	388.38
476.158	363.38
476.377	397.38
476.596	379.38
476.814	396.38
477.033	401.38
477.252	410.38
477.471	426.38
477.69	413.38
477.908	420.38
478.127	429.38
478.346	427.38
478.564	432.38
478.783	453.38
479.002	461.38
479.22	459.38
479.439	444.38
479.658	457.38
479.876	457.38
480.095	474.38
480.313	496.38
480.532	489.38
480.751	487.38
480.969	499.38
481.188	521.38
481.406	524.38
481.624	466.38
481.843	449.38
482.061	439.38
482.28	425.38
482.498	413.38
482.717	417.38
482.935	437.38
483.153	449.38
483.372	457.38
483.59	415.38
483.808	427.38
484.027	446.38
484.245	453.38
484.463	432.38
484.681	470.38
484.9	453.38
485.118	465.38
485.336	451.38
485.554	459.38
485.772	450.38
485.99	437.38
486.209	448.38
486.427	440.38
486.645	460.38
486.863	466.38
487.081	477.38
487.299	478.38
487.517	474.38
487.735	474.38
487.953	474.38
488.171	460.38
488.389	471.38
488.607	455.38
488.825	469.38
489.043	478.38
489.261	469.38
489.479	458.38
489.696	491.38
489.914	460.38
490.132	482.38
490.35	497.38
490.568	495.38
490.786	494.38
491.003	520.38
491.221	524.38
491.439	523.38
491.657	536.38
491.874	555.38
492.092	516.38
492.31	542.38
492.527	542.38
492.745	562.38
492.963	550.38
493.18	563.38
493.398	553.38
493.615	548.38
493.833	540.38
494.05	567.38
494.268	555.38
494.485	533.38
494.703	527.38
494.92	533.38
495.138	541.38
495.355	569.38
495.573	558.38
495.79	553.38
496.008	556.38
496.225	557.38
496.442	546.38
496.66	567.38
496.877	554.38
497.094	561.38
497.312	565.38
497.529	572.38
497.746	595.38
497.963	585.38
498.181	597.38
498.398	627.38
498.615	633.38
498.832	683.38
499.049	693.38
499.267	698.38
499.484	751.38
499.701	783.38
499.918	843.38
500.135	878.38
500.352	978.38
500.569	952.38
500.786	972.38
501.003	962.38
501.22	885.38
501.437	836.38
501.654	789.38
501.871	756.38
502.088	708.38
