Data from 1969.PennyLincolnUp.Lamp.En5.5.200Scan.071719.P1._HRD10591_14-56-11-973.txt Node
Date: Thu Jul 18 14:56:11 EDT 2019
User: cochatt
Spectrometer: HR+D1059
Trigger mode: 1
Integration Time (sec): 1.000000E-1
Scans to average: 1
Electric dark correction enabled: true
Nonlinearity correction enabled: false
Boxcar width: 0
XAxis mode: Wavelengths
Number of Pixels in Spectrum: 2048
>>>>>Begin Spectral Data<<<<<
223.165	-1.69
223.4	-1.69
223.635	-1.69
223.869	-33.69
224.104	-18.69
224.338	-29.69
224.573	-9.69
224.808	-5.69
225.042	-7.69
225.277	-4.69
225.511	5.31
225.746	0.31
225.98	8.31
226.215	23.31
226.449	13.31
226.683	27.31
226.918	20.31
227.152	13.31
227.387	33.31
227.621	49.31
227.856	39.31
228.09	52.31
228.324	50.31
228.559	52.31
228.793	82.31
229.027	80.31
229.262	88.31
229.496	108.31
229.73	103.31
229.964	117.31
230.199	100.31
230.433	96.31
230.667	94.31
230.901	88.31
231.136	96.31
231.37	85.31
231.604	116.31
231.838	105.31
232.072	103.31
232.306	108.31
232.541	96.31
232.775	109.31
233.009	111.31
233.243	111.31
233.477	119.31
233.711	120.31
233.945	94.31
234.179	111.31
234.413	115.31
234.647	97.31
234.881	93.31
235.115	106.31
235.349	111.31
235.583	117.31
235.817	107.31
236.051	117.31
236.285	121.31
236.519	128.31
236.753	130.31
236.987	138.31
237.221	147.31
237.455	167.31
237.689	148.31
237.922	124.31
238.156	122.31
238.39	121.31
238.624	126.31
238.858	111.31
239.091	113.31
239.325	103.31
239.559	105.31
239.793	116.31
240.027	124.31
240.26	125.31
240.494	141.31
240.728	127.31
240.961	136.31
241.195	127.31
241.429	123.31
241.662	123.31
241.896	121.31
242.13	130.31
242.363	112.31
242.597	109.31
242.83	126.31
243.064	134.31
243.298	116.31
243.531	128.31
243.765	128.31
243.998	129.31
244.232	134.31
244.465	129.31
244.699	132.31
244.932	120.31
245.166	142.31
245.399	128.31
245.633	131.31
245.866	142.31
246.099	135.31
246.333	144.31
246.566	140.31
246.8	138.31
247.033	143.31
247.266	122.31
247.5	141.31
247.733	144.31
247.966	151.31
248.2	152.31
248.433	148.31
248.666	152.31
248.899	150.31
249.133	161.31
249.366	179.31
249.599	149.31
249.832	159.31
250.066	169.31
250.299	146.31
250.532	164.31
250.765	172.31
250.998	180.31
251.231	171.31
251.465	173.31
251.698	162.31
251.931	156.31
252.164	166.31
252.397	188.31
252.63	171.31
252.863	173.31
253.096	184.31
253.329	190.31
253.562	189.31
253.795	186.31
254.028	164.31
254.261	164.31
254.494	199.31
254.727	223.31
254.96	257.31
255.193	218.31
255.426	208.31
255.659	191.31
255.892	203.31
256.124	184.31
256.357	198.31
256.59	196.31
256.823	188.31
257.056	197.31
257.289	186.31
257.521	180.31
257.754	177.31
257.987	186.31
258.22	170.31
258.452	195.31
258.685	182.31
258.918	185.31
259.151	178.31
259.383	174.31
259.616	195.31
259.849	175.31
260.081	190.31
260.314	222.31
260.547	199.31
260.779	200.31
261.012	188.31
261.244	206.31
261.477	194.31
261.71	187.31
261.942	196.31
262.175	198.31
262.407	214.31
262.64	190.31
262.872	187.31
263.105	194.31
263.337	178.31
263.57	177.31
263.802	175.31
264.035	202.31
264.267	193.31
264.499	191.31
264.732	187.31
264.964	189.31
265.197	193.31
265.429	180.31
265.661	196.31
265.894	202.31
266.126	182.31
266.358	194.31
266.591	206.31
266.823	201.31
267.055	200.31
267.287	189.31
267.52	187.31
267.752	173.31
267.984	194.31
268.216	200.31
268.448	186.31
268.681	199.31
268.913	219.31
269.145	244.31
269.377	237.31
269.609	238.31
269.841	228.31
270.073	239.31
270.306	251.31
270.538	268.31
270.77	256.31
271.002	259.31
271.234	243.31
271.466	247.31
271.698	263.31
271.93	262.31
272.162	268.31
272.394	246.31
272.626	254.31
272.858	250.31
273.09	251.31
273.322	234.31
273.553	228.31
273.785	210.31
274.017	224.31
274.249	227.31
274.481	209.31
274.713	223.31
274.945	244.31
275.176	222.31
275.408	234.31
275.64	219.31
275.872	244.31
276.104	230.31
276.335	236.31
276.567	238.31
276.799	243.31
277.031	268.31
277.262	270.31
277.494	274.31
277.726	272.31
277.957	251.31
278.189	247.31
278.421	237.31
278.652	210.31
278.884	246.31
279.115	248.31
279.347	232.31
279.579	230.31
279.81	233.31
280.042	235.31
280.273	249.31
280.505	234.31
280.736	238.31
280.968	236.31
281.199	244.31
281.431	248.31
281.662	250.31
281.894	242.31
282.125	234.31
282.356	248.31
282.588	250.31
282.819	272.31
283.051	253.31
283.282	233.31
283.513	243.31
283.745	252.31
283.976	250.31
284.207	245.31
284.439	250.31
284.67	249.31
284.901	244.31
285.132	248.31
285.364	232.31
285.595	242.31
285.826	252.31
286.057	259.31
286.288	260.31
286.52	254.31
286.751	231.31
286.982	247.31
287.213	255.31
287.444	243.31
287.675	260.31
287.906	262.31
288.138	268.31
288.369	286.31
288.6	266.31
288.831	267.31
289.062	267.31
289.293	270.31
289.524	261.31
289.755	249.31
289.986	292.31
290.217	251.31
290.448	269.31
290.679	251.31
290.91	263.31
291.141	270.31
291.371	253.31
291.602	262.31
291.833	276.31
292.064	268.31
292.295	274.31
292.526	264.31
292.757	273.31
292.987	278.31
293.218	264.31
293.449	285.31
293.68	291.31
293.91	274.31
294.141	272.31
294.372	262.31
294.603	276.31
294.833	283.31
295.064	278.31
295.295	268.31
295.525	280.31
295.756	252.31
295.987	259.31
296.217	282.31
296.448	284.31
296.679	271.31
296.909	264.31
297.14	278.31
297.37	270.31
297.601	272.31
297.831	282.31
298.062	274.31
298.292	289.31
298.523	282.31
298.753	289.31
298.984	262.31
299.214	278.31
299.445	282.31
299.675	287.31
299.905	283.31
300.136	282.31
300.366	284.31
300.597	285.31
300.827	292.31
301.057	314.31
301.288	310.31
301.518	280.31
301.748	282.31
301.979	298.31
302.209	289.31
302.439	301.31
302.669	312.31
302.9	304.31
303.13	286.31
303.36	300.31
303.59	300.31
303.82	311.31
304.051	319.31
304.281	297.31
304.511	286.31
304.741	282.31
304.971	276.31
305.201	293.31
305.431	307.31
305.661	308.31
305.891	308.31
306.121	294.31
306.352	296.31
306.582	307.31
306.812	299.31
307.042	299.31
307.272	298.31
307.502	304.31
307.731	319.31
307.961	293.31
308.191	308.31
308.421	286.31
308.651	312.31
308.881	308.31
309.111	309.31
309.341	296.31
309.571	300.31
309.8	313.31
310.03	325.31
310.26	318.31
310.49	322.31
310.72	329.31
310.949	310.31
311.179	314.31
311.409	322.31
311.639	331.31
311.868	328.31
312.098	331.31
312.328	323.31
312.557	358.31
312.787	338.31
313.017	346.31
313.246	319.31
313.476	320.31
313.706	331.31
313.935	331.31
314.165	346.31
314.394	332.31
314.624	350.31
314.853	332.31
315.083	322.31
315.312	338.31
315.542	328.31
315.771	332.31
316.001	308.31
316.23	307.31
316.46	329.31
316.689	336.31
316.919	334.31
317.148	338.31
317.377	338.31
317.607	331.31
317.836	338.31
318.065	338.31
318.295	325.31
318.524	324.31
318.753	331.31
318.983	346.31
319.212	328.31
319.441	334.31
319.67	335.31
319.9	342.31
320.129	339.31
320.358	340.31
320.587	309.31
320.816	329.31
321.046	332.31
321.275	337.31
321.504	321.31
321.733	321.31
321.962	339.31
322.191	332.31
322.42	354.31
322.649	346.31
322.878	363.31
323.108	371.31
323.337	372.31
323.566	391.31
323.795	400.31
324.024	434.31
324.253	479.31
324.482	644.31
324.71	920.31
324.939	1250.31
325.168	1010.31
325.397	562.31
325.626	451.31
325.855	414.31
326.084	387.31
326.313	406.31
326.542	381.31
326.77	403.31
326.999	459.31
327.228	600.31
327.457	856.31
327.686	940.31
327.914	654.31
328.143	495.31
328.372	443.31
328.6	435.31
328.829	430.31
329.058	427.31
329.287	449.31
329.515	436.31
329.744	398.31
329.972	401.31
330.201	439.31
330.43	441.31
330.658	438.31
330.887	466.31
331.115	456.31
331.344	400.31
331.572	373.31
331.801	413.31
332.03	403.31
332.258	400.31
332.486	389.31
332.715	392.31
332.943	405.31
333.172	415.31
333.4	401.31
333.629	415.31
333.857	447.31
334.085	442.31
334.314	445.31
334.542	471.31
334.771	463.31
334.999	456.31
335.227	396.31
335.455	427.31
335.684	396.31
335.912	404.31
336.14	386.31
336.369	385.31
336.597	397.31
336.825	409.31
337.053	397.31
337.281	401.31
337.51	389.31
337.738	397.31
337.966	374.31
338.194	370.31
338.422	384.31
338.65	361.31
338.878	372.31
339.106	386.31
339.334	378.31
339.562	376.31
339.79	370.31
340.018	383.31
340.246	353.31
340.474	379.31
340.702	375.31
340.93	373.31
341.158	379.31
341.386	356.31
341.614	371.31
341.842	370.31
342.07	372.31
342.298	385.31
342.526	360.31
342.754	375.31
342.981	372.31
343.209	359.31
343.437	364.31
343.665	380.31
343.893	402.31
344.12	417.31
344.348	390.31
344.576	402.31
344.804	372.31
345.031	381.31
345.259	388.31
345.487	376.31
345.714	360.31
345.942	347.31
346.17	347.31
346.397	356.31
346.625	354.31
346.853	348.31
347.08	351.31
347.308	347.31
347.535	331.31
347.763	354.31
347.99	363.31
348.218	371.31
348.445	345.31
348.673	336.31
348.9	342.31
349.128	341.31
349.355	315.31
349.583	353.31
349.81	338.31
350.037	338.31
350.265	346.31
350.492	363.31
350.72	341.31
350.947	335.31
351.174	348.31
351.402	348.31
351.629	364.31
351.856	342.31
352.083	344.31
352.311	367.31
352.538	362.31
352.765	348.31
352.992	342.31
353.22	339.31
353.447	336.31
353.674	343.31
353.901	337.31
354.128	334.31
354.355	333.31
354.583	333.31
354.81	329.31
355.037	335.31
355.264	334.31
355.491	336.31
355.718	341.31
355.945	330.31
356.172	336.31
356.399	330.31
356.626	328.31
356.853	329.31
357.08	307.31
357.307	347.31
357.534	338.31
357.761	342.31
357.988	340.31
358.215	325.31
358.441	322.31
358.668	317.31
358.895	322.31
359.122	335.31
359.349	340.31
359.576	344.31
359.802	354.31
360.029	372.31
360.256	386.31
360.483	344.31
360.709	335.31
360.936	342.31
361.163	340.31
361.39	337.31
361.616	343.31
361.843	322.31
362.07	347.31
362.296	346.31
362.523	364.31
362.749	344.31
362.976	349.31
363.203	336.31
363.429	318.31
363.656	351.31
363.882	348.31
364.109	336.31
364.335	336.31
364.562	356.31
364.788	328.31
365.015	336.31
365.241	323.31
365.468	335.31
365.694	357.31
365.92	320.31
366.147	328.31
366.373	324.31
366.599	330.31
366.826	336.31
367.052	321.31
367.278	326.31
367.505	346.31
367.731	349.31
367.957	344.31
368.184	344.31
368.41	340.31
368.636	334.31
368.862	358.31
369.089	334.31
369.315	352.31
369.541	340.31
369.767	330.31
369.993	334.31
370.219	321.31
370.445	327.31
370.672	339.31
370.898	348.31
371.124	331.31
371.35	340.31
371.576	335.31
371.802	344.31
372.028	356.31
372.254	343.31
372.48	324.31
372.706	355.31
372.932	342.31
373.158	350.31
373.384	360.31
373.61	333.31
373.835	337.31
374.061	347.31
374.287	343.31
374.513	355.31
374.739	381.31
374.965	361.31
375.191	370.31
375.416	360.31
375.642	364.31
375.868	360.31
376.094	346.31
376.319	318.31
376.545	347.31
376.771	330.31
376.997	330.31
377.222	323.31
377.448	324.31
377.674	338.31
377.899	331.31
378.125	337.31
378.35	317.31
378.576	335.31
378.802	339.31
379.027	327.31
379.253	326.31
379.478	322.31
379.704	331.31
379.929	357.31
380.155	330.31
380.38	340.31
380.606	336.31
380.831	336.31
381.057	351.31
381.282	340.31
381.507	330.31
381.733	346.31
381.958	357.31
382.184	340.31
382.409	358.31
382.634	348.31
382.86	362.31
383.085	348.31
383.31	349.31
383.535	370.31
383.761	365.31
383.986	351.31
384.211	365.31
384.436	370.31
384.662	367.31
384.887	390.31
385.112	383.31
385.337	363.31
385.562	374.31
385.787	364.31
386.013	382.31
386.238	390.31
386.463	379.31
386.688	368.31
386.913	376.31
387.138	368.31
387.363	382.31
387.588	370.31
387.813	376.31
388.038	374.31
388.263	382.31
388.488	400.31
388.713	392.31
388.938	378.31
389.163	375.31
389.387	357.31
389.612	359.31
389.837	361.31
390.062	367.31
390.287	368.31
390.512	366.31
390.736	355.31
390.961	390.31
391.186	378.31
391.411	374.31
391.636	391.31
391.86	406.31
392.085	407.31
392.31	389.31
392.534	401.31
392.759	400.31
392.984	392.31
393.208	370.31
393.433	385.31
393.658	384.31
393.882	385.31
394.107	371.31
394.331	380.31
394.556	371.31
394.78	382.31
395.005	401.31
395.229	388.31
395.454	402.31
395.678	406.31
395.903	416.31
396.127	411.31
396.352	399.31
396.576	377.31
396.801	378.31
397.025	384.31
397.249	396.31
397.474	424.31
397.698	398.31
397.922	420.31
398.147	430.31
398.371	426.31
398.595	439.31
398.82	429.31
399.044	467.31
399.268	491.31
399.492	531.31
399.717	567.31
399.941	562.31
400.165	559.31
400.389	534.31
400.613	486.31
400.837	472.31
401.062	472.31
401.286	466.31
401.51	422.31
401.734	424.31
401.958	455.31
402.182	447.31
402.406	462.31
402.63	457.31
402.854	466.31
403.078	448.31
403.302	475.31
403.526	471.31
403.75	492.31
403.974	463.31
404.198	484.31
404.422	498.31
404.645	472.31
404.869	481.31
405.093	512.31
405.317	536.31
405.541	532.31
405.765	516.31
405.988	502.31
406.212	495.31
406.436	490.31
406.66	496.31
406.883	485.31
407.107	513.31
407.331	550.31
407.555	582.31
407.778	581.31
408.002	552.31
408.226	518.31
408.449	490.31
408.673	470.31
408.896	498.31
409.12	508.31
409.344	504.31
409.567	491.31
409.791	471.31
410.014	455.31
410.238	455.31
410.461	471.31
410.685	465.31
410.908	473.31
411.132	492.31
411.355	512.31
411.578	507.31
411.802	476.31
412.025	438.31
412.249	462.31
412.472	474.31
412.695	505.31
412.919	487.31
413.142	466.31
413.365	455.31
413.589	443.31
413.812	426.31
414.035	444.31
414.258	424.31
414.482	452.31
414.705	439.31
414.928	436.31
415.151	420.31
415.374	420.31
415.597	430.31
415.821	426.31
416.044	419.31
416.267	442.31
416.49	407.31
416.713	438.31
416.936	436.31
417.159	413.31
417.382	430.31
417.605	428.31
417.828	443.31
418.051	452.31
418.274	438.31
418.497	448.31
418.72	432.31
418.943	442.31
419.166	453.31
419.389	478.31
419.611	468.31
419.834	474.31
420.057	460.31
420.28	447.31
420.503	449.31
420.726	430.31
420.948	482.31
421.171	491.31
421.394	487.31
421.617	452.31
421.839	460.31
422.062	429.31
422.285	454.31
422.507	486.31
422.73	541.31
422.953	519.31
423.175	466.31
423.398	455.31
423.621	460.31
423.843	486.31
424.066	483.31
424.288	478.31
424.511	503.31
424.733	532.31
424.956	560.31
425.178	532.31
425.401	538.31
425.623	547.31
425.846	487.31
426.068	470.31
426.291	461.31
426.513	455.31
426.735	477.31
426.958	485.31
427.18	531.31
427.402	623.31
427.625	650.31
427.847	570.31
428.069	491.31
428.292	459.31
428.514	435.31
428.736	438.31
428.958	431.31
429.181	404.31
429.403	416.31
429.625	400.31
429.847	446.31
430.069	476.31
430.292	488.31
430.514	438.31
430.736	408.31
430.958	412.31
431.18	414.31
431.402	406.31
431.624	409.31
431.846	415.31
432.068	403.31
432.29	405.31
432.512	414.31
432.734	420.31
432.956	415.31
433.178	409.31
433.4	399.31
433.622	418.31
433.844	406.31
434.066	419.31
434.287	412.31
434.509	434.31
434.731	431.31
434.953	445.31
435.175	443.31
435.397	468.31
435.618	446.31
435.84	484.31
436.062	540.31
436.284	566.31
436.505	484.31
436.727	445.31
436.949	428.31
437.17	422.31
437.392	410.31
437.614	453.31
437.835	433.31
438.057	503.31
438.278	573.31
438.5	569.31
438.721	586.31
438.943	576.31
439.165	464.31
439.386	445.31
439.608	462.31
439.829	461.31
440.05	485.31
440.272	482.31
440.493	462.31
440.715	451.31
440.936	431.31
441.158	447.31
441.379	427.31
441.6	423.31
441.822	465.31
442.043	490.31
442.264	543.31
442.486	546.31
442.707	495.31
442.928	464.31
443.149	482.31
443.371	483.31
443.592	524.31
443.813	555.31
444.034	592.31
444.255	525.31
444.476	495.31
444.698	489.31
444.919	492.31
445.14	620.31
445.361	556.31
445.582	503.31
445.803	516.31
446.024	606.31
446.245	588.31
446.466	527.31
446.687	460.31
446.908	436.31
447.129	444.31
447.35	427.31
447.571	424.31
447.792	415.31
448.013	412.31
448.234	430.31
448.455	441.31
448.675	538.31
448.896	559.31
449.117	516.31
449.338	474.31
449.559	557.31
449.779	586.31
450	496.31
450.221	444.31
450.442	412.31
450.662	398.31
450.883	419.31
451.104	426.31
451.324	425.31
451.545	379.31
451.766	375.31
451.986	378.31
452.207	382.31
452.428	403.31
452.648	377.31
452.869	366.31
453.089	381.31
453.31	382.31
453.53	398.31
453.751	360.31
453.971	366.31
454.192	395.31
454.412	388.31
454.633	368.31
454.853	376.31
455.073	375.31
455.294	375.31
455.514	401.31
455.734	411.31
455.955	361.31
456.175	359.31
456.395	365.31
456.616	362.31
456.836	357.31
457.056	349.31
457.276	339.31
457.497	366.31
457.717	373.31
457.937	361.31
458.157	370.31
458.377	386.31
458.598	387.31
458.818	428.31
459.038	464.31
459.258	480.31
459.478	454.31
459.698	427.31
459.918	420.31
460.138	415.31
460.358	440.31
460.578	416.31
460.798	422.31
461.018	440.31
461.238	429.31
461.458	443.31
461.678	454.31
461.898	428.31
462.118	436.31
462.338	437.31
462.558	464.31
462.777	475.31
462.997	490.31
463.217	506.31
463.437	510.31
463.657	479.31
463.876	477.31
464.096	476.31
464.316	489.31
464.536	476.31
464.755	481.31
464.975	468.31
465.195	471.31
465.414	509.31
465.634	434.31
465.854	430.31
466.073	414.31
466.293	408.31
466.512	386.31
466.732	393.31
466.951	399.31
467.171	387.31
467.391	393.31
467.61	384.31
467.829	418.31
468.049	422.31
468.268	379.31
468.488	388.31
468.707	386.31
468.927	386.31
469.146	392.31
469.365	398.31
469.585	388.31
469.804	396.31
470.023	386.31
470.243	401.31
470.462	407.31
470.681	415.31
470.901	405.31
471.12	410.31
471.339	406.31
471.558	404.31
471.777	395.31
471.997	400.31
472.216	408.31
472.435	412.31
472.654	405.31
472.873	399.31
473.092	375.31
473.311	393.31
473.53	382.31
473.749	390.31
473.968	417.31
474.187	478.31
474.406	494.31
474.625	434.31
474.844	420.31
475.063	393.31
475.282	380.31
475.501	406.31
475.72	397.31
475.939	388.31
476.158	408.31
476.377	407.31
476.596	405.31
476.814	406.31
477.033	407.31
477.252	407.31
477.471	410.31
477.69	422.31
477.908	437.31
478.127	433.31
478.346	448.31
478.564	431.31
478.783	457.31
479.002	459.31
479.22	466.31
479.439	458.31
479.658	476.31
479.876	464.31
480.095	490.31
480.313	500.31
480.532	478.31
480.751	476.31
480.969	482.31
481.188	538.31
481.406	538.31
481.624	491.31
481.843	471.31
482.061	459.31
482.28	463.31
482.498	446.31
482.717	438.31
482.935	440.31
483.153	458.31
483.372	449.31
483.59	414.31
483.808	450.31
484.027	474.31
484.245	444.31
484.463	469.31
484.681	468.31
484.9	441.31
485.118	439.31
485.336	485.31
485.554	463.31
485.772	436.31
485.99	473.31
486.209	476.31
486.427	485.31
486.645	479.31
486.863	496.31
487.081	464.31
487.299	478.31
487.517	461.31
487.735	457.31
487.953	493.31
488.171	468.31
488.389	488.31
488.607	459.31
488.825	474.31
489.043	487.31
489.261	501.31
489.479	479.31
489.696	471.31
489.914	500.31
490.132	500.31
490.35	484.31
490.568	514.31
490.786	526.31
491.003	540.31
491.221	525.31
491.439	543.31
491.657	559.31
491.874	572.31
492.092	565.31
492.31	540.31
492.527	558.31
492.745	581.31
492.963	586.31
493.18	556.31
493.398	574.31
493.615	578.31
493.833	581.31
494.05	567.31
494.268	567.31
494.485	580.31
494.703	566.31
494.92	551.31
495.138	586.31
495.355	584.31
495.573	564.31
495.79	582.31
496.008	552.31
496.225	534.31
496.442	563.31
496.66	573.31
496.877	576.31
497.094	582.31
497.312	592.31
497.529	605.31
497.746	602.31
497.963	628.31
498.181	639.31
498.398	663.31
498.615	670.31
498.832	686.31
499.049	700.31
499.267	730.31
499.484	774.31
499.701	810.31
499.918	860.31
500.135	955.31
500.352	978.31
500.569	1012.31
500.786	986.31
501.003	962.31
501.22	895.31
501.437	848.31
501.654	816.31
501.871	775.31
502.088	734.31
