Data from 1969.PennyLincolnUp.Lamp.En5.5.200Scan.071719.P1._HRD10591_14-56-58-973.txt Node
Date: Thu Jul 18 14:56:58 EDT 2019
User: cochatt
Spectrometer: HR+D1059
Trigger mode: 1
Integration Time (sec): 1.000000E-1
Scans to average: 1
Electric dark correction enabled: true
Nonlinearity correction enabled: false
Boxcar width: 0
XAxis mode: Wavelengths
Number of Pixels in Spectrum: 2048
>>>>>Begin Spectral Data<<<<<
223.165	-15.19
223.4	-15.19
223.635	-15.19
223.869	-29.19
224.104	-6.19
224.338	-15.19
224.573	-15.19
224.808	-17.19
225.042	5.81
225.277	-8.19
225.511	8.81
225.746	-1.19
225.98	3.81
226.215	4.81
226.449	7.81
226.683	15.81
226.918	22.81
227.152	37.81
227.387	21.81
227.621	48.81
227.856	20.81
228.09	34.81
228.324	36.81
228.559	52.81
228.793	69.81
229.027	85.81
229.262	81.81
229.496	111.81
229.73	109.81
229.964	119.81
230.199	99.81
230.433	94.81
230.667	90.81
230.901	93.81
231.136	104.81
231.37	97.81
231.604	84.81
231.838	107.81
232.072	113.81
232.306	111.81
232.541	106.81
232.775	100.81
233.009	93.81
233.243	103.81
233.477	92.81
233.711	109.81
233.945	99.81
234.179	90.81
234.413	92.81
234.647	91.81
234.881	109.81
235.115	121.81
235.349	93.81
235.583	104.81
235.817	117.81
236.051	105.81
236.285	111.81
236.519	118.81
236.753	104.81
236.987	124.81
237.221	129.81
237.455	161.81
237.689	136.81
237.922	126.81
238.156	114.81
238.39	110.81
238.624	113.81
238.858	100.81
239.091	98.81
239.325	106.81
239.559	104.81
239.793	114.81
240.027	103.81
240.26	119.81
240.494	123.81
240.728	117.81
240.961	127.81
241.195	127.81
241.429	118.81
241.662	121.81
241.896	125.81
242.13	119.81
242.363	122.81
242.597	113.81
242.83	109.81
243.064	124.81
243.298	113.81
243.531	111.81
243.765	116.81
243.998	111.81
244.232	117.81
244.465	118.81
244.699	129.81
244.932	129.81
245.166	126.81
245.399	125.81
245.633	122.81
245.866	121.81
246.099	125.81
246.333	138.81
246.566	122.81
246.8	130.81
247.033	131.81
247.266	133.81
247.5	134.81
247.733	125.81
247.966	144.81
248.2	142.81
248.433	144.81
248.666	139.81
248.899	155.81
249.133	159.81
249.366	168.81
249.599	139.81
249.832	140.81
250.066	143.81
250.299	138.81
250.532	150.81
250.765	163.81
250.998	166.81
251.231	184.81
251.465	168.81
251.698	163.81
251.931	164.81
252.164	161.81
252.397	168.81
252.63	165.81
252.863	155.81
253.096	179.81
253.329	208.81
253.562	184.81
253.795	183.81
254.028	157.81
254.261	167.81
254.494	181.81
254.727	197.81
254.96	213.81
255.193	205.81
255.426	194.81
255.659	188.81
255.892	186.81
256.124	193.81
256.357	185.81
256.59	198.81
256.823	185.81
257.056	172.81
257.289	182.81
257.521	187.81
257.754	156.81
257.987	177.81
258.22	171.81
258.452	165.81
258.685	178.81
258.918	173.81
259.151	189.81
259.383	191.81
259.616	185.81
259.849	188.81
260.081	191.81
260.314	196.81
260.547	208.81
260.779	211.81
261.012	222.81
261.244	195.81
261.477	207.81
261.71	186.81
261.942	189.81
262.175	196.81
262.407	185.81
262.64	170.81
262.872	183.81
263.105	178.81
263.337	184.81
263.57	175.81
263.802	183.81
264.035	183.81
264.267	192.81
264.499	187.81
264.732	177.81
264.964	166.81
265.197	185.81
265.429	189.81
265.661	176.81
265.894	175.81
266.126	186.81
266.358	197.81
266.591	183.81
266.823	179.81
267.055	195.81
267.287	193.81
267.52	181.81
267.752	199.81
267.984	200.81
268.216	194.81
268.448	199.81
268.681	214.81
268.913	210.81
269.145	224.81
269.377	241.81
269.609	236.81
269.841	230.81
270.073	243.81
270.306	248.81
270.538	258.81
270.77	240.81
271.002	250.81
271.234	225.81
271.466	234.81
271.698	240.81
271.93	255.81
272.162	257.81
272.394	265.81
272.626	256.81
272.858	217.81
273.09	245.81
273.322	233.81
273.553	226.81
273.785	240.81
274.017	215.81
274.249	207.81
274.481	219.81
274.713	215.81
274.945	222.81
275.176	226.81
275.408	210.81
275.64	211.81
275.872	224.81
276.104	233.81
276.335	211.81
276.567	225.81
276.799	265.81
277.031	253.81
277.262	267.81
277.494	270.81
277.726	247.81
277.957	254.81
278.189	251.81
278.421	234.81
278.652	244.81
278.884	211.81
279.115	232.81
279.347	242.81
279.579	240.81
279.81	225.81
280.042	221.81
280.273	206.81
280.505	219.81
280.736	234.81
280.968	222.81
281.199	237.81
281.431	238.81
281.662	227.81
281.894	242.81
282.125	239.81
282.356	243.81
282.588	253.81
282.819	257.81
283.051	254.81
283.282	246.81
283.513	232.81
283.745	230.81
283.976	240.81
284.207	244.81
284.439	239.81
284.67	265.81
284.901	241.81
285.132	231.81
285.364	229.81
285.595	251.81
285.826	234.81
286.057	242.81
286.288	233.81
286.52	245.81
286.751	251.81
286.982	237.81
287.213	258.81
287.444	262.81
287.675	271.81
287.906	267.81
288.138	257.81
288.369	267.81
288.6	255.81
288.831	273.81
289.062	259.81
289.293	250.81
289.524	258.81
289.755	256.81
289.986	253.81
290.217	262.81
290.448	248.81
290.679	244.81
290.91	248.81
291.141	255.81
291.371	268.81
291.602	260.81
291.833	258.81
292.064	261.81
292.295	251.81
292.526	236.81
292.757	236.81
292.987	231.81
293.218	253.81
293.449	250.81
293.68	262.81
293.91	254.81
294.141	266.81
294.372	269.81
294.603	246.81
294.833	263.81
295.064	239.81
295.295	263.81
295.525	263.81
295.756	263.81
295.987	252.81
296.217	258.81
296.448	272.81
296.679	262.81
296.909	268.81
297.14	267.81
297.37	265.81
297.601	286.81
297.831	279.81
298.062	283.81
298.292	275.81
298.523	273.81
298.753	278.81
298.984	267.81
299.214	283.81
299.445	266.81
299.675	271.81
299.905	272.81
300.136	297.81
300.366	273.81
300.597	277.81
300.827	260.81
301.057	285.81
301.288	285.81
301.518	294.81
301.748	290.81
301.979	275.81
302.209	282.81
302.439	297.81
302.669	291.81
302.9	289.81
303.13	294.81
303.36	289.81
303.59	293.81
303.82	271.81
304.051	309.81
304.281	280.81
304.511	275.81
304.741	286.81
304.971	298.81
305.201	293.81
305.431	279.81
305.661	295.81
305.891	292.81
306.121	293.81
306.352	288.81
306.582	285.81
306.812	275.81
307.042	302.81
307.272	279.81
307.502	273.81
307.731	287.81
307.961	293.81
308.191	275.81
308.421	299.81
308.651	293.81
308.881	294.81
309.111	299.81
309.341	315.81
309.571	293.81
309.8	309.81
310.03	291.81
310.26	306.81
310.49	316.81
310.72	327.81
310.949	313.81
311.179	349.81
311.409	309.81
311.639	296.81
311.868	324.81
312.098	321.81
312.328	307.81
312.557	330.81
312.787	342.81
313.017	330.81
313.246	316.81
313.476	333.81
313.706	334.81
313.935	326.81
314.165	329.81
314.394	343.81
314.624	327.81
314.853	322.81
315.083	306.81
315.312	313.81
315.542	310.81
315.771	310.81
316.001	306.81
316.23	319.81
316.46	320.81
316.689	313.81
316.919	329.81
317.148	329.81
317.377	328.81
317.607	325.81
317.836	322.81
318.065	301.81
318.295	317.81
318.524	297.81
318.753	319.81
318.983	317.81
319.212	317.81
319.441	310.81
319.67	323.81
319.9	339.81
320.129	345.81
320.358	323.81
320.587	325.81
320.816	323.81
321.046	337.81
321.275	324.81
321.504	337.81
321.733	327.81
321.962	327.81
322.191	339.81
322.42	348.81
322.649	352.81
322.878	335.81
323.108	375.81
323.337	381.81
323.566	368.81
323.795	384.81
324.024	411.81
324.253	470.81
324.482	647.81
324.71	915.81
324.939	1233.81
325.168	1060.81
325.397	581.81
325.626	435.81
325.855	382.81
326.084	390.81
326.313	371.81
326.542	389.81
326.77	399.81
326.999	464.81
327.228	600.81
327.457	840.81
327.686	902.81
327.914	653.81
328.143	477.81
328.372	445.81
328.6	472.81
328.829	417.81
329.058	418.81
329.287	437.81
329.515	410.81
329.744	395.81
329.972	398.81
330.201	389.81
330.43	427.81
330.658	451.81
330.887	453.81
331.115	433.81
331.344	414.81
331.572	386.81
331.801	408.81
332.03	404.81
332.258	387.81
332.486	373.81
332.715	388.81
332.943	419.81
333.172	408.81
333.4	411.81
333.629	413.81
333.857	429.81
334.085	426.81
334.314	426.81
334.542	478.81
334.771	471.81
334.999	426.81
335.227	423.81
335.455	413.81
335.684	405.81
335.912	413.81
336.14	394.81
336.369	390.81
336.597	375.81
336.825	383.81
337.053	390.81
337.281	364.81
337.51	373.81
337.738	362.81
337.966	359.81
338.194	380.81
338.422	371.81
338.65	374.81
338.878	385.81
339.106	355.81
339.334	363.81
339.562	352.81
339.79	368.81
340.018	369.81
340.246	345.81
340.474	361.81
340.702	375.81
340.93	344.81
341.158	360.81
341.386	346.81
341.614	340.81
341.842	352.81
342.07	367.81
342.298	357.81
342.526	347.81
342.754	348.81
342.981	357.81
343.209	355.81
343.437	373.81
343.665	361.81
343.893	381.81
344.12	409.81
344.348	385.81
344.576	386.81
344.804	372.81
345.031	375.81
345.259	388.81
345.487	356.81
345.714	352.81
345.942	353.81
346.17	344.81
346.397	337.81
346.625	348.81
346.853	347.81
347.08	342.81
347.308	357.81
347.535	350.81
347.763	358.81
347.99	349.81
348.218	345.81
348.445	347.81
348.673	343.81
348.9	346.81
349.128	330.81
349.355	322.81
349.583	320.81
349.81	325.81
350.037	333.81
350.265	331.81
350.492	339.81
350.72	338.81
350.947	319.81
351.174	341.81
351.402	336.81
351.629	358.81
351.856	326.81
352.083	355.81
352.311	345.81
352.538	354.81
352.765	349.81
352.992	352.81
353.22	347.81
353.447	326.81
353.674	335.81
353.901	323.81
354.128	317.81
354.355	328.81
354.583	337.81
354.81	318.81
355.037	319.81
355.264	330.81
355.491	333.81
355.718	323.81
355.945	313.81
356.172	309.81
356.399	324.81
356.626	316.81
356.853	322.81
357.08	322.81
357.307	326.81
357.534	322.81
357.761	334.81
357.988	328.81
358.215	329.81
358.441	327.81
358.668	312.81
358.895	331.81
359.122	325.81
359.349	338.81
359.576	335.81
359.802	335.81
360.029	363.81
360.256	357.81
360.483	355.81
360.709	338.81
360.936	348.81
361.163	331.81
361.39	341.81
361.616	359.81
361.843	350.81
362.07	344.81
362.296	342.81
362.523	345.81
362.749	347.81
362.976	337.81
363.203	327.81
363.429	344.81
363.656	335.81
363.882	316.81
364.109	317.81
364.335	339.81
364.562	341.81
364.788	337.81
365.015	317.81
365.241	340.81
365.468	330.81
365.694	330.81
365.92	347.81
366.147	341.81
366.373	336.81
366.599	326.81
366.826	320.81
367.052	335.81
367.278	337.81
367.505	315.81
367.731	329.81
367.957	328.81
368.184	308.81
368.41	322.81
368.636	337.81
368.862	347.81
369.089	335.81
369.315	324.81
369.541	321.81
369.767	333.81
369.993	332.81
370.219	321.81
370.445	321.81
370.672	323.81
370.898	329.81
371.124	339.81
371.35	333.81
371.576	329.81
371.802	323.81
372.028	310.81
372.254	347.81
372.48	330.81
372.706	338.81
372.932	344.81
373.158	329.81
373.384	329.81
373.61	335.81
373.835	345.81
374.061	315.81
374.287	339.81
374.513	356.81
374.739	347.81
374.965	349.81
375.191	329.81
375.416	331.81
375.642	341.81
375.868	331.81
376.094	329.81
376.319	327.81
376.545	328.81
376.771	333.81
376.997	340.81
377.222	346.81
377.448	336.81
377.674	335.81
377.899	344.81
378.125	329.81
378.35	336.81
378.576	327.81
378.802	312.81
379.027	316.81
379.253	350.81
379.478	327.81
379.704	327.81
379.929	312.81
380.155	345.81
380.38	341.81
380.606	333.81
380.831	335.81
381.057	318.81
381.282	339.81
381.507	344.81
381.733	322.81
381.958	302.81
382.184	326.81
382.409	318.81
382.634	360.81
382.86	341.81
383.085	369.81
383.31	346.81
383.535	348.81
383.761	344.81
383.986	346.81
384.211	349.81
384.436	359.81
384.662	365.81
384.887	360.81
385.112	389.81
385.337	379.81
385.562	362.81
385.787	365.81
386.013	387.81
386.238	377.81
386.463	380.81
386.688	387.81
386.913	375.81
387.138	378.81
387.363	367.81
387.588	373.81
387.813	379.81
388.038	381.81
388.263	357.81
388.488	376.81
388.713	363.81
388.938	349.81
389.163	361.81
389.387	349.81
389.612	369.81
389.837	369.81
390.062	356.81
390.287	353.81
390.512	376.81
390.736	380.81
390.961	384.81
391.186	385.81
391.411	368.81
391.636	386.81
391.86	387.81
392.085	403.81
392.31	386.81
392.534	386.81
392.759	378.81
392.984	379.81
393.208	378.81
393.433	367.81
393.658	373.81
393.882	380.81
394.107	382.81
394.331	376.81
394.556	366.81
394.78	381.81
395.005	383.81
395.229	389.81
395.454	384.81
395.678	401.81
395.903	408.81
396.127	391.81
396.352	398.81
396.576	404.81
396.801	399.81
397.025	420.81
397.249	382.81
397.474	412.81
397.698	414.81
397.922	405.81
398.147	400.81
398.371	413.81
398.595	407.81
398.82	431.81
399.044	447.81
399.268	481.81
399.492	515.81
399.717	567.81
399.941	561.81
400.165	551.81
400.389	543.81
400.613	474.81
400.837	455.81
401.062	447.81
401.286	447.81
401.51	447.81
401.734	425.81
401.958	433.81
402.182	442.81
402.406	441.81
402.63	432.81
402.854	450.81
403.078	457.81
403.302	465.81
403.526	475.81
403.75	462.81
403.974	455.81
404.198	472.81
404.422	482.81
404.645	470.81
404.869	460.81
405.093	496.81
405.317	516.81
405.541	519.81
405.765	497.81
405.988	493.81
406.212	487.81
406.436	485.81
406.66	486.81
406.883	515.81
407.107	514.81
407.331	553.81
407.555	594.81
407.778	563.81
408.002	515.81
408.226	518.81
408.449	497.81
408.673	493.81
408.896	472.81
409.12	505.81
409.344	492.81
409.567	448.81
409.791	445.81
410.014	458.81
410.238	465.81
410.461	451.81
410.685	432.81
410.908	459.81
411.132	474.81
411.355	483.81
411.578	463.81
411.802	450.81
412.025	436.81
412.249	442.81
412.472	445.81
412.695	498.81
412.919	473.81
413.142	452.81
413.365	431.81
413.589	424.81
413.812	433.81
414.035	426.81
414.258	419.81
414.482	442.81
414.705	417.81
414.928	432.81
415.151	445.81
415.374	409.81
415.597	414.81
415.821	405.81
416.044	421.81
416.267	431.81
416.49	413.81
416.713	419.81
416.936	424.81
417.159	418.81
417.382	442.81
417.605	435.81
417.828	455.81
418.051	433.81
418.274	435.81
418.497	436.81
418.72	419.81
418.943	428.81
419.166	451.81
419.389	460.81
419.611	466.81
419.834	437.81
420.057	437.81
420.28	449.81
420.503	455.81
420.726	457.81
420.948	436.81
421.171	473.81
421.394	501.81
421.617	450.81
421.839	433.81
422.062	438.81
422.285	435.81
422.507	481.81
422.73	527.81
422.953	478.81
423.175	457.81
423.398	455.81
423.621	454.81
423.843	482.81
424.066	467.81
424.288	459.81
424.511	473.81
424.733	511.81
424.956	547.81
425.178	526.81
425.401	511.81
425.623	503.81
425.846	487.81
426.068	448.81
426.291	441.81
426.513	462.81
426.735	457.81
426.958	479.81
427.18	527.81
427.402	601.81
427.625	630.81
427.847	565.81
428.069	490.81
428.292	458.81
428.514	425.81
428.736	405.81
428.958	434.81
429.181	389.81
429.403	409.81
429.625	445.81
429.847	421.81
430.069	452.81
430.292	452.81
430.514	435.81
430.736	410.81
430.958	400.81
431.18	397.81
431.402	376.81
431.624	398.81
431.846	404.81
432.068	391.81
432.29	408.81
432.512	406.81
432.734	400.81
432.956	392.81
433.178	406.81
433.4	417.81
433.622	407.81
433.844	401.81
434.066	406.81
434.287	395.81
434.509	421.81
434.731	435.81
434.953	454.81
435.175	440.81
435.397	454.81
435.618	435.81
435.84	496.81
436.062	527.81
436.284	544.81
436.505	459.81
436.727	434.81
436.949	409.81
437.17	411.81
437.392	424.81
437.614	419.81
437.835	439.81
438.057	495.81
438.278	540.81
438.5	548.81
438.721	577.81
438.943	549.81
439.165	467.81
439.386	446.81
439.608	446.81
439.829	442.81
440.05	462.81
440.272	475.81
440.493	452.81
440.715	447.81
440.936	433.81
441.158	437.81
441.379	449.81
441.6	437.81
441.822	451.81
442.043	477.81
442.264	512.81
442.486	521.81
442.707	474.81
442.928	479.81
443.149	477.81
443.371	462.81
443.592	494.81
443.813	569.81
444.034	595.81
444.255	516.81
444.476	473.81
444.698	481.81
444.919	488.81
445.14	563.81
445.361	506.81
445.582	490.81
445.803	496.81
446.024	569.81
446.245	561.81
446.466	516.81
446.687	484.81
446.908	425.81
447.129	401.81
447.35	396.81
447.571	403.81
447.792	407.81
448.013	415.81
448.234	417.81
448.455	436.81
448.675	512.81
448.896	547.81
449.117	478.81
449.338	480.81
449.559	545.81
449.779	583.81
450	471.81
450.221	419.81
450.442	393.81
450.662	381.81
450.883	388.81
451.104	425.81
451.324	419.81
451.545	394.81
451.766	367.81
451.986	382.81
452.207	385.81
452.428	388.81
452.648	355.81
452.869	381.81
453.089	387.81
453.31	377.81
453.53	357.81
453.751	366.81
453.971	381.81
454.192	375.81
454.412	367.81
454.633	372.81
454.853	359.81
455.073	372.81
455.294	378.81
455.514	419.81
455.734	412.81
455.955	356.81
456.175	332.81
456.395	366.81
456.616	321.81
456.836	353.81
457.056	356.81
457.276	341.81
457.497	345.81
457.717	346.81
457.937	336.81
458.157	356.81
458.377	360.81
458.598	379.81
458.818	422.81
459.038	461.81
459.258	482.81
459.478	425.81
459.698	425.81
459.918	409.81
460.138	400.81
460.358	420.81
460.578	423.81
460.798	429.81
461.018	446.81
461.238	450.81
461.458	446.81
461.678	435.81
461.898	419.81
462.118	444.81
462.338	435.81
462.558	451.81
462.777	465.81
462.997	470.81
463.217	506.81
463.437	505.81
463.657	473.81
463.876	472.81
464.096	469.81
464.316	458.81
464.536	479.81
464.755	469.81
464.975	453.81
465.195	490.81
465.414	486.81
465.634	443.81
465.854	403.81
466.073	400.81
466.293	396.81
466.512	389.81
466.732	391.81
466.951	381.81
467.171	396.81
467.391	386.81
467.61	391.81
467.829	398.81
468.049	375.81
468.268	382.81
468.488	373.81
468.707	361.81
468.927	379.81
469.146	368.81
469.365	395.81
469.585	393.81
469.804	412.81
470.023	403.81
470.243	394.81
470.462	394.81
470.681	421.81
470.901	404.81
471.12	389.81
471.339	402.81
471.558	407.81
471.777	390.81
471.997	389.81
472.216	372.81
472.435	434.81
472.654	413.81
472.873	377.81
473.092	393.81
473.311	379.81
473.53	381.81
473.749	383.81
473.968	419.81
474.187	487.81
474.406	470.81
474.625	400.81
474.844	378.81
475.063	371.81
475.282	396.81
475.501	376.81
475.72	397.81
475.939	374.81
476.158	391.81
476.377	377.81
476.596	386.81
476.814	426.81
477.033	405.81
477.252	407.81
477.471	417.81
477.69	415.81
477.908	423.81
478.127	416.81
478.346	431.81
478.564	451.81
478.783	439.81
479.002	433.81
479.22	451.81
479.439	460.81
479.658	474.81
479.876	468.81
480.095	460.81
480.313	515.81
480.532	481.81
480.751	477.81
480.969	480.81
481.188	540.81
481.406	543.81
481.624	503.81
481.843	448.81
482.061	449.81
482.28	462.81
482.498	425.81
482.717	430.81
482.935	470.81
483.153	415.81
483.372	450.81
483.59	454.81
483.808	442.81
484.027	453.81
484.245	462.81
484.463	463.81
484.681	458.81
484.9	441.81
485.118	457.81
485.336	458.81
485.554	455.81
485.772	449.81
485.99	432.81
486.209	482.81
486.427	470.81
486.645	451.81
486.863	498.81
487.081	473.81
487.299	478.81
487.517	458.81
487.735	451.81
487.953	470.81
488.171	480.81
488.389	488.81
488.607	476.81
488.825	470.81
489.043	476.81
489.261	449.81
489.479	486.81
489.696	471.81
489.914	450.81
490.132	478.81
490.35	497.81
490.568	502.81
490.786	502.81
491.003	520.81
491.221	505.81
491.439	514.81
491.657	525.81
491.874	517.81
492.092	540.81
492.31	552.81
492.527	552.81
492.745	549.81
492.963	544.81
493.18	530.81
493.398	561.81
493.615	563.81
493.833	573.81
494.05	546.81
494.268	553.81
494.485	568.81
494.703	565.81
494.92	565.81
495.138	567.81
495.355	569.81
495.573	552.81
495.79	555.81
496.008	559.81
496.225	541.81
496.442	563.81
496.66	552.81
496.877	552.81
497.094	566.81
497.312	577.81
497.529	573.81
497.746	583.81
497.963	576.81
498.181	613.81
498.398	647.81
498.615	646.81
498.832	652.81
499.049	688.81
499.267	716.81
499.484	759.81
499.701	775.81
499.918	831.81
500.135	887.81
500.352	951.81
500.569	1019.81
500.786	995.81
501.003	946.81
501.22	892.81
501.437	833.81
501.654	799.81
501.871	787.81
502.088	729.81
502.305	679.81
