Data from 1969.PennyLincolnUp.Lamp.En5.5.200Scan.071719.P1._HRD10591_14-54-54-971.txt Node
Date: Thu Jul 18 14:54:54 EDT 2019
User: cochatt
Spectrometer: HR+D1059
Trigger mode: 1
Integration Time (sec): 1.000000E-1
Scans to average: 1
Electric dark correction enabled: true
Nonlinearity correction enabled: false
Boxcar width: 0
XAxis mode: Wavelengths
Number of Pixels in Spectrum: 2048
>>>>>Begin Spectral Data<<<<<
223.165	-7.06
223.4	-7.06
223.635	-7.06
223.869	-16.06
224.104	-17.06
224.338	-28.06
224.573	-19.06
224.808	-11.06
225.042	-3.06
225.277	-8.06
225.511	-2.06
225.746	9.94
225.98	7.94
226.215	15.94
226.449	15.94
226.683	31.94
226.918	11.94
227.152	17.94
227.387	28.94
227.621	27.94
227.856	35.94
228.09	50.94
228.324	52.94
228.559	54.94
228.793	58.94
229.027	80.94
229.262	82.94
229.496	98.94
229.73	111.94
229.964	120.94
230.199	106.94
230.433	96.94
230.667	112.94
230.901	107.94
231.136	99.94
231.37	110.94
231.604	98.94
231.838	98.94
232.072	110.94
232.306	93.94
232.541	99.94
232.775	99.94
233.009	109.94
233.243	106.94
233.477	108.94
233.711	104.94
233.945	104.94
234.179	90.94
234.413	110.94
234.647	109.94
234.881	103.94
235.115	111.94
235.349	108.94
235.583	126.94
235.817	111.94
236.051	109.94
236.285	110.94
236.519	125.94
236.753	106.94
236.987	121.94
237.221	134.94
237.455	163.94
237.689	138.94
237.922	116.94
238.156	120.94
238.39	105.94
238.624	108.94
238.858	116.94
239.091	104.94
239.325	114.94
239.559	119.94
239.793	110.94
240.027	114.94
240.26	123.94
240.494	121.94
240.728	116.94
240.961	118.94
241.195	125.94
241.429	119.94
241.662	115.94
241.896	135.94
242.13	112.94
242.363	111.94
242.597	105.94
242.83	134.94
243.064	131.94
243.298	128.94
243.531	134.94
243.765	127.94
243.998	120.94
244.232	136.94
244.465	132.94
244.699	126.94
244.932	126.94
245.166	151.94
245.399	123.94
245.633	135.94
245.866	134.94
246.099	134.94
246.333	122.94
246.566	137.94
246.8	129.94
247.033	128.94
247.266	132.94
247.5	151.94
247.733	145.94
247.966	149.94
248.2	130.94
248.433	151.94
248.666	127.94
248.899	143.94
249.133	151.94
249.366	164.94
249.599	168.94
249.832	148.94
250.066	144.94
250.299	152.94
250.532	150.94
250.765	178.94
250.998	192.94
251.231	195.94
251.465	182.94
251.698	184.94
251.931	157.94
252.164	168.94
252.397	166.94
252.63	179.94
252.863	177.94
253.096	178.94
253.329	189.94
253.562	174.94
253.795	167.94
254.028	184.94
254.261	153.94
254.494	180.94
254.727	198.94
254.96	213.94
255.193	201.94
255.426	192.94
255.659	172.94
255.892	202.94
256.124	192.94
256.357	216.94
256.59	192.94
256.823	159.94
257.056	177.94
257.289	191.94
257.521	165.94
257.754	193.94
257.987	168.94
258.22	164.94
258.452	167.94
258.685	161.94
258.918	180.94
259.151	180.94
259.383	182.94
259.616	180.94
259.849	183.94
260.081	196.94
260.314	199.94
260.547	200.94
260.779	207.94
261.012	182.94
261.244	183.94
261.477	187.94
261.71	186.94
261.942	180.94
262.175	188.94
262.407	187.94
262.64	187.94
262.872	191.94
263.105	180.94
263.337	164.94
263.57	189.94
263.802	194.94
264.035	188.94
264.267	171.94
264.499	191.94
264.732	178.94
264.964	182.94
265.197	180.94
265.429	173.94
265.661	183.94
265.894	184.94
266.126	194.94
266.358	187.94
266.591	181.94
266.823	201.94
267.055	196.94
267.287	204.94
267.52	199.94
267.752	199.94
267.984	181.94
268.216	195.94
268.448	217.94
268.681	205.94
268.913	216.94
269.145	225.94
269.377	243.94
269.609	227.94
269.841	227.94
270.073	220.94
270.306	218.94
270.538	253.94
270.77	239.94
271.002	219.94
271.234	220.94
271.466	243.94
271.698	239.94
271.93	225.94
272.162	253.94
272.394	258.94
272.626	235.94
272.858	235.94
273.09	222.94
273.322	210.94
273.553	215.94
273.785	219.94
274.017	215.94
274.249	232.94
274.481	225.94
274.713	224.94
274.945	217.94
275.176	214.94
275.408	214.94
275.64	217.94
275.872	223.94
276.104	224.94
276.335	230.94
276.567	232.94
276.799	233.94
277.031	257.94
277.262	253.94
277.494	272.94
277.726	250.94
277.957	219.94
278.189	238.94
278.421	233.94
278.652	237.94
278.884	236.94
279.115	227.94
279.347	234.94
279.579	243.94
279.81	215.94
280.042	227.94
280.273	226.94
280.505	232.94
280.736	228.94
280.968	234.94
281.199	235.94
281.431	249.94
281.662	224.94
281.894	221.94
282.125	256.94
282.356	243.94
282.588	263.94
282.819	239.94
283.051	236.94
283.282	223.94
283.513	236.94
283.745	232.94
283.976	225.94
284.207	263.94
284.439	232.94
284.67	241.94
284.901	238.94
285.132	247.94
285.364	268.94
285.595	258.94
285.826	239.94
286.057	236.94
286.288	246.94
286.52	262.94
286.751	245.94
286.982	240.94
287.213	248.94
287.444	256.94
287.675	248.94
287.906	264.94
288.138	258.94
288.369	256.94
288.6	253.94
288.831	261.94
289.062	253.94
289.293	262.94
289.524	254.94
289.755	254.94
289.986	233.94
290.217	235.94
290.448	258.94
290.679	262.94
290.91	270.94
291.141	275.94
291.371	260.94
291.602	255.94
291.833	248.94
292.064	259.94
292.295	260.94
292.526	256.94
292.757	256.94
292.987	255.94
293.218	247.94
293.449	256.94
293.68	273.94
293.91	256.94
294.141	252.94
294.372	256.94
294.603	254.94
294.833	247.94
295.064	254.94
295.295	255.94
295.525	261.94
295.756	262.94
295.987	265.94
296.217	258.94
296.448	273.94
296.679	285.94
296.909	265.94
297.14	258.94
297.37	269.94
297.601	266.94
297.831	254.94
298.062	250.94
298.292	256.94
298.523	285.94
298.753	281.94
298.984	259.94
299.214	273.94
299.445	285.94
299.675	286.94
299.905	265.94
300.136	273.94
300.366	270.94
300.597	278.94
300.827	298.94
301.057	263.94
301.288	292.94
301.518	290.94
301.748	287.94
301.979	305.94
302.209	286.94
302.439	295.94
302.669	303.94
302.9	288.94
303.13	284.94
303.36	299.94
303.59	294.94
303.82	286.94
304.051	310.94
304.281	292.94
304.511	293.94
304.741	295.94
304.971	288.94
305.201	283.94
305.431	271.94
305.661	293.94
305.891	280.94
306.121	300.94
306.352	292.94
306.582	298.94
306.812	296.94
307.042	299.94
307.272	285.94
307.502	289.94
307.731	300.94
307.961	278.94
308.191	278.94
308.421	270.94
308.651	279.94
308.881	295.94
309.111	290.94
309.341	278.94
309.571	281.94
309.8	303.94
310.03	325.94
310.26	291.94
310.49	308.94
310.72	319.94
310.949	331.94
311.179	310.94
311.409	314.94
311.639	315.94
311.868	325.94
312.098	312.94
312.328	326.94
312.557	313.94
312.787	324.94
313.017	340.94
313.246	324.94
313.476	310.94
313.706	314.94
313.935	353.94
314.165	319.94
314.394	331.94
314.624	320.94
314.853	301.94
315.083	329.94
315.312	325.94
315.542	311.94
315.771	303.94
316.001	314.94
316.23	298.94
316.46	318.94
316.689	330.94
316.919	323.94
317.148	330.94
317.377	331.94
317.607	344.94
317.836	320.94
318.065	323.94
318.295	323.94
318.524	315.94
318.753	298.94
318.983	302.94
319.212	331.94
319.441	310.94
319.67	326.94
319.9	311.94
320.129	308.94
320.358	327.94
320.587	321.94
320.816	330.94
321.046	334.94
321.275	308.94
321.504	319.94
321.733	320.94
321.962	318.94
322.191	328.94
322.42	338.94
322.649	350.94
322.878	342.94
323.108	363.94
323.337	355.94
323.566	381.94
323.795	391.94
324.024	393.94
324.253	452.94
324.482	588.94
324.71	789.94
324.939	1040.94
325.168	918.94
325.397	527.94
325.626	421.94
325.855	382.94
326.084	342.94
326.313	380.94
326.542	375.94
326.77	370.94
326.999	431.94
327.228	528.94
327.457	743.94
327.686	830.94
327.914	592.94
328.143	443.94
328.372	439.94
328.6	409.94
328.829	406.94
329.058	410.94
329.287	398.94
329.515	389.94
329.744	384.94
329.972	396.94
330.201	396.94
330.43	409.94
330.658	425.94
330.887	445.94
331.115	442.94
331.344	406.94
331.572	363.94
331.801	376.94
332.03	380.94
332.258	354.94
332.486	390.94
332.715	396.94
332.943	395.94
333.172	400.94
333.4	423.94
333.629	427.94
333.857	435.94
334.085	418.94
334.314	441.94
334.542	443.94
334.771	427.94
334.999	411.94
335.227	410.94
335.455	414.94
335.684	394.94
335.912	366.94
336.14	374.94
336.369	373.94
336.597	391.94
336.825	378.94
337.053	357.94
337.281	379.94
337.51	367.94
337.738	366.94
337.966	365.94
338.194	358.94
338.422	382.94
338.65	341.94
338.878	353.94
339.106	355.94
339.334	373.94
339.562	362.94
339.79	362.94
340.018	355.94
340.246	359.94
340.474	347.94
340.702	352.94
340.93	358.94
341.158	335.94
341.386	338.94
341.614	347.94
341.842	339.94
342.07	330.94
342.298	338.94
342.526	341.94
342.754	349.94
342.981	333.94
343.209	335.94
343.437	350.94
343.665	362.94
343.893	384.94
344.12	382.94
344.348	399.94
344.576	375.94
344.804	365.94
345.031	359.94
345.259	359.94
345.487	354.94
345.714	344.94
345.942	320.94
346.17	334.94
346.397	350.94
346.625	336.94
346.853	342.94
347.08	351.94
347.308	341.94
347.535	325.94
347.763	343.94
347.99	346.94
348.218	344.94
348.445	350.94
348.673	343.94
348.9	354.94
349.128	352.94
349.355	327.94
349.583	335.94
349.81	316.94
350.037	330.94
350.265	333.94
350.492	339.94
350.72	348.94
350.947	347.94
351.174	332.94
351.402	338.94
351.629	339.94
351.856	326.94
352.083	323.94
352.311	327.94
352.538	340.94
352.765	343.94
352.992	335.94
353.22	324.94
353.447	336.94
353.674	330.94
353.901	338.94
354.128	323.94
354.355	305.94
354.583	322.94
354.81	321.94
355.037	304.94
355.264	339.94
355.491	323.94
355.718	336.94
355.945	354.94
356.172	319.94
356.399	322.94
356.626	328.94
356.853	326.94
357.08	288.94
357.307	318.94
357.534	322.94
357.761	316.94
357.988	324.94
358.215	295.94
358.441	312.94
358.668	303.94
358.895	329.94
359.122	307.94
359.349	326.94
359.576	330.94
359.802	337.94
360.029	359.94
360.256	337.94
360.483	328.94
360.709	324.94
360.936	342.94
361.163	340.94
361.39	329.94
361.616	327.94
361.843	341.94
362.07	332.94
362.296	335.94
362.523	347.94
362.749	335.94
362.976	331.94
363.203	328.94
363.429	306.94
363.656	327.94
363.882	328.94
364.109	316.94
364.335	331.94
364.562	320.94
364.788	325.94
365.015	316.94
365.241	335.94
365.468	334.94
365.694	321.94
365.92	329.94
366.147	320.94
366.373	310.94
366.599	309.94
366.826	324.94
367.052	308.94
367.278	325.94
367.505	321.94
367.731	336.94
367.957	334.94
368.184	335.94
368.41	336.94
368.636	347.94
368.862	324.94
369.089	348.94
369.315	346.94
369.541	323.94
369.767	328.94
369.993	332.94
370.219	342.94
370.445	327.94
370.672	332.94
370.898	318.94
371.124	335.94
371.35	341.94
371.576	342.94
371.802	328.94
372.028	347.94
372.254	328.94
372.48	348.94
372.706	327.94
372.932	358.94
373.158	345.94
373.384	328.94
373.61	345.94
373.835	326.94
374.061	301.94
374.287	324.94
374.513	338.94
374.739	348.94
374.965	367.94
375.191	360.94
375.416	343.94
375.642	332.94
375.868	330.94
376.094	349.94
376.319	318.94
376.545	329.94
376.771	318.94
376.997	319.94
377.222	327.94
377.448	326.94
377.674	334.94
377.899	327.94
378.125	331.94
378.35	333.94
378.576	331.94
378.802	343.94
379.027	325.94
379.253	332.94
379.478	344.94
379.704	352.94
379.929	354.94
380.155	330.94
380.38	319.94
380.606	330.94
380.831	351.94
381.057	347.94
381.282	340.94
381.507	327.94
381.733	336.94
381.958	341.94
382.184	352.94
382.409	340.94
382.634	329.94
382.86	329.94
383.085	345.94
383.31	348.94
383.535	352.94
383.761	343.94
383.986	374.94
384.211	353.94
384.436	386.94
384.662	363.94
384.887	382.94
385.112	368.94
385.337	374.94
385.562	362.94
385.787	382.94
386.013	370.94
386.238	375.94
386.463	362.94
386.688	376.94
386.913	370.94
387.138	382.94
387.363	355.94
387.588	380.94
387.813	378.94
388.038	342.94
388.263	376.94
388.488	357.94
388.713	366.94
388.938	372.94
389.163	363.94
389.387	376.94
389.612	352.94
389.837	366.94
390.062	364.94
390.287	372.94
390.512	364.94
390.736	378.94
390.961	382.94
391.186	373.94
391.411	390.94
391.636	387.94
391.86	402.94
392.085	373.94
392.31	395.94
392.534	401.94
392.759	388.94
392.984	365.94
393.208	378.94
393.433	378.94
393.658	377.94
393.882	386.94
394.107	380.94
394.331	397.94
394.556	367.94
394.78	376.94
395.005	379.94
395.229	383.94
395.454	389.94
395.678	396.94
395.903	403.94
396.127	392.94
396.352	414.94
396.576	392.94
396.801	416.94
397.025	382.94
397.249	427.94
397.474	419.94
397.698	398.94
397.922	393.94
398.147	411.94
398.371	428.94
398.595	424.94
398.82	434.94
399.044	450.94
399.268	469.94
399.492	533.94
399.717	552.94
399.941	552.94
400.165	546.94
400.389	518.94
400.613	482.94
400.837	438.94
401.062	436.94
401.286	413.94
401.51	423.94
401.734	441.94
401.958	451.94
402.182	443.94
402.406	436.94
402.63	459.94
402.854	462.94
403.078	445.94
403.302	468.94
403.526	482.94
403.75	461.94
403.974	476.94
404.198	457.94
404.422	459.94
404.645	455.94
404.869	482.94
405.093	489.94
405.317	512.94
405.541	514.94
405.765	450.94
405.988	474.94
406.212	450.94
406.436	492.94
406.66	503.94
406.883	476.94
407.107	520.94
407.331	547.94
407.555	560.94
407.778	569.94
408.002	537.94
408.226	471.94
408.449	479.94
408.673	488.94
408.896	501.94
409.12	504.94
409.344	496.94
409.567	475.94
409.791	460.94
410.014	464.94
410.238	440.94
410.461	455.94
410.685	445.94
410.908	455.94
411.132	476.94
411.355	470.94
411.578	474.94
411.802	442.94
412.025	458.94
412.249	459.94
412.472	454.94
412.695	482.94
412.919	461.94
413.142	445.94
413.365	428.94
413.589	432.94
413.812	420.94
414.035	428.94
414.258	418.94
414.482	418.94
414.705	429.94
414.928	418.94
415.151	440.94
415.374	412.94
415.597	415.94
415.821	440.94
416.044	417.94
416.267	418.94
416.49	404.94
416.713	418.94
416.936	412.94
417.159	413.94
417.382	414.94
417.605	428.94
417.828	418.94
418.051	451.94
418.274	443.94
418.497	428.94
418.72	428.94
418.943	427.94
419.166	464.94
419.389	480.94
419.611	448.94
419.834	460.94
420.057	456.94
420.28	469.94
420.503	433.94
420.726	427.94
420.948	437.94
421.171	444.94
421.394	484.94
421.617	449.94
421.839	427.94
422.062	422.94
422.285	442.94
422.507	485.94
422.73	520.94
422.953	492.94
423.175	457.94
423.398	454.94
423.621	446.94
423.843	456.94
424.066	468.94
424.288	487.94
424.511	474.94
424.733	502.94
424.956	546.94
425.178	525.94
425.401	522.94
425.623	510.94
425.846	462.94
426.068	452.94
426.291	428.94
426.513	422.94
426.735	450.94
426.958	460.94
427.18	502.94
427.402	584.94
427.625	580.94
427.847	515.94
428.069	467.94
428.292	449.94
428.514	427.94
428.736	406.94
428.958	402.94
429.181	372.94
429.403	400.94
429.625	424.94
429.847	423.94
430.069	463.94
430.292	458.94
430.514	416.94
430.736	422.94
430.958	428.94
431.18	404.94
431.402	382.94
431.624	374.94
431.846	414.94
432.068	381.94
432.29	407.94
432.512	392.94
432.734	411.94
432.956	394.94
433.178	416.94
433.4	399.94
433.622	423.94
433.844	390.94
434.066	400.94
434.287	407.94
434.509	419.94
434.731	412.94
434.953	426.94
435.175	437.94
435.397	461.94
435.618	442.94
435.84	458.94
436.062	501.94
436.284	527.94
436.505	450.94
436.727	421.94
436.949	414.94
437.17	402.94
437.392	409.94
437.614	410.94
437.835	421.94
438.057	470.94
438.278	522.94
438.5	543.94
438.721	546.94
438.943	543.94
439.165	459.94
439.386	429.94
439.608	444.94
439.829	438.94
440.05	442.94
440.272	469.94
440.493	442.94
440.715	444.94
440.936	426.94
441.158	440.94
441.379	422.94
441.6	440.94
441.822	434.94
442.043	468.94
442.264	511.94
442.486	522.94
442.707	463.94
442.928	474.94
443.149	448.94
443.371	449.94
443.592	470.94
443.813	555.94
444.034	564.94
444.255	503.94
444.476	482.94
444.698	484.94
444.919	482.94
445.14	544.94
445.361	528.94
445.582	468.94
445.803	504.94
446.024	548.94
446.245	520.94
446.466	483.94
446.687	440.94
446.908	423.94
447.129	427.94
447.35	403.94
447.571	398.94
447.792	387.94
448.013	412.94
448.234	396.94
448.455	443.94
448.675	487.94
448.896	550.94
449.117	467.94
449.338	454.94
449.559	499.94
449.779	548.94
450	470.94
450.221	423.94
450.442	398.94
450.662	394.94
450.883	389.94
451.104	405.94
451.324	384.94
451.545	384.94
451.766	374.94
451.986	372.94
452.207	364.94
452.428	380.94
452.648	371.94
452.869	375.94
453.089	372.94
453.31	380.94
453.53	345.94
453.751	361.94
453.971	363.94
454.192	384.94
454.412	366.94
454.633	359.94
454.853	349.94
455.073	363.94
455.294	390.94
455.514	401.94
455.734	403.94
455.955	370.94
456.175	342.94
456.395	355.94
456.616	365.94
456.836	342.94
457.056	350.94
457.276	349.94
457.497	371.94
457.717	362.94
457.937	362.94
458.157	349.94
458.377	367.94
458.598	374.94
458.818	388.94
459.038	466.94
459.258	452.94
459.478	415.94
459.698	416.94
459.918	402.94
460.138	430.94
460.358	415.94
460.578	440.94
460.798	422.94
461.018	434.94
461.238	438.94
461.458	450.94
461.678	418.94
461.898	444.94
462.118	432.94
462.338	459.94
462.558	484.94
462.777	471.94
462.997	500.94
463.217	502.94
463.437	498.94
463.657	460.94
463.876	458.94
464.096	470.94
464.316	470.94
464.536	500.94
464.755	465.94
464.975	431.94
465.195	431.94
465.414	478.94
465.634	458.94
465.854	423.94
466.073	410.94
466.293	384.94
466.512	374.94
466.732	378.94
466.951	388.94
467.171	366.94
467.391	386.94
467.61	388.94
467.829	399.94
468.049	397.94
468.268	396.94
468.488	402.94
468.707	357.94
468.927	372.94
469.146	396.94
469.365	395.94
469.585	370.94
469.804	381.94
470.023	392.94
470.243	391.94
470.462	388.94
470.681	418.94
470.901	410.94
471.12	406.94
471.339	387.94
471.558	384.94
471.777	388.94
471.997	387.94
472.216	375.94
472.435	398.94
472.654	385.94
472.873	391.94
473.092	370.94
473.311	378.94
473.53	371.94
473.749	367.94
473.968	404.94
474.187	460.94
474.406	472.94
474.625	411.94
474.844	391.94
475.063	386.94
475.282	384.94
475.501	398.94
475.72	410.94
475.939	377.94
476.158	373.94
476.377	382.94
476.596	398.94
476.814	391.94
477.033	399.94
477.252	391.94
477.471	410.94
477.69	431.94
477.908	427.94
478.127	431.94
478.346	430.94
478.564	431.94
478.783	446.94
479.002	444.94
479.22	454.94
479.439	448.94
479.658	466.94
479.876	449.94
480.095	483.94
480.313	492.94
480.532	494.94
480.751	485.94
480.969	480.94
481.188	493.94
481.406	522.94
481.624	486.94
481.843	446.94
482.061	441.94
482.28	442.94
482.498	427.94
482.717	427.94
482.935	442.94
483.153	427.94
483.372	431.94
483.59	459.94
483.808	444.94
484.027	435.94
484.245	435.94
484.463	457.94
484.681	451.94
484.9	450.94
485.118	455.94
485.336	458.94
485.554	447.94
485.772	436.94
485.99	438.94
486.209	458.94
486.427	451.94
486.645	462.94
486.863	463.94
487.081	478.94
487.299	470.94
487.517	469.94
487.735	466.94
487.953	451.94
488.171	454.94
488.389	471.94
488.607	465.94
488.825	459.94
489.043	463.94
489.261	482.94
489.479	476.94
489.696	475.94
489.914	491.94
490.132	477.94
490.35	471.94
490.568	493.94
490.786	506.94
491.003	480.94
491.221	498.94
491.439	514.94
491.657	519.94
491.874	524.94
492.092	537.94
492.31	543.94
492.527	538.94
492.745	543.94
492.963	518.94
493.18	546.94
493.398	548.94
493.615	521.94
493.833	560.94
494.05	531.94
494.268	557.94
494.485	558.94
494.703	538.94
494.92	576.94
495.138	556.94
495.355	551.94
495.573	553.94
495.79	555.94
496.008	546.94
496.225	556.94
496.442	554.94
496.66	543.94
496.877	558.94
497.094	544.94
497.312	563.94
497.529	590.94
497.746	577.94
497.963	584.94
498.181	606.94
498.398	618.94
498.615	618.94
498.832	667.94
499.049	696.94
499.267	715.94
499.484	752.94
499.701	788.94
499.918	852.94
500.135	924.94
500.352	952.94
500.569	995.94
500.786	989.94
501.003	953.94
501.22	891.94
501.437	849.94
501.654	770.94
501.871	764.94
502.088	702.94
