Data from 1969.PennyLincolnUp.Lamp.En5.5.200Scan.071719.P1._HRD10591_14-56-53-972.txt Node
Date: Thu Jul 18 14:56:53 EDT 2019
User: cochatt
Spectrometer: HR+D1059
Trigger mode: 1
Integration Time (sec): 1.000000E-1
Scans to average: 1
Electric dark correction enabled: true
Nonlinearity correction enabled: false
Boxcar width: 0
XAxis mode: Wavelengths
Number of Pixels in Spectrum: 2048
>>>>>Begin Spectral Data<<<<<
223.165	-15.38
223.4	-15.38
223.635	-15.38
223.869	-27.38
224.104	-26.38
224.338	0.62
224.573	-14.38
224.808	-11.38
225.042	-9.38
225.277	-1.38
225.511	0.62
225.746	10.62
225.98	1.62
226.215	-6.38
226.449	16.62
226.683	22.62
226.918	19.62
227.152	39.62
227.387	40.62
227.621	30.62
227.856	43.62
228.09	54.62
228.324	63.62
228.559	55.62
228.793	66.62
229.027	93.62
229.262	92.62
229.496	97.62
229.73	116.62
229.964	133.62
230.199	104.62
230.433	121.62
230.667	115.62
230.901	101.62
231.136	107.62
231.37	114.62
231.604	103.62
231.838	114.62
232.072	101.62
232.306	110.62
232.541	107.62
232.775	113.62
233.009	103.62
233.243	106.62
233.477	117.62
233.711	100.62
233.945	107.62
234.179	114.62
234.413	118.62
234.647	111.62
234.881	107.62
235.115	120.62
235.349	122.62
235.583	108.62
235.817	108.62
236.051	117.62
236.285	104.62
236.519	121.62
236.753	134.62
236.987	138.62
237.221	148.62
237.455	178.62
237.689	154.62
237.922	126.62
238.156	124.62
238.39	125.62
238.624	111.62
238.858	127.62
239.091	123.62
239.325	107.62
239.559	121.62
239.793	104.62
240.027	125.62
240.26	119.62
240.494	130.62
240.728	145.62
240.961	135.62
241.195	138.62
241.429	130.62
241.662	124.62
241.896	129.62
242.13	128.62
242.363	119.62
242.597	119.62
242.83	117.62
243.064	124.62
243.298	118.62
243.531	132.62
243.765	110.62
243.998	143.62
244.232	132.62
244.465	132.62
244.699	117.62
244.932	139.62
245.166	130.62
245.399	152.62
245.633	148.62
245.866	142.62
246.099	135.62
246.333	135.62
246.566	138.62
246.8	144.62
247.033	153.62
247.266	137.62
247.5	145.62
247.733	154.62
247.966	156.62
248.2	161.62
248.433	155.62
248.666	152.62
248.899	157.62
249.133	174.62
249.366	165.62
249.599	176.62
249.832	157.62
250.066	169.62
250.299	153.62
250.532	147.62
250.765	182.62
250.998	171.62
251.231	195.62
251.465	195.62
251.698	160.62
251.931	151.62
252.164	177.62
252.397	187.62
252.63	173.62
252.863	174.62
253.096	181.62
253.329	181.62
253.562	170.62
253.795	188.62
254.028	182.62
254.261	189.62
254.494	193.62
254.727	224.62
254.96	249.62
255.193	219.62
255.426	207.62
255.659	197.62
255.892	203.62
256.124	202.62
256.357	211.62
256.59	209.62
256.823	183.62
257.056	175.62
257.289	179.62
257.521	185.62
257.754	184.62
257.987	173.62
258.22	187.62
258.452	187.62
258.685	194.62
258.918	175.62
259.151	185.62
259.383	195.62
259.616	194.62
259.849	202.62
260.081	204.62
260.314	215.62
260.547	227.62
260.779	210.62
261.012	172.62
261.244	185.62
261.477	207.62
261.71	192.62
261.942	194.62
262.175	198.62
262.407	202.62
262.64	185.62
262.872	192.62
263.105	184.62
263.337	199.62
263.57	205.62
263.802	181.62
264.035	193.62
264.267	182.62
264.499	189.62
264.732	191.62
264.964	182.62
265.197	183.62
265.429	201.62
265.661	199.62
265.894	197.62
266.126	206.62
266.358	200.62
266.591	195.62
266.823	205.62
267.055	173.62
267.287	202.62
267.52	224.62
267.752	206.62
267.984	199.62
268.216	206.62
268.448	205.62
268.681	211.62
268.913	205.62
269.145	216.62
269.377	219.62
269.609	228.62
269.841	219.62
270.073	226.62
270.306	236.62
270.538	269.62
270.77	269.62
271.002	248.62
271.234	246.62
271.466	258.62
271.698	259.62
271.93	278.62
272.162	266.62
272.394	249.62
272.626	269.62
272.858	257.62
273.09	245.62
273.322	229.62
273.553	225.62
273.785	241.62
274.017	235.62
274.249	219.62
274.481	218.62
274.713	230.62
274.945	245.62
275.176	230.62
275.408	238.62
275.64	243.62
275.872	234.62
276.104	225.62
276.335	231.62
276.567	232.62
276.799	257.62
277.031	268.62
277.262	275.62
277.494	265.62
277.726	247.62
277.957	252.62
278.189	247.62
278.421	237.62
278.652	233.62
278.884	243.62
279.115	215.62
279.347	234.62
279.579	223.62
279.81	228.62
280.042	245.62
280.273	236.62
280.505	250.62
280.736	238.62
280.968	250.62
281.199	233.62
281.431	226.62
281.662	239.62
281.894	239.62
282.125	245.62
282.356	265.62
282.588	253.62
282.819	265.62
283.051	241.62
283.282	230.62
283.513	286.62
283.745	252.62
283.976	243.62
284.207	250.62
284.439	261.62
284.67	259.62
284.901	263.62
285.132	251.62
285.364	245.62
285.595	257.62
285.826	257.62
286.057	263.62
286.288	247.62
286.52	235.62
286.751	241.62
286.982	261.62
287.213	267.62
287.444	272.62
287.675	271.62
287.906	282.62
288.138	272.62
288.369	252.62
288.6	264.62
288.831	266.62
289.062	252.62
289.293	264.62
289.524	274.62
289.755	261.62
289.986	255.62
290.217	243.62
290.448	261.62
290.679	276.62
290.91	265.62
291.141	260.62
291.371	275.62
291.602	251.62
291.833	267.62
292.064	264.62
292.295	256.62
292.526	267.62
292.757	265.62
292.987	269.62
293.218	241.62
293.449	256.62
293.68	277.62
293.91	258.62
294.141	285.62
294.372	275.62
294.603	266.62
294.833	268.62
295.064	267.62
295.295	263.62
295.525	273.62
295.756	269.62
295.987	281.62
296.217	285.62
296.448	288.62
296.679	286.62
296.909	280.62
297.14	285.62
297.37	282.62
297.601	276.62
297.831	280.62
298.062	270.62
298.292	266.62
298.523	288.62
298.753	273.62
298.984	285.62
299.214	281.62
299.445	274.62
299.675	289.62
299.905	295.62
300.136	278.62
300.366	290.62
300.597	289.62
300.827	296.62
301.057	280.62
301.288	293.62
301.518	294.62
301.748	304.62
301.979	307.62
302.209	303.62
302.439	312.62
302.669	289.62
302.9	298.62
303.13	299.62
303.36	303.62
303.59	306.62
303.82	309.62
304.051	311.62
304.281	293.62
304.511	295.62
304.741	295.62
304.971	306.62
305.201	279.62
305.431	319.62
305.661	302.62
305.891	309.62
306.121	295.62
306.352	312.62
306.582	313.62
306.812	295.62
307.042	303.62
307.272	284.62
307.502	298.62
307.731	286.62
307.961	290.62
308.191	298.62
308.421	304.62
308.651	307.62
308.881	296.62
309.111	311.62
309.341	323.62
309.571	303.62
309.8	326.62
310.03	309.62
310.26	322.62
310.49	326.62
310.72	321.62
310.949	332.62
311.179	329.62
311.409	307.62
311.639	319.62
311.868	334.62
312.098	336.62
312.328	324.62
312.557	341.62
312.787	347.62
313.017	349.62
313.246	328.62
313.476	323.62
313.706	319.62
313.935	333.62
314.165	334.62
314.394	341.62
314.624	352.62
314.853	330.62
315.083	318.62
315.312	310.62
315.542	321.62
315.771	323.62
316.001	327.62
316.23	320.62
316.46	325.62
316.689	336.62
316.919	349.62
317.148	345.62
317.377	348.62
317.607	347.62
317.836	327.62
318.065	306.62
318.295	333.62
318.524	331.62
318.753	331.62
318.983	326.62
319.212	305.62
319.441	343.62
319.67	329.62
319.9	310.62
320.129	322.62
320.358	304.62
320.587	314.62
320.816	329.62
321.046	337.62
321.275	336.62
321.504	342.62
321.733	341.62
321.962	339.62
322.191	350.62
322.42	358.62
322.649	358.62
322.878	352.62
323.108	373.62
323.337	385.62
323.566	391.62
323.795	397.62
324.024	434.62
324.253	489.62
324.482	627.62
324.71	919.62
324.939	1253.62
325.168	1038.62
325.397	589.62
325.626	444.62
325.855	393.62
326.084	402.62
326.313	396.62
326.542	392.62
326.77	426.62
326.999	466.62
327.228	595.62
327.457	838.62
327.686	959.62
327.914	646.62
328.143	496.62
328.372	452.62
328.6	433.62
328.829	434.62
329.058	437.62
329.287	443.62
329.515	393.62
329.744	406.62
329.972	406.62
330.201	415.62
330.43	442.62
330.658	458.62
330.887	464.62
331.115	467.62
331.344	426.62
331.572	417.62
331.801	417.62
332.03	403.62
332.258	386.62
332.486	372.62
332.715	391.62
332.943	402.62
333.172	408.62
333.4	439.62
333.629	421.62
333.857	439.62
334.085	423.62
334.314	466.62
334.542	473.62
334.771	467.62
334.999	431.62
335.227	441.62
335.455	417.62
335.684	400.62
335.912	381.62
336.14	397.62
336.369	424.62
336.597	392.62
336.825	402.62
337.053	394.62
337.281	387.62
337.51	375.62
337.738	370.62
337.966	380.62
338.194	373.62
338.422	381.62
338.65	374.62
338.878	361.62
339.106	373.62
339.334	375.62
339.562	371.62
339.79	375.62
340.018	383.62
340.246	376.62
340.474	379.62
340.702	360.62
340.93	366.62
341.158	366.62
341.386	373.62
341.614	373.62
341.842	373.62
342.07	371.62
342.298	363.62
342.526	366.62
342.754	365.62
342.981	355.62
343.209	372.62
343.437	363.62
343.665	361.62
343.893	390.62
344.12	414.62
344.348	409.62
344.576	375.62
344.804	382.62
345.031	375.62
345.259	370.62
345.487	357.62
345.714	374.62
345.942	362.62
346.17	366.62
346.397	350.62
346.625	353.62
346.853	353.62
347.08	349.62
347.308	366.62
347.535	338.62
347.763	354.62
347.99	362.62
348.218	377.62
348.445	371.62
348.673	356.62
348.9	339.62
349.128	342.62
349.355	337.62
349.583	338.62
349.81	352.62
350.037	351.62
350.265	349.62
350.492	334.62
350.72	334.62
350.947	343.62
351.174	343.62
351.402	358.62
351.629	348.62
351.856	334.62
352.083	353.62
352.311	357.62
352.538	361.62
352.765	362.62
352.992	350.62
353.22	349.62
353.447	347.62
353.674	322.62
353.901	326.62
354.128	333.62
354.355	337.62
354.583	326.62
354.81	327.62
355.037	338.62
355.264	331.62
355.491	328.62
355.718	333.62
355.945	330.62
356.172	322.62
356.399	335.62
356.626	340.62
356.853	343.62
357.08	329.62
357.307	338.62
357.534	354.62
357.761	329.62
357.988	323.62
358.215	340.62
358.441	323.62
358.668	331.62
358.895	350.62
359.122	324.62
359.349	357.62
359.576	351.62
359.802	367.62
360.029	361.62
360.256	378.62
360.483	358.62
360.709	357.62
360.936	347.62
361.163	336.62
361.39	343.62
361.616	344.62
361.843	344.62
362.07	353.62
362.296	345.62
362.523	358.62
362.749	350.62
362.976	333.62
363.203	335.62
363.429	315.62
363.656	339.62
363.882	355.62
364.109	331.62
364.335	326.62
364.562	327.62
364.788	342.62
365.015	337.62
365.241	338.62
365.468	335.62
365.694	333.62
365.92	330.62
366.147	329.62
366.373	327.62
366.599	343.62
366.826	317.62
367.052	333.62
367.278	333.62
367.505	337.62
367.731	348.62
367.957	326.62
368.184	331.62
368.41	351.62
368.636	338.62
368.862	347.62
369.089	337.62
369.315	350.62
369.541	334.62
369.767	341.62
369.993	336.62
370.219	325.62
370.445	325.62
370.672	335.62
370.898	325.62
371.124	336.62
371.35	345.62
371.576	343.62
371.802	349.62
372.028	360.62
372.254	341.62
372.48	334.62
372.706	353.62
372.932	345.62
373.158	342.62
373.384	345.62
373.61	326.62
373.835	356.62
374.061	349.62
374.287	341.62
374.513	333.62
374.739	345.62
374.965	361.62
375.191	359.62
375.416	357.62
375.642	346.62
375.868	343.62
376.094	345.62
376.319	341.62
376.545	325.62
376.771	346.62
376.997	349.62
377.222	340.62
377.448	344.62
377.674	353.62
377.899	331.62
378.125	318.62
378.35	343.62
378.576	339.62
378.802	344.62
379.027	347.62
379.253	331.62
379.478	340.62
379.704	334.62
379.929	354.62
380.155	349.62
380.38	330.62
380.606	342.62
380.831	352.62
381.057	343.62
381.282	343.62
381.507	326.62
381.733	365.62
381.958	333.62
382.184	338.62
382.409	350.62
382.634	353.62
382.86	345.62
383.085	369.62
383.31	358.62
383.535	342.62
383.761	353.62
383.986	366.62
384.211	352.62
384.436	378.62
384.662	393.62
384.887	374.62
385.112	378.62
385.337	408.62
385.562	384.62
385.787	378.62
386.013	378.62
386.238	387.62
386.463	369.62
386.688	373.62
386.913	375.62
387.138	358.62
387.363	375.62
387.588	395.62
387.813	378.62
388.038	384.62
388.263	376.62
388.488	374.62
388.713	368.62
388.938	381.62
389.163	381.62
389.387	378.62
389.612	371.62
389.837	356.62
390.062	356.62
390.287	370.62
390.512	375.62
390.736	367.62
390.961	379.62
391.186	389.62
391.411	396.62
391.636	378.62
391.86	418.62
392.085	397.62
392.31	378.62
392.534	385.62
392.759	397.62
392.984	386.62
393.208	385.62
393.433	367.62
393.658	381.62
393.882	372.62
394.107	376.62
394.331	382.62
394.556	377.62
394.78	375.62
395.005	377.62
395.229	411.62
395.454	373.62
395.678	373.62
395.903	413.62
396.127	403.62
396.352	415.62
396.576	398.62
396.801	374.62
397.025	401.62
397.249	398.62
397.474	392.62
397.698	414.62
397.922	407.62
398.147	407.62
398.371	443.62
398.595	429.62
398.82	439.62
399.044	471.62
399.268	481.62
399.492	521.62
399.717	550.62
399.941	572.62
400.165	554.62
400.389	525.62
400.613	486.62
400.837	473.62
401.062	463.62
401.286	460.62
401.51	432.62
401.734	443.62
401.958	426.62
402.182	434.62
402.406	454.62
402.63	469.62
402.854	479.62
403.078	477.62
403.302	479.62
403.526	478.62
403.75	449.62
403.974	476.62
404.198	467.62
404.422	473.62
404.645	481.62
404.869	460.62
405.093	496.62
405.317	517.62
405.541	531.62
405.765	486.62
405.988	471.62
406.212	489.62
406.436	511.62
406.66	508.62
406.883	511.62
407.107	520.62
407.331	559.62
407.555	577.62
407.778	571.62
408.002	523.62
408.226	508.62
408.449	510.62
408.673	524.62
408.896	513.62
409.12	498.62
409.344	487.62
409.567	468.62
409.791	459.62
410.014	449.62
410.238	452.62
410.461	444.62
410.685	453.62
410.908	468.62
411.132	488.62
411.355	507.62
411.578	454.62
411.802	461.62
412.025	448.62
412.249	478.62
412.472	481.62
412.695	493.62
412.919	495.62
413.142	467.62
413.365	457.62
413.589	440.62
413.812	457.62
414.035	442.62
414.258	434.62
414.482	424.62
414.705	441.62
414.928	439.62
415.151	429.62
415.374	432.62
415.597	437.62
415.821	427.62
416.044	431.62
416.267	428.62
416.49	428.62
416.713	432.62
416.936	427.62
417.159	429.62
417.382	446.62
417.605	428.62
417.828	439.62
418.051	449.62
418.274	448.62
418.497	433.62
418.72	432.62
418.943	415.62
419.166	447.62
419.389	469.62
419.611	461.62
419.834	477.62
420.057	477.62
420.28	453.62
420.503	449.62
420.726	446.62
420.948	465.62
421.171	480.62
421.394	505.62
421.617	451.62
421.839	446.62
422.062	438.62
422.285	460.62
422.507	488.62
422.73	528.62
422.953	513.62
423.175	465.62
423.398	467.62
423.621	453.62
423.843	491.62
424.066	503.62
424.288	492.62
424.511	473.62
424.733	496.62
424.956	533.62
425.178	536.62
425.401	502.62
425.623	530.62
425.846	468.62
426.068	459.62
426.291	455.62
426.513	458.62
426.735	450.62
426.958	463.62
427.18	545.62
427.402	594.62
427.625	626.62
427.847	561.62
428.069	478.62
428.292	479.62
428.514	428.62
428.736	427.62
428.958	448.62
429.181	413.62
429.403	412.62
429.625	419.62
429.847	444.62
430.069	471.62
430.292	457.62
430.514	426.62
430.736	421.62
430.958	407.62
431.18	411.62
431.402	409.62
431.624	382.62
431.846	408.62
432.068	398.62
432.29	414.62
432.512	404.62
432.734	407.62
432.956	402.62
433.178	417.62
433.4	415.62
433.622	419.62
433.844	412.62
434.066	448.62
434.287	404.62
434.509	428.62
434.731	417.62
434.953	444.62
435.175	422.62
435.397	465.62
435.618	451.62
435.84	474.62
436.062	535.62
436.284	544.62
436.505	493.62
436.727	440.62
436.949	415.62
437.17	409.62
437.392	409.62
437.614	416.62
437.835	439.62
438.057	516.62
438.278	555.62
438.5	574.62
438.721	590.62
438.943	555.62
439.165	480.62
439.386	467.62
439.608	452.62
439.829	459.62
440.05	451.62
440.272	473.62
440.493	458.62
440.715	443.62
440.936	441.62
441.158	445.62
441.379	424.62
441.6	428.62
441.822	446.62
442.043	482.62
442.264	544.62
442.486	528.62
442.707	472.62
442.928	473.62
443.149	474.62
443.371	467.62
443.592	523.62
443.813	553.62
444.034	605.62
444.255	530.62
444.476	493.62
444.698	499.62
444.919	492.62
445.14	564.62
445.361	516.62
445.582	482.62
445.803	512.62
446.024	582.62
446.245	541.62
446.466	539.62
446.687	457.62
446.908	442.62
447.129	408.62
447.35	434.62
447.571	416.62
447.792	409.62
448.013	396.62
448.234	412.62
448.455	436.62
448.675	515.62
448.896	565.62
449.117	501.62
449.338	493.62
449.559	549.62
449.779	590.62
450	493.62
450.221	441.62
450.442	422.62
450.662	401.62
450.883	402.62
451.104	394.62
451.324	403.62
451.545	389.62
451.766	386.62
451.986	355.62
452.207	343.62
452.428	364.62
452.648	388.62
452.869	362.62
453.089	393.62
453.31	401.62
453.53	377.62
453.751	392.62
453.971	387.62
454.192	375.62
454.412	401.62
454.633	373.62
454.853	368.62
455.073	373.62
455.294	404.62
455.514	428.62
455.734	409.62
455.955	366.62
456.175	353.62
456.395	374.62
456.616	348.62
456.836	357.62
457.056	361.62
457.276	338.62
457.497	353.62
457.717	346.62
457.937	368.62
458.157	366.62
458.377	358.62
458.598	375.62
458.818	423.62
459.038	454.62
459.258	473.62
459.478	433.62
459.698	407.62
459.918	402.62
460.138	421.62
460.358	432.62
460.578	420.62
460.798	454.62
461.018	435.62
461.238	449.62
461.458	439.62
461.678	431.62
461.898	443.62
462.118	449.62
462.338	449.62
462.558	455.62
462.777	473.62
462.997	496.62
463.217	504.62
463.437	504.62
463.657	491.62
463.876	481.62
464.096	471.62
464.316	459.62
464.536	478.62
464.755	463.62
464.975	426.62
465.195	479.62
465.414	517.62
465.634	461.62
465.854	420.62
466.073	400.62
466.293	409.62
466.512	413.62
466.732	385.62
466.951	387.62
467.171	373.62
467.391	421.62
467.61	401.62
467.829	395.62
468.049	399.62
468.268	398.62
468.488	387.62
468.707	407.62
468.927	403.62
469.146	389.62
469.365	401.62
469.585	392.62
469.804	406.62
470.023	404.62
470.243	406.62
470.462	413.62
470.681	411.62
470.901	409.62
471.12	415.62
471.339	400.62
471.558	405.62
471.777	387.62
471.997	397.62
472.216	392.62
472.435	409.62
472.654	384.62
472.873	388.62
473.092	395.62
473.311	389.62
473.53	389.62
473.749	391.62
473.968	427.62
474.187	481.62
474.406	472.62
474.625	427.62
474.844	403.62
475.063	392.62
475.282	376.62
475.501	393.62
475.72	383.62
475.939	393.62
476.158	366.62
476.377	396.62
476.596	402.62
476.814	423.62
477.033	421.62
477.252	405.62
477.471	407.62
477.69	425.62
477.908	419.62
478.127	441.62
478.346	442.62
478.564	455.62
478.783	457.62
479.002	454.62
479.22	475.62
479.439	479.62
479.658	494.62
479.876	462.62
480.095	473.62
480.313	512.62
480.532	482.62
480.751	476.62
480.969	487.62
481.188	518.62
481.406	547.62
481.624	488.62
481.843	473.62
482.061	461.62
482.28	453.62
482.498	430.62
482.717	443.62
482.935	453.62
483.153	445.62
483.372	447.62
483.59	438.62
483.808	440.62
484.027	447.62
484.245	446.62
484.463	446.62
484.681	481.62
484.9	471.62
485.118	459.62
485.336	454.62
485.554	453.62
485.772	483.62
485.99	466.62
486.209	464.62
486.427	475.62
486.645	480.62
486.863	503.62
487.081	473.62
487.299	467.62
487.517	490.62
487.735	494.62
487.953	467.62
488.171	484.62
488.389	485.62
488.607	466.62
488.825	477.62
489.043	497.62
489.261	474.62
489.479	490.62
489.696	481.62
489.914	483.62
490.132	503.62
490.35	502.62
490.568	495.62
490.786	521.62
491.003	543.62
491.221	539.62
491.439	536.62
491.657	547.62
491.874	533.62
492.092	542.62
492.31	555.62
492.527	575.62
492.745	534.62
492.963	561.62
493.18	551.62
493.398	574.62
493.615	552.62
493.833	576.62
494.05	579.62
494.268	571.62
494.485	577.62
494.703	559.62
494.92	565.62
495.138	585.62
495.355	570.62
495.573	550.62
495.79	542.62
496.008	562.62
496.225	543.62
496.442	575.62
496.66	576.62
496.877	569.62
497.094	578.62
497.312	593.62
497.529	563.62
497.746	613.62
497.963	585.62
498.181	646.62
498.398	633.62
498.615	649.62
498.832	647.62
499.049	694.62
499.267	727.62
499.484	740.62
499.701	801.62
499.918	848.62
500.135	931.62
500.352	999.62
500.569	1037.62
500.786	993.62
501.003	947.62
501.22	902.62
501.437	865.62
501.654	793.62
501.871	791.62
502.088	743.62
