Data from 1969.PennyLincolnUp.Lamp.En5.5.200Scan.071719.P1._HRD10591_14-55-39-973.txt Node
Date: Thu Jul 18 14:55:39 EDT 2019
User: cochatt
Spectrometer: HR+D1059
Trigger mode: 1
Integration Time (sec): 1.000000E-1
Scans to average: 1
Electric dark correction enabled: true
Nonlinearity correction enabled: false
Boxcar width: 0
XAxis mode: Wavelengths
Number of Pixels in Spectrum: 2048
>>>>>Begin Spectral Data<<<<<
223.165	-17.31
223.4	-17.31
223.635	-17.31
223.869	-23.31
224.104	-17.31
224.338	-19.31
224.573	-13.31
224.808	-23.31
225.042	-15.31
225.277	5.69
225.511	5.69
225.746	1.69
225.98	4.69
226.215	20.69
226.449	18.69
226.683	17.69
226.918	18.69
227.152	35.69
227.387	19.69
227.621	44.69
227.856	44.69
228.09	44.69
228.324	58.69
228.559	48.69
228.793	68.69
229.027	69.69
229.262	73.69
229.496	102.69
229.73	102.69
229.964	118.69
230.199	100.69
230.433	99.69
230.667	83.69
230.901	106.69
231.136	98.69
231.37	94.69
231.604	99.69
231.838	108.69
232.072	101.69
232.306	97.69
232.541	100.69
232.775	100.69
233.009	115.69
233.243	98.69
233.477	101.69
233.711	114.69
233.945	100.69
234.179	107.69
234.413	90.69
234.647	91.69
234.881	112.69
235.115	95.69
235.349	106.69
235.583	108.69
235.817	101.69
236.051	112.69
236.285	112.69
236.519	93.69
236.753	119.69
236.987	115.69
237.221	134.69
237.455	170.69
237.689	139.69
237.922	134.69
238.156	116.69
238.39	106.69
238.624	107.69
238.858	108.69
239.091	99.69
239.325	112.69
239.559	102.69
239.793	100.69
240.027	116.69
240.26	105.69
240.494	139.69
240.728	124.69
240.961	116.69
241.195	130.69
241.429	111.69
241.662	114.69
241.896	120.69
242.13	111.69
242.363	114.69
242.597	123.69
242.83	125.69
243.064	130.69
243.298	115.69
243.531	113.69
243.765	129.69
243.998	118.69
244.232	133.69
244.465	123.69
244.699	133.69
244.932	126.69
245.166	112.69
245.399	135.69
245.633	126.69
245.866	125.69
246.099	141.69
246.333	128.69
246.566	124.69
246.8	134.69
247.033	138.69
247.266	125.69
247.5	133.69
247.733	152.69
247.966	131.69
248.2	147.69
248.433	132.69
248.666	138.69
248.899	148.69
249.133	160.69
249.366	153.69
249.599	170.69
249.832	153.69
250.066	146.69
250.299	159.69
250.532	168.69
250.765	159.69
250.998	175.69
251.231	187.69
251.465	170.69
251.698	161.69
251.931	155.69
252.164	153.69
252.397	162.69
252.63	168.69
252.863	157.69
253.096	171.69
253.329	177.69
253.562	169.69
253.795	170.69
254.028	180.69
254.261	170.69
254.494	196.69
254.727	213.69
254.96	213.69
255.193	205.69
255.426	177.69
255.659	177.69
255.892	180.69
256.124	195.69
256.357	197.69
256.59	190.69
256.823	180.69
257.056	179.69
257.289	179.69
257.521	182.69
257.754	183.69
257.987	175.69
258.22	173.69
258.452	161.69
258.685	191.69
258.918	174.69
259.151	176.69
259.383	187.69
259.616	185.69
259.849	189.69
260.081	194.69
260.314	194.69
260.547	204.69
260.779	195.69
261.012	189.69
261.244	187.69
261.477	189.69
261.71	204.69
261.942	184.69
262.175	193.69
262.407	185.69
262.64	181.69
262.872	170.69
263.105	175.69
263.337	161.69
263.57	180.69
263.802	183.69
264.035	168.69
264.267	204.69
264.499	180.69
264.732	193.69
264.964	192.69
265.197	180.69
265.429	197.69
265.661	187.69
265.894	174.69
266.126	168.69
266.358	187.69
266.591	198.69
266.823	194.69
267.055	187.69
267.287	183.69
267.52	192.69
267.752	192.69
267.984	196.69
268.216	199.69
268.448	189.69
268.681	211.69
268.913	195.69
269.145	227.69
269.377	249.69
269.609	239.69
269.841	232.69
270.073	249.69
270.306	238.69
270.538	264.69
270.77	269.69
271.002	245.69
271.234	220.69
271.466	235.69
271.698	243.69
271.93	261.69
272.162	257.69
272.394	272.69
272.626	267.69
272.858	225.69
273.09	257.69
273.322	225.69
273.553	210.69
273.785	213.69
274.017	214.69
274.249	227.69
274.481	217.69
274.713	220.69
274.945	241.69
275.176	221.69
275.408	225.69
275.64	211.69
275.872	216.69
276.104	221.69
276.335	232.69
276.567	222.69
276.799	247.69
277.031	244.69
277.262	282.69
277.494	260.69
277.726	243.69
277.957	242.69
278.189	239.69
278.421	244.69
278.652	251.69
278.884	218.69
279.115	216.69
279.347	241.69
279.579	224.69
279.81	225.69
280.042	229.69
280.273	223.69
280.505	228.69
280.736	226.69
280.968	251.69
281.199	249.69
281.431	241.69
281.662	229.69
281.894	254.69
282.125	260.69
282.356	249.69
282.588	229.69
282.819	258.69
283.051	227.69
283.282	240.69
283.513	249.69
283.745	236.69
283.976	222.69
284.207	243.69
284.439	255.69
284.67	236.69
284.901	229.69
285.132	242.69
285.364	237.69
285.595	237.69
285.826	251.69
286.057	265.69
286.288	231.69
286.52	248.69
286.751	245.69
286.982	252.69
287.213	287.69
287.444	253.69
287.675	243.69
287.906	266.69
288.138	260.69
288.369	276.69
288.6	265.69
288.831	248.69
289.062	261.69
289.293	256.69
289.524	263.69
289.755	255.69
289.986	262.69
290.217	257.69
290.448	245.69
290.679	250.69
290.91	263.69
291.141	265.69
291.371	250.69
291.602	249.69
291.833	265.69
292.064	246.69
292.295	248.69
292.526	248.69
292.757	247.69
292.987	246.69
293.218	234.69
293.449	267.69
293.68	254.69
293.91	246.69
294.141	251.69
294.372	237.69
294.603	249.69
294.833	254.69
295.064	262.69
295.295	258.69
295.525	245.69
295.756	255.69
295.987	266.69
296.217	277.69
296.448	276.69
296.679	267.69
296.909	247.69
297.14	264.69
297.37	264.69
297.601	281.69
297.831	275.69
298.062	265.69
298.292	268.69
298.523	291.69
298.753	280.69
298.984	249.69
299.214	294.69
299.445	283.69
299.675	276.69
299.905	269.69
300.136	280.69
300.366	273.69
300.597	278.69
300.827	284.69
301.057	278.69
301.288	296.69
301.518	305.69
301.748	282.69
301.979	287.69
302.209	282.69
302.439	284.69
302.669	296.69
302.9	305.69
303.13	291.69
303.36	292.69
303.59	277.69
303.82	292.69
304.051	285.69
304.281	304.69
304.511	295.69
304.741	279.69
304.971	293.69
305.201	283.69
305.431	291.69
305.661	282.69
305.891	282.69
306.121	291.69
306.352	287.69
306.582	303.69
306.812	281.69
307.042	277.69
307.272	275.69
307.502	297.69
307.731	278.69
307.961	298.69
308.191	295.69
308.421	277.69
308.651	284.69
308.881	304.69
309.111	305.69
309.341	283.69
309.571	322.69
309.8	308.69
310.03	315.69
310.26	292.69
310.49	297.69
310.72	313.69
310.949	319.69
311.179	331.69
311.409	325.69
311.639	316.69
311.868	307.69
312.098	319.69
312.328	328.69
312.557	326.69
312.787	318.69
313.017	330.69
313.246	324.69
313.476	303.69
313.706	324.69
313.935	335.69
314.165	346.69
314.394	338.69
314.624	328.69
314.853	341.69
315.083	329.69
315.312	318.69
315.542	324.69
315.771	303.69
316.001	305.69
316.23	314.69
316.46	300.69
316.689	317.69
316.919	319.69
317.148	333.69
317.377	314.69
317.607	317.69
317.836	329.69
318.065	332.69
318.295	310.69
318.524	309.69
318.753	325.69
318.983	309.69
319.212	303.69
319.441	323.69
319.67	331.69
319.9	308.69
320.129	319.69
320.358	314.69
320.587	311.69
320.816	341.69
321.046	332.69
321.275	324.69
321.504	351.69
321.733	336.69
321.962	337.69
322.191	341.69
322.42	353.69
322.649	343.69
322.878	356.69
323.108	370.69
323.337	359.69
323.566	371.69
323.795	364.69
324.024	407.69
324.253	479.69
324.482	628.69
324.71	831.69
324.939	1148.69
325.168	937.69
325.397	548.69
325.626	413.69
325.855	387.69
326.084	380.69
326.313	370.69
326.542	376.69
326.77	398.69
326.999	446.69
327.228	563.69
327.457	791.69
327.686	870.69
327.914	654.69
328.143	474.69
328.372	417.69
328.6	433.69
328.829	416.69
329.058	435.69
329.287	427.69
329.515	408.69
329.744	413.69
329.972	388.69
330.201	394.69
330.43	429.69
330.658	440.69
330.887	459.69
331.115	444.69
331.344	405.69
331.572	379.69
331.801	380.69
332.03	417.69
332.258	379.69
332.486	397.69
332.715	389.69
332.943	387.69
333.172	395.69
333.4	408.69
333.629	418.69
333.857	411.69
334.085	420.69
334.314	445.69
334.542	438.69
334.771	477.69
334.999	435.69
335.227	410.69
335.455	407.69
335.684	390.69
335.912	391.69
336.14	396.69
336.369	390.69
336.597	395.69
336.825	367.69
337.053	378.69
337.281	379.69
337.51	368.69
337.738	373.69
337.966	364.69
338.194	375.69
338.422	391.69
338.65	366.69
338.878	387.69
339.106	363.69
339.334	353.69
339.562	368.69
339.79	343.69
340.018	347.69
340.246	375.69
340.474	355.69
340.702	345.69
340.93	354.69
341.158	351.69
341.386	348.69
341.614	344.69
341.842	357.69
342.07	341.69
342.298	348.69
342.526	341.69
342.754	360.69
342.981	343.69
343.209	350.69
343.437	358.69
343.665	386.69
343.893	375.69
344.12	391.69
344.348	362.69
344.576	387.69
344.804	379.69
345.031	357.69
345.259	379.69
345.487	364.69
345.714	361.69
345.942	356.69
346.17	342.69
346.397	341.69
346.625	335.69
346.853	348.69
347.08	323.69
347.308	348.69
347.535	318.69
347.763	332.69
347.99	351.69
348.218	356.69
348.445	343.69
348.673	354.69
348.9	338.69
349.128	342.69
349.355	331.69
349.583	340.69
349.81	337.69
350.037	345.69
350.265	327.69
350.492	331.69
350.72	332.69
350.947	321.69
351.174	359.69
351.402	342.69
351.629	346.69
351.856	336.69
352.083	334.69
352.311	333.69
352.538	331.69
352.765	348.69
352.992	343.69
353.22	341.69
353.447	323.69
353.674	329.69
353.901	353.69
354.128	323.69
354.355	324.69
354.583	324.69
354.81	337.69
355.037	322.69
355.264	332.69
355.491	338.69
355.718	309.69
355.945	322.69
356.172	332.69
356.399	322.69
356.626	335.69
356.853	329.69
357.08	318.69
357.307	313.69
357.534	294.69
357.761	331.69
357.988	347.69
358.215	332.69
358.441	328.69
358.668	319.69
358.895	341.69
359.122	325.69
359.349	333.69
359.576	334.69
359.802	354.69
360.029	350.69
360.256	355.69
360.483	358.69
360.709	341.69
360.936	324.69
361.163	328.69
361.39	322.69
361.616	328.69
361.843	337.69
362.07	337.69
362.296	317.69
362.523	345.69
362.749	336.69
362.976	350.69
363.203	326.69
363.429	322.69
363.656	328.69
363.882	316.69
364.109	324.69
364.335	326.69
364.562	300.69
364.788	324.69
365.015	323.69
365.241	313.69
365.468	327.69
365.694	326.69
365.92	329.69
366.147	330.69
366.373	321.69
366.599	310.69
366.826	325.69
367.052	328.69
367.278	333.69
367.505	319.69
367.731	324.69
367.957	326.69
368.184	325.69
368.41	338.69
368.636	343.69
368.862	335.69
369.089	327.69
369.315	326.69
369.541	333.69
369.767	335.69
369.993	336.69
370.219	333.69
370.445	315.69
370.672	327.69
370.898	323.69
371.124	323.69
371.35	343.69
371.576	335.69
371.802	330.69
372.028	359.69
372.254	337.69
372.48	332.69
372.706	349.69
372.932	337.69
373.158	335.69
373.384	314.69
373.61	325.69
373.835	339.69
374.061	320.69
374.287	340.69
374.513	348.69
374.739	348.69
374.965	369.69
375.191	347.69
375.416	383.69
375.642	360.69
375.868	323.69
376.094	344.69
376.319	340.69
376.545	354.69
376.771	331.69
376.997	331.69
377.222	323.69
377.448	330.69
377.674	340.69
377.899	323.69
378.125	317.69
378.35	328.69
378.576	338.69
378.802	331.69
379.027	347.69
379.253	333.69
379.478	314.69
379.704	329.69
379.929	328.69
380.155	327.69
380.38	331.69
380.606	316.69
380.831	330.69
381.057	367.69
381.282	353.69
381.507	342.69
381.733	326.69
381.958	344.69
382.184	333.69
382.409	326.69
382.634	353.69
382.86	326.69
383.085	343.69
383.31	353.69
383.535	346.69
383.761	369.69
383.986	353.69
384.211	359.69
384.436	365.69
384.662	346.69
384.887	377.69
385.112	369.69
385.337	374.69
385.562	363.69
385.787	373.69
386.013	386.69
386.238	378.69
386.463	385.69
386.688	385.69
386.913	358.69
387.138	363.69
387.363	352.69
387.588	359.69
387.813	382.69
388.038	367.69
388.263	373.69
388.488	370.69
388.713	364.69
388.938	373.69
389.163	363.69
389.387	380.69
389.612	373.69
389.837	355.69
390.062	356.69
390.287	356.69
390.512	363.69
390.736	341.69
390.961	376.69
391.186	360.69
391.411	371.69
391.636	389.69
391.86	386.69
392.085	392.69
392.31	386.69
392.534	395.69
392.759	377.69
392.984	382.69
393.208	397.69
393.433	367.69
393.658	389.69
393.882	361.69
394.107	369.69
394.331	371.69
394.556	371.69
394.78	375.69
395.005	373.69
395.229	377.69
395.454	381.69
395.678	398.69
395.903	403.69
396.127	389.69
396.352	426.69
396.576	402.69
396.801	388.69
397.025	383.69
397.249	392.69
397.474	416.69
397.698	388.69
397.922	410.69
398.147	411.69
398.371	407.69
398.595	439.69
398.82	411.69
399.044	454.69
399.268	480.69
399.492	538.69
399.717	558.69
399.941	565.69
400.165	539.69
400.389	513.69
400.613	491.69
400.837	447.69
401.062	450.69
401.286	439.69
401.51	421.69
401.734	437.69
401.958	432.69
402.182	442.69
402.406	456.69
402.63	451.69
402.854	444.69
403.078	468.69
403.302	466.69
403.526	468.69
403.75	463.69
403.974	464.69
404.198	448.69
404.422	503.69
404.645	488.69
404.869	453.69
405.093	501.69
405.317	497.69
405.541	507.69
405.765	482.69
405.988	474.69
406.212	472.69
406.436	486.69
406.66	516.69
406.883	488.69
407.107	519.69
407.331	543.69
407.555	563.69
407.778	567.69
408.002	534.69
408.226	481.69
408.449	484.69
408.673	485.69
408.896	483.69
409.12	502.69
409.344	522.69
409.567	459.69
409.791	460.69
410.014	456.69
410.238	451.69
410.461	450.69
410.685	452.69
410.908	464.69
411.132	487.69
411.355	478.69
411.578	473.69
411.802	464.69
412.025	452.69
412.249	460.69
412.472	463.69
412.695	496.69
412.919	469.69
413.142	443.69
413.365	432.69
413.589	442.69
413.812	438.69
414.035	426.69
414.258	435.69
414.482	416.69
414.705	437.69
414.928	422.69
415.151	429.69
415.374	435.69
415.597	419.69
415.821	435.69
416.044	411.69
416.267	404.69
416.49	423.69
416.713	424.69
416.936	433.69
417.159	426.69
417.382	443.69
417.605	451.69
417.828	449.69
418.051	450.69
418.274	441.69
418.497	426.69
418.72	441.69
418.943	428.69
419.166	434.69
419.389	446.69
419.611	451.69
419.834	437.69
420.057	440.69
420.28	451.69
420.503	452.69
420.726	455.69
420.948	467.69
421.171	488.69
421.394	485.69
421.617	450.69
421.839	437.69
422.062	436.69
422.285	451.69
422.507	475.69
422.73	525.69
422.953	481.69
423.175	462.69
423.398	458.69
423.621	456.69
423.843	467.69
424.066	461.69
424.288	450.69
424.511	490.69
424.733	507.69
424.956	527.69
425.178	526.69
425.401	518.69
425.623	527.69
425.846	471.69
426.068	451.69
426.291	444.69
426.513	449.69
426.735	451.69
426.958	465.69
427.18	507.69
427.402	586.69
427.625	603.69
427.847	565.69
428.069	493.69
428.292	462.69
428.514	431.69
428.736	410.69
428.958	384.69
429.181	415.69
429.403	410.69
429.625	421.69
429.847	421.69
430.069	453.69
430.292	463.69
430.514	409.69
430.736	414.69
430.958	399.69
431.18	394.69
431.402	407.69
431.624	389.69
431.846	407.69
432.068	400.69
432.29	386.69
432.512	387.69
432.734	416.69
432.956	401.69
433.178	416.69
433.4	407.69
433.622	419.69
433.844	411.69
434.066	419.69
434.287	390.69
434.509	388.69
434.731	412.69
434.953	449.69
435.175	423.69
435.397	435.69
435.618	433.69
435.84	461.69
436.062	511.69
436.284	544.69
436.505	461.69
436.727	445.69
436.949	422.69
437.17	423.69
437.392	397.69
437.614	402.69
437.835	416.69
438.057	465.69
438.278	545.69
438.5	541.69
438.721	568.69
438.943	539.69
439.165	483.69
439.386	435.69
439.608	443.69
439.829	433.69
440.05	443.69
440.272	459.69
440.493	456.69
440.715	426.69
440.936	435.69
441.158	427.69
441.379	432.69
441.6	435.69
441.822	455.69
442.043	458.69
442.264	518.69
442.486	530.69
442.707	487.69
442.928	460.69
443.149	456.69
443.371	456.69
443.592	482.69
443.813	555.69
444.034	556.69
444.255	545.69
444.476	471.69
444.698	485.69
444.919	475.69
445.14	610.69
445.361	540.69
445.582	500.69
445.803	511.69
446.024	554.69
446.245	571.69
446.466	532.69
446.687	458.69
446.908	440.69
447.129	420.69
447.35	405.69
447.571	407.69
447.792	417.69
448.013	386.69
448.234	409.69
448.455	434.69
448.675	486.69
448.896	592.69
449.117	505.69
449.338	469.69
449.559	549.69
449.779	575.69
450	471.69
450.221	415.69
450.442	375.69
450.662	391.69
450.883	416.69
451.104	391.69
451.324	405.69
451.545	385.69
451.766	378.69
451.986	375.69
452.207	370.69
452.428	372.69
452.648	373.69
452.869	365.69
453.089	350.69
453.31	377.69
453.53	375.69
453.751	357.69
453.971	377.69
454.192	374.69
454.412	354.69
454.633	375.69
454.853	376.69
455.073	373.69
455.294	383.69
455.514	417.69
455.734	396.69
455.955	385.69
456.175	322.69
456.395	362.69
456.616	351.69
456.836	344.69
457.056	337.69
457.276	343.69
457.497	347.69
457.717	360.69
457.937	369.69
458.157	371.69
458.377	364.69
458.598	391.69
458.818	421.69
459.038	439.69
459.258	435.69
459.478	430.69
459.698	406.69
459.918	404.69
460.138	439.69
460.358	451.69
460.578	440.69
460.798	427.69
461.018	441.69
461.238	441.69
461.458	415.69
461.678	440.69
461.898	424.69
462.118	444.69
462.338	429.69
462.558	468.69
462.777	446.69
462.997	493.69
463.217	510.69
463.437	491.69
463.657	483.69
463.876	470.69
464.096	483.69
464.316	472.69
464.536	486.69
464.755	470.69
464.975	468.69
465.195	465.69
465.414	502.69
465.634	457.69
465.854	417.69
466.073	387.69
466.293	380.69
466.512	396.69
466.732	383.69
466.951	389.69
467.171	382.69
467.391	380.69
467.61	379.69
467.829	375.69
468.049	400.69
468.268	396.69
468.488	381.69
468.707	377.69
468.927	373.69
469.146	360.69
469.365	375.69
469.585	375.69
469.804	383.69
470.023	394.69
470.243	397.69
470.462	403.69
470.681	385.69
470.901	387.69
471.12	404.69
471.339	389.69
471.558	394.69
471.777	401.69
471.997	386.69
472.216	370.69
472.435	400.69
472.654	400.69
472.873	374.69
473.092	389.69
473.311	379.69
473.53	397.69
473.749	389.69
473.968	405.69
474.187	456.69
474.406	463.69
474.625	411.69
474.844	390.69
475.063	401.69
475.282	379.69
475.501	392.69
475.72	397.69
475.939	399.69
476.158	406.69
476.377	412.69
476.596	390.69
476.814	393.69
477.033	384.69
477.252	424.69
477.471	419.69
477.69	406.69
477.908	415.69
478.127	440.69
478.346	428.69
478.564	436.69
478.783	433.69
479.002	453.69
479.22	442.69
479.439	459.69
479.658	452.69
479.876	459.69
480.095	476.69
480.313	530.69
480.532	476.69
480.751	481.69
480.969	507.69
481.188	529.69
481.406	531.69
481.624	490.69
481.843	443.69
482.061	431.69
482.28	443.69
482.498	427.69
482.717	426.69
482.935	437.69
483.153	429.69
483.372	432.69
483.59	438.69
483.808	450.69
484.027	465.69
484.245	447.69
484.463	428.69
484.681	458.69
484.9	445.69
485.118	442.69
485.336	438.69
485.554	453.69
485.772	443.69
485.99	446.69
486.209	457.69
486.427	469.69
486.645	473.69
486.863	474.69
487.081	475.69
487.299	459.69
487.517	464.69
487.735	451.69
487.953	469.69
488.171	489.69
488.389	485.69
488.607	452.69
488.825	459.69
489.043	472.69
489.261	478.69
489.479	485.69
489.696	465.69
489.914	473.69
490.132	480.69
490.35	489.69
490.568	480.69
490.786	505.69
491.003	509.69
491.221	504.69
491.439	551.69
491.657	522.69
491.874	507.69
492.092	552.69
492.31	545.69
492.527	565.69
492.745	538.69
492.963	551.69
493.18	561.69
493.398	555.69
493.615	554.69
493.833	550.69
494.05	576.69
494.268	539.69
494.485	529.69
494.703	560.69
494.92	563.69
495.138	554.69
495.355	573.69
495.573	565.69
495.79	548.69
496.008	559.69
496.225	563.69
496.442	571.69
496.66	569.69
496.877	551.69
497.094	574.69
497.312	593.69
497.529	577.69
497.746	585.69
497.963	574.69
498.181	596.69
498.398	615.69
498.615	662.69
498.832	680.69
499.049	703.69
499.267	709.69
499.484	731.69
499.701	798.69
499.918	855.69
500.135	906.69
500.352	955.69
500.569	978.69
500.786	980.69
501.003	942.69
501.22	906.69
501.437	851.69
501.654	843.69
501.871	756.69
502.088	756.69
