Data from 1969.PennyLincolnUp.Lamp.En5.5.200Scan.071719.P1._HRD10591_14-56-37-972.txt Node
Date: Thu Jul 18 14:56:37 EDT 2019
User: cochatt
Spectrometer: HR+D1059
Trigger mode: 1
Integration Time (sec): 1.000000E-1
Scans to average: 1
Electric dark correction enabled: true
Nonlinearity correction enabled: false
Boxcar width: 0
XAxis mode: Wavelengths
Number of Pixels in Spectrum: 2048
>>>>>Begin Spectral Data<<<<<
223.165	-15.25
223.4	-15.25
223.635	-15.25
223.869	-27.25
224.104	-24.25
224.338	-11.25
224.573	-16.25
224.808	-14.25
225.042	-14.25
225.277	3.75
225.511	0.75
225.746	3.75
225.98	4.75
226.215	25.75
226.449	11.75
226.683	17.75
226.918	24.75
227.152	29.75
227.387	26.75
227.621	39.75
227.856	41.75
228.09	43.75
228.324	57.75
228.559	40.75
228.793	69.75
229.027	98.75
229.262	80.75
229.496	105.75
229.73	108.75
229.964	116.75
230.199	100.75
230.433	92.75
230.667	92.75
230.901	112.75
231.136	109.75
231.37	109.75
231.604	94.75
231.838	116.75
232.072	113.75
232.306	108.75
232.541	108.75
232.775	104.75
233.009	99.75
233.243	109.75
233.477	118.75
233.711	100.75
233.945	117.75
234.179	114.75
234.413	119.75
234.647	96.75
234.881	113.75
235.115	109.75
235.349	115.75
235.583	106.75
235.817	108.75
236.051	106.75
236.285	114.75
236.519	112.75
236.753	131.75
236.987	135.75
237.221	138.75
237.455	153.75
237.689	154.75
237.922	124.75
238.156	118.75
238.39	123.75
238.624	120.75
238.858	123.75
239.091	116.75
239.325	113.75
239.559	108.75
239.793	119.75
240.027	121.75
240.26	155.75
240.494	140.75
240.728	123.75
240.961	139.75
241.195	116.75
241.429	123.75
241.662	120.75
241.896	123.75
242.13	133.75
242.363	103.75
242.597	119.75
242.83	119.75
243.064	124.75
243.298	117.75
243.531	128.75
243.765	116.75
243.998	124.75
244.232	104.75
244.465	127.75
244.699	124.75
244.932	137.75
245.166	133.75
245.399	132.75
245.633	136.75
245.866	129.75
246.099	126.75
246.333	139.75
246.566	120.75
246.8	136.75
247.033	141.75
247.266	150.75
247.5	151.75
247.733	159.75
247.966	149.75
248.2	146.75
248.433	156.75
248.666	137.75
248.899	165.75
249.133	175.75
249.366	167.75
249.599	163.75
249.832	176.75
250.066	161.75
250.299	167.75
250.532	170.75
250.765	178.75
250.998	189.75
251.231	168.75
251.465	167.75
251.698	170.75
251.931	183.75
252.164	157.75
252.397	149.75
252.63	186.75
252.863	172.75
253.096	186.75
253.329	183.75
253.562	188.75
253.795	197.75
254.028	181.75
254.261	185.75
254.494	198.75
254.727	188.75
254.96	230.75
255.193	203.75
255.426	191.75
255.659	182.75
255.892	179.75
256.124	189.75
256.357	200.75
256.59	179.75
256.823	190.75
257.056	197.75
257.289	171.75
257.521	176.75
257.754	175.75
257.987	183.75
258.22	183.75
258.452	183.75
258.685	162.75
258.918	175.75
259.151	166.75
259.383	177.75
259.616	193.75
259.849	182.75
260.081	195.75
260.314	211.75
260.547	202.75
260.779	184.75
261.012	208.75
261.244	205.75
261.477	195.75
261.71	183.75
261.942	199.75
262.175	193.75
262.407	196.75
262.64	176.75
262.872	203.75
263.105	190.75
263.337	185.75
263.57	189.75
263.802	180.75
264.035	183.75
264.267	178.75
264.499	182.75
264.732	198.75
264.964	178.75
265.197	199.75
265.429	190.75
265.661	201.75
265.894	190.75
266.126	208.75
266.358	206.75
266.591	179.75
266.823	199.75
267.055	188.75
267.287	210.75
267.52	201.75
267.752	198.75
267.984	200.75
268.216	199.75
268.448	195.75
268.681	208.75
268.913	216.75
269.145	227.75
269.377	221.75
269.609	229.75
269.841	232.75
270.073	213.75
270.306	246.75
270.538	249.75
270.77	255.75
271.002	239.75
271.234	227.75
271.466	245.75
271.698	273.75
271.93	235.75
272.162	261.75
272.394	257.75
272.626	249.75
272.858	239.75
273.09	230.75
273.322	232.75
273.553	239.75
273.785	221.75
274.017	224.75
274.249	233.75
274.481	233.75
274.713	220.75
274.945	221.75
275.176	239.75
275.408	245.75
275.64	236.75
275.872	224.75
276.104	223.75
276.335	227.75
276.567	235.75
276.799	244.75
277.031	255.75
277.262	253.75
277.494	260.75
277.726	253.75
277.957	244.75
278.189	240.75
278.421	235.75
278.652	241.75
278.884	225.75
279.115	240.75
279.347	233.75
279.579	226.75
279.81	233.75
280.042	223.75
280.273	237.75
280.505	237.75
280.736	236.75
280.968	247.75
281.199	237.75
281.431	245.75
281.662	228.75
281.894	251.75
282.125	224.75
282.356	249.75
282.588	249.75
282.819	249.75
283.051	237.75
283.282	243.75
283.513	237.75
283.745	236.75
283.976	245.75
284.207	256.75
284.439	250.75
284.67	236.75
284.901	257.75
285.132	246.75
285.364	234.75
285.595	236.75
285.826	266.75
286.057	256.75
286.288	238.75
286.52	261.75
286.751	235.75
286.982	246.75
287.213	257.75
287.444	271.75
287.675	265.75
287.906	258.75
288.138	267.75
288.369	266.75
288.6	247.75
288.831	289.75
289.062	268.75
289.293	273.75
289.524	273.75
289.755	248.75
289.986	266.75
290.217	268.75
290.448	260.75
290.679	258.75
290.91	263.75
291.141	258.75
291.371	255.75
291.602	258.75
291.833	244.75
292.064	256.75
292.295	259.75
292.526	264.75
292.757	250.75
292.987	258.75
293.218	270.75
293.449	264.75
293.68	281.75
293.91	272.75
294.141	279.75
294.372	259.75
294.603	248.75
294.833	263.75
295.064	249.75
295.295	261.75
295.525	264.75
295.756	271.75
295.987	283.75
296.217	283.75
296.448	292.75
296.679	257.75
296.909	264.75
297.14	291.75
297.37	265.75
297.601	264.75
297.831	253.75
298.062	273.75
298.292	274.75
298.523	283.75
298.753	269.75
298.984	286.75
299.214	277.75
299.445	289.75
299.675	292.75
299.905	289.75
300.136	280.75
300.366	268.75
300.597	283.75
300.827	308.75
301.057	293.75
301.288	283.75
301.518	290.75
301.748	278.75
301.979	300.75
302.209	298.75
302.439	301.75
302.669	277.75
302.9	315.75
303.13	295.75
303.36	310.75
303.59	300.75
303.82	306.75
304.051	307.75
304.281	309.75
304.511	296.75
304.741	313.75
304.971	273.75
305.201	304.75
305.431	290.75
305.661	279.75
305.891	289.75
306.121	295.75
306.352	294.75
306.582	307.75
306.812	297.75
307.042	303.75
307.272	277.75
307.502	295.75
307.731	296.75
307.961	286.75
308.191	296.75
308.421	293.75
308.651	297.75
308.881	280.75
309.111	312.75
309.341	319.75
309.571	300.75
309.8	309.75
310.03	306.75
310.26	319.75
310.49	287.75
310.72	305.75
310.949	314.75
311.179	336.75
311.409	325.75
311.639	316.75
311.868	331.75
312.098	343.75
312.328	337.75
312.557	315.75
312.787	325.75
313.017	330.75
313.246	316.75
313.476	310.75
313.706	344.75
313.935	337.75
314.165	323.75
314.394	345.75
314.624	349.75
314.853	338.75
315.083	329.75
315.312	328.75
315.542	315.75
315.771	313.75
316.001	315.75
316.23	321.75
316.46	310.75
316.689	332.75
316.919	315.75
317.148	325.75
317.377	332.75
317.607	327.75
317.836	331.75
318.065	325.75
318.295	321.75
318.524	310.75
318.753	325.75
318.983	336.75
319.212	312.75
319.441	336.75
319.67	321.75
319.9	331.75
320.129	323.75
320.358	327.75
320.587	324.75
320.816	327.75
321.046	340.75
321.275	333.75
321.504	321.75
321.733	344.75
321.962	335.75
322.191	341.75
322.42	355.75
322.649	363.75
322.878	353.75
323.108	352.75
323.337	358.75
323.566	381.75
323.795	382.75
324.024	420.75
324.253	478.75
324.482	632.75
324.71	902.75
324.939	1223.75
325.168	976.75
325.397	565.75
325.626	443.75
325.855	390.75
326.084	379.75
326.313	371.75
326.542	383.75
326.77	414.75
326.999	464.75
327.228	596.75
327.457	809.75
327.686	909.75
327.914	649.75
328.143	486.75
328.372	456.75
328.6	418.75
328.829	420.75
329.058	435.75
329.287	425.75
329.515	429.75
329.744	384.75
329.972	398.75
330.201	412.75
330.43	430.75
330.658	447.75
330.887	442.75
331.115	450.75
331.344	418.75
331.572	374.75
331.801	405.75
332.03	407.75
332.258	375.75
332.486	388.75
332.715	397.75
332.943	383.75
333.172	420.75
333.4	396.75
333.629	418.75
333.857	417.75
334.085	437.75
334.314	441.75
334.542	457.75
334.771	460.75
334.999	432.75
335.227	425.75
335.455	409.75
335.684	406.75
335.912	398.75
336.14	396.75
336.369	369.75
336.597	394.75
336.825	401.75
337.053	391.75
337.281	376.75
337.51	373.75
337.738	374.75
337.966	381.75
338.194	385.75
338.422	375.75
338.65	376.75
338.878	362.75
339.106	368.75
339.334	367.75
339.562	346.75
339.79	375.75
340.018	360.75
340.246	367.75
340.474	359.75
340.702	379.75
340.93	372.75
341.158	367.75
341.386	350.75
341.614	367.75
341.842	368.75
342.07	345.75
342.298	353.75
342.526	348.75
342.754	357.75
342.981	351.75
343.209	361.75
343.437	356.75
343.665	360.75
343.893	385.75
344.12	411.75
344.348	374.75
344.576	389.75
344.804	372.75
345.031	359.75
345.259	363.75
345.487	363.75
345.714	360.75
345.942	373.75
346.17	357.75
346.397	341.75
346.625	336.75
346.853	361.75
347.08	347.75
347.308	341.75
347.535	354.75
347.763	353.75
347.99	348.75
348.218	362.75
348.445	360.75
348.673	345.75
348.9	356.75
349.128	333.75
349.355	345.75
349.583	343.75
349.81	349.75
350.037	332.75
350.265	336.75
350.492	346.75
350.72	328.75
350.947	346.75
351.174	363.75
351.402	347.75
351.629	341.75
351.856	332.75
352.083	347.75
352.311	340.75
352.538	362.75
352.765	356.75
352.992	359.75
353.22	326.75
353.447	336.75
353.674	325.75
353.901	325.75
354.128	337.75
354.355	326.75
354.583	321.75
354.81	348.75
355.037	339.75
355.264	327.75
355.491	303.75
355.718	315.75
355.945	337.75
356.172	333.75
356.399	324.75
356.626	324.75
356.853	330.75
357.08	346.75
357.307	320.75
357.534	295.75
357.761	322.75
357.988	330.75
358.215	342.75
358.441	326.75
358.668	324.75
358.895	330.75
359.122	338.75
359.349	327.75
359.576	343.75
359.802	349.75
360.029	366.75
360.256	357.75
360.483	337.75
360.709	342.75
360.936	349.75
361.163	330.75
361.39	325.75
361.616	338.75
361.843	338.75
362.07	363.75
362.296	336.75
362.523	348.75
362.749	320.75
362.976	342.75
363.203	324.75
363.429	321.75
363.656	343.75
363.882	317.75
364.109	317.75
364.335	329.75
364.562	313.75
364.788	305.75
365.015	327.75
365.241	330.75
365.468	337.75
365.694	336.75
365.92	339.75
366.147	327.75
366.373	319.75
366.599	344.75
366.826	325.75
367.052	345.75
367.278	335.75
367.505	348.75
367.731	321.75
367.957	334.75
368.184	353.75
368.41	334.75
368.636	340.75
368.862	338.75
369.089	347.75
369.315	331.75
369.541	333.75
369.767	325.75
369.993	323.75
370.219	319.75
370.445	308.75
370.672	346.75
370.898	344.75
371.124	333.75
371.35	327.75
371.576	355.75
371.802	349.75
372.028	328.75
372.254	351.75
372.48	349.75
372.706	369.75
372.932	340.75
373.158	327.75
373.384	345.75
373.61	354.75
373.835	344.75
374.061	362.75
374.287	349.75
374.513	331.75
374.739	333.75
374.965	361.75
375.191	365.75
375.416	360.75
375.642	341.75
375.868	352.75
376.094	349.75
376.319	329.75
376.545	371.75
376.771	340.75
376.997	324.75
377.222	327.75
377.448	339.75
377.674	341.75
377.899	334.75
378.125	317.75
378.35	338.75
378.576	344.75
378.802	356.75
379.027	340.75
379.253	339.75
379.478	346.75
379.704	336.75
379.929	345.75
380.155	333.75
380.38	333.75
380.606	331.75
380.831	334.75
381.057	335.75
381.282	339.75
381.507	333.75
381.733	328.75
381.958	339.75
382.184	340.75
382.409	348.75
382.634	324.75
382.86	325.75
383.085	343.75
383.31	358.75
383.535	357.75
383.761	361.75
383.986	362.75
384.211	354.75
384.436	382.75
384.662	379.75
384.887	341.75
385.112	375.75
385.337	367.75
385.562	386.75
385.787	395.75
386.013	354.75
386.238	370.75
386.463	369.75
386.688	379.75
386.913	342.75
387.138	356.75
387.363	387.75
387.588	368.75
387.813	374.75
388.038	367.75
388.263	354.75
388.488	378.75
388.713	372.75
388.938	385.75
389.163	385.75
389.387	380.75
389.612	367.75
389.837	379.75
390.062	374.75
390.287	368.75
390.512	373.75
390.736	359.75
390.961	369.75
391.186	376.75
391.411	376.75
391.636	400.75
391.86	390.75
392.085	377.75
392.31	369.75
392.534	388.75
392.759	376.75
392.984	375.75
393.208	376.75
393.433	369.75
393.658	375.75
393.882	390.75
394.107	383.75
394.331	391.75
394.556	382.75
394.78	352.75
395.005	382.75
395.229	369.75
395.454	401.75
395.678	413.75
395.903	410.75
396.127	400.75
396.352	395.75
396.576	389.75
396.801	423.75
397.025	402.75
397.249	373.75
397.474	413.75
397.698	401.75
397.922	409.75
398.147	408.75
398.371	421.75
398.595	438.75
398.82	412.75
399.044	443.75
399.268	498.75
399.492	529.75
399.717	572.75
399.941	541.75
400.165	534.75
400.389	539.75
400.613	495.75
400.837	440.75
401.062	438.75
401.286	427.75
401.51	442.75
401.734	433.75
401.958	448.75
402.182	435.75
402.406	455.75
402.63	442.75
402.854	433.75
403.078	471.75
403.302	488.75
403.526	459.75
403.75	480.75
403.974	465.75
404.198	472.75
404.422	458.75
404.645	465.75
404.869	455.75
405.093	480.75
405.317	515.75
405.541	523.75
405.765	500.75
405.988	484.75
406.212	466.75
406.436	480.75
406.66	494.75
406.883	496.75
407.107	510.75
407.331	543.75
407.555	575.75
407.778	585.75
408.002	531.75
408.226	503.75
408.449	485.75
408.673	491.75
408.896	496.75
409.12	531.75
409.344	491.75
409.567	474.75
409.791	454.75
410.014	481.75
410.238	475.75
410.461	461.75
410.685	443.75
410.908	461.75
411.132	471.75
411.355	475.75
411.578	482.75
411.802	462.75
412.025	455.75
412.249	451.75
412.472	457.75
412.695	482.75
412.919	477.75
413.142	473.75
413.365	442.75
413.589	447.75
413.812	409.75
414.035	446.75
414.258	439.75
414.482	441.75
414.705	426.75
414.928	434.75
415.151	434.75
415.374	442.75
415.597	404.75
415.821	433.75
416.044	441.75
416.267	412.75
416.49	415.75
416.713	417.75
416.936	434.75
417.159	429.75
417.382	419.75
417.605	411.75
417.828	435.75
418.051	448.75
418.274	423.75
418.497	448.75
418.72	431.75
418.943	435.75
419.166	444.75
419.389	450.75
419.611	458.75
419.834	475.75
420.057	449.75
420.28	445.75
420.503	432.75
420.726	435.75
420.948	437.75
421.171	467.75
421.394	508.75
421.617	465.75
421.839	443.75
422.062	445.75
422.285	449.75
422.507	483.75
422.73	505.75
422.953	509.75
423.175	483.75
423.398	451.75
423.621	450.75
423.843	467.75
424.066	489.75
424.288	497.75
424.511	502.75
424.733	480.75
424.956	536.75
425.178	540.75
425.401	521.75
425.623	531.75
425.846	480.75
426.068	436.75
426.291	443.75
426.513	452.75
426.735	475.75
426.958	483.75
427.18	516.75
427.402	607.75
427.625	644.75
427.847	567.75
428.069	497.75
428.292	454.75
428.514	427.75
428.736	400.75
428.958	408.75
429.181	424.75
429.403	425.75
429.625	419.75
429.847	440.75
430.069	503.75
430.292	455.75
430.514	443.75
430.736	415.75
430.958	413.75
431.18	401.75
431.402	403.75
431.624	398.75
431.846	395.75
432.068	394.75
432.29	392.75
432.512	416.75
432.734	415.75
432.956	406.75
433.178	423.75
433.4	426.75
433.622	412.75
433.844	386.75
434.066	405.75
434.287	411.75
434.509	415.75
434.731	443.75
434.953	451.75
435.175	444.75
435.397	439.75
435.618	457.75
435.84	464.75
436.062	502.75
436.284	566.75
436.505	486.75
436.727	448.75
436.949	431.75
437.17	420.75
437.392	410.75
437.614	426.75
437.835	432.75
438.057	483.75
438.278	534.75
438.5	563.75
438.721	592.75
438.943	526.75
439.165	469.75
439.386	437.75
439.608	459.75
439.829	444.75
440.05	461.75
440.272	481.75
440.493	458.75
440.715	451.75
440.936	439.75
441.158	419.75
441.379	447.75
441.6	450.75
441.822	445.75
442.043	494.75
442.264	520.75
442.486	550.75
442.707	500.75
442.928	476.75
443.149	485.75
443.371	472.75
443.592	518.75
443.813	567.75
444.034	580.75
444.255	499.75
444.476	486.75
444.698	492.75
444.919	484.75
445.14	560.75
445.361	526.75
445.582	498.75
445.803	542.75
446.024	593.75
446.245	547.75
446.466	515.75
446.687	466.75
446.908	442.75
447.129	432.75
447.35	389.75
447.571	402.75
447.792	405.75
448.013	408.75
448.234	417.75
448.455	454.75
448.675	504.75
448.896	569.75
449.117	512.75
449.338	463.75
449.559	555.75
449.779	592.75
450	492.75
450.221	421.75
450.442	395.75
450.662	388.75
450.883	389.75
451.104	423.75
451.324	398.75
451.545	383.75
451.766	387.75
451.986	375.75
452.207	385.75
452.428	362.75
452.648	372.75
452.869	373.75
453.089	396.75
453.31	386.75
453.53	378.75
453.751	370.75
453.971	387.75
454.192	389.75
454.412	375.75
454.633	345.75
454.853	356.75
455.073	364.75
455.294	386.75
455.514	445.75
455.734	415.75
455.955	352.75
456.175	368.75
456.395	351.75
456.616	359.75
456.836	364.75
457.056	351.75
457.276	326.75
457.497	353.75
457.717	354.75
457.937	333.75
458.157	347.75
458.377	367.75
458.598	367.75
458.818	413.75
459.038	464.75
459.258	466.75
459.478	418.75
459.698	388.75
459.918	398.75
460.138	419.75
460.358	432.75
460.578	427.75
460.798	421.75
461.018	431.75
461.238	428.75
461.458	431.75
461.678	439.75
461.898	437.75
462.118	439.75
462.338	454.75
462.558	448.75
462.777	474.75
462.997	517.75
463.217	498.75
463.437	505.75
463.657	500.75
463.876	488.75
464.096	465.75
464.316	471.75
464.536	481.75
464.755	461.75
464.975	471.75
465.195	477.75
465.414	520.75
465.634	443.75
465.854	415.75
466.073	413.75
466.293	400.75
466.512	376.75
466.732	377.75
466.951	393.75
467.171	373.75
467.391	403.75
467.61	410.75
467.829	396.75
468.049	409.75
468.268	375.75
468.488	378.75
468.707	384.75
468.927	384.75
469.146	383.75
469.365	404.75
469.585	373.75
469.804	387.75
470.023	393.75
470.243	403.75
470.462	406.75
470.681	412.75
470.901	407.75
471.12	400.75
471.339	401.75
471.558	405.75
471.777	422.75
471.997	399.75
472.216	380.75
472.435	415.75
472.654	411.75
472.873	396.75
473.092	397.75
473.311	368.75
473.53	374.75
473.749	378.75
473.968	425.75
474.187	473.75
474.406	474.75
474.625	403.75
474.844	388.75
475.063	380.75
475.282	378.75
475.501	385.75
475.72	400.75
475.939	384.75
476.158	392.75
476.377	394.75
476.596	403.75
476.814	398.75
477.033	425.75
477.252	401.75
477.471	409.75
477.69	428.75
477.908	429.75
478.127	433.75
478.346	436.75
478.564	432.75
478.783	448.75
479.002	457.75
479.22	443.75
479.439	473.75
479.658	456.75
479.876	471.75
480.095	487.75
480.313	516.75
480.532	489.75
480.751	492.75
480.969	475.75
481.188	528.75
481.406	530.75
481.624	455.75
481.843	453.75
482.061	437.75
482.28	452.75
482.498	452.75
482.717	436.75
482.935	437.75
483.153	460.75
483.372	455.75
483.59	451.75
483.808	445.75
484.027	453.75
484.245	452.75
484.463	455.75
484.681	456.75
484.9	463.75
485.118	442.75
485.336	452.75
485.554	465.75
485.772	476.75
485.99	464.75
486.209	465.75
486.427	475.75
486.645	479.75
486.863	499.75
487.081	483.75
487.299	494.75
487.517	463.75
487.735	446.75
487.953	472.75
488.171	475.75
488.389	451.75
488.607	466.75
488.825	464.75
489.043	468.75
489.261	487.75
489.479	467.75
489.696	494.75
489.914	512.75
490.132	503.75
490.35	480.75
490.568	488.75
490.786	518.75
491.003	503.75
491.221	527.75
491.439	545.75
491.657	524.75
491.874	542.75
492.092	553.75
492.31	529.75
492.527	576.75
492.745	552.75
492.963	562.75
493.18	564.75
493.398	566.75
493.615	555.75
493.833	566.75
494.05	583.75
494.268	567.75
494.485	556.75
494.703	549.75
494.92	547.75
495.138	572.75
495.355	552.75
495.573	572.75
495.79	575.75
496.008	556.75
496.225	555.75
496.442	576.75
496.66	582.75
496.877	565.75
497.094	563.75
497.312	581.75
497.529	583.75
497.746	601.75
497.963	620.75
498.181	608.75
498.398	620.75
498.615	664.75
498.832	675.75
499.049	690.75
499.267	719.75
499.484	747.75
499.701	790.75
499.918	826.75
500.135	904.75
500.352	969.75
500.569	1000.75
500.786	1008.75
501.003	931.75
501.22	922.75
501.437	868.75
501.654	782.75
501.871	804.75
502.088	755.75
