Data from 1969.PennyLincolnUp.Lamp.En5.5.200Scan.071719.P1._HRD10591_14-55-00-972.txt Node
Date: Thu Jul 18 14:55:00 EDT 2019
User: cochatt
Spectrometer: HR+D1059
Trigger mode: 1
Integration Time (sec): 1.000000E-1
Scans to average: 1
Electric dark correction enabled: true
Nonlinearity correction enabled: false
Boxcar width: 0
XAxis mode: Wavelengths
Number of Pixels in Spectrum: 2048
>>>>>Begin Spectral Data<<<<<
223.165	-17.56
223.4	-17.56
223.635	-17.56
223.869	-16.56
224.104	-17.56
224.338	-5.56
224.573	-22.56
224.808	-15.56
225.042	-9.56
225.277	1.44
225.511	-11.56
225.746	6.44
225.98	-9.56
226.215	12.44
226.449	23.44
226.683	26.44
226.918	32.44
227.152	23.44
227.387	34.44
227.621	23.44
227.856	52.44
228.09	56.44
228.324	37.44
228.559	64.44
228.793	57.44
229.027	82.44
229.262	88.44
229.496	94.44
229.73	103.44
229.964	119.44
230.199	101.44
230.433	95.44
230.667	115.44
230.901	102.44
231.136	101.44
231.37	102.44
231.604	106.44
231.838	108.44
232.072	84.44
232.306	107.44
232.541	99.44
232.775	82.44
233.009	104.44
233.243	125.44
233.477	109.44
233.711	95.44
233.945	103.44
234.179	106.44
234.413	109.44
234.647	115.44
234.881	96.44
235.115	110.44
235.349	116.44
235.583	117.44
235.817	98.44
236.051	112.44
236.285	108.44
236.519	121.44
236.753	117.44
236.987	119.44
237.221	136.44
237.455	159.44
237.689	137.44
237.922	108.44
238.156	127.44
238.39	112.44
238.624	117.44
238.858	116.44
239.091	117.44
239.325	99.44
239.559	99.44
239.793	99.44
240.027	125.44
240.26	121.44
240.494	127.44
240.728	145.44
240.961	128.44
241.195	126.44
241.429	121.44
241.662	121.44
241.896	109.44
242.13	123.44
242.363	117.44
242.597	119.44
242.83	128.44
243.064	128.44
243.298	126.44
243.531	128.44
243.765	113.44
243.998	129.44
244.232	122.44
244.465	109.44
244.699	121.44
244.932	109.44
245.166	131.44
245.399	131.44
245.633	124.44
245.866	131.44
246.099	132.44
246.333	158.44
246.566	136.44
246.8	142.44
247.033	121.44
247.266	124.44
247.5	141.44
247.733	140.44
247.966	157.44
248.2	149.44
248.433	136.44
248.666	153.44
248.899	154.44
249.133	160.44
249.366	174.44
249.599	148.44
249.832	153.44
250.066	146.44
250.299	153.44
250.532	164.44
250.765	158.44
250.998	172.44
251.231	163.44
251.465	166.44
251.698	162.44
251.931	163.44
252.164	167.44
252.397	145.44
252.63	162.44
252.863	160.44
253.096	174.44
253.329	167.44
253.562	172.44
253.795	168.44
254.028	164.44
254.261	167.44
254.494	174.44
254.727	189.44
254.96	199.44
255.193	192.44
255.426	189.44
255.659	176.44
255.892	174.44
256.124	183.44
256.357	181.44
256.59	179.44
256.823	180.44
257.056	185.44
257.289	168.44
257.521	164.44
257.754	175.44
257.987	176.44
258.22	174.44
258.452	184.44
258.685	177.44
258.918	171.44
259.151	168.44
259.383	187.44
259.616	179.44
259.849	185.44
260.081	196.44
260.314	184.44
260.547	201.44
260.779	189.44
261.012	198.44
261.244	200.44
261.477	191.44
261.71	167.44
261.942	179.44
262.175	183.44
262.407	175.44
262.64	176.44
262.872	195.44
263.105	181.44
263.337	160.44
263.57	171.44
263.802	181.44
264.035	175.44
264.267	181.44
264.499	183.44
264.732	191.44
264.964	186.44
265.197	177.44
265.429	186.44
265.661	185.44
265.894	181.44
266.126	189.44
266.358	194.44
266.591	195.44
266.823	201.44
267.055	198.44
267.287	187.44
267.52	189.44
267.752	188.44
267.984	203.44
268.216	202.44
268.448	197.44
268.681	198.44
268.913	198.44
269.145	208.44
269.377	208.44
269.609	203.44
269.841	208.44
270.073	231.44
270.306	236.44
270.538	245.44
270.77	247.44
271.002	248.44
271.234	233.44
271.466	224.44
271.698	251.44
271.93	226.44
272.162	246.44
272.394	247.44
272.626	237.44
272.858	210.44
273.09	225.44
273.322	229.44
273.553	227.44
273.785	223.44
274.017	204.44
274.249	205.44
274.481	236.44
274.713	222.44
274.945	231.44
275.176	213.44
275.408	222.44
275.64	232.44
275.872	229.44
276.104	248.44
276.335	237.44
276.567	221.44
276.799	236.44
277.031	253.44
277.262	264.44
277.494	247.44
277.726	239.44
277.957	231.44
278.189	226.44
278.421	229.44
278.652	225.44
278.884	214.44
279.115	221.44
279.347	225.44
279.579	225.44
279.81	229.44
280.042	223.44
280.273	222.44
280.505	234.44
280.736	210.44
280.968	220.44
281.199	225.44
281.431	230.44
281.662	227.44
281.894	227.44
282.125	237.44
282.356	233.44
282.588	248.44
282.819	251.44
283.051	232.44
283.282	213.44
283.513	238.44
283.745	243.44
283.976	245.44
284.207	233.44
284.439	237.44
284.67	232.44
284.901	233.44
285.132	234.44
285.364	252.44
285.595	241.44
285.826	254.44
286.057	229.44
286.288	240.44
286.52	248.44
286.751	235.44
286.982	233.44
287.213	248.44
287.444	250.44
287.675	255.44
287.906	269.44
288.138	257.44
288.369	268.44
288.6	269.44
288.831	277.44
289.062	251.44
289.293	239.44
289.524	255.44
289.755	240.44
289.986	247.44
290.217	225.44
290.448	247.44
290.679	251.44
290.91	243.44
291.141	252.44
291.371	252.44
291.602	245.44
291.833	250.44
292.064	260.44
292.295	247.44
292.526	255.44
292.757	262.44
292.987	258.44
293.218	247.44
293.449	253.44
293.68	241.44
293.91	268.44
294.141	240.44
294.372	245.44
294.603	259.44
294.833	236.44
295.064	247.44
295.295	253.44
295.525	236.44
295.756	249.44
295.987	271.44
296.217	277.44
296.448	280.44
296.679	257.44
296.909	262.44
297.14	244.44
297.37	262.44
297.601	279.44
297.831	267.44
298.062	267.44
298.292	288.44
298.523	282.44
298.753	276.44
298.984	264.44
299.214	263.44
299.445	266.44
299.675	264.44
299.905	272.44
300.136	283.44
300.366	261.44
300.597	276.44
300.827	280.44
301.057	280.44
301.288	273.44
301.518	277.44
301.748	273.44
301.979	304.44
302.209	285.44
302.439	304.44
302.669	285.44
302.9	278.44
303.13	287.44
303.36	284.44
303.59	287.44
303.82	300.44
304.051	284.44
304.281	291.44
304.511	295.44
304.741	284.44
304.971	284.44
305.201	277.44
305.431	294.44
305.661	301.44
305.891	269.44
306.121	284.44
306.352	296.44
306.582	289.44
306.812	275.44
307.042	284.44
307.272	290.44
307.502	277.44
307.731	283.44
307.961	270.44
308.191	279.44
308.421	288.44
308.651	288.44
308.881	280.44
309.111	291.44
309.341	273.44
309.571	286.44
309.8	291.44
310.03	305.44
310.26	294.44
310.49	287.44
310.72	305.44
310.949	311.44
311.179	298.44
311.409	329.44
311.639	327.44
311.868	312.44
312.098	313.44
312.328	314.44
312.557	324.44
312.787	325.44
313.017	333.44
313.246	291.44
313.476	325.44
313.706	319.44
313.935	311.44
314.165	317.44
314.394	328.44
314.624	316.44
314.853	320.44
315.083	305.44
315.312	313.44
315.542	297.44
315.771	317.44
316.001	307.44
316.23	313.44
316.46	314.44
316.689	309.44
316.919	303.44
317.148	315.44
317.377	321.44
317.607	320.44
317.836	297.44
318.065	306.44
318.295	317.44
318.524	317.44
318.753	304.44
318.983	302.44
319.212	310.44
319.441	316.44
319.67	324.44
319.9	316.44
320.129	301.44
320.358	294.44
320.587	297.44
320.816	316.44
321.046	332.44
321.275	316.44
321.504	304.44
321.733	308.44
321.962	314.44
322.191	323.44
322.42	344.44
322.649	326.44
322.878	323.44
323.108	335.44
323.337	345.44
323.566	352.44
323.795	366.44
324.024	385.44
324.253	430.44
324.482	555.44
324.71	796.44
324.939	1021.44
325.168	873.44
325.397	501.44
325.626	398.44
325.855	371.44
326.084	367.44
326.313	352.44
326.542	368.44
326.77	367.44
326.999	429.44
327.228	518.44
327.457	725.44
327.686	799.44
327.914	559.44
328.143	429.44
328.372	419.44
328.6	401.44
328.829	383.44
329.058	395.44
329.287	378.44
329.515	372.44
329.744	379.44
329.972	395.44
330.201	396.44
330.43	403.44
330.658	411.44
330.887	403.44
331.115	411.44
331.344	383.44
331.572	383.44
331.801	379.44
332.03	373.44
332.258	390.44
332.486	382.44
332.715	379.44
332.943	378.44
333.172	382.44
333.4	396.44
333.629	407.44
333.857	408.44
334.085	400.44
334.314	427.44
334.542	435.44
334.771	444.44
334.999	423.44
335.227	400.44
335.455	390.44
335.684	399.44
335.912	383.44
336.14	356.44
336.369	361.44
336.597	356.44
336.825	381.44
337.053	377.44
337.281	357.44
337.51	345.44
337.738	349.44
337.966	362.44
338.194	353.44
338.422	360.44
338.65	353.44
338.878	349.44
339.106	333.44
339.334	368.44
339.562	341.44
339.79	351.44
340.018	330.44
340.246	367.44
340.474	353.44
340.702	344.44
340.93	365.44
341.158	365.44
341.386	359.44
341.614	347.44
341.842	350.44
342.07	340.44
342.298	345.44
342.526	337.44
342.754	334.44
342.981	345.44
343.209	331.44
343.437	338.44
343.665	352.44
343.893	353.44
344.12	380.44
344.348	357.44
344.576	369.44
344.804	345.44
345.031	344.44
345.259	333.44
345.487	342.44
345.714	355.44
345.942	329.44
346.17	326.44
346.397	345.44
346.625	333.44
346.853	316.44
347.08	327.44
347.308	323.44
347.535	323.44
347.763	332.44
347.99	327.44
348.218	320.44
348.445	347.44
348.673	349.44
348.9	350.44
349.128	304.44
349.355	313.44
349.583	322.44
349.81	335.44
350.037	314.44
350.265	322.44
350.492	318.44
350.72	313.44
350.947	323.44
351.174	319.44
351.402	325.44
351.629	329.44
351.856	319.44
352.083	330.44
352.311	324.44
352.538	321.44
352.765	328.44
352.992	324.44
353.22	314.44
353.447	324.44
353.674	324.44
353.901	306.44
354.128	298.44
354.355	321.44
354.583	324.44
354.81	321.44
355.037	315.44
355.264	305.44
355.491	326.44
355.718	311.44
355.945	305.44
356.172	295.44
356.399	291.44
356.626	314.44
356.853	314.44
357.08	303.44
357.307	324.44
357.534	302.44
357.761	333.44
357.988	315.44
358.215	308.44
358.441	305.44
358.668	305.44
358.895	304.44
359.122	318.44
359.349	326.44
359.576	335.44
359.802	332.44
360.029	347.44
360.256	352.44
360.483	325.44
360.709	314.44
360.936	318.44
361.163	316.44
361.39	319.44
361.616	324.44
361.843	305.44
362.07	341.44
362.296	343.44
362.523	318.44
362.749	326.44
362.976	315.44
363.203	307.44
363.429	315.44
363.656	299.44
363.882	311.44
364.109	329.44
364.335	311.44
364.562	321.44
364.788	321.44
365.015	319.44
365.241	319.44
365.468	329.44
365.694	324.44
365.92	321.44
366.147	311.44
366.373	316.44
366.599	332.44
366.826	327.44
367.052	298.44
367.278	308.44
367.505	319.44
367.731	310.44
367.957	311.44
368.184	323.44
368.41	337.44
368.636	307.44
368.862	309.44
369.089	311.44
369.315	311.44
369.541	320.44
369.767	302.44
369.993	331.44
370.219	327.44
370.445	326.44
370.672	308.44
370.898	319.44
371.124	327.44
371.35	320.44
371.576	337.44
371.802	328.44
372.028	311.44
372.254	314.44
372.48	320.44
372.706	336.44
372.932	338.44
373.158	328.44
373.384	349.44
373.61	332.44
373.835	315.44
374.061	315.44
374.287	326.44
374.513	321.44
374.739	332.44
374.965	340.44
375.191	353.44
375.416	328.44
375.642	325.44
375.868	343.44
376.094	336.44
376.319	315.44
376.545	321.44
376.771	316.44
376.997	315.44
377.222	333.44
377.448	311.44
377.674	307.44
377.899	325.44
378.125	316.44
378.35	336.44
378.576	325.44
378.802	322.44
379.027	318.44
379.253	329.44
379.478	316.44
379.704	320.44
379.929	349.44
380.155	343.44
380.38	337.44
380.606	339.44
380.831	333.44
381.057	327.44
381.282	326.44
381.507	321.44
381.733	331.44
381.958	317.44
382.184	356.44
382.409	346.44
382.634	336.44
382.86	336.44
383.085	343.44
383.31	353.44
383.535	332.44
383.761	337.44
383.986	351.44
384.211	336.44
384.436	365.44
384.662	337.44
384.887	367.44
385.112	348.44
385.337	331.44
385.562	366.44
385.787	341.44
386.013	385.44
386.238	365.44
386.463	357.44
386.688	379.44
386.913	359.44
387.138	374.44
387.363	354.44
387.588	355.44
387.813	362.44
388.038	364.44
388.263	358.44
388.488	374.44
388.713	361.44
388.938	345.44
389.163	350.44
389.387	342.44
389.612	353.44
389.837	349.44
390.062	370.44
390.287	344.44
390.512	347.44
390.736	346.44
390.961	362.44
391.186	351.44
391.411	379.44
391.636	382.44
391.86	377.44
392.085	380.44
392.31	399.44
392.534	398.44
392.759	382.44
392.984	365.44
393.208	368.44
393.433	373.44
393.658	377.44
393.882	348.44
394.107	373.44
394.331	381.44
394.556	378.44
394.78	368.44
395.005	381.44
395.229	374.44
395.454	372.44
395.678	369.44
395.903	400.44
396.127	385.44
396.352	400.44
396.576	379.44
396.801	391.44
397.025	379.44
397.249	359.44
397.474	379.44
397.698	389.44
397.922	415.44
398.147	407.44
398.371	397.44
398.595	398.44
398.82	413.44
399.044	435.44
399.268	459.44
399.492	506.44
399.717	540.44
399.941	546.44
400.165	541.44
400.389	518.44
400.613	448.44
400.837	437.44
401.062	441.44
401.286	424.44
401.51	423.44
401.734	424.44
401.958	421.44
402.182	426.44
402.406	464.44
402.63	455.44
402.854	439.44
403.078	438.44
403.302	448.44
403.526	451.44
403.75	445.44
403.974	452.44
404.198	462.44
404.422	462.44
404.645	459.44
404.869	472.44
405.093	475.44
405.317	513.44
405.541	506.44
405.765	489.44
405.988	453.44
406.212	464.44
406.436	475.44
406.66	484.44
406.883	474.44
407.107	481.44
407.331	513.44
407.555	560.44
407.778	545.44
408.002	510.44
408.226	487.44
408.449	469.44
408.673	459.44
408.896	476.44
409.12	494.44
409.344	476.44
409.567	431.44
409.791	441.44
410.014	439.44
410.238	438.44
410.461	437.44
410.685	462.44
410.908	440.44
411.132	477.44
411.355	470.44
411.578	459.44
411.802	442.44
412.025	428.44
412.249	442.44
412.472	446.44
412.695	461.44
412.919	470.44
413.142	437.44
413.365	431.44
413.589	432.44
413.812	462.44
414.035	403.44
414.258	415.44
414.482	421.44
414.705	426.44
414.928	419.44
415.151	399.44
415.374	414.44
415.597	426.44
415.821	412.44
416.044	399.44
416.267	399.44
416.49	423.44
416.713	408.44
416.936	404.44
417.159	422.44
417.382	408.44
417.605	408.44
417.828	429.44
418.051	426.44
418.274	432.44
418.497	425.44
418.72	429.44
418.943	409.44
419.166	444.44
419.389	440.44
419.611	437.44
419.834	436.44
420.057	420.44
420.28	450.44
420.503	432.44
420.726	433.44
420.948	428.44
421.171	450.44
421.394	462.44
421.617	419.44
421.839	432.44
422.062	426.44
422.285	438.44
422.507	470.44
422.73	505.44
422.953	486.44
423.175	458.44
423.398	466.44
423.621	439.44
423.843	450.44
424.066	461.44
424.288	436.44
424.511	466.44
424.733	478.44
424.956	515.44
425.178	482.44
425.401	496.44
425.623	488.44
425.846	438.44
426.068	459.44
426.291	433.44
426.513	431.44
426.735	442.44
426.958	444.44
427.18	462.44
427.402	552.44
427.625	584.44
427.847	518.44
428.069	483.44
428.292	439.44
428.514	409.44
428.736	402.44
428.958	388.44
429.181	395.44
429.403	384.44
429.625	405.44
429.847	404.44
430.069	442.44
430.292	443.44
430.514	411.44
430.736	403.44
430.958	402.44
431.18	388.44
431.402	389.44
431.624	388.44
431.846	378.44
432.068	390.44
432.29	393.44
432.512	386.44
432.734	391.44
432.956	398.44
433.178	401.44
433.4	415.44
433.622	392.44
433.844	397.44
434.066	365.44
434.287	381.44
434.509	383.44
434.731	395.44
434.953	420.44
435.175	419.44
435.397	419.44
435.618	430.44
435.84	432.44
436.062	492.44
436.284	519.44
436.505	443.44
436.727	428.44
436.949	397.44
437.17	392.44
437.392	389.44
437.614	397.44
437.835	431.44
438.057	453.44
438.278	507.44
438.5	511.44
438.721	553.44
438.943	535.44
439.165	445.44
439.386	399.44
439.608	435.44
439.829	426.44
440.05	432.44
440.272	445.44
440.493	410.44
440.715	409.44
440.936	415.44
441.158	402.44
441.379	415.44
441.6	426.44
441.822	435.44
442.043	463.44
442.264	503.44
442.486	497.44
442.707	461.44
442.928	419.44
443.149	449.44
443.371	493.44
443.592	501.44
443.813	513.44
444.034	567.44
444.255	496.44
444.476	472.44
444.698	484.44
444.919	464.44
445.14	571.44
445.361	491.44
445.582	467.44
445.803	514.44
446.024	534.44
446.245	532.44
446.466	491.44
446.687	441.44
446.908	415.44
447.129	408.44
447.35	398.44
447.571	405.44
447.792	385.44
448.013	405.44
448.234	395.44
448.455	425.44
448.675	482.44
448.896	546.44
449.117	467.44
449.338	453.44
449.559	496.44
449.779	537.44
450	447.44
450.221	409.44
450.442	373.44
450.662	371.44
450.883	380.44
451.104	386.44
451.324	392.44
451.545	355.44
451.766	349.44
451.986	359.44
452.207	365.44
452.428	350.44
452.648	360.44
452.869	363.44
453.089	349.44
453.31	377.44
453.53	351.44
453.751	375.44
453.971	375.44
454.192	361.44
454.412	345.44
454.633	368.44
454.853	352.44
455.073	350.44
455.294	385.44
455.514	385.44
455.734	390.44
455.955	345.44
456.175	339.44
456.395	320.44
456.616	332.44
456.836	331.44
457.056	344.44
457.276	358.44
457.497	343.44
457.717	339.44
457.937	363.44
458.157	346.44
458.377	356.44
458.598	379.44
458.818	399.44
459.038	440.44
459.258	448.44
459.478	426.44
459.698	373.44
459.918	382.44
460.138	377.44
460.358	395.44
460.578	430.44
460.798	439.44
461.018	439.44
461.238	406.44
461.458	416.44
461.678	420.44
461.898	411.44
462.118	401.44
462.338	419.44
462.558	440.44
462.777	447.44
462.997	475.44
463.217	474.44
463.437	510.44
463.657	464.44
463.876	461.44
464.096	466.44
464.316	454.44
464.536	451.44
464.755	439.44
464.975	435.44
465.195	459.44
465.414	475.44
465.634	406.44
465.854	412.44
466.073	412.44
466.293	380.44
466.512	380.44
466.732	378.44
466.951	367.44
467.171	375.44
467.391	399.44
467.61	387.44
467.829	379.44
468.049	376.44
468.268	380.44
468.488	362.44
468.707	356.44
468.927	348.44
469.146	347.44
469.365	361.44
469.585	377.44
469.804	376.44
470.023	392.44
470.243	373.44
470.462	387.44
470.681	408.44
470.901	409.44
471.12	371.44
471.339	389.44
471.558	378.44
471.777	385.44
471.997	386.44
472.216	363.44
472.435	410.44
472.654	380.44
472.873	369.44
473.092	362.44
473.311	391.44
473.53	379.44
473.749	368.44
473.968	382.44
474.187	459.44
474.406	441.44
474.625	391.44
474.844	385.44
475.063	383.44
475.282	383.44
475.501	357.44
475.72	383.44
475.939	371.44
476.158	366.44
476.377	395.44
476.596	384.44
476.814	396.44
477.033	376.44
477.252	398.44
477.471	380.44
477.69	392.44
477.908	421.44
478.127	411.44
478.346	397.44
478.564	425.44
478.783	436.44
479.002	425.44
479.22	431.44
479.439	439.44
479.658	454.44
479.876	454.44
480.095	450.44
480.313	464.44
480.532	476.44
480.751	481.44
480.969	463.44
481.188	489.44
481.406	505.44
481.624	460.44
481.843	446.44
482.061	412.44
482.28	430.44
482.498	433.44
482.717	430.44
482.935	443.44
483.153	430.44
483.372	415.44
483.59	420.44
483.808	413.44
484.027	425.44
484.245	421.44
484.463	436.44
484.681	437.44
484.9	410.44
485.118	460.44
485.336	443.44
485.554	433.44
485.772	464.44
485.99	433.44
486.209	466.44
486.427	449.44
486.645	461.44
486.863	454.44
487.081	471.44
487.299	466.44
487.517	447.44
487.735	453.44
487.953	453.44
488.171	444.44
488.389	449.44
488.607	470.44
488.825	455.44
489.043	444.44
489.261	449.44
489.479	435.44
489.696	456.44
489.914	486.44
490.132	471.44
490.35	466.44
490.568	464.44
490.786	503.44
491.003	499.44
491.221	479.44
491.439	515.44
491.657	519.44
491.874	505.44
492.092	501.44
492.31	534.44
492.527	508.44
492.745	516.44
492.963	535.44
493.18	509.44
493.398	509.44
493.615	526.44
493.833	542.44
494.05	528.44
494.268	544.44
494.485	541.44
494.703	515.44
494.92	542.44
495.138	513.44
495.355	523.44
495.573	537.44
495.79	539.44
496.008	542.44
496.225	530.44
496.442	508.44
496.66	544.44
496.877	542.44
497.094	535.44
497.312	553.44
497.529	563.44
497.746	566.44
497.963	583.44
498.181	594.44
498.398	597.44
498.615	607.44
498.832	637.44
499.049	671.44
499.267	714.44
499.484	745.44
499.701	768.44
499.918	813.44
500.135	895.44
500.352	919.44
500.569	939.44
500.786	943.44
501.003	897.44
501.22	838.44
501.437	799.44
501.654	763.44
501.871	745.44
502.088	680.44
