Data from 1969.PennyLincolnUp.Lamp.En5.5.200Scan.071719.P1._HRD10591_14-55-31-972.txt Node
Date: Thu Jul 18 14:55:31 EDT 2019
User: cochatt
Spectrometer: HR+D1059
Trigger mode: 1
Integration Time (sec): 1.000000E-1
Scans to average: 1
Electric dark correction enabled: true
Nonlinearity correction enabled: false
Boxcar width: 0
XAxis mode: Wavelengths
Number of Pixels in Spectrum: 2048
>>>>>Begin Spectral Data<<<<<
223.165	-25.06
223.4	-25.06
223.635	-25.06
223.869	-11.06
224.104	-11.06
224.338	-14.06
224.573	-16.06
224.808	-6.06
225.042	-10.06
225.277	-6.06
225.511	8.94
225.746	1.94
225.98	8.94
226.215	7.94
226.449	8.94
226.683	9.94
226.918	20.94
227.152	31.94
227.387	23.94
227.621	29.94
227.856	30.94
228.09	47.94
228.324	59.94
228.559	49.94
228.793	59.94
229.027	96.94
229.262	97.94
229.496	105.94
229.73	116.94
229.964	121.94
230.199	108.94
230.433	100.94
230.667	94.94
230.901	107.94
231.136	95.94
231.37	112.94
231.604	108.94
231.838	101.94
232.072	105.94
232.306	120.94
232.541	91.94
232.775	110.94
233.009	95.94
233.243	107.94
233.477	116.94
233.711	113.94
233.945	95.94
234.179	113.94
234.413	112.94
234.647	104.94
234.881	110.94
235.115	95.94
235.349	104.94
235.583	110.94
235.817	129.94
236.051	113.94
236.285	111.94
236.519	113.94
236.753	115.94
236.987	131.94
237.221	131.94
237.455	164.94
237.689	155.94
237.922	129.94
238.156	102.94
238.39	116.94
238.624	110.94
238.858	90.94
239.091	122.94
239.325	106.94
239.559	117.94
239.793	108.94
240.027	121.94
240.26	131.94
240.494	129.94
240.728	142.94
240.961	127.94
241.195	127.94
241.429	118.94
241.662	132.94
241.896	121.94
242.13	124.94
242.363	109.94
242.597	123.94
242.83	117.94
243.064	125.94
243.298	128.94
243.531	125.94
243.765	130.94
243.998	125.94
244.232	118.94
244.465	138.94
244.699	133.94
244.932	140.94
245.166	123.94
245.399	137.94
245.633	131.94
245.866	130.94
246.099	111.94
246.333	125.94
246.566	131.94
246.8	140.94
247.033	125.94
247.266	130.94
247.5	127.94
247.733	140.94
247.966	145.94
248.2	144.94
248.433	165.94
248.666	145.94
248.899	145.94
249.133	181.94
249.366	159.94
249.599	174.94
249.832	154.94
250.066	156.94
250.299	165.94
250.532	174.94
250.765	179.94
250.998	185.94
251.231	188.94
251.465	162.94
251.698	177.94
251.931	160.94
252.164	164.94
252.397	163.94
252.63	173.94
252.863	194.94
253.096	183.94
253.329	202.94
253.562	183.94
253.795	183.94
254.028	184.94
254.261	183.94
254.494	198.94
254.727	198.94
254.96	221.94
255.193	193.94
255.426	196.94
255.659	185.94
255.892	192.94
256.124	196.94
256.357	198.94
256.59	185.94
256.823	184.94
257.056	188.94
257.289	185.94
257.521	183.94
257.754	183.94
257.987	173.94
258.22	192.94
258.452	197.94
258.685	201.94
258.918	186.94
259.151	179.94
259.383	195.94
259.616	191.94
259.849	202.94
260.081	188.94
260.314	210.94
260.547	224.94
260.779	199.94
261.012	183.94
261.244	207.94
261.477	200.94
261.71	197.94
261.942	190.94
262.175	191.94
262.407	208.94
262.64	182.94
262.872	193.94
263.105	177.94
263.337	195.94
263.57	191.94
263.802	193.94
264.035	179.94
264.267	198.94
264.499	179.94
264.732	180.94
264.964	204.94
265.197	172.94
265.429	185.94
265.661	191.94
265.894	189.94
266.126	183.94
266.358	198.94
266.591	194.94
266.823	216.94
267.055	214.94
267.287	208.94
267.52	194.94
267.752	203.94
267.984	198.94
268.216	222.94
268.448	212.94
268.681	197.94
268.913	217.94
269.145	223.94
269.377	215.94
269.609	223.94
269.841	229.94
270.073	219.94
270.306	253.94
270.538	226.94
270.77	243.94
271.002	269.94
271.234	223.94
271.466	245.94
271.698	269.94
271.93	258.94
272.162	259.94
272.394	251.94
272.626	251.94
272.858	235.94
273.09	232.94
273.322	250.94
273.553	244.94
273.785	225.94
274.017	206.94
274.249	224.94
274.481	232.94
274.713	232.94
274.945	234.94
275.176	231.94
275.408	232.94
275.64	239.94
275.872	233.94
276.104	240.94
276.335	224.94
276.567	235.94
276.799	247.94
277.031	253.94
277.262	270.94
277.494	251.94
277.726	259.94
277.957	249.94
278.189	237.94
278.421	240.94
278.652	228.94
278.884	232.94
279.115	230.94
279.347	247.94
279.579	237.94
279.81	249.94
280.042	247.94
280.273	248.94
280.505	233.94
280.736	249.94
280.968	230.94
281.199	232.94
281.431	243.94
281.662	234.94
281.894	238.94
282.125	244.94
282.356	250.94
282.588	259.94
282.819	255.94
283.051	264.94
283.282	246.94
283.513	249.94
283.745	251.94
283.976	261.94
284.207	263.94
284.439	257.94
284.67	235.94
284.901	257.94
285.132	230.94
285.364	251.94
285.595	247.94
285.826	242.94
286.057	234.94
286.288	244.94
286.52	252.94
286.751	257.94
286.982	248.94
287.213	254.94
287.444	254.94
287.675	275.94
287.906	281.94
288.138	267.94
288.369	272.94
288.6	268.94
288.831	265.94
289.062	267.94
289.293	251.94
289.524	262.94
289.755	256.94
289.986	240.94
290.217	262.94
290.448	251.94
290.679	256.94
290.91	248.94
291.141	245.94
291.371	256.94
291.602	271.94
291.833	269.94
292.064	256.94
292.295	268.94
292.526	256.94
292.757	253.94
292.987	240.94
293.218	263.94
293.449	252.94
293.68	269.94
293.91	278.94
294.141	276.94
294.372	258.94
294.603	276.94
294.833	274.94
295.064	278.94
295.295	267.94
295.525	282.94
295.756	274.94
295.987	261.94
296.217	271.94
296.448	301.94
296.679	291.94
296.909	272.94
297.14	259.94
297.37	261.94
297.601	272.94
297.831	271.94
298.062	278.94
298.292	264.94
298.523	273.94
298.753	272.94
298.984	272.94
299.214	261.94
299.445	267.94
299.675	287.94
299.905	280.94
300.136	268.94
300.366	285.94
300.597	277.94
300.827	289.94
301.057	287.94
301.288	291.94
301.518	304.94
301.748	301.94
301.979	292.94
302.209	295.94
302.439	315.94
302.669	291.94
302.9	302.94
303.13	300.94
303.36	288.94
303.59	314.94
303.82	294.94
304.051	290.94
304.281	296.94
304.511	299.94
304.741	280.94
304.971	289.94
305.201	299.94
305.431	298.94
305.661	315.94
305.891	310.94
306.121	300.94
306.352	290.94
306.582	303.94
306.812	283.94
307.042	298.94
307.272	307.94
307.502	293.94
307.731	299.94
307.961	311.94
308.191	296.94
308.421	284.94
308.651	293.94
308.881	273.94
309.111	292.94
309.341	305.94
309.571	303.94
309.8	302.94
310.03	321.94
310.26	315.94
310.49	312.94
310.72	321.94
310.949	331.94
311.179	336.94
311.409	318.94
311.639	313.94
311.868	324.94
312.098	303.94
312.328	348.94
312.557	328.94
312.787	333.94
313.017	339.94
313.246	327.94
313.476	313.94
313.706	316.94
313.935	326.94
314.165	318.94
314.394	331.94
314.624	347.94
314.853	325.94
315.083	317.94
315.312	328.94
315.542	292.94
315.771	333.94
316.001	334.94
316.23	335.94
316.46	309.94
316.689	323.94
316.919	318.94
317.148	325.94
317.377	321.94
317.607	304.94
317.836	319.94
318.065	322.94
318.295	311.94
318.524	312.94
318.753	330.94
318.983	344.94
319.212	328.94
319.441	316.94
319.67	327.94
319.9	302.94
320.129	307.94
320.358	322.94
320.587	334.94
320.816	336.94
321.046	348.94
321.275	350.94
321.504	336.94
321.733	343.94
321.962	349.94
322.191	332.94
322.42	349.94
322.649	343.94
322.878	378.94
323.108	373.94
323.337	383.94
323.566	378.94
323.795	377.94
324.024	393.94
324.253	465.94
324.482	616.94
324.71	859.94
324.939	1149.94
325.168	968.94
325.397	565.94
325.626	449.94
325.855	402.94
326.084	383.94
326.313	372.94
326.542	377.94
326.77	433.94
326.999	473.94
327.228	560.94
327.457	810.94
327.686	899.94
327.914	620.94
328.143	467.94
328.372	467.94
328.6	426.94
328.829	439.94
329.058	416.94
329.287	427.94
329.515	427.94
329.744	397.94
329.972	413.94
330.201	404.94
330.43	445.94
330.658	431.94
330.887	448.94
331.115	478.94
331.344	408.94
331.572	399.94
331.801	396.94
332.03	399.94
332.258	395.94
332.486	384.94
332.715	388.94
332.943	383.94
333.172	402.94
333.4	409.94
333.629	415.94
333.857	436.94
334.085	439.94
334.314	430.94
334.542	445.94
334.771	466.94
334.999	446.94
335.227	401.94
335.455	394.94
335.684	389.94
335.912	397.94
336.14	380.94
336.369	384.94
336.597	408.94
336.825	397.94
337.053	393.94
337.281	376.94
337.51	382.94
337.738	383.94
337.966	385.94
338.194	374.94
338.422	396.94
338.65	359.94
338.878	381.94
339.106	371.94
339.334	372.94
339.562	362.94
339.79	361.94
340.018	361.94
340.246	359.94
340.474	363.94
340.702	349.94
340.93	359.94
341.158	338.94
341.386	359.94
341.614	364.94
341.842	379.94
342.07	356.94
342.298	355.94
342.526	353.94
342.754	366.94
342.981	349.94
343.209	355.94
343.437	365.94
343.665	367.94
343.893	379.94
344.12	397.94
344.348	413.94
344.576	365.94
344.804	402.94
345.031	381.94
345.259	378.94
345.487	359.94
345.714	356.94
345.942	353.94
346.17	366.94
346.397	345.94
346.625	362.94
346.853	330.94
347.08	344.94
347.308	352.94
347.535	353.94
347.763	347.94
347.99	341.94
348.218	354.94
348.445	340.94
348.673	343.94
348.9	357.94
349.128	344.94
349.355	343.94
349.583	339.94
349.81	327.94
350.037	353.94
350.265	342.94
350.492	334.94
350.72	345.94
350.947	352.94
351.174	356.94
351.402	346.94
351.629	326.94
351.856	329.94
352.083	335.94
352.311	350.94
352.538	353.94
352.765	364.94
352.992	336.94
353.22	347.94
353.447	351.94
353.674	337.94
353.901	332.94
354.128	334.94
354.355	323.94
354.583	331.94
354.81	324.94
355.037	332.94
355.264	316.94
355.491	326.94
355.718	328.94
355.945	338.94
356.172	340.94
356.399	327.94
356.626	339.94
356.853	340.94
357.08	331.94
357.307	325.94
357.534	333.94
357.761	336.94
357.988	351.94
358.215	317.94
358.441	342.94
358.668	321.94
358.895	345.94
359.122	329.94
359.349	337.94
359.576	324.94
359.802	351.94
360.029	365.94
360.256	388.94
360.483	364.94
360.709	328.94
360.936	333.94
361.163	329.94
361.39	341.94
361.616	337.94
361.843	337.94
362.07	326.94
362.296	355.94
362.523	354.94
362.749	344.94
362.976	333.94
363.203	317.94
363.429	315.94
363.656	334.94
363.882	351.94
364.109	340.94
364.335	336.94
364.562	326.94
364.788	309.94
365.015	329.94
365.241	341.94
365.468	343.94
365.694	343.94
365.92	330.94
366.147	349.94
366.373	309.94
366.599	331.94
366.826	330.94
367.052	322.94
367.278	321.94
367.505	341.94
367.731	324.94
367.957	337.94
368.184	332.94
368.41	340.94
368.636	355.94
368.862	333.94
369.089	319.94
369.315	345.94
369.541	361.94
369.767	337.94
369.993	344.94
370.219	350.94
370.445	316.94
370.672	344.94
370.898	332.94
371.124	332.94
371.35	333.94
371.576	330.94
371.802	320.94
372.028	325.94
372.254	326.94
372.48	332.94
372.706	344.94
372.932	339.94
373.158	358.94
373.384	346.94
373.61	332.94
373.835	335.94
374.061	329.94
374.287	348.94
374.513	345.94
374.739	345.94
374.965	351.94
375.191	354.94
375.416	338.94
375.642	340.94
375.868	333.94
376.094	332.94
376.319	342.94
376.545	336.94
376.771	335.94
376.997	335.94
377.222	343.94
377.448	348.94
377.674	346.94
377.899	357.94
378.125	323.94
378.35	331.94
378.576	331.94
378.802	325.94
379.027	326.94
379.253	349.94
379.478	334.94
379.704	330.94
379.929	329.94
380.155	339.94
380.38	326.94
380.606	342.94
380.831	330.94
381.057	357.94
381.282	357.94
381.507	338.94
381.733	351.94
381.958	317.94
382.184	361.94
382.409	344.94
382.634	342.94
382.86	348.94
383.085	369.94
383.31	354.94
383.535	352.94
383.761	365.94
383.986	368.94
384.211	335.94
384.436	359.94
384.662	361.94
384.887	359.94
385.112	386.94
385.337	375.94
385.562	368.94
385.787	379.94
386.013	389.94
386.238	389.94
386.463	365.94
386.688	364.94
386.913	374.94
387.138	361.94
387.363	357.94
387.588	396.94
387.813	389.94
388.038	366.94
388.263	375.94
388.488	371.94
388.713	385.94
388.938	379.94
389.163	375.94
389.387	374.94
389.612	372.94
389.837	369.94
390.062	371.94
390.287	395.94
390.512	374.94
390.736	347.94
390.961	393.94
391.186	365.94
391.411	383.94
391.636	393.94
391.86	398.94
392.085	393.94
392.31	402.94
392.534	378.94
392.759	389.94
392.984	394.94
393.208	394.94
393.433	404.94
393.658	396.94
393.882	405.94
394.107	367.94
394.331	395.94
394.556	381.94
394.78	404.94
395.005	395.94
395.229	389.94
395.454	401.94
395.678	397.94
395.903	411.94
396.127	402.94
396.352	417.94
396.576	379.94
396.801	385.94
397.025	397.94
397.249	378.94
397.474	412.94
397.698	404.94
397.922	421.94
398.147	393.94
398.371	417.94
398.595	411.94
398.82	433.94
399.044	449.94
399.268	485.94
399.492	524.94
399.717	556.94
399.941	567.94
400.165	547.94
400.389	529.94
400.613	468.94
400.837	466.94
401.062	428.94
401.286	441.94
401.51	443.94
401.734	439.94
401.958	422.94
402.182	427.94
402.406	440.94
402.63	449.94
402.854	462.94
403.078	461.94
403.302	479.94
403.526	468.94
403.75	494.94
403.974	483.94
404.198	484.94
404.422	481.94
404.645	485.94
404.869	470.94
405.093	507.94
405.317	521.94
405.541	528.94
405.765	470.94
405.988	488.94
406.212	488.94
406.436	485.94
406.66	495.94
406.883	489.94
407.107	531.94
407.331	541.94
407.555	581.94
407.778	572.94
408.002	539.94
408.226	519.94
408.449	505.94
408.673	488.94
408.896	507.94
409.12	501.94
409.344	477.94
409.567	479.94
409.791	464.94
410.014	466.94
410.238	439.94
410.461	458.94
410.685	462.94
410.908	454.94
411.132	472.94
411.355	496.94
411.578	471.94
411.802	447.94
412.025	452.94
412.249	435.94
412.472	462.94
412.695	520.94
412.919	502.94
413.142	454.94
413.365	451.94
413.589	453.94
413.812	436.94
414.035	421.94
414.258	456.94
414.482	442.94
414.705	440.94
414.928	423.94
415.151	420.94
415.374	428.94
415.597	433.94
415.821	421.94
416.044	415.94
416.267	432.94
416.49	439.94
416.713	435.94
416.936	437.94
417.159	413.94
417.382	438.94
417.605	426.94
417.828	437.94
418.051	429.94
418.274	433.94
418.497	431.94
418.72	445.94
418.943	431.94
419.166	447.94
419.389	448.94
419.611	473.94
419.834	484.94
420.057	468.94
420.28	452.94
420.503	440.94
420.726	450.94
420.948	432.94
421.171	485.94
421.394	475.94
421.617	439.94
421.839	425.94
422.062	432.94
422.285	443.94
422.507	479.94
422.73	517.94
422.953	512.94
423.175	481.94
423.398	459.94
423.621	454.94
423.843	477.94
424.066	461.94
424.288	458.94
424.511	477.94
424.733	519.94
424.956	551.94
425.178	519.94
425.401	530.94
425.623	529.94
425.846	487.94
426.068	474.94
426.291	442.94
426.513	442.94
426.735	457.94
426.958	489.94
427.18	527.94
427.402	591.94
427.625	607.94
427.847	554.94
428.069	502.94
428.292	455.94
428.514	430.94
428.736	419.94
428.958	433.94
429.181	409.94
429.403	417.94
429.625	402.94
429.847	429.94
430.069	480.94
430.292	473.94
430.514	421.94
430.736	424.94
430.958	435.94
431.18	417.94
431.402	415.94
431.624	398.94
431.846	387.94
432.068	389.94
432.29	419.94
432.512	407.94
432.734	407.94
432.956	384.94
433.178	400.94
433.4	437.94
433.622	405.94
433.844	406.94
434.066	402.94
434.287	406.94
434.509	400.94
434.731	426.94
434.953	445.94
435.175	464.94
435.397	452.94
435.618	457.94
435.84	464.94
436.062	503.94
436.284	545.94
436.505	476.94
436.727	449.94
436.949	405.94
437.17	425.94
437.392	401.94
437.614	417.94
437.835	442.94
438.057	469.94
438.278	549.94
438.5	521.94
438.721	588.94
438.943	567.94
439.165	457.94
439.386	430.94
439.608	459.94
439.829	432.94
440.05	449.94
440.272	481.94
440.493	469.94
440.715	427.94
440.936	419.94
441.158	432.94
441.379	423.94
441.6	448.94
441.822	445.94
442.043	499.94
442.264	511.94
442.486	536.94
442.707	461.94
442.928	493.94
443.149	468.94
443.371	479.94
443.592	506.94
443.813	566.94
444.034	589.94
444.255	500.94
444.476	509.94
444.698	476.94
444.919	489.94
445.14	624.94
445.361	542.94
445.582	483.94
445.803	527.94
446.024	555.94
446.245	556.94
446.466	527.94
446.687	464.94
446.908	409.94
447.129	429.94
447.35	412.94
447.571	428.94
447.792	400.94
448.013	414.94
448.234	436.94
448.455	453.94
448.675	526.94
448.896	567.94
449.117	490.94
449.338	487.94
449.559	537.94
449.779	611.94
450	486.94
450.221	405.94
450.442	419.94
450.662	392.94
450.883	404.94
451.104	424.94
451.324	387.94
451.545	383.94
451.766	382.94
451.986	381.94
452.207	363.94
452.428	383.94
452.648	363.94
452.869	385.94
453.089	367.94
453.31	375.94
453.53	383.94
453.751	367.94
453.971	372.94
454.192	383.94
454.412	401.94
454.633	374.94
454.853	371.94
455.073	361.94
455.294	383.94
455.514	420.94
455.734	399.94
455.955	364.94
456.175	350.94
456.395	351.94
456.616	378.94
456.836	351.94
457.056	349.94
457.276	333.94
457.497	347.94
457.717	357.94
457.937	359.94
458.157	363.94
458.377	364.94
458.598	375.94
458.818	415.94
459.038	459.94
459.258	475.94
459.478	420.94
459.698	426.94
459.918	401.94
460.138	418.94
460.358	429.94
460.578	437.94
460.798	430.94
461.018	446.94
461.238	432.94
461.458	427.94
461.678	435.94
461.898	438.94
462.118	441.94
462.338	445.94
462.558	454.94
462.777	476.94
462.997	485.94
463.217	496.94
463.437	531.94
463.657	488.94
463.876	489.94
464.096	488.94
464.316	467.94
464.536	468.94
464.755	466.94
464.975	460.94
465.195	481.94
465.414	506.94
465.634	440.94
465.854	437.94
466.073	395.94
466.293	412.94
466.512	409.94
466.732	392.94
466.951	384.94
467.171	389.94
467.391	400.94
467.61	400.94
467.829	392.94
468.049	400.94
468.268	399.94
468.488	388.94
468.707	392.94
468.927	384.94
469.146	382.94
469.365	386.94
469.585	378.94
469.804	391.94
470.023	406.94
470.243	407.94
470.462	429.94
470.681	419.94
470.901	395.94
471.12	401.94
471.339	408.94
471.558	399.94
471.777	391.94
471.997	381.94
472.216	384.94
472.435	403.94
472.654	396.94
472.873	387.94
473.092	387.94
473.311	381.94
473.53	382.94
473.749	399.94
473.968	399.94
474.187	482.94
474.406	473.94
474.625	399.94
474.844	385.94
475.063	379.94
475.282	388.94
475.501	387.94
475.72	402.94
475.939	396.94
476.158	407.94
476.377	401.94
476.596	407.94
476.814	415.94
477.033	395.94
477.252	401.94
477.471	405.94
477.69	408.94
477.908	447.94
478.127	431.94
478.346	431.94
478.564	435.94
478.783	464.94
479.002	453.94
479.22	469.94
479.439	470.94
479.658	453.94
479.876	470.94
480.095	467.94
480.313	510.94
480.532	503.94
480.751	488.94
480.969	495.94
481.188	511.94
481.406	537.94
481.624	481.94
481.843	459.94
482.061	459.94
482.28	465.94
482.498	438.94
482.717	437.94
482.935	433.94
483.153	451.94
483.372	423.94
483.59	454.94
483.808	449.94
484.027	443.94
484.245	459.94
484.463	457.94
484.681	455.94
484.9	454.94
485.118	447.94
485.336	448.94
485.554	464.94
485.772	454.94
485.99	463.94
486.209	447.94
486.427	445.94
486.645	485.94
486.863	495.94
487.081	472.94
487.299	480.94
487.517	466.94
487.735	485.94
487.953	470.94
488.171	464.94
488.389	475.94
488.607	477.94
488.825	469.94
489.043	475.94
489.261	472.94
489.479	470.94
489.696	476.94
489.914	499.94
490.132	501.94
490.35	492.94
490.568	494.94
490.786	492.94
491.003	517.94
491.221	539.94
491.439	552.94
491.657	537.94
491.874	529.94
492.092	547.94
492.31	540.94
492.527	549.94
492.745	560.94
492.963	548.94
493.18	555.94
493.398	566.94
493.615	532.94
493.833	560.94
494.05	570.94
494.268	558.94
494.485	548.94
494.703	565.94
494.92	565.94
495.138	576.94
495.355	574.94
495.573	552.94
495.79	558.94
496.008	573.94
496.225	582.94
496.442	576.94
496.66	557.94
496.877	577.94
497.094	556.94
497.312	565.94
497.529	584.94
497.746	611.94
497.963	603.94
498.181	622.94
498.398	627.94
498.615	643.94
498.832	674.94
499.049	699.94
499.267	708.94
499.484	796.94
499.701	830.94
499.918	861.94
500.135	923.94
500.352	981.94
500.569	1013.94
500.786	1008.94
501.003	969.94
501.22	923.94
501.437	859.94
501.654	816.94
501.871	773.94
502.088	727.94
