Data from 1969.PennyLincolnUp.Lamp.En5.5.200Scan.071719.P1._HRD10591_14-56-08-972.txt Node
Date: Thu Jul 18 14:56:08 EDT 2019
User: cochatt
Spectrometer: HR+D1059
Trigger mode: 1
Integration Time (sec): 1.000000E-1
Scans to average: 1
Electric dark correction enabled: true
Nonlinearity correction enabled: false
Boxcar width: 0
XAxis mode: Wavelengths
Number of Pixels in Spectrum: 2048
>>>>>Begin Spectral Data<<<<<
223.165	-17.44
223.4	-17.44
223.635	-17.44
223.869	-28.44
224.104	-18.44
224.338	-9.44
224.573	-10.44
224.808	2.56
225.042	-11.44
225.277	-17.44
225.511	-3.44
225.746	7.56
225.98	-2.44
226.215	21.56
226.449	28.56
226.683	21.56
226.918	15.56
227.152	21.56
227.387	34.56
227.621	47.56
227.856	45.56
228.09	51.56
228.324	55.56
228.559	54.56
228.793	62.56
229.027	85.56
229.262	95.56
229.496	107.56
229.73	124.56
229.964	117.56
230.199	100.56
230.433	103.56
230.667	111.56
230.901	101.56
231.136	100.56
231.37	101.56
231.604	102.56
231.838	99.56
232.072	105.56
232.306	118.56
232.541	100.56
232.775	116.56
233.009	109.56
233.243	99.56
233.477	113.56
233.711	105.56
233.945	97.56
234.179	105.56
234.413	110.56
234.647	111.56
234.881	105.56
235.115	109.56
235.349	95.56
235.583	109.56
235.817	112.56
236.051	109.56
236.285	111.56
236.519	111.56
236.753	119.56
236.987	129.56
237.221	152.56
237.455	171.56
237.689	147.56
237.922	125.56
238.156	114.56
238.39	115.56
238.624	116.56
238.858	114.56
239.091	110.56
239.325	106.56
239.559	99.56
239.793	120.56
240.027	116.56
240.26	124.56
240.494	139.56
240.728	151.56
240.961	139.56
241.195	129.56
241.429	125.56
241.662	113.56
241.896	128.56
242.13	127.56
242.363	114.56
242.597	133.56
242.83	129.56
243.064	121.56
243.298	119.56
243.531	121.56
243.765	125.56
243.998	132.56
244.232	126.56
244.465	132.56
244.699	138.56
244.932	141.56
245.166	125.56
245.399	140.56
245.633	138.56
245.866	140.56
246.099	132.56
246.333	142.56
246.566	135.56
246.8	135.56
247.033	135.56
247.266	161.56
247.5	141.56
247.733	138.56
247.966	153.56
248.2	160.56
248.433	159.56
248.666	155.56
248.899	162.56
249.133	166.56
249.366	180.56
249.599	168.56
249.832	149.56
250.066	162.56
250.299	161.56
250.532	172.56
250.765	158.56
250.998	171.56
251.231	199.56
251.465	171.56
251.698	167.56
251.931	154.56
252.164	162.56
252.397	169.56
252.63	169.56
252.863	179.56
253.096	187.56
253.329	181.56
253.562	193.56
253.795	197.56
254.028	180.56
254.261	175.56
254.494	183.56
254.727	219.56
254.96	218.56
255.193	203.56
255.426	194.56
255.659	189.56
255.892	194.56
256.124	201.56
256.357	205.56
256.59	207.56
256.823	180.56
257.056	183.56
257.289	172.56
257.521	190.56
257.754	180.56
257.987	179.56
258.22	174.56
258.452	175.56
258.685	172.56
258.918	164.56
259.151	195.56
259.383	203.56
259.616	175.56
259.849	193.56
260.081	211.56
260.314	215.56
260.547	204.56
260.779	204.56
261.012	202.56
261.244	206.56
261.477	192.56
261.71	185.56
261.942	193.56
262.175	206.56
262.407	197.56
262.64	198.56
262.872	183.56
263.105	190.56
263.337	189.56
263.57	191.56
263.802	195.56
264.035	183.56
264.267	178.56
264.499	188.56
264.732	181.56
264.964	185.56
265.197	195.56
265.429	187.56
265.661	205.56
265.894	183.56
266.126	199.56
266.358	181.56
266.591	190.56
266.823	200.56
267.055	198.56
267.287	201.56
267.52	198.56
267.752	198.56
267.984	194.56
268.216	211.56
268.448	203.56
268.681	218.56
268.913	207.56
269.145	230.56
269.377	234.56
269.609	234.56
269.841	246.56
270.073	240.56
270.306	260.56
270.538	285.56
270.77	262.56
271.002	247.56
271.234	235.56
271.466	243.56
271.698	271.56
271.93	280.56
272.162	264.56
272.394	267.56
272.626	251.56
272.858	227.56
273.09	240.56
273.322	237.56
273.553	236.56
273.785	227.56
274.017	220.56
274.249	233.56
274.481	242.56
274.713	233.56
274.945	231.56
275.176	238.56
275.408	244.56
275.64	221.56
275.872	213.56
276.104	224.56
276.335	235.56
276.567	221.56
276.799	226.56
277.031	269.56
277.262	273.56
277.494	259.56
277.726	248.56
277.957	251.56
278.189	258.56
278.421	238.56
278.652	219.56
278.884	235.56
279.115	245.56
279.347	228.56
279.579	255.56
279.81	226.56
280.042	245.56
280.273	237.56
280.505	229.56
280.736	248.56
280.968	246.56
281.199	241.56
281.431	225.56
281.662	241.56
281.894	246.56
282.125	238.56
282.356	259.56
282.588	268.56
282.819	268.56
283.051	258.56
283.282	246.56
283.513	257.56
283.745	254.56
283.976	249.56
284.207	241.56
284.439	263.56
284.67	246.56
284.901	246.56
285.132	255.56
285.364	259.56
285.595	253.56
285.826	246.56
286.057	246.56
286.288	255.56
286.52	261.56
286.751	264.56
286.982	259.56
287.213	247.56
287.444	258.56
287.675	285.56
287.906	283.56
288.138	279.56
288.369	282.56
288.6	270.56
288.831	269.56
289.062	268.56
289.293	260.56
289.524	251.56
289.755	276.56
289.986	257.56
290.217	259.56
290.448	270.56
290.679	257.56
290.91	268.56
291.141	257.56
291.371	258.56
291.602	262.56
291.833	264.56
292.064	250.56
292.295	263.56
292.526	270.56
292.757	268.56
292.987	259.56
293.218	252.56
293.449	264.56
293.68	247.56
293.91	260.56
294.141	261.56
294.372	280.56
294.603	271.56
294.833	278.56
295.064	279.56
295.295	267.56
295.525	279.56
295.756	266.56
295.987	268.56
296.217	268.56
296.448	294.56
296.679	280.56
296.909	275.56
297.14	274.56
297.37	271.56
297.601	283.56
297.831	277.56
298.062	260.56
298.292	264.56
298.523	291.56
298.753	285.56
298.984	287.56
299.214	271.56
299.445	279.56
299.675	291.56
299.905	276.56
300.136	292.56
300.366	278.56
300.597	286.56
300.827	306.56
301.057	311.56
301.288	285.56
301.518	315.56
301.748	297.56
301.979	312.56
302.209	312.56
302.439	312.56
302.669	295.56
302.9	292.56
303.13	306.56
303.36	312.56
303.59	323.56
303.82	296.56
304.051	289.56
304.281	296.56
304.511	307.56
304.741	299.56
304.971	305.56
305.201	293.56
305.431	285.56
305.661	307.56
305.891	277.56
306.121	295.56
306.352	311.56
306.582	310.56
306.812	295.56
307.042	272.56
307.272	293.56
307.502	291.56
307.731	299.56
307.961	306.56
308.191	296.56
308.421	289.56
308.651	299.56
308.881	322.56
309.111	317.56
309.341	314.56
309.571	314.56
309.8	327.56
310.03	308.56
310.26	313.56
310.49	298.56
310.72	317.56
310.949	318.56
311.179	341.56
311.409	337.56
311.639	315.56
311.868	311.56
312.098	321.56
312.328	328.56
312.557	333.56
312.787	349.56
313.017	347.56
313.246	329.56
313.476	327.56
313.706	339.56
313.935	320.56
314.165	352.56
314.394	342.56
314.624	317.56
314.853	344.56
315.083	338.56
315.312	316.56
315.542	317.56
315.771	321.56
316.001	322.56
316.23	340.56
316.46	322.56
316.689	325.56
316.919	330.56
317.148	334.56
317.377	333.56
317.607	342.56
317.836	335.56
318.065	333.56
318.295	331.56
318.524	325.56
318.753	322.56
318.983	322.56
319.212	329.56
319.441	323.56
319.67	333.56
319.9	326.56
320.129	309.56
320.358	312.56
320.587	314.56
320.816	343.56
321.046	344.56
321.275	310.56
321.504	323.56
321.733	333.56
321.962	342.56
322.191	362.56
322.42	357.56
322.649	375.56
322.878	364.56
323.108	362.56
323.337	373.56
323.566	370.56
323.795	396.56
324.024	413.56
324.253	495.56
324.482	654.56
324.71	920.56
324.939	1267.56
325.168	1045.56
325.397	598.56
325.626	446.56
325.855	396.56
326.084	382.56
326.313	392.56
326.542	386.56
326.77	445.56
326.999	469.56
327.228	627.56
327.457	842.56
327.686	952.56
327.914	653.56
328.143	490.56
328.372	449.56
328.6	439.56
328.829	422.56
329.058	449.56
329.287	464.56
329.515	446.56
329.744	416.56
329.972	398.56
330.201	437.56
330.43	443.56
330.658	454.56
330.887	479.56
331.115	445.56
331.344	419.56
331.572	396.56
331.801	438.56
332.03	403.56
332.258	416.56
332.486	395.56
332.715	421.56
332.943	410.56
333.172	400.56
333.4	430.56
333.629	437.56
333.857	450.56
334.085	437.56
334.314	449.56
334.542	471.56
334.771	481.56
334.999	427.56
335.227	436.56
335.455	417.56
335.684	414.56
335.912	401.56
336.14	416.56
336.369	395.56
336.597	423.56
336.825	374.56
337.053	371.56
337.281	373.56
337.51	363.56
337.738	381.56
337.966	387.56
338.194	378.56
338.422	376.56
338.65	388.56
338.878	376.56
339.106	363.56
339.334	376.56
339.562	373.56
339.79	371.56
340.018	355.56
340.246	366.56
340.474	379.56
340.702	352.56
340.93	359.56
341.158	367.56
341.386	365.56
341.614	355.56
341.842	360.56
342.07	348.56
342.298	357.56
342.526	387.56
342.754	359.56
342.981	372.56
343.209	375.56
343.437	378.56
343.665	379.56
343.893	393.56
344.12	389.56
344.348	393.56
344.576	397.56
344.804	380.56
345.031	364.56
345.259	373.56
345.487	364.56
345.714	354.56
345.942	352.56
346.17	327.56
346.397	361.56
346.625	354.56
346.853	355.56
347.08	347.56
347.308	337.56
347.535	348.56
347.763	373.56
347.99	351.56
348.218	349.56
348.445	370.56
348.673	376.56
348.9	343.56
349.128	343.56
349.355	354.56
349.583	336.56
349.81	350.56
350.037	347.56
350.265	341.56
350.492	331.56
350.72	351.56
350.947	318.56
351.174	349.56
351.402	363.56
351.629	356.56
351.856	369.56
352.083	366.56
352.311	367.56
352.538	350.56
352.765	385.56
352.992	349.56
353.22	349.56
353.447	335.56
353.674	358.56
353.901	327.56
354.128	344.56
354.355	334.56
354.583	354.56
354.81	331.56
355.037	324.56
355.264	337.56
355.491	316.56
355.718	339.56
355.945	343.56
356.172	327.56
356.399	326.56
356.626	337.56
356.853	348.56
357.08	330.56
357.307	339.56
357.534	335.56
357.761	318.56
357.988	330.56
358.215	323.56
358.441	327.56
358.668	324.56
358.895	338.56
359.122	325.56
359.349	334.56
359.576	368.56
359.802	367.56
360.029	370.56
360.256	377.56
360.483	374.56
360.709	355.56
360.936	347.56
361.163	340.56
361.39	349.56
361.616	333.56
361.843	370.56
362.07	345.56
362.296	357.56
362.523	356.56
362.749	340.56
362.976	335.56
363.203	354.56
363.429	332.56
363.656	333.56
363.882	334.56
364.109	334.56
364.335	333.56
364.562	333.56
364.788	343.56
365.015	342.56
365.241	319.56
365.468	328.56
365.694	337.56
365.92	333.56
366.147	334.56
366.373	332.56
366.599	321.56
366.826	341.56
367.052	328.56
367.278	346.56
367.505	350.56
367.731	338.56
367.957	335.56
368.184	337.56
368.41	339.56
368.636	351.56
368.862	346.56
369.089	357.56
369.315	327.56
369.541	323.56
369.767	327.56
369.993	345.56
370.219	370.56
370.445	351.56
370.672	336.56
370.898	344.56
371.124	330.56
371.35	345.56
371.576	349.56
371.802	371.56
372.028	341.56
372.254	340.56
372.48	331.56
372.706	339.56
372.932	370.56
373.158	329.56
373.384	357.56
373.61	347.56
373.835	344.56
374.061	351.56
374.287	354.56
374.513	356.56
374.739	348.56
374.965	354.56
375.191	368.56
375.416	341.56
375.642	355.56
375.868	355.56
376.094	347.56
376.319	320.56
376.545	330.56
376.771	351.56
376.997	348.56
377.222	342.56
377.448	342.56
377.674	363.56
377.899	341.56
378.125	351.56
378.35	343.56
378.576	346.56
378.802	327.56
379.027	330.56
379.253	326.56
379.478	329.56
379.704	349.56
379.929	326.56
380.155	354.56
380.38	356.56
380.606	342.56
380.831	338.56
381.057	359.56
381.282	359.56
381.507	350.56
381.733	363.56
381.958	342.56
382.184	354.56
382.409	345.56
382.634	359.56
382.86	358.56
383.085	359.56
383.31	340.56
383.535	367.56
383.761	364.56
383.986	358.56
384.211	362.56
384.436	383.56
384.662	367.56
384.887	381.56
385.112	377.56
385.337	380.56
385.562	391.56
385.787	385.56
386.013	397.56
386.238	359.56
386.463	391.56
386.688	387.56
386.913	390.56
387.138	390.56
387.363	378.56
387.588	357.56
387.813	379.56
388.038	401.56
388.263	387.56
388.488	369.56
388.713	376.56
388.938	395.56
389.163	377.56
389.387	369.56
389.612	387.56
389.837	372.56
390.062	378.56
390.287	356.56
390.512	385.56
390.736	378.56
390.961	382.56
391.186	387.56
391.411	382.56
391.636	403.56
391.86	416.56
392.085	421.56
392.31	409.56
392.534	405.56
392.759	421.56
392.984	399.56
393.208	381.56
393.433	384.56
393.658	380.56
393.882	372.56
394.107	381.56
394.331	388.56
394.556	387.56
394.78	387.56
395.005	397.56
395.229	389.56
395.454	408.56
395.678	413.56
395.903	411.56
396.127	411.56
396.352	419.56
396.576	394.56
396.801	386.56
397.025	396.56
397.249	388.56
397.474	424.56
397.698	429.56
397.922	430.56
398.147	406.56
398.371	428.56
398.595	413.56
398.82	442.56
399.044	477.56
399.268	476.56
399.492	528.56
399.717	568.56
399.941	561.56
400.165	545.56
400.389	534.56
400.613	474.56
400.837	477.56
401.062	450.56
401.286	441.56
401.51	451.56
401.734	451.56
401.958	449.56
402.182	447.56
402.406	481.56
402.63	474.56
402.854	471.56
403.078	479.56
403.302	499.56
403.526	479.56
403.75	481.56
403.974	473.56
404.198	487.56
404.422	480.56
404.645	458.56
404.869	488.56
405.093	506.56
405.317	535.56
405.541	530.56
405.765	482.56
405.988	469.56
406.212	478.56
406.436	493.56
406.66	499.56
406.883	526.56
407.107	531.56
407.331	555.56
407.555	605.56
407.778	579.56
408.002	555.56
408.226	515.56
408.449	480.56
408.673	483.56
408.896	512.56
409.12	538.56
409.344	533.56
409.567	462.56
409.791	446.56
410.014	487.56
410.238	482.56
410.461	469.56
410.685	478.56
410.908	499.56
411.132	487.56
411.355	475.56
411.578	489.56
411.802	483.56
412.025	465.56
412.249	472.56
412.472	490.56
412.695	485.56
412.919	470.56
413.142	445.56
413.365	467.56
413.589	462.56
413.812	428.56
414.035	433.56
414.258	445.56
414.482	447.56
414.705	457.56
414.928	458.56
415.151	448.56
415.374	447.56
415.597	451.56
415.821	442.56
416.044	445.56
416.267	445.56
416.49	428.56
416.713	419.56
416.936	448.56
417.159	430.56
417.382	449.56
417.605	448.56
417.828	465.56
418.051	439.56
418.274	457.56
418.497	459.56
418.72	447.56
418.943	448.56
419.166	455.56
419.389	482.56
419.611	479.56
419.834	458.56
420.057	475.56
420.28	461.56
420.503	446.56
420.726	469.56
420.948	477.56
421.171	501.56
421.394	518.56
421.617	483.56
421.839	442.56
422.062	461.56
422.285	466.56
422.507	494.56
422.73	538.56
422.953	505.56
423.175	478.56
423.398	473.56
423.621	479.56
423.843	489.56
424.066	516.56
424.288	479.56
424.511	474.56
424.733	522.56
424.956	541.56
425.178	515.56
425.401	529.56
425.623	559.56
425.846	486.56
426.068	453.56
426.291	457.56
426.513	451.56
426.735	473.56
426.958	485.56
427.18	538.56
427.402	622.56
427.625	678.56
427.847	585.56
428.069	497.56
428.292	476.56
428.514	438.56
428.736	431.56
428.958	415.56
429.181	434.56
429.403	417.56
429.625	448.56
429.847	454.56
430.069	465.56
430.292	487.56
430.514	405.56
430.736	399.56
430.958	412.56
431.18	419.56
431.402	413.56
431.624	421.56
431.846	394.56
432.068	411.56
432.29	411.56
432.512	402.56
432.734	421.56
432.956	417.56
433.178	433.56
433.4	428.56
433.622	418.56
433.844	402.56
434.066	395.56
434.287	426.56
434.509	442.56
434.731	414.56
434.953	419.56
435.175	443.56
435.397	458.56
435.618	463.56
435.84	484.56
436.062	542.56
436.284	540.56
436.505	483.56
436.727	436.56
436.949	420.56
437.17	416.56
437.392	419.56
437.614	455.56
437.835	441.56
438.057	498.56
438.278	552.56
438.5	553.56
438.721	584.56
438.943	577.56
439.165	478.56
439.386	465.56
439.608	457.56
439.829	446.56
440.05	468.56
440.272	485.56
440.493	485.56
440.715	465.56
440.936	456.56
441.158	458.56
441.379	419.56
441.6	445.56
441.822	474.56
442.043	499.56
442.264	554.56
442.486	562.56
442.707	474.56
442.928	479.56
443.149	489.56
443.371	486.56
443.592	517.56
443.813	568.56
444.034	589.56
444.255	512.56
444.476	502.56
444.698	485.56
444.919	511.56
445.14	616.56
445.361	555.56
445.582	496.56
445.803	526.56
446.024	587.56
446.245	585.56
446.466	545.56
446.687	460.56
446.908	455.56
447.129	440.56
447.35	427.56
447.571	437.56
447.792	423.56
448.013	422.56
448.234	425.56
448.455	465.56
448.675	515.56
448.896	587.56
449.117	521.56
449.338	484.56
449.559	586.56
449.779	618.56
450	517.56
450.221	452.56
450.442	407.56
450.662	424.56
450.883	408.56
451.104	415.56
451.324	419.56
451.545	399.56
451.766	367.56
451.986	361.56
452.207	394.56
452.428	385.56
452.648	377.56
452.869	363.56
453.089	391.56
453.31	377.56
453.53	389.56
453.751	385.56
453.971	391.56
454.192	387.56
454.412	369.56
454.633	366.56
454.853	379.56
455.073	366.56
455.294	395.56
455.514	433.56
455.734	397.56
455.955	396.56
456.175	378.56
456.395	359.56
456.616	366.56
456.836	370.56
457.056	346.56
457.276	366.56
457.497	351.56
457.717	359.56
457.937	359.56
458.157	373.56
458.377	365.56
458.598	385.56
458.818	420.56
459.038	466.56
459.258	467.56
459.478	425.56
459.698	398.56
459.918	428.56
460.138	439.56
460.358	431.56
460.578	417.56
460.798	467.56
461.018	435.56
461.238	445.56
461.458	438.56
461.678	422.56
461.898	443.56
462.118	439.56
462.338	462.56
462.558	455.56
462.777	471.56
462.997	469.56
463.217	502.56
463.437	537.56
463.657	481.56
463.876	491.56
464.096	479.56
464.316	488.56
464.536	478.56
464.755	494.56
464.975	484.56
465.195	487.56
465.414	505.56
465.634	459.56
465.854	434.56
466.073	433.56
466.293	413.56
466.512	418.56
466.732	413.56
466.951	403.56
467.171	395.56
467.391	391.56
467.61	409.56
467.829	401.56
468.049	414.56
468.268	402.56
468.488	386.56
468.707	387.56
468.927	384.56
469.146	369.56
469.365	373.56
469.585	404.56
469.804	393.56
470.023	407.56
470.243	408.56
470.462	410.56
470.681	442.56
470.901	425.56
471.12	404.56
471.339	419.56
471.558	423.56
471.777	400.56
471.997	403.56
472.216	396.56
472.435	413.56
472.654	413.56
472.873	389.56
473.092	381.56
473.311	403.56
473.53	403.56
473.749	399.56
473.968	425.56
474.187	497.56
474.406	511.56
474.625	420.56
474.844	397.56
475.063	391.56
475.282	400.56
475.501	398.56
475.72	404.56
475.939	416.56
476.158	418.56
476.377	402.56
476.596	419.56
476.814	412.56
477.033	413.56
477.252	420.56
477.471	406.56
477.69	460.56
477.908	417.56
478.127	443.56
478.346	453.56
478.564	461.56
478.783	466.56
479.002	463.56
479.22	458.56
479.439	484.56
479.658	467.56
479.876	472.56
480.095	468.56
480.313	494.56
480.532	498.56
480.751	515.56
480.969	490.56
481.188	509.56
481.406	537.56
481.624	498.56
481.843	477.56
482.061	467.56
482.28	448.56
482.498	446.56
482.717	453.56
482.935	452.56
483.153	459.56
483.372	481.56
483.59	448.56
483.808	449.56
484.027	460.56
484.245	439.56
484.463	457.56
484.681	475.56
484.9	473.56
485.118	482.56
485.336	455.56
485.554	458.56
485.772	474.56
485.99	477.56
486.209	463.56
486.427	457.56
486.645	478.56
486.863	465.56
487.081	482.56
487.299	488.56
487.517	482.56
487.735	489.56
487.953	500.56
488.171	502.56
488.389	499.56
488.607	492.56
488.825	489.56
489.043	493.56
489.261	507.56
489.479	479.56
489.696	464.56
489.914	499.56
490.132	513.56
490.35	490.56
490.568	515.56
490.786	498.56
491.003	525.56
491.221	531.56
491.439	561.56
491.657	553.56
491.874	569.56
492.092	562.56
492.31	568.56
492.527	585.56
492.745	571.56
492.963	565.56
493.18	556.56
493.398	577.56
493.615	590.56
493.833	583.56
494.05	549.56
494.268	565.56
494.485	561.56
494.703	586.56
494.92	563.56
495.138	582.56
495.355	555.56
495.573	603.56
495.79	572.56
496.008	601.56
496.225	567.56
496.442	583.56
496.66	585.56
496.877	574.56
497.094	605.56
497.312	611.56
497.529	594.56
497.746	614.56
497.963	616.56
498.181	632.56
498.398	641.56
498.615	665.56
498.832	665.56
499.049	718.56
499.267	722.56
499.484	784.56
499.701	856.56
499.918	846.56
500.135	949.56
500.352	1006.56
500.569	1030.56
500.786	1032.56
501.003	962.56
501.22	921.56
501.437	859.56
501.654	835.56
501.871	799.56
502.088	746.56
