Data from 1969.PennyLincolnUp.Lamp.En5.5.200Scan.071719.P1._HRD10591_14-55-41-973.txt Node
Date: Thu Jul 18 14:55:41 EDT 2019
User: cochatt
Spectrometer: HR+D1059
Trigger mode: 1
Integration Time (sec): 1.000000E-1
Scans to average: 1
Electric dark correction enabled: true
Nonlinearity correction enabled: false
Boxcar width: 0
XAxis mode: Wavelengths
Number of Pixels in Spectrum: 2048
>>>>>Begin Spectral Data<<<<<
223.165	-4.12
223.4	-4.12
223.635	-4.12
223.869	-38.12
224.104	-13.12
224.338	-17.12
224.573	-10.12
224.808	-11.12
225.042	1.88
225.277	-10.12
225.511	2.88
225.746	4.88
225.98	3.88
226.215	15.88
226.449	1.88
226.683	18.88
226.918	16.88
227.152	36.88
227.387	34.88
227.621	34.88
227.856	41.88
228.09	55.88
228.324	54.88
228.559	47.88
228.793	72.88
229.027	97.88
229.262	90.88
229.496	104.88
229.73	111.88
229.964	112.88
230.199	110.88
230.433	87.88
230.667	97.88
230.901	94.88
231.136	104.88
231.37	98.88
231.604	95.88
231.838	116.88
232.072	110.88
232.306	118.88
232.541	105.88
232.775	105.88
233.009	110.88
233.243	99.88
233.477	103.88
233.711	102.88
233.945	114.88
234.179	115.88
234.413	114.88
234.647	105.88
234.881	118.88
235.115	107.88
235.349	104.88
235.583	112.88
235.817	123.88
236.051	113.88
236.285	113.88
236.519	122.88
236.753	120.88
236.987	144.88
237.221	144.88
237.455	174.88
237.689	151.88
237.922	109.88
238.156	130.88
238.39	123.88
238.624	104.88
238.858	124.88
239.091	124.88
239.325	104.88
239.559	120.88
239.793	112.88
240.027	120.88
240.26	122.88
240.494	160.88
240.728	137.88
240.961	144.88
241.195	123.88
241.429	143.88
241.662	115.88
241.896	122.88
242.13	121.88
242.363	128.88
242.597	121.88
242.83	138.88
243.064	124.88
243.298	128.88
243.531	119.88
243.765	124.88
243.998	136.88
244.232	111.88
244.465	138.88
244.699	118.88
244.932	134.88
245.166	147.88
245.399	133.88
245.633	133.88
245.866	137.88
246.099	124.88
246.333	150.88
246.566	133.88
246.8	132.88
247.033	140.88
247.266	145.88
247.5	150.88
247.733	148.88
247.966	148.88
248.2	149.88
248.433	156.88
248.666	143.88
248.899	156.88
249.133	153.88
249.366	171.88
249.599	162.88
249.832	168.88
250.066	151.88
250.299	146.88
250.532	169.88
250.765	171.88
250.998	179.88
251.231	190.88
251.465	175.88
251.698	157.88
251.931	166.88
252.164	169.88
252.397	182.88
252.63	179.88
252.863	162.88
253.096	175.88
253.329	201.88
253.562	174.88
253.795	167.88
254.028	163.88
254.261	174.88
254.494	180.88
254.727	211.88
254.96	220.88
255.193	222.88
255.426	199.88
255.659	189.88
255.892	189.88
256.124	197.88
256.357	190.88
256.59	199.88
256.823	182.88
257.056	190.88
257.289	182.88
257.521	172.88
257.754	180.88
257.987	174.88
258.22	165.88
258.452	171.88
258.685	166.88
258.918	183.88
259.151	190.88
259.383	176.88
259.616	179.88
259.849	181.88
260.081	216.88
260.314	231.88
260.547	204.88
260.779	197.88
261.012	202.88
261.244	194.88
261.477	204.88
261.71	199.88
261.942	181.88
262.175	189.88
262.407	195.88
262.64	210.88
262.872	184.88
263.105	174.88
263.337	190.88
263.57	183.88
263.802	197.88
264.035	200.88
264.267	179.88
264.499	194.88
264.732	197.88
264.964	186.88
265.197	191.88
265.429	195.88
265.661	200.88
265.894	186.88
266.126	191.88
266.358	190.88
266.591	194.88
266.823	202.88
267.055	199.88
267.287	207.88
267.52	202.88
267.752	189.88
267.984	193.88
268.216	214.88
268.448	200.88
268.681	199.88
268.913	200.88
269.145	231.88
269.377	232.88
269.609	222.88
269.841	224.88
270.073	234.88
270.306	273.88
270.538	266.88
270.77	262.88
271.002	234.88
271.234	245.88
271.466	263.88
271.698	242.88
271.93	246.88
272.162	269.88
272.394	255.88
272.626	248.88
272.858	225.88
273.09	236.88
273.322	227.88
273.553	220.88
273.785	234.88
274.017	229.88
274.249	234.88
274.481	243.88
274.713	233.88
274.945	225.88
275.176	222.88
275.408	237.88
275.64	212.88
275.872	226.88
276.104	240.88
276.335	244.88
276.567	239.88
276.799	236.88
277.031	268.88
277.262	258.88
277.494	270.88
277.726	267.88
277.957	253.88
278.189	247.88
278.421	245.88
278.652	226.88
278.884	234.88
279.115	243.88
279.347	202.88
279.579	227.88
279.81	220.88
280.042	246.88
280.273	250.88
280.505	246.88
280.736	228.88
280.968	234.88
281.199	256.88
281.431	243.88
281.662	235.88
281.894	247.88
282.125	238.88
282.356	236.88
282.588	245.88
282.819	255.88
283.051	234.88
283.282	258.88
283.513	239.88
283.745	237.88
283.976	241.88
284.207	249.88
284.439	250.88
284.67	251.88
284.901	247.88
285.132	258.88
285.364	253.88
285.595	248.88
285.826	263.88
286.057	239.88
286.288	239.88
286.52	255.88
286.751	259.88
286.982	262.88
287.213	268.88
287.444	253.88
287.675	260.88
287.906	265.88
288.138	267.88
288.369	278.88
288.6	276.88
288.831	260.88
289.062	251.88
289.293	275.88
289.524	264.88
289.755	259.88
289.986	247.88
290.217	265.88
290.448	268.88
290.679	261.88
290.91	267.88
291.141	267.88
291.371	252.88
291.602	269.88
291.833	266.88
292.064	271.88
292.295	275.88
292.526	267.88
292.757	262.88
292.987	250.88
293.218	256.88
293.449	264.88
293.68	264.88
293.91	267.88
294.141	260.88
294.372	258.88
294.603	262.88
294.833	279.88
295.064	274.88
295.295	269.88
295.525	274.88
295.756	256.88
295.987	277.88
296.217	279.88
296.448	293.88
296.679	293.88
296.909	265.88
297.14	280.88
297.37	279.88
297.601	270.88
297.831	276.88
298.062	288.88
298.292	296.88
298.523	281.88
298.753	267.88
298.984	284.88
299.214	280.88
299.445	278.88
299.675	289.88
299.905	295.88
300.136	273.88
300.366	291.88
300.597	276.88
300.827	301.88
301.057	299.88
301.288	299.88
301.518	315.88
301.748	278.88
301.979	285.88
302.209	298.88
302.439	300.88
302.669	301.88
302.9	290.88
303.13	298.88
303.36	293.88
303.59	297.88
303.82	302.88
304.051	308.88
304.281	306.88
304.511	280.88
304.741	288.88
304.971	301.88
305.201	277.88
305.431	282.88
305.661	285.88
305.891	291.88
306.121	300.88
306.352	328.88
306.582	288.88
306.812	290.88
307.042	291.88
307.272	306.88
307.502	298.88
307.731	290.88
307.961	327.88
308.191	306.88
308.421	302.88
308.651	292.88
308.881	313.88
309.111	299.88
309.341	296.88
309.571	302.88
309.8	302.88
310.03	322.88
310.26	319.88
310.49	330.88
310.72	324.88
310.949	323.88
311.179	318.88
311.409	326.88
311.639	322.88
311.868	328.88
312.098	325.88
312.328	331.88
312.557	313.88
312.787	335.88
313.017	345.88
313.246	330.88
313.476	329.88
313.706	330.88
313.935	319.88
314.165	336.88
314.394	339.88
314.624	320.88
314.853	316.88
315.083	315.88
315.312	336.88
315.542	323.88
315.771	318.88
316.001	332.88
316.23	327.88
316.46	323.88
316.689	334.88
316.919	333.88
317.148	327.88
317.377	336.88
317.607	331.88
317.836	323.88
318.065	326.88
318.295	325.88
318.524	336.88
318.753	327.88
318.983	340.88
319.212	317.88
319.441	308.88
319.67	330.88
319.9	337.88
320.129	335.88
320.358	309.88
320.587	320.88
320.816	349.88
321.046	337.88
321.275	331.88
321.504	321.88
321.733	318.88
321.962	342.88
322.191	338.88
322.42	347.88
322.649	349.88
322.878	365.88
323.108	346.88
323.337	367.88
323.566	396.88
323.795	420.88
324.024	428.88
324.253	486.88
324.482	614.88
324.71	851.88
324.939	1159.88
325.168	964.88
325.397	558.88
325.626	461.88
325.855	385.88
326.084	392.88
326.313	367.88
326.542	388.88
326.77	396.88
326.999	458.88
327.228	577.88
327.457	777.88
327.686	883.88
327.914	636.88
328.143	475.88
328.372	415.88
328.6	438.88
328.829	423.88
329.058	424.88
329.287	416.88
329.515	415.88
329.744	406.88
329.972	418.88
330.201	402.88
330.43	427.88
330.658	447.88
330.887	461.88
331.115	449.88
331.344	403.88
331.572	398.88
331.801	409.88
332.03	398.88
332.258	394.88
332.486	384.88
332.715	387.88
332.943	399.88
333.172	398.88
333.4	436.88
333.629	412.88
333.857	435.88
334.085	447.88
334.314	446.88
334.542	460.88
334.771	447.88
334.999	443.88
335.227	407.88
335.455	411.88
335.684	412.88
335.912	411.88
336.14	389.88
336.369	379.88
336.597	394.88
336.825	404.88
337.053	400.88
337.281	392.88
337.51	381.88
337.738	383.88
337.966	367.88
338.194	389.88
338.422	380.88
338.65	358.88
338.878	376.88
339.106	384.88
339.334	375.88
339.562	383.88
339.79	355.88
340.018	341.88
340.246	364.88
340.474	383.88
340.702	367.88
340.93	378.88
341.158	372.88
341.386	359.88
341.614	363.88
341.842	352.88
342.07	355.88
342.298	358.88
342.526	356.88
342.754	360.88
342.981	372.88
343.209	350.88
343.437	370.88
343.665	386.88
343.893	409.88
344.12	394.88
344.348	390.88
344.576	381.88
344.804	386.88
345.031	378.88
345.259	369.88
345.487	366.88
345.714	351.88
345.942	340.88
346.17	347.88
346.397	366.88
346.625	343.88
346.853	351.88
347.08	355.88
347.308	348.88
347.535	335.88
347.763	355.88
347.99	360.88
348.218	360.88
348.445	367.88
348.673	353.88
348.9	338.88
349.128	349.88
349.355	342.88
349.583	334.88
349.81	345.88
350.037	355.88
350.265	332.88
350.492	335.88
350.72	358.88
350.947	342.88
351.174	367.88
351.402	344.88
351.629	344.88
351.856	349.88
352.083	342.88
352.311	342.88
352.538	366.88
352.765	354.88
352.992	335.88
353.22	343.88
353.447	325.88
353.674	338.88
353.901	326.88
354.128	318.88
354.355	326.88
354.583	334.88
354.81	337.88
355.037	342.88
355.264	328.88
355.491	342.88
355.718	323.88
355.945	329.88
356.172	339.88
356.399	319.88
356.626	326.88
356.853	315.88
357.08	336.88
357.307	338.88
357.534	338.88
357.761	324.88
357.988	319.88
358.215	339.88
358.441	332.88
358.668	329.88
358.895	335.88
359.122	332.88
359.349	357.88
359.576	370.88
359.802	344.88
360.029	350.88
360.256	370.88
360.483	361.88
360.709	344.88
360.936	331.88
361.163	343.88
361.39	332.88
361.616	338.88
361.843	336.88
362.07	362.88
362.296	344.88
362.523	337.88
362.749	346.88
362.976	335.88
363.203	350.88
363.429	325.88
363.656	355.88
363.882	332.88
364.109	329.88
364.335	329.88
364.562	341.88
364.788	317.88
365.015	336.88
365.241	323.88
365.468	329.88
365.694	347.88
365.92	339.88
366.147	341.88
366.373	332.88
366.599	311.88
366.826	333.88
367.052	328.88
367.278	323.88
367.505	314.88
367.731	328.88
367.957	306.88
368.184	330.88
368.41	342.88
368.636	327.88
368.862	337.88
369.089	378.88
369.315	344.88
369.541	332.88
369.767	327.88
369.993	336.88
370.219	352.88
370.445	349.88
370.672	338.88
370.898	337.88
371.124	338.88
371.35	336.88
371.576	340.88
371.802	334.88
372.028	344.88
372.254	340.88
372.48	362.88
372.706	347.88
372.932	346.88
373.158	333.88
373.384	350.88
373.61	335.88
373.835	323.88
374.061	321.88
374.287	349.88
374.513	346.88
374.739	348.88
374.965	349.88
375.191	362.88
375.416	350.88
375.642	341.88
375.868	337.88
376.094	332.88
376.319	340.88
376.545	335.88
376.771	342.88
376.997	352.88
377.222	337.88
377.448	338.88
377.674	335.88
377.899	335.88
378.125	347.88
378.35	340.88
378.576	352.88
378.802	346.88
379.027	339.88
379.253	341.88
379.478	342.88
379.704	334.88
379.929	331.88
380.155	331.88
380.38	326.88
380.606	338.88
380.831	338.88
381.057	346.88
381.282	335.88
381.507	335.88
381.733	336.88
381.958	341.88
382.184	333.88
382.409	344.88
382.634	354.88
382.86	322.88
383.085	351.88
383.31	336.88
383.535	342.88
383.761	344.88
383.986	358.88
384.211	347.88
384.436	356.88
384.662	350.88
384.887	375.88
385.112	374.88
385.337	370.88
385.562	390.88
385.787	380.88
386.013	374.88
386.238	380.88
386.463	388.88
386.688	382.88
386.913	365.88
387.138	371.88
387.363	384.88
387.588	363.88
387.813	378.88
388.038	360.88
388.263	384.88
388.488	391.88
388.713	376.88
388.938	384.88
389.163	377.88
389.387	361.88
389.612	370.88
389.837	352.88
390.062	368.88
390.287	380.88
390.512	362.88
390.736	372.88
390.961	386.88
391.186	382.88
391.411	386.88
391.636	390.88
391.86	401.88
392.085	397.88
392.31	399.88
392.534	395.88
392.759	405.88
392.984	394.88
393.208	390.88
393.433	374.88
393.658	387.88
393.882	389.88
394.107	387.88
394.331	403.88
394.556	380.88
394.78	384.88
395.005	392.88
395.229	404.88
395.454	395.88
395.678	389.88
395.903	407.88
396.127	426.88
396.352	411.88
396.576	389.88
396.801	398.88
397.025	390.88
397.249	431.88
397.474	404.88
397.698	402.88
397.922	418.88
398.147	427.88
398.371	430.88
398.595	407.88
398.82	460.88
399.044	455.88
399.268	507.88
399.492	509.88
399.717	579.88
399.941	554.88
400.165	560.88
400.389	561.88
400.613	493.88
400.837	457.88
401.062	455.88
401.286	427.88
401.51	447.88
401.734	419.88
401.958	450.88
402.182	442.88
402.406	471.88
402.63	448.88
402.854	487.88
403.078	443.88
403.302	453.88
403.526	445.88
403.75	474.88
403.974	461.88
404.198	479.88
404.422	464.88
404.645	467.88
404.869	477.88
405.093	494.88
405.317	502.88
405.541	520.88
405.765	490.88
405.988	481.88
406.212	477.88
406.436	502.88
406.66	510.88
406.883	512.88
407.107	514.88
407.331	562.88
407.555	575.88
407.778	579.88
408.002	548.88
408.226	509.88
408.449	509.88
408.673	524.88
408.896	503.88
409.12	518.88
409.344	508.88
409.567	468.88
409.791	478.88
410.014	467.88
410.238	450.88
410.461	441.88
410.685	459.88
410.908	474.88
411.132	474.88
411.355	472.88
411.578	477.88
411.802	462.88
412.025	450.88
412.249	460.88
412.472	468.88
412.695	504.88
412.919	463.88
413.142	450.88
413.365	430.88
413.589	439.88
413.812	438.88
414.035	446.88
414.258	453.88
414.482	428.88
414.705	461.88
414.928	434.88
415.151	426.88
415.374	430.88
415.597	436.88
415.821	434.88
416.044	430.88
416.267	410.88
416.49	422.88
416.713	431.88
416.936	426.88
417.159	436.88
417.382	428.88
417.605	440.88
417.828	446.88
418.051	450.88
418.274	435.88
418.497	433.88
418.72	442.88
418.943	447.88
419.166	452.88
419.389	462.88
419.611	459.88
419.834	469.88
420.057	460.88
420.28	462.88
420.503	463.88
420.726	421.88
420.948	436.88
421.171	459.88
421.394	483.88
421.617	462.88
421.839	446.88
422.062	447.88
422.285	455.88
422.507	484.88
422.73	530.88
422.953	489.88
423.175	484.88
423.398	466.88
423.621	460.88
423.843	464.88
424.066	480.88
424.288	487.88
424.511	493.88
424.733	502.88
424.956	530.88
425.178	527.88
425.401	500.88
425.623	530.88
425.846	468.88
426.068	461.88
426.291	444.88
426.513	445.88
426.735	466.88
426.958	484.88
427.18	531.88
427.402	604.88
427.625	628.88
427.847	547.88
428.069	486.88
428.292	430.88
428.514	419.88
428.736	425.88
428.958	415.88
429.181	412.88
429.403	414.88
429.625	423.88
429.847	455.88
430.069	479.88
430.292	478.88
430.514	440.88
430.736	405.88
430.958	420.88
431.18	400.88
431.402	390.88
431.624	407.88
431.846	404.88
432.068	396.88
432.29	417.88
432.512	413.88
432.734	404.88
432.956	404.88
433.178	416.88
433.4	415.88
433.622	393.88
433.844	413.88
434.066	399.88
434.287	391.88
434.509	425.88
434.731	432.88
434.953	432.88
435.175	441.88
435.397	450.88
435.618	442.88
435.84	477.88
436.062	505.88
436.284	544.88
436.505	494.88
436.727	444.88
436.949	430.88
437.17	394.88
437.392	419.88
437.614	432.88
437.835	404.88
438.057	484.88
438.278	555.88
438.5	535.88
438.721	569.88
438.943	562.88
439.165	481.88
439.386	442.88
439.608	470.88
439.829	436.88
440.05	470.88
440.272	482.88
440.493	466.88
440.715	432.88
440.936	443.88
441.158	427.88
441.379	431.88
441.6	454.88
441.822	466.88
442.043	459.88
442.264	528.88
442.486	555.88
442.707	506.88
442.928	461.88
443.149	467.88
443.371	490.88
443.592	516.88
443.813	539.88
444.034	610.88
444.255	517.88
444.476	489.88
444.698	471.88
444.919	490.88
445.14	623.88
445.361	551.88
445.582	513.88
445.803	513.88
446.024	557.88
446.245	563.88
446.466	512.88
446.687	482.88
446.908	460.88
447.129	406.88
447.35	394.88
447.571	389.88
447.792	408.88
448.013	424.88
448.234	418.88
448.455	468.88
448.675	517.88
448.896	580.88
449.117	493.88
449.338	468.88
449.559	544.88
449.779	599.88
450	484.88
450.221	428.88
450.442	413.88
450.662	401.88
450.883	396.88
451.104	430.88
451.324	427.88
451.545	395.88
451.766	393.88
451.986	380.88
452.207	389.88
452.428	380.88
452.648	365.88
452.869	381.88
453.089	382.88
453.31	386.88
453.53	387.88
453.751	363.88
453.971	370.88
454.192	382.88
454.412	374.88
454.633	358.88
454.853	364.88
455.073	376.88
455.294	386.88
455.514	424.88
455.734	422.88
455.955	366.88
456.175	355.88
456.395	332.88
456.616	330.88
456.836	376.88
457.056	358.88
457.276	353.88
457.497	372.88
457.717	367.88
457.937	378.88
458.157	370.88
458.377	375.88
458.598	379.88
458.818	430.88
459.038	476.88
459.258	470.88
459.478	424.88
459.698	423.88
459.918	427.88
460.138	439.88
460.358	431.88
460.578	437.88
460.798	428.88
461.018	442.88
461.238	421.88
461.458	436.88
461.678	445.88
461.898	453.88
462.118	442.88
462.338	455.88
462.558	448.88
462.777	469.88
462.997	498.88
463.217	529.88
463.437	546.88
463.657	493.88
463.876	470.88
464.096	478.88
464.316	475.88
464.536	478.88
464.755	484.88
464.975	462.88
465.195	496.88
465.414	522.88
465.634	466.88
465.854	416.88
466.073	410.88
466.293	399.88
466.512	382.88
466.732	399.88
466.951	398.88
467.171	393.88
467.391	397.88
467.61	407.88
467.829	409.88
468.049	399.88
468.268	398.88
468.488	390.88
468.707	387.88
468.927	402.88
469.146	363.88
469.365	392.88
469.585	404.88
469.804	391.88
470.023	411.88
470.243	390.88
470.462	404.88
470.681	420.88
470.901	415.88
471.12	398.88
471.339	390.88
471.558	403.88
471.777	400.88
471.997	394.88
472.216	387.88
472.435	448.88
472.654	412.88
472.873	394.88
473.092	387.88
473.311	380.88
473.53	390.88
473.749	404.88
473.968	424.88
474.187	457.88
474.406	449.88
474.625	408.88
474.844	389.88
475.063	391.88
475.282	405.88
475.501	389.88
475.72	406.88
475.939	387.88
476.158	412.88
476.377	387.88
476.596	407.88
476.814	405.88
477.033	393.88
477.252	402.88
477.471	436.88
477.69	436.88
477.908	427.88
478.127	429.88
478.346	438.88
478.564	452.88
478.783	470.88
479.002	458.88
479.22	454.88
479.439	480.88
479.658	471.88
479.876	482.88
480.095	482.88
480.313	496.88
480.532	492.88
480.751	477.88
480.969	468.88
481.188	510.88
481.406	538.88
481.624	488.88
481.843	472.88
482.061	450.88
482.28	466.88
482.498	434.88
482.717	450.88
482.935	469.88
483.153	431.88
483.372	428.88
483.59	455.88
483.808	446.88
484.027	437.88
484.245	464.88
484.463	452.88
484.681	457.88
484.9	467.88
485.118	475.88
485.336	464.88
485.554	452.88
485.772	447.88
485.99	466.88
486.209	481.88
486.427	466.88
486.645	466.88
486.863	478.88
487.081	465.88
487.299	488.88
487.517	487.88
487.735	480.88
487.953	500.88
488.171	490.88
488.389	491.88
488.607	499.88
488.825	502.88
489.043	493.88
489.261	499.88
489.479	488.88
489.696	489.88
489.914	498.88
490.132	503.88
490.35	489.88
490.568	491.88
490.786	503.88
491.003	522.88
491.221	507.88
491.439	525.88
491.657	536.88
491.874	553.88
492.092	548.88
492.31	564.88
492.527	568.88
492.745	539.88
492.963	565.88
493.18	562.88
493.398	542.88
493.615	551.88
493.833	557.88
494.05	553.88
494.268	575.88
494.485	557.88
494.703	555.88
494.92	570.88
495.138	551.88
495.355	587.88
495.573	565.88
495.79	580.88
496.008	576.88
496.225	596.88
496.442	573.88
496.66	575.88
496.877	573.88
497.094	572.88
497.312	572.88
497.529	580.88
497.746	590.88
497.963	617.88
498.181	615.88
498.398	637.88
498.615	639.88
498.832	667.88
499.049	695.88
499.267	724.88
499.484	760.88
499.701	812.88
499.918	860.88
500.135	920.88
500.352	978.88
500.569	1004.88
500.786	1014.88
501.003	957.88
501.22	930.88
501.437	841.88
501.654	815.88
501.871	781.88
502.088	736.88
