Data from 1969.PennyLincolnUp.Lamp.En5.5.200Scan.071719.P1._HRD10591_14-56-15-972.txt Node
Date: Thu Jul 18 14:56:15 EDT 2019
User: cochatt
Spectrometer: HR+D1059
Trigger mode: 1
Integration Time (sec): 1.000000E-1
Scans to average: 1
Electric dark correction enabled: true
Nonlinearity correction enabled: false
Boxcar width: 0
XAxis mode: Wavelengths
Number of Pixels in Spectrum: 2048
>>>>>Begin Spectral Data<<<<<
223.165	-17.56
223.4	-17.56
223.635	-17.56
223.869	-14.56
224.104	-6.56
224.338	-24.56
224.573	-14.56
224.808	-12.56
225.042	-10.56
225.277	-4.56
225.511	0.44
225.746	-9.56
225.98	8.44
226.215	12.44
226.449	7.44
226.683	21.44
226.918	26.44
227.152	38.44
227.387	37.44
227.621	49.44
227.856	37.44
228.09	33.44
228.324	43.44
228.559	65.44
228.793	70.44
229.027	89.44
229.262	102.44
229.496	109.44
229.73	107.44
229.964	120.44
230.199	99.44
230.433	91.44
230.667	107.44
230.901	108.44
231.136	99.44
231.37	100.44
231.604	99.44
231.838	103.44
232.072	119.44
232.306	98.44
232.541	101.44
232.775	115.44
233.009	106.44
233.243	105.44
233.477	100.44
233.711	92.44
233.945	114.44
234.179	100.44
234.413	121.44
234.647	110.44
234.881	106.44
235.115	118.44
235.349	109.44
235.583	111.44
235.817	113.44
236.051	123.44
236.285	114.44
236.519	109.44
236.753	135.44
236.987	130.44
237.221	135.44
237.455	180.44
237.689	149.44
237.922	123.44
238.156	123.44
238.39	109.44
238.624	117.44
238.858	110.44
239.091	111.44
239.325	98.44
239.559	108.44
239.793	106.44
240.027	128.44
240.26	122.44
240.494	138.44
240.728	129.44
240.961	141.44
241.195	131.44
241.429	130.44
241.662	135.44
241.896	123.44
242.13	123.44
242.363	120.44
242.597	122.44
242.83	122.44
243.064	134.44
243.298	121.44
243.531	135.44
243.765	117.44
243.998	117.44
244.232	134.44
244.465	119.44
244.699	140.44
244.932	149.44
245.166	127.44
245.399	143.44
245.633	141.44
245.866	132.44
246.099	147.44
246.333	139.44
246.566	132.44
246.8	149.44
247.033	144.44
247.266	141.44
247.5	130.44
247.733	153.44
247.966	152.44
248.2	147.44
248.433	139.44
248.666	146.44
248.899	173.44
249.133	148.44
249.366	168.44
249.599	158.44
249.832	146.44
250.066	169.44
250.299	164.44
250.532	167.44
250.765	170.44
250.998	190.44
251.231	177.44
251.465	188.44
251.698	166.44
251.931	162.44
252.164	154.44
252.397	155.44
252.63	161.44
252.863	169.44
253.096	169.44
253.329	184.44
253.562	189.44
253.795	193.44
254.028	186.44
254.261	174.44
254.494	199.44
254.727	223.44
254.96	232.44
255.193	229.44
255.426	201.44
255.659	199.44
255.892	183.44
256.124	194.44
256.357	206.44
256.59	197.44
256.823	169.44
257.056	184.44
257.289	172.44
257.521	194.44
257.754	167.44
257.987	169.44
258.22	174.44
258.452	179.44
258.685	182.44
258.918	175.44
259.151	191.44
259.383	185.44
259.616	173.44
259.849	181.44
260.081	200.44
260.314	215.44
260.547	218.44
260.779	214.44
261.012	190.44
261.244	199.44
261.477	199.44
261.71	186.44
261.942	183.44
262.175	191.44
262.407	191.44
262.64	199.44
262.872	205.44
263.105	178.44
263.337	177.44
263.57	194.44
263.802	203.44
264.035	187.44
264.267	184.44
264.499	186.44
264.732	195.44
264.964	186.44
265.197	155.44
265.429	183.44
265.661	201.44
265.894	185.44
266.126	184.44
266.358	196.44
266.591	177.44
266.823	204.44
267.055	191.44
267.287	199.44
267.52	205.44
267.752	193.44
267.984	191.44
268.216	199.44
268.448	212.44
268.681	228.44
268.913	220.44
269.145	203.44
269.377	229.44
269.609	224.44
269.841	223.44
270.073	230.44
270.306	249.44
270.538	261.44
270.77	272.44
271.002	235.44
271.234	238.44
271.466	239.44
271.698	257.44
271.93	275.44
272.162	265.44
272.394	257.44
272.626	284.44
272.858	222.44
273.09	239.44
273.322	239.44
273.553	243.44
273.785	229.44
274.017	228.44
274.249	235.44
274.481	212.44
274.713	215.44
274.945	243.44
275.176	229.44
275.408	236.44
275.64	239.44
275.872	221.44
276.104	238.44
276.335	223.44
276.567	233.44
276.799	257.44
277.031	263.44
277.262	274.44
277.494	277.44
277.726	252.44
277.957	260.44
278.189	236.44
278.421	225.44
278.652	238.44
278.884	226.44
279.115	219.44
279.347	227.44
279.579	250.44
279.81	241.44
280.042	242.44
280.273	242.44
280.505	250.44
280.736	236.44
280.968	228.44
281.199	246.44
281.431	246.44
281.662	242.44
281.894	243.44
282.125	238.44
282.356	257.44
282.588	276.44
282.819	253.44
283.051	242.44
283.282	241.44
283.513	254.44
283.745	250.44
283.976	247.44
284.207	255.44
284.439	259.44
284.67	256.44
284.901	253.44
285.132	259.44
285.364	242.44
285.595	246.44
285.826	241.44
286.057	237.44
286.288	257.44
286.52	252.44
286.751	258.44
286.982	251.44
287.213	264.44
287.444	248.44
287.675	252.44
287.906	263.44
288.138	252.44
288.369	266.44
288.6	254.44
288.831	272.44
289.062	271.44
289.293	269.44
289.524	277.44
289.755	272.44
289.986	264.44
290.217	249.44
290.448	252.44
290.679	261.44
290.91	265.44
291.141	261.44
291.371	274.44
291.602	265.44
291.833	245.44
292.064	247.44
292.295	241.44
292.526	264.44
292.757	269.44
292.987	258.44
293.218	255.44
293.449	271.44
293.68	263.44
293.91	271.44
294.141	281.44
294.372	270.44
294.603	271.44
294.833	261.44
295.064	275.44
295.295	283.44
295.525	278.44
295.756	263.44
295.987	264.44
296.217	296.44
296.448	276.44
296.679	283.44
296.909	272.44
297.14	273.44
297.37	288.44
297.601	261.44
297.831	276.44
298.062	277.44
298.292	278.44
298.523	264.44
298.753	291.44
298.984	282.44
299.214	279.44
299.445	286.44
299.675	279.44
299.905	299.44
300.136	269.44
300.366	291.44
300.597	290.44
300.827	311.44
301.057	276.44
301.288	299.44
301.518	301.44
301.748	288.44
301.979	309.44
302.209	302.44
302.439	310.44
302.669	289.44
302.9	283.44
303.13	286.44
303.36	302.44
303.59	308.44
303.82	305.44
304.051	300.44
304.281	317.44
304.511	300.44
304.741	275.44
304.971	293.44
305.201	293.44
305.431	309.44
305.661	286.44
305.891	291.44
306.121	282.44
306.352	287.44
306.582	279.44
306.812	310.44
307.042	314.44
307.272	300.44
307.502	308.44
307.731	298.44
307.961	302.44
308.191	276.44
308.421	297.44
308.651	305.44
308.881	300.44
309.111	301.44
309.341	286.44
309.571	312.44
309.8	319.44
310.03	329.44
310.26	327.44
310.49	316.44
310.72	314.44
310.949	331.44
311.179	345.44
311.409	334.44
311.639	307.44
311.868	345.44
312.098	311.44
312.328	339.44
312.557	348.44
312.787	338.44
313.017	346.44
313.246	338.44
313.476	311.44
313.706	314.44
313.935	351.44
314.165	339.44
314.394	332.44
314.624	342.44
314.853	340.44
315.083	322.44
315.312	317.44
315.542	315.44
315.771	325.44
316.001	314.44
316.23	337.44
316.46	332.44
316.689	344.44
316.919	324.44
317.148	348.44
317.377	341.44
317.607	338.44
317.836	327.44
318.065	319.44
318.295	330.44
318.524	318.44
318.753	311.44
318.983	336.44
319.212	323.44
319.441	331.44
319.67	346.44
319.9	338.44
320.129	323.44
320.358	339.44
320.587	326.44
320.816	313.44
321.046	334.44
321.275	348.44
321.504	341.44
321.733	329.44
321.962	362.44
322.191	339.44
322.42	360.44
322.649	364.44
322.878	351.44
323.108	367.44
323.337	381.44
323.566	387.44
323.795	389.44
324.024	414.44
324.253	478.44
324.482	653.44
324.71	953.44
324.939	1245.44
325.168	1047.44
325.397	594.44
325.626	469.44
325.855	417.44
326.084	406.44
326.313	382.44
326.542	388.44
326.77	425.44
326.999	471.44
327.228	621.44
327.457	852.44
327.686	955.44
327.914	664.44
328.143	485.44
328.372	437.44
328.6	434.44
328.829	438.44
329.058	436.44
329.287	440.44
329.515	423.44
329.744	411.44
329.972	400.44
330.201	417.44
330.43	449.44
330.658	449.44
330.887	461.44
331.115	450.44
331.344	428.44
331.572	388.44
331.801	394.44
332.03	398.44
332.258	427.44
332.486	398.44
332.715	397.44
332.943	413.44
333.172	419.44
333.4	425.44
333.629	439.44
333.857	431.44
334.085	447.44
334.314	451.44
334.542	471.44
334.771	467.44
334.999	445.44
335.227	443.44
335.455	430.44
335.684	408.44
335.912	398.44
336.14	415.44
336.369	398.44
336.597	400.44
336.825	397.44
337.053	385.44
337.281	377.44
337.51	361.44
337.738	379.44
337.966	401.44
338.194	397.44
338.422	379.44
338.65	389.44
338.878	376.44
339.106	361.44
339.334	372.44
339.562	379.44
339.79	363.44
340.018	360.44
340.246	358.44
340.474	366.44
340.702	372.44
340.93	362.44
341.158	364.44
341.386	365.44
341.614	354.44
341.842	342.44
342.07	357.44
342.298	344.44
342.526	365.44
342.754	364.44
342.981	347.44
343.209	359.44
343.437	363.44
343.665	374.44
343.893	386.44
344.12	412.44
344.348	396.44
344.576	382.44
344.804	386.44
345.031	377.44
345.259	382.44
345.487	361.44
345.714	355.44
345.942	358.44
346.17	355.44
346.397	348.44
346.625	351.44
346.853	355.44
347.08	350.44
347.308	354.44
347.535	377.44
347.763	359.44
347.99	344.44
348.218	354.44
348.445	353.44
348.673	362.44
348.9	356.44
349.128	358.44
349.355	357.44
349.583	324.44
349.81	338.44
350.037	335.44
350.265	342.44
350.492	342.44
350.72	340.44
350.947	338.44
351.174	376.44
351.402	363.44
351.629	353.44
351.856	361.44
352.083	341.44
352.311	354.44
352.538	346.44
352.765	376.44
352.992	353.44
353.22	353.44
353.447	342.44
353.674	341.44
353.901	334.44
354.128	346.44
354.355	332.44
354.583	350.44
354.81	341.44
355.037	330.44
355.264	330.44
355.491	340.44
355.718	321.44
355.945	337.44
356.172	334.44
356.399	331.44
356.626	302.44
356.853	323.44
357.08	356.44
357.307	339.44
357.534	317.44
357.761	342.44
357.988	316.44
358.215	319.44
358.441	337.44
358.668	325.44
358.895	328.44
359.122	344.44
359.349	346.44
359.576	348.44
359.802	344.44
360.029	375.44
360.256	363.44
360.483	373.44
360.709	313.44
360.936	345.44
361.163	345.44
361.39	351.44
361.616	351.44
361.843	351.44
362.07	346.44
362.296	350.44
362.523	336.44
362.749	336.44
362.976	327.44
363.203	342.44
363.429	326.44
363.656	331.44
363.882	327.44
364.109	342.44
364.335	341.44
364.562	329.44
364.788	325.44
365.015	341.44
365.241	308.44
365.468	344.44
365.694	346.44
365.92	349.44
366.147	335.44
366.373	334.44
366.599	312.44
366.826	337.44
367.052	334.44
367.278	322.44
367.505	339.44
367.731	335.44
367.957	346.44
368.184	347.44
368.41	340.44
368.636	348.44
368.862	351.44
369.089	336.44
369.315	337.44
369.541	332.44
369.767	317.44
369.993	352.44
370.219	335.44
370.445	321.44
370.672	329.44
370.898	329.44
371.124	355.44
371.35	359.44
371.576	343.44
371.802	314.44
372.028	339.44
372.254	324.44
372.48	345.44
372.706	354.44
372.932	344.44
373.158	335.44
373.384	353.44
373.61	359.44
373.835	339.44
374.061	332.44
374.287	339.44
374.513	352.44
374.739	339.44
374.965	346.44
375.191	366.44
375.416	365.44
375.642	349.44
375.868	350.44
376.094	354.44
376.319	341.44
376.545	336.44
376.771	346.44
376.997	334.44
377.222	333.44
377.448	327.44
377.674	333.44
377.899	315.44
378.125	345.44
378.35	323.44
378.576	325.44
378.802	345.44
379.027	331.44
379.253	327.44
379.478	338.44
379.704	348.44
379.929	342.44
380.155	348.44
380.38	344.44
380.606	345.44
380.831	332.44
381.057	348.44
381.282	355.44
381.507	340.44
381.733	343.44
381.958	341.44
382.184	358.44
382.409	341.44
382.634	345.44
382.86	336.44
383.085	358.44
383.31	347.44
383.535	341.44
383.761	346.44
383.986	365.44
384.211	363.44
384.436	352.44
384.662	376.44
384.887	379.44
385.112	396.44
385.337	383.44
385.562	373.44
385.787	375.44
386.013	386.44
386.238	393.44
386.463	381.44
386.688	385.44
386.913	376.44
387.138	374.44
387.363	386.44
387.588	373.44
387.813	385.44
388.038	373.44
388.263	387.44
388.488	391.44
388.713	388.44
388.938	385.44
389.163	367.44
389.387	385.44
389.612	364.44
389.837	363.44
390.062	375.44
390.287	395.44
390.512	362.44
390.736	364.44
390.961	381.44
391.186	388.44
391.411	400.44
391.636	388.44
391.86	419.44
392.085	399.44
392.31	406.44
392.534	384.44
392.759	406.44
392.984	394.44
393.208	381.44
393.433	385.44
393.658	371.44
393.882	398.44
394.107	379.44
394.331	398.44
394.556	404.44
394.78	405.44
395.005	385.44
395.229	381.44
395.454	411.44
395.678	408.44
395.903	412.44
396.127	425.44
396.352	419.44
396.576	410.44
396.801	395.44
397.025	378.44
397.249	410.44
397.474	422.44
397.698	439.44
397.922	411.44
398.147	418.44
398.371	435.44
398.595	420.44
398.82	432.44
399.044	463.44
399.268	478.44
399.492	518.44
399.717	573.44
399.941	571.44
400.165	555.44
400.389	543.44
400.613	476.44
400.837	466.44
401.062	450.44
401.286	453.44
401.51	458.44
401.734	421.44
401.958	448.44
402.182	458.44
402.406	467.44
402.63	447.44
402.854	471.44
403.078	465.44
403.302	482.44
403.526	476.44
403.75	484.44
403.974	480.44
404.198	455.44
404.422	475.44
404.645	492.44
404.869	483.44
405.093	505.44
405.317	509.44
405.541	527.44
405.765	481.44
405.988	476.44
406.212	477.44
406.436	487.44
406.66	501.44
406.883	508.44
407.107	493.44
407.331	547.44
407.555	579.44
407.778	553.44
408.002	545.44
408.226	518.44
408.449	505.44
408.673	498.44
408.896	524.44
409.12	518.44
409.344	495.44
409.567	483.44
409.791	466.44
410.014	460.44
410.238	441.44
410.461	458.44
410.685	459.44
410.908	459.44
411.132	507.44
411.355	499.44
411.578	490.44
411.802	457.44
412.025	443.44
412.249	468.44
412.472	481.44
412.695	505.44
412.919	485.44
413.142	449.44
413.365	435.44
413.589	441.44
413.812	459.44
414.035	447.44
414.258	425.44
414.482	421.44
414.705	446.44
414.928	426.44
415.151	424.44
415.374	435.44
415.597	433.44
415.821	435.44
416.044	448.44
416.267	417.44
416.49	422.44
416.713	433.44
416.936	439.44
417.159	448.44
417.382	437.44
417.605	446.44
417.828	439.44
418.051	471.44
418.274	444.44
418.497	452.44
418.72	437.44
418.943	416.44
419.166	438.44
419.389	475.44
419.611	487.44
419.834	470.44
420.057	461.44
420.28	475.44
420.503	465.44
420.726	442.44
420.948	470.44
421.171	497.44
421.394	481.44
421.617	470.44
421.839	455.44
422.062	464.44
422.285	449.44
422.507	491.44
422.73	520.44
422.953	501.44
423.175	470.44
423.398	466.44
423.621	478.44
423.843	454.44
424.066	460.44
424.288	475.44
424.511	494.44
424.733	509.44
424.956	531.44
425.178	539.44
425.401	539.44
425.623	552.44
425.846	467.44
426.068	457.44
426.291	446.44
426.513	456.44
426.735	467.44
426.958	485.44
427.18	533.44
427.402	619.44
427.625	626.44
427.847	569.44
428.069	501.44
428.292	459.44
428.514	417.44
428.736	430.44
428.958	416.44
429.181	403.44
429.403	404.44
429.625	430.44
429.847	433.44
430.069	468.44
430.292	473.44
430.514	425.44
430.736	449.44
430.958	407.44
431.18	426.44
431.402	428.44
431.624	408.44
431.846	408.44
432.068	413.44
432.29	399.44
432.512	403.44
432.734	412.44
432.956	420.44
433.178	441.44
433.4	426.44
433.622	424.44
433.844	426.44
434.066	408.44
434.287	434.44
434.509	397.44
434.731	443.44
434.953	433.44
435.175	455.44
435.397	469.44
435.618	461.44
435.84	465.44
436.062	527.44
436.284	569.44
436.505	466.44
436.727	446.44
436.949	427.44
437.17	435.44
437.392	412.44
437.614	431.44
437.835	427.44
438.057	486.44
438.278	542.44
438.5	535.44
438.721	605.44
438.943	573.44
439.165	461.44
439.386	451.44
439.608	459.44
439.829	454.44
440.05	458.44
440.272	483.44
440.493	467.44
440.715	453.44
440.936	443.44
441.158	428.44
441.379	414.44
441.6	461.44
441.822	481.44
442.043	479.44
442.264	543.44
442.486	564.44
442.707	487.44
442.928	466.44
443.149	458.44
443.371	505.44
443.592	505.44
443.813	571.44
444.034	617.44
444.255	540.44
444.476	520.44
444.698	494.44
444.919	467.44
445.14	606.44
445.361	523.44
445.582	508.44
445.803	531.44
446.024	592.44
446.245	570.44
446.466	520.44
446.687	481.44
446.908	441.44
447.129	419.44
447.35	414.44
447.571	444.44
447.792	413.44
448.013	407.44
448.234	433.44
448.455	462.44
448.675	516.44
448.896	587.44
449.117	494.44
449.338	469.44
449.559	572.44
449.779	602.44
450	490.44
450.221	430.44
450.442	397.44
450.662	413.44
450.883	390.44
451.104	414.44
451.324	404.44
451.545	397.44
451.766	409.44
451.986	382.44
452.207	387.44
452.428	381.44
452.648	363.44
452.869	383.44
453.089	385.44
453.31	399.44
453.53	375.44
453.751	374.44
453.971	375.44
454.192	404.44
454.412	377.44
454.633	380.44
454.853	358.44
455.073	364.44
455.294	390.44
455.514	440.44
455.734	401.44
455.955	376.44
456.175	373.44
456.395	354.44
456.616	356.44
456.836	356.44
457.056	347.44
457.276	345.44
457.497	366.44
457.717	384.44
457.937	383.44
458.157	371.44
458.377	378.44
458.598	387.44
458.818	423.44
459.038	468.44
459.258	479.44
459.478	426.44
459.698	434.44
459.918	430.44
460.138	428.44
460.358	422.44
460.578	418.44
460.798	436.44
461.018	450.44
461.238	423.44
461.458	424.44
461.678	437.44
461.898	460.44
462.118	438.44
462.338	462.44
462.558	436.44
462.777	460.44
462.997	503.44
463.217	501.44
463.437	510.44
463.657	509.44
463.876	486.44
464.096	487.44
464.316	468.44
464.536	487.44
464.755	464.44
464.975	464.44
465.195	463.44
465.414	514.44
465.634	451.44
465.854	424.44
466.073	419.44
466.293	411.44
466.512	405.44
466.732	392.44
466.951	388.44
467.171	397.44
467.391	399.44
467.61	403.44
467.829	403.44
468.049	401.44
468.268	393.44
468.488	385.44
468.707	378.44
468.927	381.44
469.146	376.44
469.365	395.44
469.585	391.44
469.804	399.44
470.023	395.44
470.243	400.44
470.462	428.44
470.681	440.44
470.901	419.44
471.12	406.44
471.339	405.44
471.558	413.44
471.777	396.44
471.997	407.44
472.216	416.44
472.435	421.44
472.654	424.44
472.873	411.44
473.092	385.44
473.311	395.44
473.53	380.44
473.749	394.44
473.968	418.44
474.187	494.44
474.406	491.44
474.625	406.44
474.844	425.44
475.063	394.44
475.282	390.44
475.501	394.44
475.72	400.44
475.939	409.44
476.158	412.44
476.377	390.44
476.596	399.44
476.814	401.44
477.033	397.44
477.252	415.44
477.471	417.44
477.69	425.44
477.908	427.44
478.127	423.44
478.346	445.44
478.564	437.44
478.783	452.44
479.002	449.44
479.22	476.44
479.439	480.44
479.658	474.44
479.876	493.44
480.095	483.44
480.313	515.44
480.532	494.44
480.751	497.44
480.969	487.44
481.188	542.44
481.406	543.44
481.624	514.44
481.843	448.44
482.061	465.44
482.28	450.44
482.498	452.44
482.717	433.44
482.935	458.44
483.153	461.44
483.372	472.44
483.59	438.44
483.808	445.44
484.027	443.44
484.245	450.44
484.463	471.44
484.681	469.44
484.9	463.44
485.118	475.44
485.336	472.44
485.554	462.44
485.772	477.44
485.99	479.44
486.209	481.44
486.427	454.44
486.645	469.44
486.863	497.44
487.081	474.44
487.299	489.44
487.517	481.44
487.735	484.44
487.953	490.44
488.171	464.44
488.389	474.44
488.607	445.44
488.825	458.44
489.043	490.44
489.261	482.44
489.479	470.44
489.696	477.44
489.914	512.44
490.132	488.44
490.35	486.44
490.568	509.44
490.786	524.44
491.003	527.44
491.221	530.44
491.439	540.44
491.657	557.44
491.874	550.44
492.092	537.44
492.31	570.44
492.527	546.44
492.745	564.44
492.963	555.44
493.18	577.44
493.398	555.44
493.615	573.44
493.833	582.44
494.05	598.44
494.268	558.44
494.485	577.44
494.703	584.44
494.92	579.44
495.138	576.44
495.355	579.44
495.573	566.44
495.79	574.44
496.008	571.44
496.225	574.44
496.442	565.44
496.66	555.44
496.877	541.44
497.094	563.44
497.312	592.44
497.529	596.44
497.746	615.44
497.963	612.44
498.181	639.44
498.398	659.44
498.615	654.44
498.832	683.44
499.049	693.44
499.267	723.44
499.484	786.44
499.701	803.44
499.918	840.44
500.135	935.44
500.352	1006.44
500.569	1037.44
500.786	999.44
501.003	925.44
501.22	885.44
501.437	852.44
501.654	814.44
501.871	774.44
502.088	743.44
