Data from 1969.PennyLincolnUp.Lamp.En5.5.200Scan.071719.P1._HRD10591_14-55-51-981.txt Node
Date: Thu Jul 18 14:55:51 EDT 2019
User: cochatt
Spectrometer: HR+D1059
Trigger mode: 1
Integration Time (sec): 1.000000E-1
Scans to average: 1
Electric dark correction enabled: true
Nonlinearity correction enabled: false
Boxcar width: 0
XAxis mode: Wavelengths
Number of Pixels in Spectrum: 2048
>>>>>Begin Spectral Data<<<<<
223.165	-14.25
223.4	-14.25
223.635	-14.25
223.869	-4.25
224.104	-9.25
224.338	-16.25
224.573	-18.25
224.808	-12.25
225.042	-4.25
225.277	-0.25
225.511	-8.25
225.746	-0.25
225.98	2.75
226.215	3.75
226.449	17.75
226.683	22.75
226.918	14.75
227.152	25.75
227.387	30.75
227.621	32.75
227.856	45.75
228.09	47.75
228.324	39.75
228.559	56.75
228.793	48.75
229.027	76.75
229.262	81.75
229.496	105.75
229.73	125.75
229.964	110.75
230.199	114.75
230.433	105.75
230.667	104.75
230.901	112.75
231.136	104.75
231.37	92.75
231.604	97.75
231.838	107.75
232.072	93.75
232.306	99.75
232.541	105.75
232.775	103.75
233.009	113.75
233.243	108.75
233.477	98.75
233.711	104.75
233.945	106.75
234.179	103.75
234.413	118.75
234.647	114.75
234.881	122.75
235.115	108.75
235.349	115.75
235.583	113.75
235.817	105.75
236.051	109.75
236.285	94.75
236.519	106.75
236.753	113.75
236.987	128.75
237.221	142.75
237.455	180.75
237.689	135.75
237.922	106.75
238.156	119.75
238.39	112.75
238.624	109.75
238.858	121.75
239.091	117.75
239.325	112.75
239.559	109.75
239.793	102.75
240.027	119.75
240.26	125.75
240.494	119.75
240.728	107.75
240.961	132.75
241.195	124.75
241.429	111.75
241.662	115.75
241.896	107.75
242.13	110.75
242.363	121.75
242.597	122.75
242.83	121.75
243.064	126.75
243.298	127.75
243.531	133.75
243.765	140.75
243.998	129.75
244.232	128.75
244.465	127.75
244.699	135.75
244.932	140.75
245.166	123.75
245.399	135.75
245.633	142.75
245.866	140.75
246.099	119.75
246.333	136.75
246.566	137.75
246.8	129.75
247.033	148.75
247.266	130.75
247.5	136.75
247.733	145.75
247.966	149.75
248.2	150.75
248.433	144.75
248.666	146.75
248.899	153.75
249.133	167.75
249.366	167.75
249.599	159.75
249.832	156.75
250.066	139.75
250.299	156.75
250.532	171.75
250.765	163.75
250.998	177.75
251.231	158.75
251.465	159.75
251.698	163.75
251.931	168.75
252.164	148.75
252.397	168.75
252.63	179.75
252.863	179.75
253.096	167.75
253.329	174.75
253.562	176.75
253.795	172.75
254.028	180.75
254.261	171.75
254.494	174.75
254.727	192.75
254.96	206.75
255.193	203.75
255.426	187.75
255.659	185.75
255.892	180.75
256.124	193.75
256.357	192.75
256.59	184.75
256.823	182.75
257.056	172.75
257.289	161.75
257.521	178.75
257.754	173.75
257.987	180.75
258.22	187.75
258.452	175.75
258.685	167.75
258.918	165.75
259.151	164.75
259.383	181.75
259.616	165.75
259.849	191.75
260.081	185.75
260.314	199.75
260.547	216.75
260.779	172.75
261.012	196.75
261.244	181.75
261.477	194.75
261.71	181.75
261.942	174.75
262.175	194.75
262.407	179.75
262.64	187.75
262.872	197.75
263.105	190.75
263.337	173.75
263.57	183.75
263.802	190.75
264.035	190.75
264.267	180.75
264.499	176.75
264.732	181.75
264.964	191.75
265.197	195.75
265.429	202.75
265.661	181.75
265.894	186.75
266.126	180.75
266.358	184.75
266.591	173.75
266.823	190.75
267.055	191.75
267.287	183.75
267.52	194.75
267.752	183.75
267.984	201.75
268.216	193.75
268.448	215.75
268.681	204.75
268.913	199.75
269.145	221.75
269.377	236.75
269.609	216.75
269.841	217.75
270.073	208.75
270.306	223.75
270.538	230.75
270.77	236.75
271.002	241.75
271.234	241.75
271.466	248.75
271.698	263.75
271.93	247.75
272.162	250.75
272.394	243.75
272.626	231.75
272.858	218.75
273.09	218.75
273.322	215.75
273.553	214.75
273.785	213.75
274.017	224.75
274.249	215.75
274.481	219.75
274.713	247.75
274.945	211.75
275.176	198.75
275.408	201.75
275.64	213.75
275.872	218.75
276.104	211.75
276.335	225.75
276.567	217.75
276.799	235.75
277.031	263.75
277.262	240.75
277.494	265.75
277.726	263.75
277.957	251.75
278.189	233.75
278.421	228.75
278.652	209.75
278.884	221.75
279.115	219.75
279.347	230.75
279.579	228.75
279.81	241.75
280.042	243.75
280.273	240.75
280.505	221.75
280.736	218.75
280.968	233.75
281.199	256.75
281.431	240.75
281.662	229.75
281.894	225.75
282.125	227.75
282.356	226.75
282.588	251.75
282.819	259.75
283.051	235.75
283.282	222.75
283.513	235.75
283.745	240.75
283.976	243.75
284.207	235.75
284.439	237.75
284.67	236.75
284.901	236.75
285.132	239.75
285.364	232.75
285.595	233.75
285.826	248.75
286.057	243.75
286.288	246.75
286.52	242.75
286.751	239.75
286.982	247.75
287.213	250.75
287.444	266.75
287.675	250.75
287.906	259.75
288.138	266.75
288.369	259.75
288.6	249.75
288.831	249.75
289.062	276.75
289.293	244.75
289.524	247.75
289.755	254.75
289.986	256.75
290.217	245.75
290.448	245.75
290.679	243.75
290.91	266.75
291.141	251.75
291.371	252.75
291.602	261.75
291.833	254.75
292.064	252.75
292.295	258.75
292.526	272.75
292.757	251.75
292.987	253.75
293.218	265.75
293.449	247.75
293.68	259.75
293.91	237.75
294.141	273.75
294.372	240.75
294.603	235.75
294.833	248.75
295.064	247.75
295.295	271.75
295.525	249.75
295.756	257.75
295.987	254.75
296.217	275.75
296.448	287.75
296.679	262.75
296.909	273.75
297.14	269.75
297.37	279.75
297.601	258.75
297.831	261.75
298.062	265.75
298.292	276.75
298.523	289.75
298.753	264.75
298.984	275.75
299.214	269.75
299.445	274.75
299.675	271.75
299.905	265.75
300.136	260.75
300.366	265.75
300.597	289.75
300.827	279.75
301.057	286.75
301.288	296.75
301.518	274.75
301.748	288.75
301.979	292.75
302.209	278.75
302.439	291.75
302.669	290.75
302.9	277.75
303.13	286.75
303.36	288.75
303.59	280.75
303.82	303.75
304.051	293.75
304.281	308.75
304.511	286.75
304.741	288.75
304.971	277.75
305.201	280.75
305.431	304.75
305.661	293.75
305.891	304.75
306.121	283.75
306.352	287.75
306.582	278.75
306.812	289.75
307.042	285.75
307.272	265.75
307.502	267.75
307.731	275.75
307.961	281.75
308.191	299.75
308.421	282.75
308.651	285.75
308.881	304.75
309.111	279.75
309.341	287.75
309.571	309.75
309.8	297.75
310.03	296.75
310.26	315.75
310.49	302.75
310.72	300.75
310.949	320.75
311.179	310.75
311.409	286.75
311.639	317.75
311.868	286.75
312.098	301.75
312.328	319.75
312.557	312.75
312.787	327.75
313.017	334.75
313.246	308.75
313.476	302.75
313.706	317.75
313.935	287.75
314.165	309.75
314.394	321.75
314.624	322.75
314.853	319.75
315.083	319.75
315.312	314.75
315.542	303.75
315.771	309.75
316.001	319.75
316.23	292.75
316.46	313.75
316.689	307.75
316.919	315.75
317.148	308.75
317.377	321.75
317.607	297.75
317.836	335.75
318.065	313.75
318.295	324.75
318.524	304.75
318.753	312.75
318.983	323.75
319.212	325.75
319.441	311.75
319.67	332.75
319.9	320.75
320.129	303.75
320.358	301.75
320.587	316.75
320.816	313.75
321.046	316.75
321.275	331.75
321.504	335.75
321.733	326.75
321.962	328.75
322.191	337.75
322.42	344.75
322.649	349.75
322.878	341.75
323.108	359.75
323.337	347.75
323.566	371.75
323.795	375.75
324.024	381.75
324.253	448.75
324.482	604.75
324.71	873.75
324.939	1117.75
325.168	948.75
325.397	527.75
325.626	403.75
325.855	401.75
326.084	367.75
326.313	380.75
326.542	383.75
326.77	396.75
326.999	447.75
327.228	557.75
327.457	776.75
327.686	849.75
327.914	604.75
328.143	448.75
328.372	411.75
328.6	416.75
328.829	383.75
329.058	408.75
329.287	419.75
329.515	383.75
329.744	378.75
329.972	389.75
330.201	391.75
330.43	420.75
330.658	435.75
330.887	430.75
331.115	416.75
331.344	396.75
331.572	380.75
331.801	381.75
332.03	376.75
332.258	368.75
332.486	377.75
332.715	391.75
332.943	379.75
333.172	385.75
333.4	380.75
333.629	399.75
333.857	407.75
334.085	439.75
334.314	412.75
334.542	444.75
334.771	446.75
334.999	428.75
335.227	393.75
335.455	384.75
335.684	382.75
335.912	379.75
336.14	387.75
336.369	384.75
336.597	372.75
336.825	387.75
337.053	371.75
337.281	364.75
337.51	360.75
337.738	365.75
337.966	366.75
338.194	368.75
338.422	381.75
338.65	356.75
338.878	387.75
339.106	357.75
339.334	366.75
339.562	358.75
339.79	345.75
340.018	363.75
340.246	346.75
340.474	350.75
340.702	352.75
340.93	361.75
341.158	348.75
341.386	350.75
341.614	336.75
341.842	356.75
342.07	358.75
342.298	344.75
342.526	341.75
342.754	318.75
342.981	360.75
343.209	353.75
343.437	353.75
343.665	365.75
343.893	370.75
344.12	379.75
344.348	400.75
344.576	366.75
344.804	349.75
345.031	372.75
345.259	371.75
345.487	327.75
345.714	365.75
345.942	324.75
346.17	333.75
346.397	334.75
346.625	330.75
346.853	340.75
347.08	344.75
347.308	340.75
347.535	345.75
347.763	333.75
347.99	344.75
348.218	347.75
348.445	332.75
348.673	362.75
348.9	340.75
349.128	336.75
349.355	317.75
349.583	319.75
349.81	333.75
350.037	329.75
350.265	343.75
350.492	333.75
350.72	328.75
350.947	337.75
351.174	339.75
351.402	334.75
351.629	327.75
351.856	327.75
352.083	342.75
352.311	345.75
352.538	339.75
352.765	342.75
352.992	350.75
353.22	338.75
353.447	316.75
353.674	312.75
353.901	322.75
354.128	297.75
354.355	330.75
354.583	319.75
354.81	329.75
355.037	321.75
355.264	324.75
355.491	317.75
355.718	304.75
355.945	327.75
356.172	329.75
356.399	320.75
356.626	331.75
356.853	320.75
357.08	299.75
357.307	311.75
357.534	322.75
357.761	300.75
357.988	319.75
358.215	329.75
358.441	330.75
358.668	315.75
358.895	327.75
359.122	328.75
359.349	313.75
359.576	319.75
359.802	332.75
360.029	359.75
360.256	356.75
360.483	338.75
360.709	315.75
360.936	342.75
361.163	330.75
361.39	340.75
361.616	328.75
361.843	322.75
362.07	316.75
362.296	330.75
362.523	343.75
362.749	326.75
362.976	327.75
363.203	328.75
363.429	318.75
363.656	313.75
363.882	332.75
364.109	296.75
364.335	323.75
364.562	325.75
364.788	297.75
365.015	302.75
365.241	327.75
365.468	326.75
365.694	322.75
365.92	297.75
366.147	317.75
366.373	320.75
366.599	337.75
366.826	309.75
367.052	325.75
367.278	322.75
367.505	326.75
367.731	307.75
367.957	310.75
368.184	298.75
368.41	315.75
368.636	321.75
368.862	343.75
369.089	332.75
369.315	319.75
369.541	325.75
369.767	334.75
369.993	313.75
370.219	317.75
370.445	317.75
370.672	317.75
370.898	319.75
371.124	331.75
371.35	327.75
371.576	328.75
371.802	327.75
372.028	312.75
372.254	327.75
372.48	308.75
372.706	351.75
372.932	320.75
373.158	335.75
373.384	332.75
373.61	315.75
373.835	330.75
374.061	339.75
374.287	324.75
374.513	336.75
374.739	326.75
374.965	322.75
375.191	348.75
375.416	340.75
375.642	338.75
375.868	343.75
376.094	331.75
376.319	317.75
376.545	321.75
376.771	317.75
376.997	319.75
377.222	313.75
377.448	336.75
377.674	315.75
377.899	319.75
378.125	327.75
378.35	327.75
378.576	319.75
378.802	336.75
379.027	304.75
379.253	338.75
379.478	328.75
379.704	308.75
379.929	318.75
380.155	327.75
380.38	321.75
380.606	315.75
380.831	322.75
381.057	336.75
381.282	315.75
381.507	323.75
381.733	335.75
381.958	315.75
382.184	332.75
382.409	333.75
382.634	334.75
382.86	328.75
383.085	343.75
383.31	331.75
383.535	347.75
383.761	354.75
383.986	344.75
384.211	337.75
384.436	350.75
384.662	337.75
384.887	362.75
385.112	387.75
385.337	365.75
385.562	363.75
385.787	363.75
386.013	370.75
386.238	375.75
386.463	360.75
386.688	348.75
386.913	369.75
387.138	367.75
387.363	357.75
387.588	370.75
387.813	366.75
388.038	348.75
388.263	352.75
388.488	357.75
388.713	367.75
388.938	355.75
389.163	365.75
389.387	358.75
389.612	345.75
389.837	372.75
390.062	381.75
390.287	369.75
390.512	352.75
390.736	340.75
390.961	357.75
391.186	365.75
391.411	377.75
391.636	372.75
391.86	378.75
392.085	389.75
392.31	399.75
392.534	388.75
392.759	375.75
392.984	362.75
393.208	366.75
393.433	372.75
393.658	375.75
393.882	376.75
394.107	380.75
394.331	365.75
394.556	353.75
394.78	368.75
395.005	364.75
395.229	365.75
395.454	380.75
395.678	391.75
395.903	397.75
396.127	389.75
396.352	399.75
396.576	378.75
396.801	379.75
397.025	364.75
397.249	398.75
397.474	395.75
397.698	385.75
397.922	415.75
398.147	401.75
398.371	407.75
398.595	414.75
398.82	424.75
399.044	435.75
399.268	482.75
399.492	519.75
399.717	531.75
399.941	550.75
400.165	523.75
400.389	508.75
400.613	474.75
400.837	444.75
401.062	440.75
401.286	454.75
401.51	439.75
401.734	439.75
401.958	413.75
402.182	401.75
402.406	439.75
402.63	438.75
402.854	453.75
403.078	452.75
403.302	447.75
403.526	449.75
403.75	437.75
403.974	473.75
404.198	459.75
404.422	472.75
404.645	456.75
404.869	441.75
405.093	468.75
405.317	478.75
405.541	524.75
405.765	487.75
405.988	480.75
406.212	465.75
406.436	477.75
406.66	499.75
406.883	461.75
407.107	521.75
407.331	507.75
407.555	539.75
407.778	564.75
408.002	528.75
408.226	491.75
408.449	462.75
408.673	478.75
408.896	492.75
409.12	497.75
409.344	476.75
409.567	459.75
409.791	461.75
410.014	446.75
410.238	435.75
410.461	441.75
410.685	442.75
410.908	453.75
411.132	434.75
411.355	504.75
411.578	454.75
411.802	446.75
412.025	437.75
412.249	449.75
412.472	440.75
412.695	463.75
412.919	463.75
413.142	447.75
413.365	439.75
413.589	435.75
413.812	416.75
414.035	413.75
414.258	417.75
414.482	424.75
414.705	430.75
414.928	409.75
415.151	411.75
415.374	429.75
415.597	415.75
415.821	406.75
416.044	413.75
416.267	432.75
416.49	426.75
416.713	415.75
416.936	407.75
417.159	423.75
417.382	398.75
417.605	407.75
417.828	424.75
418.051	421.75
418.274	429.75
418.497	416.75
418.72	423.75
418.943	430.75
419.166	449.75
419.389	471.75
419.611	444.75
419.834	455.75
420.057	445.75
420.28	438.75
420.503	432.75
420.726	427.75
420.948	420.75
421.171	460.75
421.394	480.75
421.617	429.75
421.839	420.75
422.062	415.75
422.285	461.75
422.507	470.75
422.73	504.75
422.953	483.75
423.175	453.75
423.398	472.75
423.621	452.75
423.843	451.75
424.066	456.75
424.288	445.75
424.511	460.75
424.733	489.75
424.956	523.75
425.178	535.75
425.401	499.75
425.623	518.75
425.846	448.75
426.068	445.75
426.291	419.75
426.513	423.75
426.735	445.75
426.958	455.75
427.18	495.75
427.402	559.75
427.625	582.75
427.847	526.75
428.069	493.75
428.292	441.75
428.514	434.75
428.736	420.75
428.958	398.75
429.181	397.75
429.403	387.75
429.625	419.75
429.847	448.75
430.069	445.75
430.292	439.75
430.514	401.75
430.736	394.75
430.958	411.75
431.18	388.75
431.402	391.75
431.624	379.75
431.846	401.75
432.068	403.75
432.29	398.75
432.512	390.75
432.734	396.75
432.956	410.75
433.178	415.75
433.4	410.75
433.622	385.75
433.844	384.75
434.066	399.75
434.287	376.75
434.509	392.75
434.731	421.75
434.953	421.75
435.175	431.75
435.397	437.75
435.618	429.75
435.84	455.75
436.062	509.75
436.284	536.75
436.505	472.75
436.727	442.75
436.949	400.75
437.17	403.75
437.392	392.75
437.614	415.75
437.835	419.75
438.057	458.75
438.278	531.75
438.5	534.75
438.721	570.75
438.943	545.75
439.165	417.75
439.386	415.75
439.608	431.75
439.829	428.75
440.05	457.75
440.272	462.75
440.493	451.75
440.715	411.75
440.936	414.75
441.158	420.75
441.379	437.75
441.6	438.75
441.822	451.75
442.043	478.75
442.264	506.75
442.486	507.75
442.707	468.75
442.928	429.75
443.149	437.75
443.371	463.75
443.592	477.75
443.813	562.75
444.034	546.75
444.255	489.75
444.476	475.75
444.698	457.75
444.919	485.75
445.14	610.75
445.361	508.75
445.582	461.75
445.803	514.75
446.024	558.75
446.245	551.75
446.466	477.75
446.687	460.75
446.908	444.75
447.129	404.75
447.35	399.75
447.571	397.75
447.792	404.75
448.013	399.75
448.234	400.75
448.455	428.75
448.675	481.75
448.896	534.75
449.117	473.75
449.338	461.75
449.559	523.75
449.779	581.75
450	457.75
450.221	417.75
450.442	391.75
450.662	368.75
450.883	385.75
451.104	401.75
451.324	409.75
451.545	377.75
451.766	355.75
451.986	372.75
452.207	373.75
452.428	366.75
452.648	389.75
452.869	366.75
453.089	349.75
453.31	360.75
453.53	348.75
453.751	351.75
453.971	363.75
454.192	360.75
454.412	364.75
454.633	361.75
454.853	355.75
455.073	349.75
455.294	377.75
455.514	400.75
455.734	395.75
455.955	337.75
456.175	348.75
456.395	343.75
456.616	350.75
456.836	353.75
457.056	348.75
457.276	337.75
457.497	334.75
457.717	345.75
457.937	354.75
458.157	360.75
458.377	343.75
458.598	352.75
458.818	394.75
459.038	453.75
459.258	464.75
459.478	415.75
459.698	389.75
459.918	381.75
460.138	401.75
460.358	418.75
460.578	421.75
460.798	421.75
461.018	416.75
461.238	430.75
461.458	417.75
461.678	413.75
461.898	431.75
462.118	417.75
462.338	445.75
462.558	444.75
462.777	464.75
462.997	479.75
463.217	506.75
463.437	493.75
463.657	465.75
463.876	452.75
464.096	455.75
464.316	463.75
464.536	479.75
464.755	454.75
464.975	471.75
465.195	464.75
465.414	463.75
465.634	445.75
465.854	407.75
466.073	389.75
466.293	396.75
466.512	380.75
466.732	376.75
466.951	390.75
467.171	379.75
467.391	378.75
467.61	366.75
467.829	402.75
468.049	387.75
468.268	385.75
468.488	381.75
468.707	375.75
468.927	368.75
469.146	362.75
469.365	389.75
469.585	365.75
469.804	393.75
470.023	391.75
470.243	405.75
470.462	409.75
470.681	394.75
470.901	417.75
471.12	380.75
471.339	380.75
471.558	366.75
471.777	387.75
471.997	391.75
472.216	386.75
472.435	383.75
472.654	396.75
472.873	373.75
473.092	382.75
473.311	359.75
473.53	358.75
473.749	373.75
473.968	416.75
474.187	453.75
474.406	448.75
474.625	415.75
474.844	371.75
475.063	385.75
475.282	380.75
475.501	380.75
475.72	415.75
475.939	391.75
476.158	393.75
476.377	403.75
476.596	396.75
476.814	403.75
477.033	385.75
477.252	399.75
477.471	404.75
477.69	425.75
477.908	425.75
478.127	429.75
478.346	394.75
478.564	430.75
478.783	442.75
479.002	439.75
479.22	439.75
479.439	431.75
479.658	466.75
479.876	447.75
480.095	470.75
480.313	484.75
480.532	490.75
480.751	486.75
480.969	465.75
481.188	494.75
481.406	522.75
481.624	459.75
481.843	453.75
482.061	433.75
482.28	429.75
482.498	413.75
482.717	428.75
482.935	441.75
483.153	427.75
483.372	413.75
483.59	430.75
483.808	419.75
484.027	411.75
484.245	439.75
484.463	439.75
484.681	422.75
484.9	436.75
485.118	463.75
485.336	450.75
485.554	441.75
485.772	460.75
485.99	443.75
486.209	446.75
486.427	439.75
486.645	441.75
486.863	484.75
487.081	492.75
487.299	439.75
487.517	453.75
487.735	458.75
487.953	459.75
488.171	466.75
488.389	477.75
488.607	458.75
488.825	451.75
489.043	468.75
489.261	469.75
489.479	461.75
489.696	472.75
489.914	453.75
490.132	480.75
490.35	469.75
490.568	477.75
490.786	489.75
491.003	503.75
491.221	507.75
491.439	513.75
491.657	494.75
491.874	501.75
492.092	523.75
492.31	541.75
492.527	526.75
492.745	519.75
492.963	536.75
493.18	530.75
493.398	521.75
493.615	535.75
493.833	524.75
494.05	552.75
494.268	529.75
494.485	533.75
494.703	558.75
494.92	551.75
495.138	514.75
495.355	549.75
495.573	528.75
495.79	544.75
496.008	525.75
496.225	528.75
496.442	555.75
496.66	532.75
496.877	543.75
497.094	540.75
497.312	550.75
497.529	551.75
497.746	568.75
497.963	571.75
498.181	608.75
498.398	605.75
498.615	632.75
498.832	667.75
499.049	663.75
499.267	689.75
499.484	735.75
499.701	779.75
499.918	822.75
500.135	869.75
500.352	919.75
500.569	975.75
500.786	945.75
501.003	920.75
501.22	843.75
501.437	821.75
501.654	780.75
501.871	739.75
502.088	695.75
