Data from 1969.PennyLincolnUp.Lamp.En5.5.200Scan.071719.P1._HRD10591_14-53-49-971.txt Node
Date: Thu Jul 18 14:53:49 EDT 2019
User: cochatt
Spectrometer: HR+D1059
Trigger mode: 1
Integration Time (sec): 1.000000E-1
Scans to average: 1
Electric dark correction enabled: true
Nonlinearity correction enabled: false
Boxcar width: 0
XAxis mode: Wavelengths
Number of Pixels in Spectrum: 2048
>>>>>Begin Spectral Data<<<<<
223.165	-18.25
223.4	-18.25
223.635	-18.25
223.869	-17.25
224.104	-16.25
224.338	-5.25
224.573	-15.25
224.808	-13.25
225.042	-7.25
225.277	1.75
225.511	5.75
225.746	5.75
225.98	-13.25
226.215	12.75
226.449	14.75
226.683	15.75
226.918	27.75
227.152	21.75
227.387	43.75
227.621	39.75
227.856	46.75
228.09	54.75
228.324	43.75
228.559	58.75
228.793	64.75
229.027	85.75
229.262	74.75
229.496	85.75
229.73	84.75
229.964	121.75
230.199	94.75
230.433	85.75
230.667	96.75
230.901	96.75
231.136	101.75
231.37	101.75
231.604	107.75
231.838	105.75
232.072	107.75
232.306	104.75
232.541	101.75
232.775	100.75
233.009	93.75
233.243	108.75
233.477	96.75
233.711	118.75
233.945	102.75
234.179	114.75
234.413	122.75
234.647	107.75
234.881	102.75
235.115	102.75
235.349	105.75
235.583	96.75
235.817	116.75
236.051	103.75
236.285	100.75
236.519	88.75
236.753	99.75
236.987	114.75
237.221	130.75
237.455	137.75
237.689	121.75
237.922	88.75
238.156	99.75
238.39	96.75
238.624	100.75
238.858	116.75
239.091	103.75
239.325	103.75
239.559	107.75
239.793	110.75
240.027	106.75
240.26	124.75
240.494	107.75
240.728	110.75
240.961	107.75
241.195	118.75
241.429	112.75
241.662	127.75
241.896	110.75
242.13	111.75
242.363	100.75
242.597	108.75
242.83	102.75
243.064	122.75
243.298	117.75
243.531	121.75
243.765	109.75
243.998	123.75
244.232	121.75
244.465	104.75
244.699	130.75
244.932	124.75
245.166	116.75
245.399	132.75
245.633	111.75
245.866	117.75
246.099	108.75
246.333	111.75
246.566	121.75
246.8	114.75
247.033	119.75
247.266	132.75
247.5	122.75
247.733	128.75
247.966	129.75
248.2	144.75
248.433	131.75
248.666	132.75
248.899	145.75
249.133	165.75
249.366	165.75
249.599	127.75
249.832	145.75
250.066	131.75
250.299	132.75
250.532	154.75
250.765	159.75
250.998	170.75
251.231	172.75
251.465	147.75
251.698	151.75
251.931	145.75
252.164	158.75
252.397	143.75
252.63	145.75
252.863	149.75
253.096	162.75
253.329	183.75
253.562	160.75
253.795	162.75
254.028	144.75
254.261	150.75
254.494	174.75
254.727	175.75
254.96	169.75
255.193	186.75
255.426	171.75
255.659	155.75
255.892	172.75
256.124	165.75
256.357	170.75
256.59	157.75
256.823	166.75
257.056	156.75
257.289	159.75
257.521	148.75
257.754	152.75
257.987	158.75
258.22	160.75
258.452	157.75
258.685	160.75
258.918	169.75
259.151	164.75
259.383	159.75
259.616	159.75
259.849	176.75
260.081	158.75
260.314	175.75
260.547	175.75
260.779	173.75
261.012	173.75
261.244	170.75
261.477	172.75
261.71	172.75
261.942	158.75
262.175	158.75
262.407	187.75
262.64	166.75
262.872	160.75
263.105	162.75
263.337	154.75
263.57	167.75
263.802	180.75
264.035	173.75
264.267	178.75
264.499	160.75
264.732	175.75
264.964	177.75
265.197	171.75
265.429	175.75
265.661	160.75
265.894	180.75
266.126	175.75
266.358	155.75
266.591	175.75
266.823	182.75
267.055	190.75
267.287	182.75
267.52	184.75
267.752	169.75
267.984	188.75
268.216	179.75
268.448	180.75
268.681	161.75
268.913	178.75
269.145	190.75
269.377	175.75
269.609	197.75
269.841	194.75
270.073	184.75
270.306	196.75
270.538	220.75
270.77	211.75
271.002	213.75
271.234	194.75
271.466	200.75
271.698	222.75
271.93	202.75
272.162	213.75
272.394	228.75
272.626	210.75
272.858	198.75
273.09	209.75
273.322	192.75
273.553	207.75
273.785	188.75
274.017	197.75
274.249	214.75
274.481	208.75
274.713	208.75
274.945	222.75
275.176	224.75
275.408	205.75
275.64	189.75
275.872	189.75
276.104	207.75
276.335	209.75
276.567	198.75
276.799	209.75
277.031	210.75
277.262	226.75
277.494	217.75
277.726	214.75
277.957	190.75
278.189	190.75
278.421	214.75
278.652	211.75
278.884	209.75
279.115	195.75
279.347	208.75
279.579	223.75
279.81	205.75
280.042	203.75
280.273	203.75
280.505	218.75
280.736	220.75
280.968	214.75
281.199	210.75
281.431	199.75
281.662	224.75
281.894	191.75
282.125	213.75
282.356	213.75
282.588	225.75
282.819	207.75
283.051	231.75
283.282	224.75
283.513	207.75
283.745	222.75
283.976	208.75
284.207	206.75
284.439	223.75
284.67	217.75
284.901	217.75
285.132	216.75
285.364	233.75
285.595	229.75
285.826	220.75
286.057	220.75
286.288	218.75
286.52	205.75
286.751	207.75
286.982	229.75
287.213	216.75
287.444	228.75
287.675	243.75
287.906	229.75
288.138	238.75
288.369	250.75
288.6	223.75
288.831	243.75
289.062	224.75
289.293	238.75
289.524	225.75
289.755	218.75
289.986	223.75
290.217	228.75
290.448	242.75
290.679	246.75
290.91	254.75
291.141	228.75
291.371	214.75
291.602	219.75
291.833	242.75
292.064	225.75
292.295	228.75
292.526	228.75
292.757	228.75
292.987	222.75
293.218	230.75
293.449	231.75
293.68	216.75
293.91	246.75
294.141	242.75
294.372	221.75
294.603	230.75
294.833	245.75
295.064	219.75
295.295	230.75
295.525	246.75
295.756	226.75
295.987	242.75
296.217	248.75
296.448	242.75
296.679	249.75
296.909	228.75
297.14	232.75
297.37	245.75
297.601	231.75
297.831	242.75
298.062	262.75
298.292	244.75
298.523	250.75
298.753	248.75
298.984	246.75
299.214	248.75
299.445	250.75
299.675	256.75
299.905	264.75
300.136	271.75
300.366	265.75
300.597	242.75
300.827	242.75
301.057	260.75
301.288	272.75
301.518	266.75
301.748	268.75
301.979	264.75
302.209	258.75
302.439	264.75
302.669	267.75
302.9	263.75
303.13	243.75
303.36	266.75
303.59	282.75
303.82	265.75
304.051	293.75
304.281	260.75
304.511	252.75
304.741	254.75
304.971	267.75
305.201	239.75
305.431	274.75
305.661	283.75
305.891	247.75
306.121	248.75
306.352	254.75
306.582	263.75
306.812	254.75
307.042	262.75
307.272	247.75
307.502	254.75
307.731	243.75
307.961	244.75
308.191	263.75
308.421	268.75
308.651	259.75
308.881	247.75
309.111	251.75
309.341	258.75
309.571	248.75
309.8	267.75
310.03	264.75
310.26	263.75
310.49	264.75
310.72	284.75
310.949	268.75
311.179	284.75
311.409	267.75
311.639	280.75
311.868	265.75
312.098	263.75
312.328	267.75
312.557	296.75
312.787	269.75
313.017	262.75
313.246	285.75
313.476	300.75
313.706	279.75
313.935	272.75
314.165	285.75
314.394	274.75
314.624	294.75
314.853	301.75
315.083	302.75
315.312	287.75
315.542	276.75
315.771	279.75
316.001	276.75
316.23	287.75
316.46	276.75
316.689	291.75
316.919	276.75
317.148	298.75
317.377	308.75
317.607	292.75
317.836	269.75
318.065	286.75
318.295	285.75
318.524	294.75
318.753	272.75
318.983	278.75
319.212	273.75
319.441	294.75
319.67	278.75
319.9	285.75
320.129	279.75
320.358	272.75
320.587	276.75
320.816	298.75
321.046	285.75
321.275	298.75
321.504	285.75
321.733	291.75
321.962	293.75
322.191	276.75
322.42	297.75
322.649	311.75
322.878	312.75
323.108	291.75
323.337	303.75
323.566	303.75
323.795	303.75
324.024	357.75
324.253	383.75
324.482	462.75
324.71	619.75
324.939	774.75
325.168	674.75
325.397	421.75
325.626	335.75
325.855	340.75
326.084	318.75
326.313	350.75
326.542	332.75
326.77	355.75
326.999	381.75
327.228	430.75
327.457	568.75
327.686	602.75
327.914	467.75
328.143	362.75
328.372	353.75
328.6	336.75
328.829	324.75
329.058	333.75
329.287	346.75
329.515	314.75
329.744	333.75
329.972	322.75
330.201	319.75
330.43	335.75
330.658	355.75
330.887	368.75
331.115	370.75
331.344	335.75
331.572	336.75
331.801	331.75
332.03	332.75
332.258	333.75
332.486	350.75
332.715	343.75
332.943	362.75
333.172	376.75
333.4	342.75
333.629	357.75
333.857	372.75
334.085	387.75
334.314	403.75
334.542	367.75
334.771	377.75
334.999	353.75
335.227	348.75
335.455	347.75
335.684	340.75
335.912	359.75
336.14	338.75
336.369	339.75
336.597	351.75
336.825	329.75
337.053	331.75
337.281	333.75
337.51	322.75
337.738	340.75
337.966	339.75
338.194	336.75
338.422	335.75
338.65	319.75
338.878	341.75
339.106	329.75
339.334	333.75
339.562	317.75
339.79	318.75
340.018	299.75
340.246	318.75
340.474	320.75
340.702	313.75
340.93	309.75
341.158	303.75
341.386	315.75
341.614	319.75
341.842	320.75
342.07	310.75
342.298	316.75
342.526	300.75
342.754	307.75
342.981	325.75
343.209	332.75
343.437	316.75
343.665	335.75
343.893	350.75
344.12	337.75
344.348	336.75
344.576	333.75
344.804	325.75
345.031	311.75
345.259	319.75
345.487	311.75
345.714	310.75
345.942	314.75
346.17	315.75
346.397	301.75
346.625	286.75
346.853	307.75
347.08	314.75
347.308	304.75
347.535	321.75
347.763	303.75
347.99	300.75
348.218	311.75
348.445	293.75
348.673	294.75
348.9	294.75
349.128	286.75
349.355	296.75
349.583	300.75
349.81	293.75
350.037	298.75
350.265	293.75
350.492	282.75
350.72	287.75
350.947	303.75
351.174	309.75
351.402	306.75
351.629	298.75
351.856	315.75
352.083	288.75
352.311	294.75
352.538	312.75
352.765	294.75
352.992	292.75
353.22	315.75
353.447	299.75
353.674	305.75
353.901	290.75
354.128	307.75
354.355	293.75
354.583	287.75
354.81	283.75
355.037	285.75
355.264	294.75
355.491	311.75
355.718	294.75
355.945	299.75
356.172	298.75
356.399	294.75
356.626	285.75
356.853	290.75
357.08	274.75
357.307	293.75
357.534	310.75
357.761	285.75
357.988	295.75
358.215	303.75
358.441	306.75
358.668	306.75
358.895	306.75
359.122	303.75
359.349	306.75
359.576	320.75
359.802	294.75
360.029	328.75
360.256	310.75
360.483	327.75
360.709	282.75
360.936	288.75
361.163	293.75
361.39	290.75
361.616	299.75
361.843	282.75
362.07	284.75
362.296	301.75
362.523	291.75
362.749	280.75
362.976	301.75
363.203	293.75
363.429	280.75
363.656	296.75
363.882	306.75
364.109	288.75
364.335	298.75
364.562	292.75
364.788	282.75
365.015	280.75
365.241	285.75
365.468	292.75
365.694	300.75
365.92	285.75
366.147	296.75
366.373	290.75
366.599	290.75
366.826	305.75
367.052	296.75
367.278	300.75
367.505	282.75
367.731	297.75
367.957	308.75
368.184	286.75
368.41	299.75
368.636	286.75
368.862	285.75
369.089	310.75
369.315	301.75
369.541	297.75
369.767	288.75
369.993	301.75
370.219	310.75
370.445	287.75
370.672	301.75
370.898	314.75
371.124	299.75
371.35	293.75
371.576	284.75
371.802	321.75
372.028	291.75
372.254	303.75
372.48	310.75
372.706	310.75
372.932	314.75
373.158	316.75
373.384	294.75
373.61	296.75
373.835	302.75
374.061	312.75
374.287	315.75
374.513	320.75
374.739	300.75
374.965	314.75
375.191	310.75
375.416	336.75
375.642	322.75
375.868	296.75
376.094	307.75
376.319	298.75
376.545	296.75
376.771	315.75
376.997	298.75
377.222	286.75
377.448	291.75
377.674	300.75
377.899	300.75
378.125	303.75
378.35	311.75
378.576	296.75
378.802	299.75
379.027	322.75
379.253	301.75
379.478	310.75
379.704	296.75
379.929	290.75
380.155	287.75
380.38	293.75
380.606	313.75
380.831	319.75
381.057	314.75
381.282	304.75
381.507	296.75
381.733	299.75
381.958	306.75
382.184	306.75
382.409	311.75
382.634	298.75
382.86	328.75
383.085	328.75
383.31	317.75
383.535	327.75
383.761	320.75
383.986	327.75
384.211	334.75
384.436	335.75
384.662	332.75
384.887	345.75
385.112	326.75
385.337	322.75
385.562	347.75
385.787	332.75
386.013	343.75
386.238	351.75
386.463	336.75
386.688	347.75
386.913	342.75
387.138	349.75
387.363	339.75
387.588	349.75
387.813	345.75
388.038	331.75
388.263	347.75
388.488	337.75
388.713	334.75
388.938	336.75
389.163	339.75
389.387	349.75
389.612	349.75
389.837	325.75
390.062	329.75
390.287	352.75
390.512	338.75
390.736	343.75
390.961	343.75
391.186	339.75
391.411	360.75
391.636	357.75
391.86	355.75
392.085	346.75
392.31	353.75
392.534	359.75
392.759	346.75
392.984	362.75
393.208	341.75
393.433	350.75
393.658	349.75
393.882	338.75
394.107	341.75
394.331	362.75
394.556	354.75
394.78	348.75
395.005	355.75
395.229	333.75
395.454	351.75
395.678	367.75
395.903	367.75
396.127	380.75
396.352	386.75
396.576	372.75
396.801	342.75
397.025	349.75
397.249	362.75
397.474	358.75
397.698	363.75
397.922	375.75
398.147	382.75
398.371	378.75
398.595	393.75
398.82	395.75
399.044	422.75
399.268	434.75
399.492	477.75
399.717	513.75
399.941	511.75
400.165	485.75
400.389	444.75
400.613	439.75
400.837	416.75
401.062	384.75
401.286	403.75
401.51	375.75
401.734	381.75
401.958	381.75
402.182	373.75
402.406	397.75
402.63	404.75
402.854	407.75
403.078	412.75
403.302	411.75
403.526	414.75
403.75	432.75
403.974	431.75
404.198	412.75
404.422	439.75
404.645	415.75
404.869	416.75
405.093	430.75
405.317	444.75
405.541	472.75
405.765	427.75
405.988	434.75
406.212	457.75
406.436	424.75
406.66	442.75
406.883	444.75
407.107	469.75
407.331	488.75
407.555	517.75
407.778	495.75
408.002	456.75
408.226	462.75
408.449	446.75
408.673	449.75
408.896	450.75
409.12	440.75
409.344	447.75
409.567	423.75
409.791	398.75
410.014	414.75
410.238	421.75
410.461	394.75
410.685	430.75
410.908	396.75
411.132	448.75
411.355	435.75
411.578	420.75
411.802	410.75
412.025	393.75
412.249	395.75
412.472	391.75
412.695	426.75
412.919	404.75
413.142	395.75
413.365	396.75
413.589	406.75
413.812	382.75
414.035	403.75
414.258	382.75
414.482	385.75
414.705	397.75
414.928	388.75
415.151	383.75
415.374	371.75
415.597	365.75
415.821	396.75
416.044	380.75
416.267	397.75
416.49	380.75
416.713	376.75
416.936	378.75
417.159	387.75
417.382	382.75
417.605	391.75
417.828	409.75
418.051	382.75
418.274	386.75
418.497	376.75
418.72	398.75
418.943	399.75
419.166	409.75
419.389	423.75
419.611	418.75
419.834	411.75
420.057	384.75
420.28	414.75
420.503	403.75
420.726	386.75
420.948	401.75
421.171	424.75
421.394	434.75
421.617	404.75
421.839	393.75
422.062	384.75
422.285	402.75
422.507	421.75
422.73	443.75
422.953	452.75
423.175	416.75
423.398	392.75
423.621	403.75
423.843	410.75
424.066	416.75
424.288	419.75
424.511	420.75
424.733	457.75
424.956	471.75
425.178	460.75
425.401	456.75
425.623	462.75
425.846	404.75
426.068	394.75
426.291	391.75
426.513	372.75
426.735	404.75
426.958	406.75
427.18	449.75
427.402	502.75
427.625	526.75
427.847	444.75
428.069	441.75
428.292	394.75
428.514	380.75
428.736	358.75
428.958	388.75
429.181	363.75
429.403	350.75
429.625	356.75
429.847	387.75
430.069	397.75
430.292	412.75
430.514	383.75
430.736	362.75
430.958	372.75
431.18	386.75
431.402	347.75
431.624	360.75
431.846	364.75
432.068	358.75
432.29	371.75
432.512	392.75
432.734	368.75
432.956	358.75
433.178	375.75
433.4	359.75
433.622	374.75
433.844	380.75
434.066	352.75
434.287	368.75
434.509	384.75
434.731	385.75
434.953	388.75
435.175	383.75
435.397	400.75
435.618	424.75
435.84	398.75
436.062	452.75
436.284	462.75
436.505	400.75
436.727	386.75
436.949	378.75
437.17	366.75
437.392	374.75
437.614	384.75
437.835	364.75
438.057	401.75
438.278	444.75
438.5	461.75
438.721	480.75
438.943	477.75
439.165	421.75
439.386	365.75
439.608	392.75
439.829	388.75
440.05	418.75
440.272	421.75
440.493	395.75
440.715	389.75
440.936	376.75
441.158	394.75
441.379	394.75
441.6	385.75
441.822	392.75
442.043	398.75
442.264	449.75
442.486	468.75
442.707	405.75
442.928	430.75
443.149	407.75
443.371	423.75
443.592	436.75
443.813	480.75
444.034	513.75
444.255	451.75
444.476	428.75
444.698	424.75
444.919	439.75
445.14	537.75
445.361	482.75
445.582	430.75
445.803	438.75
446.024	476.75
446.245	462.75
446.466	476.75
446.687	387.75
446.908	378.75
447.129	372.75
447.35	359.75
447.571	377.75
447.792	364.75
448.013	355.75
448.234	349.75
448.455	365.75
448.675	422.75
448.896	488.75
449.117	415.75
449.338	409.75
449.559	443.75
449.779	476.75
450	417.75
450.221	354.75
450.442	355.75
450.662	331.75
450.883	345.75
451.104	364.75
451.324	351.75
451.545	355.75
451.766	351.75
451.986	326.75
452.207	332.75
452.428	334.75
452.648	346.75
452.869	343.75
453.089	345.75
453.31	334.75
453.53	325.75
453.751	333.75
453.971	322.75
454.192	326.75
454.412	308.75
454.633	343.75
454.853	342.75
455.073	333.75
455.294	347.75
455.514	358.75
455.734	367.75
455.955	310.75
456.175	326.75
456.395	319.75
456.616	312.75
456.836	318.75
457.056	324.75
457.276	318.75
457.497	324.75
457.717	330.75
457.937	330.75
458.157	319.75
458.377	360.75
458.598	338.75
458.818	364.75
459.038	383.75
459.258	394.75
459.478	380.75
459.698	381.75
459.918	361.75
460.138	368.75
460.358	373.75
460.578	398.75
460.798	391.75
461.018	405.75
461.238	385.75
461.458	381.75
461.678	397.75
461.898	380.75
462.118	399.75
462.338	415.75
462.558	430.75
462.777	424.75
462.997	459.75
463.217	456.75
463.437	471.75
463.657	445.75
463.876	426.75
464.096	441.75
464.316	427.75
464.536	466.75
464.755	429.75
464.975	412.75
465.195	432.75
465.414	408.75
465.634	397.75
465.854	380.75
466.073	378.75
466.293	370.75
466.512	345.75
466.732	352.75
466.951	364.75
467.171	353.75
467.391	365.75
467.61	367.75
467.829	366.75
468.049	333.75
468.268	358.75
468.488	340.75
468.707	350.75
468.927	336.75
469.146	343.75
469.365	365.75
469.585	322.75
469.804	349.75
470.023	342.75
470.243	374.75
470.462	355.75
470.681	371.75
470.901	365.75
471.12	366.75
471.339	370.75
471.558	347.75
471.777	368.75
471.997	366.75
472.216	336.75
472.435	357.75
472.654	357.75
472.873	336.75
473.092	343.75
473.311	346.75
473.53	336.75
473.749	351.75
473.968	372.75
474.187	398.75
474.406	398.75
474.625	360.75
474.844	351.75
475.063	371.75
475.282	350.75
475.501	351.75
475.72	360.75
475.939	378.75
476.158	352.75
476.377	357.75
476.596	350.75
476.814	355.75
477.033	351.75
477.252	354.75
477.471	365.75
477.69	378.75
477.908	394.75
478.127	391.75
478.346	402.75
478.564	414.75
478.783	410.75
479.002	413.75
479.22	428.75
479.439	420.75
479.658	408.75
479.876	418.75
480.095	422.75
480.313	443.75
480.532	440.75
480.751	436.75
480.969	426.75
481.188	441.75
481.406	451.75
481.624	423.75
481.843	426.75
482.061	399.75
482.28	413.75
482.498	405.75
482.717	392.75
482.935	401.75
483.153	406.75
483.372	407.75
483.59	394.75
483.808	400.75
484.027	415.75
484.245	403.75
484.463	425.75
484.681	410.75
484.9	407.75
485.118	420.75
485.336	417.75
485.554	414.75
485.772	415.75
485.99	422.75
486.209	407.75
486.427	414.75
486.645	430.75
486.863	438.75
487.081	414.75
487.299	415.75
487.517	415.75
487.735	426.75
487.953	446.75
488.171	434.75
488.389	425.75
488.607	434.75
488.825	412.75
489.043	430.75
489.261	425.75
489.479	438.75
489.696	408.75
489.914	423.75
490.132	436.75
490.35	430.75
490.568	420.75
490.786	456.75
491.003	443.75
491.221	466.75
491.439	457.75
491.657	457.75
491.874	458.75
492.092	482.75
492.31	459.75
492.527	467.75
492.745	469.75
492.963	493.75
493.18	494.75
493.398	481.75
493.615	500.75
493.833	477.75
494.05	468.75
494.268	464.75
494.485	473.75
494.703	486.75
494.92	457.75
495.138	468.75
495.355	490.75
495.573	486.75
495.79	495.75
496.008	490.75
496.225	503.75
496.442	476.75
496.66	498.75
496.877	479.75
497.094	484.75
497.312	487.75
497.529	524.75
497.746	525.75
497.963	506.75
498.181	546.75
498.398	554.75
498.615	587.75
498.832	607.75
499.049	622.75
499.267	656.75
499.484	694.75
499.701	709.75
499.918	767.75
500.135	872.75
500.352	886.75
500.569	904.75
500.786	925.75
501.003	900.75
501.22	826.75
501.437	768.75
501.654	735.75
501.871	678.75
502.088	662.75
502.305	599.75
