Data from 1969.PennyLincolnUp.Lamp.En5.5.200Scan.071719.P1._HRD10591_14-55-16-972.txt Node
Date: Thu Jul 18 14:55:16 EDT 2019
User: cochatt
Spectrometer: HR+D1059
Trigger mode: 1
Integration Time (sec): 1.000000E-1
Scans to average: 1
Electric dark correction enabled: true
Nonlinearity correction enabled: false
Boxcar width: 0
XAxis mode: Wavelengths
Number of Pixels in Spectrum: 2048
>>>>>Begin Spectral Data<<<<<
223.165	-17.5
223.4	-17.5
223.635	-17.5
223.869	-22.5
224.104	-20.5
224.338	-6.5
224.573	-4.5
224.808	-15.5
225.042	-10.5
225.277	-7.5
225.511	-9.5
225.746	20.5
225.98	-0.5
226.215	7.5
226.449	15.5
226.683	20.5
226.918	27.5
227.152	23.5
227.387	52.5
227.621	39.5
227.856	49.5
228.09	53.5
228.324	52.5
228.559	60.5
228.793	66.5
229.027	95.5
229.262	107.5
229.496	104.5
229.73	127.5
229.964	129.5
230.199	112.5
230.433	95.5
230.667	108.5
230.901	97.5
231.136	101.5
231.37	109.5
231.604	96.5
231.838	104.5
232.072	118.5
232.306	109.5
232.541	98.5
232.775	106.5
233.009	112.5
233.243	95.5
233.477	119.5
233.711	116.5
233.945	106.5
234.179	109.5
234.413	112.5
234.647	125.5
234.881	112.5
235.115	104.5
235.349	108.5
235.583	123.5
235.817	122.5
236.051	112.5
236.285	104.5
236.519	105.5
236.753	130.5
236.987	130.5
237.221	138.5
237.455	173.5
237.689	149.5
237.922	120.5
238.156	126.5
238.39	107.5
238.624	128.5
238.858	118.5
239.091	121.5
239.325	122.5
239.559	116.5
239.793	117.5
240.027	121.5
240.26	122.5
240.494	132.5
240.728	143.5
240.961	127.5
241.195	132.5
241.429	127.5
241.662	126.5
241.896	112.5
242.13	122.5
242.363	118.5
242.597	131.5
242.83	127.5
243.064	125.5
243.298	128.5
243.531	122.5
243.765	126.5
243.998	132.5
244.232	134.5
244.465	133.5
244.699	137.5
244.932	152.5
245.166	125.5
245.399	125.5
245.633	113.5
245.866	125.5
246.099	142.5
246.333	127.5
246.566	134.5
246.8	129.5
247.033	148.5
247.266	147.5
247.5	149.5
247.733	152.5
247.966	161.5
248.2	143.5
248.433	145.5
248.666	151.5
248.899	161.5
249.133	173.5
249.366	169.5
249.599	153.5
249.832	157.5
250.066	140.5
250.299	151.5
250.532	177.5
250.765	178.5
250.998	177.5
251.231	184.5
251.465	184.5
251.698	180.5
251.931	175.5
252.164	157.5
252.397	158.5
252.63	192.5
252.863	184.5
253.096	166.5
253.329	193.5
253.562	180.5
253.795	181.5
254.028	196.5
254.261	177.5
254.494	176.5
254.727	213.5
254.96	221.5
255.193	201.5
255.426	193.5
255.659	203.5
255.892	187.5
256.124	192.5
256.357	193.5
256.59	180.5
256.823	196.5
257.056	194.5
257.289	191.5
257.521	186.5
257.754	194.5
257.987	188.5
258.22	172.5
258.452	192.5
258.685	172.5
258.918	186.5
259.151	175.5
259.383	174.5
259.616	204.5
259.849	175.5
260.081	201.5
260.314	213.5
260.547	194.5
260.779	205.5
261.012	196.5
261.244	206.5
261.477	209.5
261.71	202.5
261.942	179.5
262.175	186.5
262.407	192.5
262.64	181.5
262.872	205.5
263.105	174.5
263.337	188.5
263.57	174.5
263.802	183.5
264.035	187.5
264.267	182.5
264.499	192.5
264.732	186.5
264.964	186.5
265.197	199.5
265.429	188.5
265.661	172.5
265.894	176.5
266.126	199.5
266.358	186.5
266.591	202.5
266.823	199.5
267.055	198.5
267.287	206.5
267.52	205.5
267.752	197.5
267.984	198.5
268.216	201.5
268.448	214.5
268.681	212.5
268.913	215.5
269.145	208.5
269.377	244.5
269.609	234.5
269.841	206.5
270.073	217.5
270.306	236.5
270.538	269.5
270.77	261.5
271.002	250.5
271.234	225.5
271.466	242.5
271.698	257.5
271.93	251.5
272.162	273.5
272.394	247.5
272.626	261.5
272.858	245.5
273.09	222.5
273.322	234.5
273.553	232.5
273.785	215.5
274.017	211.5
274.249	237.5
274.481	223.5
274.713	220.5
274.945	236.5
275.176	230.5
275.408	224.5
275.64	227.5
275.872	221.5
276.104	235.5
276.335	231.5
276.567	220.5
276.799	233.5
277.031	270.5
277.262	265.5
277.494	260.5
277.726	251.5
277.957	245.5
278.189	251.5
278.421	228.5
278.652	205.5
278.884	237.5
279.115	244.5
279.347	232.5
279.579	214.5
279.81	236.5
280.042	220.5
280.273	230.5
280.505	250.5
280.736	232.5
280.968	241.5
281.199	249.5
281.431	217.5
281.662	235.5
281.894	242.5
282.125	238.5
282.356	263.5
282.588	254.5
282.819	264.5
283.051	257.5
283.282	239.5
283.513	247.5
283.745	256.5
283.976	255.5
284.207	247.5
284.439	249.5
284.67	269.5
284.901	248.5
285.132	249.5
285.364	251.5
285.595	245.5
285.826	261.5
286.057	239.5
286.288	241.5
286.52	240.5
286.751	238.5
286.982	251.5
287.213	246.5
287.444	265.5
287.675	265.5
287.906	249.5
288.138	260.5
288.369	267.5
288.6	263.5
288.831	273.5
289.062	279.5
289.293	262.5
289.524	261.5
289.755	269.5
289.986	277.5
290.217	265.5
290.448	265.5
290.679	267.5
290.91	267.5
291.141	272.5
291.371	252.5
291.602	274.5
291.833	267.5
292.064	257.5
292.295	248.5
292.526	249.5
292.757	268.5
292.987	253.5
293.218	269.5
293.449	268.5
293.68	262.5
293.91	273.5
294.141	276.5
294.372	248.5
294.603	271.5
294.833	273.5
295.064	284.5
295.295	253.5
295.525	272.5
295.756	287.5
295.987	262.5
296.217	292.5
296.448	290.5
296.679	290.5
296.909	267.5
297.14	265.5
297.37	283.5
297.601	279.5
297.831	279.5
298.062	273.5
298.292	279.5
298.523	286.5
298.753	285.5
298.984	285.5
299.214	281.5
299.445	282.5
299.675	288.5
299.905	285.5
300.136	296.5
300.366	285.5
300.597	292.5
300.827	302.5
301.057	296.5
301.288	302.5
301.518	299.5
301.748	303.5
301.979	291.5
302.209	309.5
302.439	306.5
302.669	293.5
302.9	292.5
303.13	306.5
303.36	304.5
303.59	309.5
303.82	308.5
304.051	298.5
304.281	301.5
304.511	305.5
304.741	293.5
304.971	291.5
305.201	289.5
305.431	274.5
305.661	312.5
305.891	303.5
306.121	276.5
306.352	305.5
306.582	289.5
306.812	301.5
307.042	300.5
307.272	289.5
307.502	298.5
307.731	303.5
307.961	296.5
308.191	288.5
308.421	299.5
308.651	289.5
308.881	292.5
309.111	295.5
309.341	290.5
309.571	320.5
309.8	325.5
310.03	309.5
310.26	311.5
310.49	317.5
310.72	319.5
310.949	321.5
311.179	344.5
311.409	317.5
311.639	326.5
311.868	334.5
312.098	321.5
312.328	330.5
312.557	339.5
312.787	342.5
313.017	347.5
313.246	326.5
313.476	347.5
313.706	327.5
313.935	332.5
314.165	334.5
314.394	327.5
314.624	330.5
314.853	325.5
315.083	333.5
315.312	336.5
315.542	337.5
315.771	293.5
316.001	352.5
316.23	350.5
316.46	333.5
316.689	320.5
316.919	330.5
317.148	328.5
317.377	338.5
317.607	320.5
317.836	327.5
318.065	347.5
318.295	345.5
318.524	340.5
318.753	349.5
318.983	329.5
319.212	320.5
319.441	333.5
319.67	321.5
319.9	335.5
320.129	329.5
320.358	335.5
320.587	304.5
320.816	316.5
321.046	335.5
321.275	337.5
321.504	351.5
321.733	353.5
321.962	338.5
322.191	354.5
322.42	379.5
322.649	359.5
322.878	367.5
323.108	379.5
323.337	390.5
323.566	386.5
323.795	372.5
324.024	403.5
324.253	489.5
324.482	632.5
324.71	862.5
324.939	1135.5
325.168	967.5
325.397	580.5
325.626	456.5
325.855	383.5
326.084	373.5
326.313	370.5
326.542	392.5
326.77	410.5
326.999	452.5
327.228	591.5
327.457	791.5
327.686	881.5
327.914	628.5
328.143	482.5
328.372	452.5
328.6	433.5
328.829	428.5
329.058	429.5
329.287	433.5
329.515	407.5
329.744	395.5
329.972	388.5
330.201	422.5
330.43	436.5
330.658	458.5
330.887	450.5
331.115	464.5
331.344	418.5
331.572	413.5
331.801	401.5
332.03	418.5
332.258	388.5
332.486	395.5
332.715	408.5
332.943	403.5
333.172	402.5
333.4	414.5
333.629	415.5
333.857	436.5
334.085	447.5
334.314	461.5
334.542	460.5
334.771	460.5
334.999	436.5
335.227	409.5
335.455	401.5
335.684	436.5
335.912	404.5
336.14	394.5
336.369	401.5
336.597	399.5
336.825	395.5
337.053	385.5
337.281	400.5
337.51	383.5
337.738	382.5
337.966	395.5
338.194	385.5
338.422	395.5
338.65	391.5
338.878	389.5
339.106	360.5
339.334	374.5
339.562	350.5
339.79	364.5
340.018	378.5
340.246	367.5
340.474	374.5
340.702	366.5
340.93	372.5
341.158	372.5
341.386	366.5
341.614	368.5
341.842	354.5
342.07	365.5
342.298	361.5
342.526	353.5
342.754	365.5
342.981	365.5
343.209	355.5
343.437	390.5
343.665	408.5
343.893	382.5
344.12	392.5
344.348	384.5
344.576	376.5
344.804	392.5
345.031	382.5
345.259	390.5
345.487	364.5
345.714	354.5
345.942	336.5
346.17	369.5
346.397	353.5
346.625	354.5
346.853	344.5
347.08	359.5
347.308	321.5
347.535	343.5
347.763	360.5
347.99	362.5
348.218	352.5
348.445	367.5
348.673	362.5
348.9	366.5
349.128	354.5
349.355	335.5
349.583	332.5
349.81	350.5
350.037	361.5
350.265	352.5
350.492	344.5
350.72	335.5
350.947	318.5
351.174	336.5
351.402	364.5
351.629	350.5
351.856	357.5
352.083	327.5
352.311	330.5
352.538	374.5
352.765	370.5
352.992	333.5
353.22	325.5
353.447	315.5
353.674	341.5
353.901	325.5
354.128	331.5
354.355	323.5
354.583	326.5
354.81	338.5
355.037	338.5
355.264	341.5
355.491	331.5
355.718	335.5
355.945	324.5
356.172	305.5
356.399	341.5
356.626	327.5
356.853	332.5
357.08	329.5
357.307	328.5
357.534	321.5
357.761	311.5
357.988	331.5
358.215	325.5
358.441	318.5
358.668	336.5
358.895	337.5
359.122	320.5
359.349	353.5
359.576	361.5
359.802	357.5
360.029	355.5
360.256	370.5
360.483	377.5
360.709	340.5
360.936	328.5
361.163	344.5
361.39	338.5
361.616	350.5
361.843	342.5
362.07	322.5
362.296	330.5
362.523	336.5
362.749	333.5
362.976	338.5
363.203	356.5
363.429	337.5
363.656	337.5
363.882	344.5
364.109	337.5
364.335	339.5
364.562	324.5
364.788	320.5
365.015	328.5
365.241	344.5
365.468	338.5
365.694	343.5
365.92	334.5
366.147	328.5
366.373	332.5
366.599	352.5
366.826	325.5
367.052	328.5
367.278	316.5
367.505	334.5
367.731	328.5
367.957	341.5
368.184	333.5
368.41	347.5
368.636	344.5
368.862	356.5
369.089	331.5
369.315	341.5
369.541	348.5
369.767	338.5
369.993	333.5
370.219	331.5
370.445	337.5
370.672	344.5
370.898	334.5
371.124	350.5
371.35	364.5
371.576	346.5
371.802	338.5
372.028	329.5
372.254	337.5
372.48	338.5
372.706	342.5
372.932	356.5
373.158	361.5
373.384	357.5
373.61	346.5
373.835	347.5
374.061	324.5
374.287	348.5
374.513	340.5
374.739	347.5
374.965	352.5
375.191	339.5
375.416	349.5
375.642	355.5
375.868	345.5
376.094	367.5
376.319	338.5
376.545	338.5
376.771	354.5
376.997	346.5
377.222	345.5
377.448	358.5
377.674	346.5
377.899	336.5
378.125	352.5
378.35	336.5
378.576	352.5
378.802	324.5
379.027	326.5
379.253	341.5
379.478	360.5
379.704	341.5
379.929	333.5
380.155	368.5
380.38	344.5
380.606	333.5
380.831	337.5
381.057	344.5
381.282	354.5
381.507	343.5
381.733	356.5
381.958	337.5
382.184	349.5
382.409	353.5
382.634	348.5
382.86	353.5
383.085	368.5
383.31	360.5
383.535	346.5
383.761	348.5
383.986	356.5
384.211	368.5
384.436	354.5
384.662	368.5
384.887	358.5
385.112	380.5
385.337	359.5
385.562	368.5
385.787	385.5
386.013	388.5
386.238	384.5
386.463	376.5
386.688	378.5
386.913	378.5
387.138	373.5
387.363	378.5
387.588	388.5
387.813	373.5
388.038	366.5
388.263	390.5
388.488	392.5
388.713	375.5
388.938	380.5
389.163	389.5
389.387	356.5
389.612	374.5
389.837	379.5
390.062	380.5
390.287	369.5
390.512	361.5
390.736	359.5
390.961	378.5
391.186	377.5
391.411	398.5
391.636	397.5
391.86	408.5
392.085	388.5
392.31	426.5
392.534	385.5
392.759	384.5
392.984	391.5
393.208	383.5
393.433	412.5
393.658	382.5
393.882	360.5
394.107	398.5
394.331	379.5
394.556	383.5
394.78	382.5
395.005	401.5
395.229	368.5
395.454	404.5
395.678	387.5
395.903	403.5
396.127	427.5
396.352	410.5
396.576	405.5
396.801	408.5
397.025	377.5
397.249	400.5
397.474	420.5
397.698	413.5
397.922	430.5
398.147	413.5
398.371	441.5
398.595	422.5
398.82	413.5
399.044	459.5
399.268	509.5
399.492	545.5
399.717	585.5
399.941	576.5
400.165	577.5
400.389	543.5
400.613	500.5
400.837	463.5
401.062	475.5
401.286	454.5
401.51	462.5
401.734	456.5
401.958	434.5
402.182	435.5
402.406	462.5
402.63	459.5
402.854	456.5
403.078	457.5
403.302	459.5
403.526	449.5
403.75	474.5
403.974	496.5
404.198	471.5
404.422	469.5
404.645	474.5
404.869	496.5
405.093	502.5
405.317	504.5
405.541	525.5
405.765	508.5
405.988	486.5
406.212	500.5
406.436	516.5
406.66	503.5
406.883	479.5
407.107	501.5
407.331	535.5
407.555	581.5
407.778	595.5
408.002	537.5
408.226	519.5
408.449	498.5
408.673	508.5
408.896	489.5
409.12	508.5
409.344	495.5
409.567	461.5
409.791	460.5
410.014	464.5
410.238	461.5
410.461	479.5
410.685	457.5
410.908	483.5
411.132	477.5
411.355	496.5
411.578	472.5
411.802	468.5
412.025	457.5
412.249	474.5
412.472	476.5
412.695	496.5
412.919	493.5
413.142	471.5
413.365	457.5
413.589	450.5
413.812	448.5
414.035	443.5
414.258	438.5
414.482	439.5
414.705	450.5
414.928	426.5
415.151	429.5
415.374	456.5
415.597	438.5
415.821	426.5
416.044	432.5
416.267	437.5
416.49	430.5
416.713	428.5
416.936	444.5
417.159	429.5
417.382	424.5
417.605	457.5
417.828	431.5
418.051	471.5
418.274	422.5
418.497	439.5
418.72	450.5
418.943	421.5
419.166	473.5
419.389	489.5
419.611	467.5
419.834	450.5
420.057	451.5
420.28	476.5
420.503	465.5
420.726	449.5
420.948	437.5
421.171	481.5
421.394	470.5
421.617	447.5
421.839	443.5
422.062	467.5
422.285	462.5
422.507	475.5
422.73	538.5
422.953	482.5
423.175	488.5
423.398	468.5
423.621	485.5
423.843	486.5
424.066	458.5
424.288	481.5
424.511	486.5
424.733	520.5
424.956	544.5
425.178	535.5
425.401	522.5
425.623	541.5
425.846	478.5
426.068	457.5
426.291	464.5
426.513	448.5
426.735	466.5
426.958	478.5
427.18	515.5
427.402	604.5
427.625	615.5
427.847	562.5
428.069	508.5
428.292	468.5
428.514	441.5
428.736	427.5
428.958	428.5
429.181	406.5
429.403	400.5
429.625	432.5
429.847	442.5
430.069	502.5
430.292	465.5
430.514	440.5
430.736	429.5
430.958	426.5
431.18	387.5
431.402	432.5
431.624	387.5
431.846	401.5
432.068	408.5
432.29	406.5
432.512	398.5
432.734	419.5
432.956	400.5
433.178	428.5
433.4	408.5
433.622	406.5
433.844	422.5
434.066	441.5
434.287	424.5
434.509	423.5
434.731	429.5
434.953	439.5
435.175	443.5
435.397	472.5
435.618	450.5
435.84	461.5
436.062	501.5
436.284	568.5
436.505	491.5
436.727	446.5
436.949	421.5
437.17	431.5
437.392	424.5
437.614	432.5
437.835	449.5
438.057	487.5
438.278	540.5
438.5	522.5
438.721	578.5
438.943	572.5
439.165	483.5
439.386	445.5
439.608	450.5
439.829	437.5
440.05	430.5
440.272	488.5
440.493	457.5
440.715	457.5
440.936	445.5
441.158	441.5
441.379	423.5
441.6	462.5
441.822	475.5
442.043	509.5
442.264	550.5
442.486	557.5
442.707	480.5
442.928	457.5
443.149	475.5
443.371	465.5
443.592	529.5
443.813	570.5
444.034	590.5
444.255	517.5
444.476	492.5
444.698	502.5
444.919	488.5
445.14	587.5
445.361	537.5
445.582	518.5
445.803	521.5
446.024	574.5
446.245	565.5
446.466	523.5
446.687	462.5
446.908	438.5
447.129	422.5
447.35	431.5
447.571	406.5
447.792	425.5
448.013	416.5
448.234	403.5
448.455	450.5
448.675	529.5
448.896	571.5
449.117	507.5
449.338	494.5
449.559	536.5
449.779	591.5
450	491.5
450.221	427.5
450.442	420.5
450.662	401.5
450.883	414.5
451.104	415.5
451.324	407.5
451.545	372.5
451.766	385.5
451.986	372.5
452.207	380.5
452.428	392.5
452.648	375.5
452.869	386.5
453.089	387.5
453.31	387.5
453.53	387.5
453.751	370.5
453.971	379.5
454.192	374.5
454.412	392.5
454.633	369.5
454.853	353.5
455.073	369.5
455.294	381.5
455.514	424.5
455.734	412.5
455.955	382.5
456.175	358.5
456.395	350.5
456.616	348.5
456.836	373.5
457.056	348.5
457.276	367.5
457.497	366.5
457.717	379.5
457.937	363.5
458.157	349.5
458.377	386.5
458.598	388.5
458.818	424.5
459.038	448.5
459.258	489.5
459.478	424.5
459.698	398.5
459.918	422.5
460.138	414.5
460.358	430.5
460.578	441.5
460.798	431.5
461.018	428.5
461.238	436.5
461.458	440.5
461.678	442.5
461.898	449.5
462.118	454.5
462.338	444.5
462.558	456.5
462.777	473.5
462.997	512.5
463.217	516.5
463.437	520.5
463.657	490.5
463.876	482.5
464.096	468.5
464.316	486.5
464.536	472.5
464.755	479.5
464.975	454.5
465.195	488.5
465.414	497.5
465.634	473.5
465.854	428.5
466.073	420.5
466.293	398.5
466.512	398.5
466.732	405.5
466.951	400.5
467.171	393.5
467.391	404.5
467.61	413.5
467.829	401.5
468.049	410.5
468.268	416.5
468.488	414.5
468.707	375.5
468.927	392.5
469.146	385.5
469.365	400.5
469.585	394.5
469.804	396.5
470.023	414.5
470.243	410.5
470.462	416.5
470.681	417.5
470.901	402.5
471.12	399.5
471.339	394.5
471.558	399.5
471.777	404.5
471.997	390.5
472.216	403.5
472.435	442.5
472.654	386.5
472.873	391.5
473.092	388.5
473.311	388.5
473.53	378.5
473.749	406.5
473.968	424.5
474.187	493.5
474.406	483.5
474.625	424.5
474.844	388.5
475.063	400.5
475.282	378.5
475.501	405.5
475.72	408.5
475.939	392.5
476.158	421.5
476.377	410.5
476.596	403.5
476.814	411.5
477.033	416.5
477.252	401.5
477.471	416.5
477.69	395.5
477.908	422.5
478.127	427.5
478.346	430.5
478.564	464.5
478.783	446.5
479.002	454.5
479.22	461.5
479.439	467.5
479.658	461.5
479.876	489.5
480.095	505.5
480.313	490.5
480.532	500.5
480.751	514.5
480.969	493.5
481.188	538.5
481.406	538.5
481.624	492.5
481.843	481.5
482.061	468.5
482.28	478.5
482.498	453.5
482.717	444.5
482.935	457.5
483.153	462.5
483.372	457.5
483.59	438.5
483.808	426.5
484.027	439.5
484.245	444.5
484.463	456.5
484.681	467.5
484.9	465.5
485.118	474.5
485.336	479.5
485.554	452.5
485.772	468.5
485.99	473.5
486.209	470.5
486.427	458.5
486.645	484.5
486.863	473.5
487.081	492.5
487.299	468.5
487.517	470.5
487.735	473.5
487.953	482.5
488.171	466.5
488.389	462.5
488.607	465.5
488.825	469.5
489.043	488.5
489.261	495.5
489.479	480.5
489.696	491.5
489.914	470.5
490.132	516.5
490.35	502.5
490.568	508.5
490.786	524.5
491.003	516.5
491.221	529.5
491.439	562.5
491.657	546.5
491.874	529.5
492.092	546.5
492.31	536.5
492.527	564.5
492.745	572.5
492.963	568.5
493.18	559.5
493.398	571.5
493.615	564.5
493.833	586.5
494.05	573.5
494.268	579.5
494.485	585.5
494.703	578.5
494.92	590.5
495.138	559.5
495.355	570.5
495.573	570.5
495.79	582.5
496.008	572.5
496.225	561.5
496.442	563.5
496.66	588.5
496.877	566.5
497.094	574.5
497.312	575.5
497.529	601.5
497.746	587.5
497.963	624.5
498.181	644.5
498.398	653.5
498.615	652.5
498.832	662.5
499.049	688.5
499.267	736.5
499.484	761.5
499.701	827.5
499.918	888.5
500.135	920.5
500.352	998.5
500.569	1017.5
500.786	1018.5
501.003	964.5
501.22	922.5
501.437	886.5
501.654	823.5
501.871	768.5
502.088	740.5
502.305	710.5
502.522	667.5
502.739	654.5
502.956	640.5
503.172	625.5
503.389	592.5
503.606	608.5
503.823	590.5
504.04	601.5
504.256	581.5
504.473	592.5
504.69	587.5
504.907	621.5
505.123	547.5
505.34	564.5
505.557	528.5
505.773	522.5
505.99	543.5
506.207	514.5
506.423	554.5
506.64	533.5
506.856	518.5
507.073	533.5
507.289	497.5
507.506	484.5
507.722	510.5
507.939	504.5
508.155	500.5
508.372	477.5
508.588	467.5
508.805	492.5
509.021	500.5
509.238	522.5
509.454	505.5
509.67	463.5
509.887	498.5
510.103	469.5
510.319	486.5
510.536	554.5
510.752	787.5
510.968	636.5
511.184	494.5
511.401	459.5
511.617	463.5
511.833	474.5
512.049	464.5
512.265	452.5
512.481	471.5
512.698	460.5
512.914	470.5
513.13	445.5
513.346	471.5
513.562	446.5
513.778	488.5
513.994	455.5
514.21	472.5
514.426	468.5
514.642	490.5
514.858	510.5
515.074	532.5
515.29	588.5
515.506	827.5
515.721	711.5
515.937	542.5
516.153	520.5
516.369	503.5
516.585	502.5
516.801	526.5
517.016	504.5
517.232	489.5
517.448	531.5
517.664	543.5
517.879	530.5
518.095	519.5
518.311	526.5
518.527	513.5
518.742	486.5
518.958	467.5
519.173	482.5
519.389	470.5
519.605	479.5
519.82	450.5
520.036	484.5
