Data from 1969.PennyLincolnUp.Lamp.En5.5.200Scan.071719.P1._HRD10591_14-54-29-972.txt Node
Date: Thu Jul 18 14:54:29 EDT 2019
User: cochatt
Spectrometer: HR+D1059
Trigger mode: 1
Integration Time (sec): 1.000000E-1
Scans to average: 1
Electric dark correction enabled: true
Nonlinearity correction enabled: false
Boxcar width: 0
XAxis mode: Wavelengths
Number of Pixels in Spectrum: 2048
>>>>>Begin Spectral Data<<<<<
223.165	-11.75
223.4	-11.75
223.635	-11.75
223.869	-13.75
224.104	-20.75
224.338	-18.75
224.573	-19.75
224.808	-3.75
225.042	-18.75
225.277	-9.75
225.511	-11.75
225.746	14.25
225.98	-1.75
226.215	17.25
226.449	36.25
226.683	10.25
226.918	18.25
227.152	34.25
227.387	41.25
227.621	29.25
227.856	34.25
228.09	53.25
228.324	34.25
228.559	50.25
228.793	77.25
229.027	70.25
229.262	86.25
229.496	86.25
229.73	103.25
229.964	126.25
230.199	97.25
230.433	98.25
230.667	88.25
230.901	98.25
231.136	110.25
231.37	93.25
231.604	102.25
231.838	107.25
232.072	97.25
232.306	92.25
232.541	106.25
232.775	109.25
233.009	95.25
233.243	110.25
233.477	95.25
233.711	105.25
233.945	98.25
234.179	113.25
234.413	99.25
234.647	107.25
234.881	105.25
235.115	109.25
235.349	109.25
235.583	112.25
235.817	115.25
236.051	116.25
236.285	108.25
236.519	119.25
236.753	122.25
236.987	106.25
237.221	139.25
237.455	150.25
237.689	126.25
237.922	120.25
238.156	111.25
238.39	114.25
238.624	120.25
238.858	110.25
239.091	115.25
239.325	110.25
239.559	116.25
239.793	110.25
240.027	110.25
240.26	123.25
240.494	132.25
240.728	136.25
240.961	118.25
241.195	130.25
241.429	118.25
241.662	118.25
241.896	118.25
242.13	123.25
242.363	114.25
242.597	125.25
242.83	121.25
243.064	116.25
243.298	101.25
243.531	119.25
243.765	123.25
243.998	111.25
244.232	105.25
244.465	117.25
244.699	121.25
244.932	129.25
245.166	120.25
245.399	140.25
245.633	125.25
245.866	113.25
246.099	121.25
246.333	106.25
246.566	126.25
246.8	124.25
247.033	140.25
247.266	136.25
247.5	136.25
247.733	128.25
247.966	138.25
248.2	134.25
248.433	143.25
248.666	151.25
248.899	164.25
249.133	150.25
249.366	174.25
249.599	163.25
249.832	162.25
250.066	160.25
250.299	148.25
250.532	176.25
250.765	161.25
250.998	158.25
251.231	172.25
251.465	183.25
251.698	146.25
251.931	161.25
252.164	152.25
252.397	150.25
252.63	162.25
252.863	179.25
253.096	178.25
253.329	189.25
253.562	172.25
253.795	197.25
254.028	171.25
254.261	169.25
254.494	180.25
254.727	195.25
254.96	206.25
255.193	208.25
255.426	198.25
255.659	188.25
255.892	199.25
256.124	186.25
256.357	186.25
256.59	187.25
256.823	185.25
257.056	170.25
257.289	183.25
257.521	166.25
257.754	187.25
257.987	183.25
258.22	184.25
258.452	174.25
258.685	186.25
258.918	171.25
259.151	186.25
259.383	170.25
259.616	167.25
259.849	182.25
260.081	194.25
260.314	193.25
260.547	194.25
260.779	184.25
261.012	199.25
261.244	181.25
261.477	188.25
261.71	172.25
261.942	183.25
262.175	183.25
262.407	162.25
262.64	174.25
262.872	172.25
263.105	179.25
263.337	180.25
263.57	176.25
263.802	181.25
264.035	182.25
264.267	183.25
264.499	174.25
264.732	178.25
264.964	174.25
265.197	176.25
265.429	193.25
265.661	172.25
265.894	196.25
266.126	187.25
266.358	173.25
266.591	188.25
266.823	178.25
267.055	189.25
267.287	195.25
267.52	199.25
267.752	188.25
267.984	174.25
268.216	205.25
268.448	211.25
268.681	223.25
268.913	212.25
269.145	220.25
269.377	217.25
269.609	220.25
269.841	223.25
270.073	208.25
270.306	221.25
270.538	233.25
270.77	240.25
271.002	239.25
271.234	234.25
271.466	237.25
271.698	231.25
271.93	236.25
272.162	256.25
272.394	245.25
272.626	232.25
272.858	234.25
273.09	218.25
273.322	222.25
273.553	211.25
273.785	214.25
274.017	217.25
274.249	224.25
274.481	227.25
274.713	204.25
274.945	230.25
275.176	228.25
275.408	214.25
275.64	217.25
275.872	231.25
276.104	229.25
276.335	215.25
276.567	228.25
276.799	223.25
277.031	234.25
277.262	270.25
277.494	242.25
277.726	233.25
277.957	239.25
278.189	238.25
278.421	210.25
278.652	230.25
278.884	221.25
279.115	249.25
279.347	234.25
279.579	227.25
279.81	237.25
280.042	215.25
280.273	219.25
280.505	239.25
280.736	236.25
280.968	207.25
281.199	246.25
281.431	217.25
281.662	223.25
281.894	237.25
282.125	232.25
282.356	224.25
282.588	261.25
282.819	281.25
283.051	234.25
283.282	244.25
283.513	238.25
283.745	238.25
283.976	235.25
284.207	260.25
284.439	253.25
284.67	246.25
284.901	229.25
285.132	223.25
285.364	239.25
285.595	239.25
285.826	219.25
286.057	260.25
286.288	238.25
286.52	244.25
286.751	234.25
286.982	242.25
287.213	254.25
287.444	254.25
287.675	240.25
287.906	261.25
288.138	272.25
288.369	276.25
288.6	275.25
288.831	246.25
289.062	262.25
289.293	263.25
289.524	234.25
289.755	254.25
289.986	256.25
290.217	243.25
290.448	247.25
290.679	250.25
290.91	254.25
291.141	250.25
291.371	246.25
291.602	254.25
291.833	236.25
292.064	246.25
292.295	252.25
292.526	237.25
292.757	245.25
292.987	244.25
293.218	246.25
293.449	260.25
293.68	267.25
293.91	263.25
294.141	244.25
294.372	254.25
294.603	243.25
294.833	250.25
295.064	260.25
295.295	250.25
295.525	249.25
295.756	262.25
295.987	248.25
296.217	287.25
296.448	278.25
296.679	272.25
296.909	250.25
297.14	280.25
297.37	262.25
297.601	257.25
297.831	274.25
298.062	279.25
298.292	264.25
298.523	273.25
298.753	254.25
298.984	264.25
299.214	270.25
299.445	287.25
299.675	281.25
299.905	288.25
300.136	284.25
300.366	262.25
300.597	292.25
300.827	271.25
301.057	291.25
301.288	304.25
301.518	293.25
301.748	289.25
301.979	283.25
302.209	286.25
302.439	295.25
302.669	294.25
302.9	278.25
303.13	284.25
303.36	288.25
303.59	276.25
303.82	299.25
304.051	291.25
304.281	291.25
304.511	299.25
304.741	291.25
304.971	267.25
305.201	271.25
305.431	287.25
305.661	286.25
305.891	299.25
306.121	269.25
306.352	292.25
306.582	296.25
306.812	298.25
307.042	284.25
307.272	298.25
307.502	281.25
307.731	288.25
307.961	295.25
308.191	290.25
308.421	290.25
308.651	281.25
308.881	295.25
309.111	285.25
309.341	297.25
309.571	292.25
309.8	312.25
310.03	302.25
310.26	291.25
310.49	306.25
310.72	311.25
310.949	323.25
311.179	308.25
311.409	308.25
311.639	314.25
311.868	296.25
312.098	312.25
312.328	316.25
312.557	311.25
312.787	306.25
313.017	306.25
313.246	311.25
313.476	317.25
313.706	332.25
313.935	320.25
314.165	323.25
314.394	324.25
314.624	351.25
314.853	314.25
315.083	319.25
315.312	315.25
315.542	294.25
315.771	311.25
316.001	303.25
316.23	315.25
316.46	307.25
316.689	316.25
316.919	326.25
317.148	314.25
317.377	320.25
317.607	314.25
317.836	329.25
318.065	314.25
318.295	311.25
318.524	298.25
318.753	312.25
318.983	320.25
319.212	307.25
319.441	310.25
319.67	331.25
319.9	307.25
320.129	315.25
320.358	304.25
320.587	313.25
320.816	315.25
321.046	315.25
321.275	310.25
321.504	313.25
321.733	344.25
321.962	325.25
322.191	316.25
322.42	332.25
322.649	333.25
322.878	360.25
323.108	332.25
323.337	333.25
323.566	348.25
323.795	359.25
324.024	385.25
324.253	450.25
324.482	579.25
324.71	855.25
324.939	1104.25
325.168	902.25
325.397	544.25
325.626	412.25
325.855	366.25
326.084	359.25
326.313	361.25
326.542	365.25
326.77	382.25
326.999	438.25
327.228	523.25
327.457	723.25
327.686	817.25
327.914	562.25
328.143	435.25
328.372	398.25
328.6	378.25
328.829	394.25
329.058	399.25
329.287	396.25
329.515	392.25
329.744	378.25
329.972	380.25
330.201	393.25
330.43	418.25
330.658	412.25
330.887	435.25
331.115	401.25
331.344	383.25
331.572	374.25
331.801	371.25
332.03	394.25
332.258	375.25
332.486	382.25
332.715	368.25
332.943	400.25
333.172	399.25
333.4	401.25
333.629	403.25
333.857	390.25
334.085	386.25
334.314	423.25
334.542	441.25
334.771	442.25
334.999	412.25
335.227	387.25
335.455	396.25
335.684	394.25
335.912	375.25
336.14	376.25
336.369	379.25
336.597	368.25
336.825	372.25
337.053	360.25
337.281	378.25
337.51	354.25
337.738	348.25
337.966	371.25
338.194	346.25
338.422	372.25
338.65	338.25
338.878	367.25
339.106	367.25
339.334	359.25
339.562	360.25
339.79	341.25
340.018	351.25
340.246	348.25
340.474	345.25
340.702	360.25
340.93	340.25
341.158	343.25
341.386	358.25
341.614	339.25
341.842	349.25
342.07	335.25
342.298	322.25
342.526	339.25
342.754	350.25
342.981	347.25
343.209	338.25
343.437	371.25
343.665	362.25
343.893	370.25
344.12	378.25
344.348	351.25
344.576	360.25
344.804	359.25
345.031	354.25
345.259	356.25
345.487	351.25
345.714	342.25
345.942	339.25
346.17	328.25
346.397	343.25
346.625	346.25
346.853	338.25
347.08	346.25
347.308	332.25
347.535	325.25
347.763	333.25
347.99	340.25
348.218	320.25
348.445	341.25
348.673	320.25
348.9	336.25
349.128	325.25
349.355	340.25
349.583	328.25
349.81	347.25
350.037	330.25
350.265	333.25
350.492	320.25
350.72	320.25
350.947	340.25
351.174	318.25
351.402	338.25
351.629	313.25
351.856	332.25
352.083	328.25
352.311	343.25
352.538	329.25
352.765	333.25
352.992	326.25
353.22	335.25
353.447	318.25
353.674	325.25
353.901	326.25
354.128	315.25
354.355	310.25
354.583	319.25
354.81	314.25
355.037	300.25
355.264	323.25
355.491	312.25
355.718	310.25
355.945	312.25
356.172	319.25
356.399	321.25
356.626	328.25
356.853	328.25
357.08	298.25
357.307	327.25
357.534	296.25
357.761	314.25
357.988	308.25
358.215	330.25
358.441	318.25
358.668	320.25
358.895	323.25
359.122	325.25
359.349	326.25
359.576	333.25
359.802	352.25
360.029	342.25
360.256	359.25
360.483	327.25
360.709	332.25
360.936	341.25
361.163	339.25
361.39	316.25
361.616	328.25
361.843	325.25
362.07	307.25
362.296	323.25
362.523	326.25
362.749	330.25
362.976	317.25
363.203	315.25
363.429	328.25
363.656	330.25
363.882	298.25
364.109	302.25
364.335	296.25
364.562	306.25
364.788	308.25
365.015	320.25
365.241	336.25
365.468	335.25
365.694	303.25
365.92	308.25
366.147	312.25
366.373	317.25
366.599	318.25
366.826	330.25
367.052	313.25
367.278	312.25
367.505	313.25
367.731	313.25
367.957	311.25
368.184	318.25
368.41	340.25
368.636	332.25
368.862	327.25
369.089	299.25
369.315	327.25
369.541	322.25
369.767	312.25
369.993	333.25
370.219	328.25
370.445	325.25
370.672	346.25
370.898	330.25
371.124	343.25
371.35	349.25
371.576	331.25
371.802	317.25
372.028	327.25
372.254	345.25
372.48	335.25
372.706	337.25
372.932	312.25
373.158	329.25
373.384	342.25
373.61	325.25
373.835	335.25
374.061	339.25
374.287	341.25
374.513	358.25
374.739	353.25
374.965	355.25
375.191	367.25
375.416	358.25
375.642	344.25
375.868	351.25
376.094	323.25
376.319	311.25
376.545	331.25
376.771	341.25
376.997	340.25
377.222	345.25
377.448	334.25
377.674	317.25
377.899	335.25
378.125	312.25
378.35	291.25
378.576	312.25
378.802	326.25
379.027	313.25
379.253	326.25
379.478	327.25
379.704	316.25
379.929	327.25
380.155	329.25
380.38	325.25
380.606	341.25
380.831	329.25
381.057	301.25
381.282	322.25
381.507	316.25
381.733	341.25
381.958	316.25
382.184	324.25
382.409	328.25
382.634	326.25
382.86	319.25
383.085	326.25
383.31	356.25
383.535	347.25
383.761	342.25
383.986	346.25
384.211	343.25
384.436	364.25
384.662	348.25
384.887	364.25
385.112	354.25
385.337	350.25
385.562	365.25
385.787	357.25
386.013	373.25
386.238	371.25
386.463	365.25
386.688	370.25
386.913	366.25
387.138	368.25
387.363	356.25
387.588	355.25
387.813	374.25
388.038	349.25
388.263	366.25
388.488	359.25
388.713	366.25
388.938	341.25
389.163	363.25
389.387	378.25
389.612	358.25
389.837	362.25
390.062	346.25
390.287	342.25
390.512	368.25
390.736	377.25
390.961	388.25
391.186	388.25
391.411	368.25
391.636	380.25
391.86	401.25
392.085	389.25
392.31	390.25
392.534	372.25
392.759	378.25
392.984	390.25
393.208	369.25
393.433	382.25
393.658	370.25
393.882	375.25
394.107	368.25
394.331	371.25
394.556	370.25
394.78	372.25
395.005	365.25
395.229	374.25
395.454	382.25
395.678	384.25
395.903	384.25
396.127	380.25
396.352	391.25
396.576	374.25
396.801	374.25
397.025	371.25
397.249	387.25
397.474	389.25
397.698	380.25
397.922	418.25
398.147	420.25
398.371	418.25
398.595	420.25
398.82	412.25
399.044	428.25
399.268	475.25
399.492	500.25
399.717	539.25
399.941	542.25
400.165	531.25
400.389	518.25
400.613	468.25
400.837	455.25
401.062	420.25
401.286	434.25
401.51	412.25
401.734	422.25
401.958	414.25
402.182	416.25
402.406	441.25
402.63	419.25
402.854	443.25
403.078	423.25
403.302	441.25
403.526	454.25
403.75	467.25
403.974	468.25
404.198	463.25
404.422	466.25
404.645	430.25
404.869	474.25
405.093	449.25
405.317	482.25
405.541	497.25
405.765	483.25
405.988	468.25
406.212	473.25
406.436	480.25
406.66	498.25
406.883	480.25
407.107	500.25
407.331	525.25
407.555	554.25
407.778	541.25
408.002	518.25
408.226	504.25
408.449	491.25
408.673	461.25
408.896	487.25
409.12	516.25
409.344	484.25
409.567	465.25
409.791	444.25
410.014	411.25
410.238	455.25
410.461	444.25
410.685	444.25
410.908	465.25
411.132	462.25
411.355	478.25
411.578	439.25
411.802	434.25
412.025	447.25
412.249	458.25
412.472	446.25
412.695	483.25
412.919	480.25
413.142	426.25
413.365	411.25
413.589	432.25
413.812	433.25
414.035	415.25
414.258	415.25
414.482	426.25
414.705	419.25
414.928	416.25
415.151	427.25
415.374	410.25
415.597	423.25
415.821	412.25
416.044	416.25
416.267	426.25
416.49	420.25
416.713	409.25
416.936	428.25
417.159	389.25
417.382	431.25
417.605	406.25
417.828	410.25
418.051	413.25
418.274	458.25
418.497	406.25
418.72	430.25
418.943	419.25
419.166	423.25
419.389	475.25
419.611	436.25
419.834	435.25
420.057	465.25
420.28	444.25
420.503	451.25
420.726	432.25
420.948	452.25
421.171	452.25
421.394	486.25
421.617	451.25
421.839	428.25
422.062	413.25
422.285	429.25
422.507	471.25
422.73	474.25
422.953	470.25
423.175	446.25
423.398	422.25
423.621	458.25
423.843	462.25
424.066	449.25
424.288	441.25
424.511	470.25
424.733	494.25
424.956	530.25
425.178	527.25
425.401	494.25
425.623	517.25
425.846	464.25
426.068	442.25
426.291	425.25
426.513	423.25
426.735	437.25
426.958	431.25
427.18	500.25
427.402	562.25
427.625	591.25
427.847	535.25
428.069	474.25
428.292	422.25
428.514	394.25
428.736	405.25
428.958	393.25
429.181	391.25
429.403	391.25
429.625	399.25
429.847	419.25
430.069	449.25
430.292	453.25
430.514	407.25
430.736	395.25
430.958	400.25
431.18	397.25
431.402	383.25
431.624	387.25
431.846	396.25
432.068	374.25
432.29	400.25
432.512	401.25
432.734	408.25
432.956	394.25
433.178	404.25
433.4	403.25
433.622	386.25
433.844	405.25
434.066	388.25
434.287	379.25
434.509	394.25
434.731	411.25
434.953	411.25
435.175	445.25
435.397	434.25
435.618	416.25
435.84	451.25
436.062	480.25
436.284	502.25
436.505	441.25
436.727	436.25
436.949	415.25
437.17	399.25
437.392	394.25
437.614	395.25
437.835	418.25
438.057	467.25
438.278	505.25
438.5	518.25
438.721	570.25
438.943	536.25
439.165	458.25
439.386	434.25
439.608	423.25
439.829	401.25
440.05	445.25
440.272	447.25
440.493	440.25
440.715	445.25
440.936	420.25
441.158	417.25
441.379	434.25
441.6	434.25
441.822	434.25
442.043	459.25
442.264	496.25
442.486	500.25
442.707	477.25
442.928	445.25
443.149	457.25
443.371	456.25
443.592	478.25
443.813	520.25
444.034	564.25
444.255	503.25
444.476	447.25
444.698	461.25
444.919	470.25
445.14	550.25
445.361	506.25
445.582	466.25
445.803	488.25
446.024	534.25
446.245	548.25
446.466	489.25
446.687	445.25
446.908	428.25
447.129	422.25
447.35	380.25
447.571	411.25
447.792	390.25
448.013	381.25
448.234	408.25
448.455	452.25
448.675	492.25
448.896	532.25
449.117	467.25
449.338	476.25
449.559	523.25
449.779	553.25
450	482.25
450.221	406.25
450.442	395.25
450.662	378.25
450.883	394.25
451.104	388.25
451.324	384.25
451.545	382.25
451.766	375.25
451.986	359.25
452.207	370.25
452.428	352.25
452.648	370.25
452.869	357.25
453.089	366.25
453.31	381.25
453.53	376.25
453.751	367.25
453.971	352.25
454.192	364.25
454.412	362.25
454.633	360.25
454.853	331.25
455.073	374.25
455.294	372.25
455.514	394.25
455.734	394.25
455.955	349.25
456.175	342.25
456.395	342.25
456.616	352.25
456.836	342.25
457.056	347.25
457.276	323.25
457.497	336.25
457.717	318.25
457.937	351.25
458.157	348.25
458.377	352.25
458.598	360.25
458.818	395.25
459.038	421.25
459.258	467.25
459.478	408.25
459.698	408.25
459.918	401.25
460.138	412.25
460.358	439.25
460.578	410.25
460.798	430.25
461.018	429.25
461.238	411.25
461.458	427.25
461.678	433.25
461.898	426.25
462.118	454.25
462.338	425.25
462.558	448.25
462.777	443.25
462.997	478.25
463.217	493.25
463.437	474.25
463.657	485.25
463.876	453.25
464.096	464.25
464.316	444.25
464.536	467.25
464.755	460.25
464.975	458.25
465.195	440.25
465.414	471.25
465.634	424.25
465.854	426.25
466.073	406.25
466.293	377.25
466.512	384.25
466.732	380.25
466.951	368.25
467.171	377.25
467.391	378.25
467.61	371.25
467.829	378.25
468.049	401.25
468.268	391.25
468.488	350.25
468.707	364.25
468.927	364.25
469.146	365.25
469.365	370.25
469.585	365.25
469.804	380.25
470.023	392.25
470.243	391.25
470.462	391.25
470.681	421.25
470.901	404.25
471.12	382.25
471.339	395.25
471.558	371.25
471.777	393.25
471.997	394.25
472.216	387.25
472.435	397.25
472.654	386.25
472.873	372.25
473.092	342.25
473.311	380.25
473.53	369.25
473.749	414.25
473.968	395.25
474.187	447.25
474.406	455.25
474.625	376.25
474.844	390.25
475.063	363.25
475.282	362.25
475.501	395.25
475.72	388.25
475.939	394.25
476.158	376.25
476.377	380.25
476.596	383.25
476.814	393.25
477.033	396.25
477.252	403.25
477.471	396.25
477.69	406.25
477.908	414.25
478.127	438.25
478.346	420.25
478.564	418.25
478.783	435.25
479.002	420.25
479.22	456.25
479.439	441.25
479.658	447.25
479.876	465.25
480.095	462.25
480.313	480.25
480.532	477.25
480.751	463.25
480.969	478.25
481.188	508.25
481.406	520.25
481.624	478.25
481.843	447.25
482.061	440.25
482.28	446.25
482.498	431.25
482.717	424.25
482.935	426.25
483.153	425.25
483.372	435.25
483.59	434.25
483.808	413.25
484.027	425.25
484.245	446.25
484.463	433.25
484.681	469.25
484.9	452.25
485.118	427.25
485.336	428.25
485.554	454.25
485.772	447.25
485.99	447.25
486.209	444.25
486.427	450.25
486.645	442.25
486.863	471.25
487.081	468.25
487.299	463.25
487.517	447.25
487.735	447.25
487.953	484.25
488.171	458.25
488.389	464.25
488.607	451.25
488.825	450.25
489.043	469.25
489.261	456.25
489.479	476.25
489.696	486.25
489.914	464.25
490.132	467.25
490.35	473.25
490.568	467.25
490.786	498.25
491.003	500.25
491.221	502.25
491.439	505.25
491.657	518.25
491.874	521.25
492.092	511.25
492.31	534.25
492.527	530.25
492.745	529.25
492.963	535.25
493.18	547.25
493.398	538.25
493.615	537.25
493.833	528.25
494.05	554.25
494.268	524.25
494.485	529.25
494.703	543.25
494.92	540.25
495.138	527.25
495.355	541.25
495.573	526.25
495.79	528.25
496.008	559.25
496.225	531.25
496.442	528.25
496.66	549.25
496.877	549.25
497.094	559.25
497.312	557.25
497.529	588.25
497.746	566.25
497.963	597.25
498.181	605.25
498.398	623.25
498.615	640.25
498.832	650.25
499.049	674.25
499.267	689.25
499.484	722.25
499.701	758.25
499.918	806.25
500.135	891.25
500.352	967.25
500.569	969.25
500.786	959.25
501.003	913.25
501.22	892.25
501.437	816.25
501.654	788.25
501.871	731.25
502.088	698.25
