Data from 1969.PennyLincolnUp.Lamp.En5.5.200Scan.071719.P1._HRD10591_14-56-30-973.txt Node
Date: Thu Jul 18 14:56:30 EDT 2019
User: cochatt
Spectrometer: HR+D1059
Trigger mode: 1
Integration Time (sec): 1.000000E-1
Scans to average: 1
Electric dark correction enabled: true
Nonlinearity correction enabled: false
Boxcar width: 0
XAxis mode: Wavelengths
Number of Pixels in Spectrum: 2048
>>>>>Begin Spectral Data<<<<<
223.165	-19.44
223.4	-19.44
223.635	-19.44
223.869	-20.44
224.104	-20.44
224.338	-18.44
224.573	-8.44
224.808	-1.44
225.042	4.56
225.277	5.56
225.511	-4.44
225.746	1.56
225.98	8.56
226.215	4.56
226.449	23.56
226.683	18.56
226.918	11.56
227.152	14.56
227.387	26.56
227.621	39.56
227.856	40.56
228.09	47.56
228.324	48.56
228.559	54.56
228.793	68.56
229.027	85.56
229.262	95.56
229.496	106.56
229.73	117.56
229.964	104.56
230.199	100.56
230.433	90.56
230.667	105.56
230.901	109.56
231.136	108.56
231.37	95.56
231.604	113.56
231.838	105.56
232.072	97.56
232.306	109.56
232.541	106.56
232.775	120.56
233.009	90.56
233.243	92.56
233.477	122.56
233.711	95.56
233.945	110.56
234.179	107.56
234.413	116.56
234.647	100.56
234.881	120.56
235.115	102.56
235.349	104.56
235.583	106.56
235.817	121.56
236.051	115.56
236.285	125.56
236.519	118.56
236.753	123.56
236.987	116.56
237.221	143.56
237.455	174.56
237.689	148.56
237.922	129.56
238.156	130.56
238.39	100.56
238.624	111.56
238.858	116.56
239.091	99.56
239.325	119.56
239.559	119.56
239.793	98.56
240.027	118.56
240.26	111.56
240.494	144.56
240.728	145.56
240.961	142.56
241.195	119.56
241.429	130.56
241.662	128.56
241.896	121.56
242.13	119.56
242.363	112.56
242.597	121.56
242.83	122.56
243.064	133.56
243.298	122.56
243.531	126.56
243.765	129.56
243.998	122.56
244.232	116.56
244.465	131.56
244.699	132.56
244.932	138.56
245.166	130.56
245.399	134.56
245.633	128.56
245.866	122.56
246.099	137.56
246.333	153.56
246.566	135.56
246.8	143.56
247.033	131.56
247.266	146.56
247.5	142.56
247.733	152.56
247.966	148.56
248.2	159.56
248.433	153.56
248.666	153.56
248.899	163.56
249.133	157.56
249.366	183.56
249.599	160.56
249.832	149.56
250.066	166.56
250.299	159.56
250.532	172.56
250.765	185.56
250.998	190.56
251.231	180.56
251.465	174.56
251.698	169.56
251.931	168.56
252.164	187.56
252.397	162.56
252.63	158.56
252.863	183.56
253.096	192.56
253.329	184.56
253.562	192.56
253.795	180.56
254.028	190.56
254.261	183.56
254.494	182.56
254.727	194.56
254.96	239.56
255.193	202.56
255.426	189.56
255.659	202.56
255.892	191.56
256.124	205.56
256.357	209.56
256.59	188.56
256.823	177.56
257.056	206.56
257.289	179.56
257.521	168.56
257.754	179.56
257.987	172.56
258.22	200.56
258.452	165.56
258.685	196.56
258.918	180.56
259.151	175.56
259.383	170.56
259.616	186.56
259.849	190.56
260.081	195.56
260.314	216.56
260.547	216.56
260.779	195.56
261.012	202.56
261.244	181.56
261.477	198.56
261.71	174.56
261.942	176.56
262.175	204.56
262.407	198.56
262.64	180.56
262.872	187.56
263.105	178.56
263.337	190.56
263.57	200.56
263.802	198.56
264.035	182.56
264.267	185.56
264.499	178.56
264.732	188.56
264.964	193.56
265.197	180.56
265.429	199.56
265.661	200.56
265.894	180.56
266.126	193.56
266.358	193.56
266.591	182.56
266.823	206.56
267.055	202.56
267.287	195.56
267.52	191.56
267.752	179.56
267.984	200.56
268.216	207.56
268.448	199.56
268.681	209.56
268.913	210.56
269.145	221.56
269.377	230.56
269.609	236.56
269.841	227.56
270.073	215.56
270.306	254.56
270.538	268.56
270.77	260.56
271.002	239.56
271.234	236.56
271.466	265.56
271.698	264.56
271.93	269.56
272.162	268.56
272.394	259.56
272.626	239.56
272.858	239.56
273.09	244.56
273.322	232.56
273.553	230.56
273.785	214.56
274.017	215.56
274.249	239.56
274.481	214.56
274.713	236.56
274.945	224.56
275.176	236.56
275.408	227.56
275.64	236.56
275.872	237.56
276.104	218.56
276.335	222.56
276.567	226.56
276.799	249.56
277.031	258.56
277.262	280.56
277.494	268.56
277.726	269.56
277.957	230.56
278.189	235.56
278.421	250.56
278.652	238.56
278.884	234.56
279.115	227.56
279.347	239.56
279.579	245.56
279.81	235.56
280.042	225.56
280.273	246.56
280.505	241.56
280.736	255.56
280.968	243.56
281.199	235.56
281.431	228.56
281.662	246.56
281.894	232.56
282.125	251.56
282.356	248.56
282.588	266.56
282.819	256.56
283.051	246.56
283.282	235.56
283.513	252.56
283.745	247.56
283.976	247.56
284.207	247.56
284.439	259.56
284.67	239.56
284.901	254.56
285.132	246.56
285.364	247.56
285.595	272.56
285.826	234.56
286.057	248.56
286.288	246.56
286.52	246.56
286.751	234.56
286.982	255.56
287.213	262.56
287.444	250.56
287.675	262.56
287.906	258.56
288.138	261.56
288.369	265.56
288.6	277.56
288.831	274.56
289.062	261.56
289.293	264.56
289.524	258.56
289.755	260.56
289.986	261.56
290.217	260.56
290.448	252.56
290.679	249.56
290.91	244.56
291.141	261.56
291.371	263.56
291.602	264.56
291.833	272.56
292.064	266.56
292.295	272.56
292.526	271.56
292.757	271.56
292.987	261.56
293.218	264.56
293.449	269.56
293.68	256.56
293.91	262.56
294.141	270.56
294.372	267.56
294.603	252.56
294.833	279.56
295.064	268.56
295.295	284.56
295.525	263.56
295.756	265.56
295.987	268.56
296.217	290.56
296.448	269.56
296.679	268.56
296.909	277.56
297.14	284.56
297.37	268.56
297.601	282.56
297.831	282.56
298.062	282.56
298.292	295.56
298.523	287.56
298.753	286.56
298.984	261.56
299.214	270.56
299.445	291.56
299.675	276.56
299.905	275.56
300.136	282.56
300.366	273.56
300.597	269.56
300.827	281.56
301.057	291.56
301.288	302.56
301.518	287.56
301.748	301.56
301.979	298.56
302.209	301.56
302.439	307.56
302.669	302.56
302.9	284.56
303.13	301.56
303.36	310.56
303.59	295.56
303.82	303.56
304.051	289.56
304.281	290.56
304.511	294.56
304.741	299.56
304.971	300.56
305.201	286.56
305.431	300.56
305.661	281.56
305.891	286.56
306.121	311.56
306.352	293.56
306.582	301.56
306.812	282.56
307.042	301.56
307.272	304.56
307.502	296.56
307.731	307.56
307.961	297.56
308.191	299.56
308.421	287.56
308.651	299.56
308.881	321.56
309.111	290.56
309.341	292.56
309.571	313.56
309.8	317.56
310.03	320.56
310.26	311.56
310.49	322.56
310.72	313.56
310.949	302.56
311.179	328.56
311.409	307.56
311.639	316.56
311.868	320.56
312.098	322.56
312.328	338.56
312.557	326.56
312.787	343.56
313.017	338.56
313.246	346.56
313.476	330.56
313.706	320.56
313.935	328.56
314.165	350.56
314.394	334.56
314.624	325.56
314.853	320.56
315.083	324.56
315.312	336.56
315.542	325.56
315.771	313.56
316.001	319.56
316.23	308.56
316.46	320.56
316.689	310.56
316.919	324.56
317.148	314.56
317.377	332.56
317.607	328.56
317.836	320.56
318.065	326.56
318.295	317.56
318.524	338.56
318.753	314.56
318.983	313.56
319.212	326.56
319.441	347.56
319.67	351.56
319.9	314.56
320.129	330.56
320.358	301.56
320.587	313.56
320.816	334.56
321.046	343.56
321.275	339.56
321.504	340.56
321.733	335.56
321.962	348.56
322.191	363.56
322.42	356.56
322.649	363.56
322.878	354.56
323.108	390.56
323.337	384.56
323.566	372.56
323.795	399.56
324.024	442.56
324.253	486.56
324.482	638.56
324.71	925.56
324.939	1268.56
325.168	1029.56
325.397	590.56
325.626	434.56
325.855	394.56
326.084	408.56
326.313	403.56
326.542	376.56
326.77	398.56
326.999	464.56
327.228	614.56
327.457	822.56
327.686	930.56
327.914	650.56
328.143	496.56
328.372	440.56
328.6	429.56
328.829	426.56
329.058	440.56
329.287	419.56
329.515	416.56
329.744	403.56
329.972	408.56
330.201	416.56
330.43	450.56
330.658	446.56
330.887	459.56
331.115	451.56
331.344	426.56
331.572	411.56
331.801	397.56
332.03	416.56
332.258	408.56
332.486	399.56
332.715	385.56
332.943	396.56
333.172	416.56
333.4	411.56
333.629	426.56
333.857	429.56
334.085	424.56
334.314	462.56
334.542	453.56
334.771	479.56
334.999	433.56
335.227	430.56
335.455	410.56
335.684	408.56
335.912	415.56
336.14	390.56
336.369	392.56
336.597	399.56
336.825	378.56
337.053	392.56
337.281	373.56
337.51	408.56
337.738	368.56
337.966	375.56
338.194	386.56
338.422	382.56
338.65	357.56
338.878	375.56
339.106	356.56
339.334	378.56
339.562	375.56
339.79	358.56
340.018	372.56
340.246	378.56
340.474	386.56
340.702	380.56
340.93	351.56
341.158	348.56
341.386	361.56
341.614	360.56
341.842	350.56
342.07	367.56
342.298	372.56
342.526	354.56
342.754	357.56
342.981	357.56
343.209	350.56
343.437	371.56
343.665	388.56
343.893	383.56
344.12	399.56
344.348	371.56
344.576	380.56
344.804	375.56
345.031	366.56
345.259	375.56
345.487	372.56
345.714	368.56
345.942	349.56
346.17	344.56
346.397	346.56
346.625	360.56
346.853	347.56
347.08	343.56
347.308	338.56
347.535	335.56
347.763	369.56
347.99	352.56
348.218	340.56
348.445	347.56
348.673	351.56
348.9	338.56
349.128	338.56
349.355	327.56
349.583	334.56
349.81	337.56
350.037	354.56
350.265	329.56
350.492	310.56
350.72	346.56
350.947	338.56
351.174	357.56
351.402	343.56
351.629	351.56
351.856	340.56
352.083	372.56
352.311	343.56
352.538	344.56
352.765	331.56
352.992	349.56
353.22	339.56
353.447	348.56
353.674	329.56
353.901	330.56
354.128	334.56
354.355	342.56
354.583	335.56
354.81	322.56
355.037	325.56
355.264	321.56
355.491	298.56
355.718	320.56
355.945	331.56
356.172	342.56
356.399	333.56
356.626	304.56
356.853	306.56
357.08	318.56
357.307	319.56
357.534	330.56
357.761	327.56
357.988	324.56
358.215	350.56
358.441	334.56
358.668	323.56
358.895	330.56
359.122	324.56
359.349	340.56
359.576	332.56
359.802	360.56
360.029	348.56
360.256	379.56
360.483	351.56
360.709	338.56
360.936	337.56
361.163	344.56
361.39	328.56
361.616	332.56
361.843	319.56
362.07	335.56
362.296	330.56
362.523	333.56
362.749	340.56
362.976	359.56
363.203	334.56
363.429	332.56
363.656	331.56
363.882	334.56
364.109	331.56
364.335	327.56
364.562	341.56
364.788	308.56
365.015	326.56
365.241	355.56
365.468	342.56
365.694	335.56
365.92	349.56
366.147	349.56
366.373	338.56
366.599	327.56
366.826	316.56
367.052	309.56
367.278	315.56
367.505	331.56
367.731	320.56
367.957	344.56
368.184	338.56
368.41	335.56
368.636	351.56
368.862	359.56
369.089	343.56
369.315	331.56
369.541	338.56
369.767	345.56
369.993	342.56
370.219	343.56
370.445	347.56
370.672	329.56
370.898	344.56
371.124	327.56
371.35	337.56
371.576	338.56
371.802	347.56
372.028	326.56
372.254	328.56
372.48	336.56
372.706	354.56
372.932	347.56
373.158	317.56
373.384	343.56
373.61	363.56
373.835	341.56
374.061	316.56
374.287	336.56
374.513	341.56
374.739	337.56
374.965	347.56
375.191	354.56
375.416	371.56
375.642	359.56
375.868	357.56
376.094	333.56
376.319	334.56
376.545	331.56
376.771	326.56
376.997	326.56
377.222	307.56
377.448	328.56
377.674	330.56
377.899	347.56
378.125	346.56
378.35	350.56
378.576	357.56
378.802	343.56
379.027	327.56
379.253	331.56
379.478	331.56
379.704	339.56
379.929	342.56
380.155	321.56
380.38	339.56
380.606	330.56
380.831	327.56
381.057	341.56
381.282	364.56
381.507	340.56
381.733	346.56
381.958	357.56
382.184	340.56
382.409	372.56
382.634	340.56
382.86	346.56
383.085	348.56
383.31	341.56
383.535	363.56
383.761	360.56
383.986	360.56
384.211	381.56
384.436	381.56
384.662	374.56
384.887	360.56
385.112	366.56
385.337	374.56
385.562	378.56
385.787	374.56
386.013	381.56
386.238	383.56
386.463	380.56
386.688	355.56
386.913	367.56
387.138	377.56
387.363	374.56
387.588	358.56
387.813	364.56
388.038	370.56
388.263	376.56
388.488	390.56
388.713	373.56
388.938	356.56
389.163	356.56
389.387	392.56
389.612	385.56
389.837	364.56
390.062	381.56
390.287	358.56
390.512	357.56
390.736	363.56
390.961	368.56
391.186	365.56
391.411	396.56
391.636	406.56
391.86	379.56
392.085	414.56
392.31	402.56
392.534	383.56
392.759	392.56
392.984	371.56
393.208	393.56
393.433	380.56
393.658	356.56
393.882	378.56
394.107	363.56
394.331	394.56
394.556	366.56
394.78	402.56
395.005	391.56
395.229	383.56
395.454	399.56
395.678	399.56
395.903	394.56
396.127	401.56
396.352	398.56
396.576	402.56
396.801	411.56
397.025	392.56
397.249	412.56
397.474	394.56
397.698	422.56
397.922	422.56
398.147	402.56
398.371	413.56
398.595	396.56
398.82	441.56
399.044	448.56
399.268	477.56
399.492	527.56
399.717	574.56
399.941	560.56
400.165	552.56
400.389	551.56
400.613	476.56
400.837	455.56
401.062	463.56
401.286	452.56
401.51	446.56
401.734	452.56
401.958	441.56
402.182	458.56
402.406	431.56
402.63	477.56
402.854	431.56
403.078	472.56
403.302	470.56
403.526	478.56
403.75	482.56
403.974	460.56
404.198	467.56
404.422	483.56
404.645	470.56
404.869	488.56
405.093	491.56
405.317	513.56
405.541	514.56
405.765	487.56
405.988	470.56
406.212	483.56
406.436	491.56
406.66	507.56
406.883	486.56
407.107	519.56
407.331	542.56
407.555	576.56
407.778	559.56
408.002	542.56
408.226	512.56
408.449	508.56
408.673	491.56
408.896	507.56
409.12	513.56
409.344	516.56
409.567	484.56
409.791	466.56
410.014	442.56
410.238	452.56
410.461	454.56
410.685	459.56
410.908	464.56
411.132	499.56
411.355	468.56
411.578	461.56
411.802	456.56
412.025	429.56
412.249	475.56
412.472	480.56
412.695	486.56
412.919	492.56
413.142	459.56
413.365	459.56
413.589	438.56
413.812	452.56
414.035	428.56
414.258	436.56
414.482	451.56
414.705	437.56
414.928	414.56
415.151	420.56
415.374	427.56
415.597	415.56
415.821	410.56
416.044	429.56
416.267	422.56
416.49	410.56
416.713	418.56
416.936	421.56
417.159	445.56
417.382	424.56
417.605	430.56
417.828	441.56
418.051	458.56
418.274	455.56
418.497	438.56
418.72	430.56
418.943	443.56
419.166	456.56
419.389	482.56
419.611	474.56
419.834	457.56
420.057	459.56
420.28	453.56
420.503	449.56
420.726	429.56
420.948	451.56
421.171	453.56
421.394	480.56
421.617	459.56
421.839	427.56
422.062	450.56
422.285	479.56
422.507	500.56
422.73	534.56
422.953	499.56
423.175	474.56
423.398	471.56
423.621	454.56
423.843	481.56
424.066	471.56
424.288	466.56
424.511	468.56
424.733	489.56
424.956	530.56
425.178	524.56
425.401	535.56
425.623	524.56
425.846	498.56
426.068	458.56
426.291	451.56
426.513	458.56
426.735	473.56
426.958	489.56
427.18	518.56
427.402	614.56
427.625	640.56
427.847	551.56
428.069	514.56
428.292	466.56
428.514	423.56
428.736	425.56
428.958	421.56
429.181	416.56
429.403	413.56
429.625	429.56
429.847	439.56
430.069	468.56
430.292	476.56
430.514	431.56
430.736	418.56
430.958	429.56
431.18	436.56
431.402	400.56
431.624	396.56
431.846	410.56
432.068	395.56
432.29	424.56
432.512	396.56
432.734	425.56
432.956	399.56
433.178	411.56
433.4	413.56
433.622	409.56
433.844	418.56
434.066	411.56
434.287	406.56
434.509	436.56
434.731	417.56
434.953	434.56
435.175	435.56
435.397	465.56
435.618	465.56
435.84	491.56
436.062	510.56
436.284	565.56
436.505	466.56
436.727	436.56
436.949	427.56
437.17	399.56
437.392	420.56
437.614	431.56
437.835	422.56
438.057	485.56
438.278	536.56
438.5	559.56
438.721	573.56
438.943	566.56
439.165	471.56
439.386	423.56
439.608	453.56
439.829	450.56
440.05	467.56
440.272	473.56
440.493	464.56
440.715	429.56
440.936	441.56
441.158	440.56
441.379	432.56
441.6	452.56
441.822	448.56
442.043	485.56
442.264	535.56
442.486	558.56
442.707	477.56
442.928	468.56
443.149	461.56
443.371	494.56
443.592	493.56
443.813	564.56
444.034	564.56
444.255	531.56
444.476	504.56
444.698	487.56
444.919	485.56
445.14	584.56
445.361	526.56
445.582	492.56
445.803	522.56
446.024	558.56
446.245	587.56
446.466	532.56
446.687	476.56
446.908	436.56
447.129	430.56
447.35	422.56
447.571	422.56
447.792	401.56
448.013	420.56
448.234	431.56
448.455	466.56
448.675	519.56
448.896	576.56
449.117	510.56
449.338	473.56
449.559	548.56
449.779	598.56
450	488.56
450.221	426.56
450.442	394.56
450.662	407.56
450.883	396.56
451.104	423.56
451.324	408.56
451.545	387.56
451.766	395.56
451.986	364.56
452.207	351.56
452.428	380.56
452.648	372.56
452.869	376.56
453.089	365.56
453.31	392.56
453.53	372.56
453.751	383.56
453.971	376.56
454.192	364.56
454.412	368.56
454.633	358.56
454.853	359.56
455.073	370.56
455.294	402.56
455.514	421.56
455.734	405.56
455.955	377.56
456.175	358.56
456.395	356.56
456.616	361.56
456.836	371.56
457.056	359.56
457.276	345.56
457.497	357.56
457.717	356.56
457.937	364.56
458.157	368.56
458.377	375.56
458.598	392.56
458.818	424.56
459.038	460.56
459.258	457.56
459.478	422.56
459.698	411.56
459.918	415.56
460.138	421.56
460.358	429.56
460.578	421.56
460.798	421.56
461.018	460.56
461.238	440.56
461.458	442.56
461.678	428.56
461.898	443.56
462.118	420.56
462.338	436.56
462.558	472.56
462.777	501.56
462.997	495.56
463.217	516.56
463.437	510.56
463.657	491.56
463.876	467.56
464.096	461.56
464.316	496.56
464.536	469.56
464.755	461.56
464.975	461.56
465.195	461.56
465.414	506.56
465.634	464.56
465.854	428.56
466.073	420.56
466.293	415.56
466.512	383.56
466.732	396.56
466.951	386.56
467.171	396.56
467.391	403.56
467.61	380.56
467.829	396.56
468.049	376.56
468.268	392.56
468.488	395.56
468.707	374.56
468.927	395.56
469.146	367.56
469.365	393.56
469.585	386.56
469.804	389.56
470.023	404.56
470.243	408.56
470.462	408.56
470.681	410.56
470.901	412.56
471.12	392.56
471.339	388.56
471.558	393.56
471.777	415.56
471.997	392.56
472.216	387.56
472.435	417.56
472.654	410.56
472.873	388.56
473.092	392.56
473.311	379.56
473.53	382.56
473.749	390.56
473.968	412.56
474.187	489.56
474.406	468.56
474.625	403.56
474.844	383.56
475.063	387.56
475.282	398.56
475.501	396.56
475.72	392.56
475.939	394.56
476.158	416.56
476.377	384.56
476.596	411.56
476.814	411.56
477.033	396.56
477.252	412.56
477.471	413.56
477.69	427.56
477.908	429.56
478.127	443.56
478.346	443.56
478.564	431.56
478.783	446.56
479.002	463.56
479.22	458.56
479.439	447.56
479.658	446.56
479.876	480.56
480.095	459.56
480.313	489.56
480.532	501.56
480.751	503.56
480.969	492.56
481.188	529.56
481.406	534.56
481.624	480.56
481.843	463.56
482.061	462.56
482.28	461.56
482.498	443.56
482.717	465.56
482.935	447.56
483.153	451.56
483.372	453.56
483.59	450.56
483.808	465.56
484.027	422.56
484.245	463.56
484.463	449.56
484.681	444.56
484.9	462.56
485.118	471.56
485.336	465.56
485.554	478.56
485.772	468.56
485.99	447.56
486.209	454.56
486.427	462.56
486.645	459.56
486.863	488.56
487.081	466.56
487.299	491.56
487.517	491.56
487.735	455.56
487.953	479.56
488.171	503.56
488.389	454.56
488.607	488.56
488.825	486.56
489.043	467.56
489.261	495.56
489.479	489.56
489.696	486.56
489.914	484.56
490.132	478.56
490.35	491.56
490.568	512.56
490.786	504.56
491.003	517.56
491.221	523.56
491.439	530.56
491.657	546.56
491.874	547.56
492.092	554.56
492.31	571.56
492.527	548.56
492.745	539.56
492.963	564.56
493.18	554.56
493.398	569.56
493.615	571.56
493.833	560.56
494.05	550.56
494.268	581.56
494.485	554.56
494.703	560.56
494.92	558.56
495.138	549.56
495.355	574.56
495.573	568.56
495.79	550.56
496.008	585.56
496.225	560.56
496.442	567.56
496.66	567.56
496.877	559.56
497.094	574.56
497.312	585.56
497.529	607.56
497.746	602.56
497.963	620.56
498.181	616.56
498.398	651.56
498.615	648.56
498.832	667.56
499.049	690.56
499.267	730.56
499.484	778.56
499.701	822.56
499.918	868.56
500.135	920.56
500.352	1002.56
500.569	1006.56
500.786	994.56
501.003	989.56
501.22	920.56
501.437	860.56
501.654	796.56
501.871	768.56
502.088	701.56
