Data from 1969.PennyLincolnUp.Lamp.En5.5.200Scan.071719.P1._HRD10591_14-54-12-971.txt Node
Date: Thu Jul 18 14:54:12 EDT 2019
User: cochatt
Spectrometer: HR+D1059
Trigger mode: 1
Integration Time (sec): 1.000000E-1
Scans to average: 1
Electric dark correction enabled: true
Nonlinearity correction enabled: false
Boxcar width: 0
XAxis mode: Wavelengths
Number of Pixels in Spectrum: 2048
>>>>>Begin Spectral Data<<<<<
223.165	-14.62
223.4	-14.62
223.635	-14.62
223.869	-18.62
224.104	-13.62
224.338	-20.62
224.573	-6.62
224.808	-0.62
225.042	-18.62
225.277	-2.62
225.511	3.38
225.746	1.38
225.98	6.38
226.215	1.38
226.449	7.38
226.683	16.38
226.918	32.38
227.152	27.38
227.387	25.38
227.621	36.38
227.856	32.38
228.09	43.38
228.324	48.38
228.559	48.38
228.793	58.38
229.027	67.38
229.262	94.38
229.496	99.38
229.73	92.38
229.964	113.38
230.199	71.38
230.433	82.38
230.667	97.38
230.901	90.38
231.136	99.38
231.37	100.38
231.604	94.38
231.838	99.38
232.072	95.38
232.306	91.38
232.541	111.38
232.775	115.38
233.009	104.38
233.243	101.38
233.477	93.38
233.711	111.38
233.945	104.38
234.179	89.38
234.413	106.38
234.647	101.38
234.881	97.38
235.115	108.38
235.349	106.38
235.583	106.38
235.817	100.38
236.051	115.38
236.285	107.38
236.519	123.38
236.753	107.38
236.987	115.38
237.221	125.38
237.455	164.38
237.689	152.38
237.922	107.38
238.156	126.38
238.39	97.38
238.624	102.38
238.858	103.38
239.091	106.38
239.325	107.38
239.559	111.38
239.793	112.38
240.027	129.38
240.26	127.38
240.494	121.38
240.728	112.38
240.961	117.38
241.195	117.38
241.429	119.38
241.662	121.38
241.896	116.38
242.13	113.38
242.363	99.38
242.597	129.38
242.83	120.38
243.064	120.38
243.298	120.38
243.531	133.38
243.765	120.38
243.998	104.38
244.232	123.38
244.465	117.38
244.699	138.38
244.932	118.38
245.166	128.38
245.399	137.38
245.633	127.38
245.866	136.38
246.099	152.38
246.333	127.38
246.566	123.38
246.8	132.38
247.033	143.38
247.266	127.38
247.5	137.38
247.733	151.38
247.966	129.38
248.2	146.38
248.433	148.38
248.666	131.38
248.899	144.38
249.133	154.38
249.366	155.38
249.599	156.38
249.832	156.38
250.066	159.38
250.299	160.38
250.532	135.38
250.765	167.38
250.998	155.38
251.231	159.38
251.465	169.38
251.698	150.38
251.931	157.38
252.164	150.38
252.397	170.38
252.63	165.38
252.863	166.38
253.096	149.38
253.329	177.38
253.562	170.38
253.795	173.38
254.028	187.38
254.261	183.38
254.494	154.38
254.727	166.38
254.96	204.38
255.193	209.38
255.426	181.38
255.659	179.38
255.892	180.38
256.124	175.38
256.357	188.38
256.59	160.38
256.823	161.38
257.056	150.38
257.289	153.38
257.521	172.38
257.754	177.38
257.987	177.38
258.22	178.38
258.452	164.38
258.685	165.38
258.918	162.38
259.151	173.38
259.383	183.38
259.616	167.38
259.849	177.38
260.081	186.38
260.314	191.38
260.547	205.38
260.779	203.38
261.012	187.38
261.244	178.38
261.477	182.38
261.71	181.38
261.942	164.38
262.175	183.38
262.407	171.38
262.64	168.38
262.872	199.38
263.105	167.38
263.337	173.38
263.57	164.38
263.802	163.38
264.035	177.38
264.267	173.38
264.499	166.38
264.732	182.38
264.964	181.38
265.197	205.38
265.429	182.38
265.661	180.38
265.894	187.38
266.126	176.38
266.358	176.38
266.591	167.38
266.823	183.38
267.055	195.38
267.287	178.38
267.52	197.38
267.752	185.38
267.984	191.38
268.216	185.38
268.448	196.38
268.681	194.38
268.913	196.38
269.145	190.38
269.377	225.38
269.609	213.38
269.841	226.38
270.073	209.38
270.306	213.38
270.538	245.38
270.77	217.38
271.002	235.38
271.234	216.38
271.466	215.38
271.698	216.38
271.93	241.38
272.162	231.38
272.394	231.38
272.626	232.38
272.858	218.38
273.09	222.38
273.322	198.38
273.553	218.38
273.785	219.38
274.017	208.38
274.249	207.38
274.481	220.38
274.713	213.38
274.945	218.38
275.176	203.38
275.408	215.38
275.64	209.38
275.872	201.38
276.104	206.38
276.335	213.38
276.567	218.38
276.799	228.38
277.031	241.38
277.262	235.38
277.494	244.38
277.726	241.38
277.957	242.38
278.189	222.38
278.421	225.38
278.652	223.38
278.884	217.38
279.115	224.38
279.347	224.38
279.579	224.38
279.81	205.38
280.042	209.38
280.273	226.38
280.505	223.38
280.736	231.38
280.968	230.38
281.199	234.38
281.431	228.38
281.662	224.38
281.894	218.38
282.125	228.38
282.356	229.38
282.588	230.38
282.819	233.38
283.051	228.38
283.282	220.38
283.513	232.38
283.745	229.38
283.976	220.38
284.207	241.38
284.439	242.38
284.67	225.38
284.901	254.38
285.132	224.38
285.364	225.38
285.595	235.38
285.826	235.38
286.057	227.38
286.288	232.38
286.52	255.38
286.751	249.38
286.982	267.38
287.213	252.38
287.444	234.38
287.675	252.38
287.906	245.38
288.138	245.38
288.369	258.38
288.6	243.38
288.831	257.38
289.062	251.38
289.293	255.38
289.524	245.38
289.755	238.38
289.986	254.38
290.217	232.38
290.448	232.38
290.679	248.38
290.91	242.38
291.141	257.38
291.371	260.38
291.602	250.38
291.833	268.38
292.064	270.38
292.295	247.38
292.526	245.38
292.757	240.38
292.987	245.38
293.218	230.38
293.449	251.38
293.68	227.38
293.91	252.38
294.141	251.38
294.372	245.38
294.603	261.38
294.833	231.38
295.064	245.38
295.295	255.38
295.525	255.38
295.756	265.38
295.987	259.38
296.217	272.38
296.448	267.38
296.679	252.38
296.909	257.38
297.14	268.38
297.37	252.38
297.601	272.38
297.831	249.38
298.062	268.38
298.292	257.38
298.523	268.38
298.753	267.38
298.984	258.38
299.214	262.38
299.445	276.38
299.675	260.38
299.905	262.38
300.136	256.38
300.366	275.38
300.597	265.38
300.827	260.38
301.057	273.38
301.288	285.38
301.518	288.38
301.748	269.38
301.979	271.38
302.209	280.38
302.439	260.38
302.669	260.38
302.9	290.38
303.13	287.38
303.36	281.38
303.59	279.38
303.82	297.38
304.051	277.38
304.281	275.38
304.511	280.38
304.741	293.38
304.971	313.38
305.201	290.38
305.431	300.38
305.661	281.38
305.891	272.38
306.121	282.38
306.352	264.38
306.582	292.38
306.812	279.38
307.042	283.38
307.272	273.38
307.502	270.38
307.731	276.38
307.961	280.38
308.191	297.38
308.421	281.38
308.651	305.38
308.881	283.38
309.111	284.38
309.341	284.38
309.571	290.38
309.8	287.38
310.03	287.38
310.26	287.38
310.49	306.38
310.72	289.38
310.949	329.38
311.179	307.38
311.409	312.38
311.639	295.38
311.868	280.38
312.098	294.38
312.328	327.38
312.557	309.38
312.787	308.38
313.017	294.38
313.246	303.38
313.476	300.38
313.706	307.38
313.935	309.38
314.165	300.38
314.394	327.38
314.624	320.38
314.853	313.38
315.083	300.38
315.312	325.38
315.542	304.38
315.771	303.38
316.001	295.38
316.23	312.38
316.46	309.38
316.689	324.38
316.919	294.38
317.148	300.38
317.377	310.38
317.607	325.38
317.836	319.38
318.065	299.38
318.295	307.38
318.524	295.38
318.753	304.38
318.983	292.38
319.212	308.38
319.441	312.38
319.67	304.38
319.9	299.38
320.129	297.38
320.358	299.38
320.587	301.38
320.816	305.38
321.046	304.38
321.275	308.38
321.504	299.38
321.733	311.38
321.962	316.38
322.191	334.38
322.42	321.38
322.649	324.38
322.878	324.38
323.108	333.38
323.337	338.38
323.566	344.38
323.795	371.38
324.024	372.38
324.253	417.38
324.482	563.38
324.71	761.38
324.939	987.38
325.168	843.38
325.397	503.38
325.626	383.38
325.855	365.38
326.084	344.38
326.313	356.38
326.542	342.38
326.77	377.38
326.999	423.38
327.228	516.38
327.457	695.38
327.686	751.38
327.914	552.38
328.143	423.38
328.372	407.38
328.6	374.38
328.829	379.38
329.058	392.38
329.287	407.38
329.515	355.38
329.744	367.38
329.972	378.38
330.201	382.38
330.43	411.38
330.658	416.38
330.887	428.38
331.115	392.38
331.344	387.38
331.572	365.38
331.801	385.38
332.03	372.38
332.258	385.38
332.486	363.38
332.715	348.38
332.943	378.38
333.172	392.38
333.4	378.38
333.629	387.38
333.857	399.38
334.085	404.38
334.314	408.38
334.542	431.38
334.771	428.38
334.999	398.38
335.227	393.38
335.455	387.38
335.684	384.38
335.912	377.38
336.14	378.38
336.369	388.38
336.597	376.38
336.825	384.38
337.053	368.38
337.281	369.38
337.51	357.38
337.738	343.38
337.966	364.38
338.194	353.38
338.422	331.38
338.65	339.38
338.878	367.38
339.106	352.38
339.334	344.38
339.562	341.38
339.79	344.38
340.018	339.38
340.246	337.38
340.474	339.38
340.702	370.38
340.93	350.38
341.158	337.38
341.386	358.38
341.614	339.38
341.842	332.38
342.07	349.38
342.298	328.38
342.526	314.38
342.754	336.38
342.981	347.38
343.209	343.38
343.437	336.38
343.665	358.38
343.893	371.38
344.12	372.38
344.348	362.38
344.576	361.38
344.804	343.38
345.031	341.38
345.259	361.38
345.487	333.38
345.714	344.38
345.942	337.38
346.17	325.38
346.397	321.38
346.625	312.38
346.853	318.38
347.08	333.38
347.308	330.38
347.535	328.38
347.763	332.38
347.99	324.38
348.218	317.38
348.445	325.38
348.673	332.38
348.9	314.38
349.128	325.38
349.355	324.38
349.583	317.38
349.81	325.38
350.037	317.38
350.265	326.38
350.492	293.38
350.72	303.38
350.947	315.38
351.174	299.38
351.402	311.38
351.629	321.38
351.856	316.38
352.083	330.38
352.311	333.38
352.538	338.38
352.765	318.38
352.992	318.38
353.22	319.38
353.447	325.38
353.674	303.38
353.901	314.38
354.128	318.38
354.355	307.38
354.583	316.38
354.81	308.38
355.037	315.38
355.264	303.38
355.491	306.38
355.718	321.38
355.945	297.38
356.172	321.38
356.399	315.38
356.626	307.38
356.853	298.38
357.08	316.38
357.307	289.38
357.534	296.38
357.761	310.38
357.988	311.38
358.215	327.38
358.441	307.38
358.668	305.38
358.895	301.38
359.122	318.38
359.349	311.38
359.576	329.38
359.802	343.38
360.029	343.38
360.256	344.38
360.483	336.38
360.709	328.38
360.936	319.38
361.163	308.38
361.39	302.38
361.616	315.38
361.843	320.38
362.07	301.38
362.296	313.38
362.523	322.38
362.749	325.38
362.976	305.38
363.203	328.38
363.429	312.38
363.656	323.38
363.882	309.38
364.109	326.38
364.335	324.38
364.562	306.38
364.788	308.38
365.015	308.38
365.241	314.38
365.468	332.38
365.694	307.38
365.92	297.38
366.147	305.38
366.373	305.38
366.599	303.38
366.826	305.38
367.052	299.38
367.278	313.38
367.505	330.38
367.731	318.38
367.957	314.38
368.184	308.38
368.41	317.38
368.636	310.38
368.862	324.38
369.089	303.38
369.315	317.38
369.541	319.38
369.767	304.38
369.993	318.38
370.219	311.38
370.445	310.38
370.672	327.38
370.898	307.38
371.124	309.38
371.35	296.38
371.576	328.38
371.802	324.38
372.028	320.38
372.254	300.38
372.48	309.38
372.706	337.38
372.932	331.38
373.158	333.38
373.384	333.38
373.61	315.38
373.835	333.38
374.061	310.38
374.287	328.38
374.513	311.38
374.739	337.38
374.965	341.38
375.191	328.38
375.416	333.38
375.642	315.38
375.868	324.38
376.094	329.38
376.319	325.38
376.545	342.38
376.771	311.38
376.997	314.38
377.222	317.38
377.448	330.38
377.674	307.38
377.899	312.38
378.125	306.38
378.35	322.38
378.576	309.38
378.802	322.38
379.027	317.38
379.253	309.38
379.478	322.38
379.704	329.38
379.929	332.38
380.155	309.38
380.38	333.38
380.606	323.38
380.831	315.38
381.057	325.38
381.282	328.38
381.507	336.38
381.733	332.38
381.958	325.38
382.184	325.38
382.409	333.38
382.634	331.38
382.86	313.38
383.085	335.38
383.31	331.38
383.535	323.38
383.761	333.38
383.986	335.38
384.211	336.38
384.436	353.38
384.662	327.38
384.887	334.38
385.112	347.38
385.337	357.38
385.562	348.38
385.787	356.38
386.013	367.38
386.238	372.38
386.463	359.38
386.688	361.38
386.913	343.38
387.138	361.38
387.363	376.38
387.588	359.38
387.813	361.38
388.038	365.38
388.263	339.38
388.488	347.38
388.713	357.38
388.938	363.38
389.163	345.38
389.387	356.38
389.612	355.38
389.837	346.38
390.062	333.38
390.287	326.38
390.512	336.38
390.736	345.38
390.961	348.38
391.186	340.38
391.411	345.38
391.636	353.38
391.86	376.38
392.085	376.38
392.31	380.38
392.534	361.38
392.759	357.38
392.984	354.38
393.208	365.38
393.433	375.38
393.658	360.38
393.882	353.38
394.107	380.38
394.331	364.38
394.556	352.38
394.78	352.38
395.005	366.38
395.229	354.38
395.454	379.38
395.678	385.38
395.903	372.38
396.127	380.38
396.352	379.38
396.576	377.38
396.801	376.38
397.025	381.38
397.249	378.38
397.474	376.38
397.698	377.38
397.922	395.38
398.147	399.38
398.371	407.38
398.595	398.38
398.82	413.38
399.044	442.38
399.268	438.38
399.492	484.38
399.717	536.38
399.941	504.38
400.165	503.38
400.389	513.38
400.613	473.38
400.837	422.38
401.062	432.38
401.286	401.38
401.51	411.38
401.734	421.38
401.958	414.38
402.182	407.38
402.406	432.38
402.63	449.38
402.854	429.38
403.078	452.38
403.302	447.38
403.526	451.38
403.75	464.38
403.974	447.38
404.198	437.38
404.422	463.38
404.645	433.38
404.869	440.38
405.093	479.38
405.317	478.38
405.541	491.38
405.765	475.38
405.988	450.38
406.212	443.38
406.436	456.38
406.66	475.38
406.883	467.38
407.107	484.38
407.331	518.38
407.555	562.38
407.778	525.38
408.002	480.38
408.226	468.38
408.449	471.38
408.673	470.38
408.896	472.38
409.12	471.38
409.344	476.38
409.567	439.38
409.791	440.38
410.014	453.38
410.238	426.38
410.461	428.38
410.685	451.38
410.908	435.38
411.132	449.38
411.355	468.38
411.578	437.38
411.802	425.38
412.025	395.38
412.249	435.38
412.472	446.38
412.695	455.38
412.919	437.38
413.142	419.38
413.365	428.38
413.589	420.38
413.812	402.38
414.035	409.38
414.258	409.38
414.482	390.38
414.705	417.38
414.928	415.38
415.151	421.38
415.374	417.38
415.597	423.38
415.821	399.38
416.044	395.38
416.267	415.38
416.49	408.38
416.713	430.38
416.936	380.38
417.159	397.38
417.382	405.38
417.605	396.38
417.828	433.38
418.051	421.38
418.274	421.38
418.497	421.38
418.72	411.38
418.943	409.38
419.166	435.38
419.389	429.38
419.611	460.38
419.834	437.38
420.057	454.38
420.28	443.38
420.503	421.38
420.726	420.38
420.948	445.38
421.171	466.38
421.394	460.38
421.617	413.38
421.839	411.38
422.062	401.38
422.285	433.38
422.507	467.38
422.73	487.38
422.953	472.38
423.175	441.38
423.398	419.38
423.621	431.38
423.843	439.38
424.066	424.38
424.288	447.38
424.511	431.38
424.733	457.38
424.956	506.38
425.178	514.38
425.401	483.38
425.623	486.38
425.846	449.38
426.068	427.38
426.291	417.38
426.513	426.38
426.735	416.38
426.958	468.38
427.18	458.38
427.402	536.38
427.625	567.38
427.847	508.38
428.069	436.38
428.292	413.38
428.514	389.38
428.736	395.38
428.958	407.38
429.181	387.38
429.403	379.38
429.625	380.38
429.847	402.38
430.069	439.38
430.292	431.38
430.514	387.38
430.736	389.38
430.958	396.38
431.18	376.38
431.402	378.38
431.624	356.38
431.846	364.38
432.068	372.38
432.29	383.38
432.512	390.38
432.734	409.38
432.956	379.38
433.178	407.38
433.4	372.38
433.622	388.38
433.844	396.38
434.066	375.38
434.287	374.38
434.509	389.38
434.731	403.38
434.953	410.38
435.175	423.38
435.397	436.38
435.618	431.38
435.84	451.38
436.062	462.38
436.284	501.38
436.505	423.38
436.727	415.38
436.949	401.38
437.17	401.38
437.392	389.38
437.614	398.38
437.835	433.38
438.057	451.38
438.278	486.38
438.5	515.38
438.721	521.38
438.943	549.38
439.165	429.38
439.386	431.38
439.608	411.38
439.829	401.38
440.05	439.38
440.272	459.38
440.493	428.38
440.715	411.38
440.936	411.38
441.158	419.38
441.379	402.38
441.6	418.38
441.822	432.38
442.043	473.38
442.264	477.38
442.486	513.38
442.707	452.38
442.928	446.38
443.149	417.38
443.371	444.38
443.592	471.38
443.813	518.38
444.034	538.38
444.255	453.38
444.476	455.38
444.698	465.38
444.919	472.38
445.14	584.38
445.361	484.38
445.582	473.38
445.803	504.38
446.024	531.38
446.245	513.38
446.466	475.38
446.687	442.38
446.908	396.38
447.129	410.38
447.35	401.38
447.571	393.38
447.792	369.38
448.013	371.38
448.234	391.38
448.455	388.38
448.675	427.38
448.896	538.38
449.117	453.38
449.338	445.38
449.559	508.38
449.779	556.38
450	453.38
450.221	398.38
450.442	382.38
450.662	379.38
450.883	377.38
451.104	401.38
451.324	390.38
451.545	373.38
451.766	361.38
451.986	347.38
452.207	357.38
452.428	338.38
452.648	365.38
452.869	353.38
453.089	362.38
453.31	360.38
453.53	351.38
453.751	339.38
453.971	351.38
454.192	351.38
454.412	370.38
454.633	374.38
454.853	339.38
455.073	353.38
455.294	378.38
455.514	389.38
455.734	380.38
455.955	351.38
456.175	335.38
456.395	325.38
456.616	336.38
456.836	343.38
457.056	346.38
457.276	336.38
457.497	320.38
457.717	348.38
457.937	346.38
458.157	350.38
458.377	354.38
458.598	363.38
458.818	377.38
459.038	459.38
459.258	434.38
459.478	413.38
459.698	387.38
459.918	411.38
460.138	397.38
460.358	435.38
460.578	423.38
460.798	398.38
461.018	406.38
461.238	409.38
461.458	411.38
461.678	412.38
461.898	411.38
462.118	423.38
462.338	444.38
462.558	413.38
462.777	455.38
462.997	489.38
463.217	478.38
463.437	487.38
463.657	459.38
463.876	447.38
464.096	457.38
464.316	469.38
464.536	459.38
464.755	457.38
464.975	449.38
465.195	452.38
465.414	448.38
465.634	418.38
465.854	399.38
466.073	400.38
466.293	397.38
466.512	373.38
466.732	376.38
466.951	369.38
467.171	375.38
467.391	352.38
467.61	393.38
467.829	384.38
468.049	370.38
468.268	351.38
468.488	356.38
468.707	359.38
468.927	362.38
469.146	378.38
469.365	345.38
469.585	355.38
469.804	364.38
470.023	373.38
470.243	377.38
470.462	383.38
470.681	399.38
470.901	385.38
471.12	386.38
471.339	372.38
471.558	371.38
471.777	375.38
471.997	386.38
472.216	372.38
472.435	396.38
472.654	360.38
472.873	359.38
473.092	365.38
473.311	368.38
473.53	372.38
473.749	359.38
473.968	390.38
474.187	432.38
474.406	441.38
474.625	392.38
474.844	375.38
475.063	375.38
475.282	371.38
475.501	360.38
475.72	353.38
475.939	364.38
476.158	389.38
476.377	378.38
476.596	371.38
476.814	362.38
477.033	373.38
477.252	402.38
477.471	388.38
477.69	389.38
477.908	407.38
478.127	424.38
478.346	403.38
478.564	425.38
478.783	419.38
479.002	424.38
479.22	417.38
479.439	433.38
479.658	453.38
479.876	444.38
480.095	442.38
480.313	470.38
480.532	488.38
480.751	469.38
480.969	455.38
481.188	487.38
481.406	500.38
481.624	443.38
481.843	429.38
482.061	429.38
482.28	416.38
482.498	425.38
482.717	395.38
482.935	435.38
483.153	424.38
483.372	429.38
483.59	406.38
483.808	420.38
484.027	429.38
484.245	417.38
484.463	431.38
484.681	449.38
484.9	439.38
485.118	446.38
485.336	431.38
485.554	436.38
485.772	435.38
485.99	453.38
486.209	437.38
486.427	446.38
486.645	456.38
486.863	443.38
487.081	456.38
487.299	442.38
487.517	432.38
487.735	456.38
487.953	447.38
488.171	460.38
488.389	436.38
488.607	441.38
488.825	436.38
489.043	450.38
489.261	467.38
489.479	443.38
489.696	456.38
489.914	451.38
490.132	465.38
490.35	472.38
490.568	467.38
490.786	475.38
491.003	495.38
491.221	487.38
491.439	503.38
491.657	503.38
491.874	489.38
492.092	516.38
492.31	527.38
492.527	499.38
492.745	517.38
492.963	520.38
493.18	513.38
493.398	501.38
493.615	531.38
493.833	513.38
494.05	523.38
494.268	516.38
494.485	515.38
494.703	529.38
494.92	515.38
495.138	532.38
495.355	521.38
495.573	506.38
495.79	520.38
496.008	524.38
496.225	516.38
496.442	520.38
496.66	524.38
496.877	529.38
497.094	552.38
497.312	547.38
497.529	560.38
497.746	552.38
497.963	567.38
498.181	571.38
498.398	596.38
498.615	623.38
498.832	657.38
499.049	656.38
499.267	696.38
499.484	710.38
499.701	766.38
499.918	818.38
500.135	903.38
500.352	944.38
500.569	945.38
500.786	966.38
501.003	920.38
501.22	871.38
501.437	827.38
501.654	776.38
501.871	730.38
502.088	689.38
502.305	696.38
