Data from 1969.PennyLincolnUp.Lamp.En5.5.200Scan.071719.P1._HRD10591_14-55-01-972.txt Node
Date: Thu Jul 18 14:55:01 EDT 2019
User: cochatt
Spectrometer: HR+D1059
Trigger mode: 1
Integration Time (sec): 1.000000E-1
Scans to average: 1
Electric dark correction enabled: true
Nonlinearity correction enabled: false
Boxcar width: 0
XAxis mode: Wavelengths
Number of Pixels in Spectrum: 2048
>>>>>Begin Spectral Data<<<<<
223.165	-13.5
223.4	-13.5
223.635	-13.5
223.869	-19.5
224.104	-13.5
224.338	-5.5
224.573	-24.5
224.808	-11.5
225.042	-20.5
225.277	2.5
225.511	-0.5
225.746	-10.5
225.98	3.5
226.215	20.5
226.449	21.5
226.683	11.5
226.918	25.5
227.152	34.5
227.387	37.5
227.621	30.5
227.856	52.5
228.09	34.5
228.324	41.5
228.559	61.5
228.793	53.5
229.027	89.5
229.262	81.5
229.496	101.5
229.73	111.5
229.964	120.5
230.199	103.5
230.433	99.5
230.667	95.5
230.901	107.5
231.136	97.5
231.37	103.5
231.604	96.5
231.838	100.5
232.072	100.5
232.306	93.5
232.541	100.5
232.775	98.5
233.009	104.5
233.243	105.5
233.477	109.5
233.711	102.5
233.945	114.5
234.179	106.5
234.413	102.5
234.647	97.5
234.881	115.5
235.115	112.5
235.349	104.5
235.583	96.5
235.817	97.5
236.051	103.5
236.285	119.5
236.519	118.5
236.753	109.5
236.987	105.5
237.221	133.5
237.455	157.5
237.689	133.5
237.922	112.5
238.156	108.5
238.39	105.5
238.624	96.5
238.858	113.5
239.091	108.5
239.325	100.5
239.559	103.5
239.793	108.5
240.027	119.5
240.26	116.5
240.494	127.5
240.728	131.5
240.961	144.5
241.195	115.5
241.429	119.5
241.662	120.5
241.896	111.5
242.13	137.5
242.363	119.5
242.597	120.5
242.83	124.5
243.064	117.5
243.298	124.5
243.531	130.5
243.765	124.5
243.998	125.5
244.232	119.5
244.465	122.5
244.699	109.5
244.932	127.5
245.166	121.5
245.399	123.5
245.633	121.5
245.866	108.5
246.099	133.5
246.333	135.5
246.566	114.5
246.8	129.5
247.033	129.5
247.266	120.5
247.5	126.5
247.733	140.5
247.966	137.5
248.2	146.5
248.433	139.5
248.666	152.5
248.899	158.5
249.133	162.5
249.366	176.5
249.599	176.5
249.832	156.5
250.066	147.5
250.299	144.5
250.532	155.5
250.765	164.5
250.998	191.5
251.231	192.5
251.465	163.5
251.698	171.5
251.931	151.5
252.164	161.5
252.397	165.5
252.63	163.5
252.863	167.5
253.096	176.5
253.329	171.5
253.562	185.5
253.795	171.5
254.028	159.5
254.261	166.5
254.494	188.5
254.727	187.5
254.96	204.5
255.193	195.5
255.426	179.5
255.659	189.5
255.892	169.5
256.124	183.5
256.357	176.5
256.59	184.5
256.823	169.5
257.056	167.5
257.289	180.5
257.521	168.5
257.754	169.5
257.987	177.5
258.22	164.5
258.452	165.5
258.685	172.5
258.918	161.5
259.151	175.5
259.383	180.5
259.616	171.5
259.849	160.5
260.081	183.5
260.314	175.5
260.547	199.5
260.779	198.5
261.012	191.5
261.244	188.5
261.477	198.5
261.71	171.5
261.942	185.5
262.175	179.5
262.407	180.5
262.64	175.5
262.872	191.5
263.105	170.5
263.337	188.5
263.57	178.5
263.802	177.5
264.035	163.5
264.267	171.5
264.499	180.5
264.732	181.5
264.964	181.5
265.197	189.5
265.429	180.5
265.661	192.5
265.894	200.5
266.126	177.5
266.358	168.5
266.591	175.5
266.823	196.5
267.055	195.5
267.287	190.5
267.52	181.5
267.752	173.5
267.984	183.5
268.216	192.5
268.448	198.5
268.681	213.5
268.913	220.5
269.145	198.5
269.377	205.5
269.609	226.5
269.841	222.5
270.073	216.5
270.306	215.5
270.538	248.5
270.77	242.5
271.002	236.5
271.234	231.5
271.466	221.5
271.698	224.5
271.93	253.5
272.162	241.5
272.394	255.5
272.626	209.5
272.858	218.5
273.09	203.5
273.322	226.5
273.553	217.5
273.785	217.5
274.017	216.5
274.249	211.5
274.481	228.5
274.713	215.5
274.945	230.5
275.176	209.5
275.408	218.5
275.64	218.5
275.872	209.5
276.104	220.5
276.335	216.5
276.567	212.5
276.799	216.5
277.031	242.5
277.262	262.5
277.494	242.5
277.726	240.5
277.957	226.5
278.189	246.5
278.421	224.5
278.652	233.5
278.884	246.5
279.115	212.5
279.347	224.5
279.579	222.5
279.81	224.5
280.042	235.5
280.273	226.5
280.505	207.5
280.736	228.5
280.968	227.5
281.199	231.5
281.431	210.5
281.662	220.5
281.894	223.5
282.125	232.5
282.356	241.5
282.588	260.5
282.819	235.5
283.051	240.5
283.282	223.5
283.513	245.5
283.745	229.5
283.976	242.5
284.207	227.5
284.439	233.5
284.67	240.5
284.901	260.5
285.132	241.5
285.364	220.5
285.595	229.5
285.826	225.5
286.057	237.5
286.288	251.5
286.52	232.5
286.751	244.5
286.982	241.5
287.213	243.5
287.444	243.5
287.675	257.5
287.906	255.5
288.138	269.5
288.369	259.5
288.6	255.5
288.831	246.5
289.062	240.5
289.293	264.5
289.524	255.5
289.755	242.5
289.986	258.5
290.217	244.5
290.448	245.5
290.679	237.5
290.91	261.5
291.141	256.5
291.371	267.5
291.602	242.5
291.833	255.5
292.064	257.5
292.295	252.5
292.526	245.5
292.757	270.5
292.987	244.5
293.218	248.5
293.449	259.5
293.68	247.5
293.91	256.5
294.141	260.5
294.372	255.5
294.603	239.5
294.833	245.5
295.064	250.5
295.295	262.5
295.525	256.5
295.756	242.5
295.987	269.5
296.217	277.5
296.448	267.5
296.679	264.5
296.909	247.5
297.14	258.5
297.37	263.5
297.601	277.5
297.831	251.5
298.062	251.5
298.292	260.5
298.523	272.5
298.753	267.5
298.984	261.5
299.214	263.5
299.445	257.5
299.675	276.5
299.905	261.5
300.136	266.5
300.366	245.5
300.597	279.5
300.827	288.5
301.057	275.5
301.288	282.5
301.518	278.5
301.748	281.5
301.979	284.5
302.209	269.5
302.439	275.5
302.669	264.5
302.9	256.5
303.13	274.5
303.36	268.5
303.59	290.5
303.82	293.5
304.051	276.5
304.281	281.5
304.511	279.5
304.741	283.5
304.971	284.5
305.201	279.5
305.431	276.5
305.661	293.5
305.891	297.5
306.121	286.5
306.352	284.5
306.582	276.5
306.812	294.5
307.042	277.5
307.272	284.5
307.502	296.5
307.731	280.5
307.961	307.5
308.191	288.5
308.421	300.5
308.651	298.5
308.881	271.5
309.111	283.5
309.341	295.5
309.571	283.5
309.8	287.5
310.03	310.5
310.26	304.5
310.49	290.5
310.72	313.5
310.949	310.5
311.179	320.5
311.409	310.5
311.639	312.5
311.868	296.5
312.098	321.5
312.328	303.5
312.557	320.5
312.787	326.5
313.017	330.5
313.246	314.5
313.476	309.5
313.706	300.5
313.935	322.5
314.165	325.5
314.394	319.5
314.624	316.5
314.853	317.5
315.083	313.5
315.312	322.5
315.542	304.5
315.771	298.5
316.001	307.5
316.23	311.5
316.46	311.5
316.689	308.5
316.919	317.5
317.148	320.5
317.377	303.5
317.607	296.5
317.836	316.5
318.065	306.5
318.295	311.5
318.524	308.5
318.753	290.5
318.983	314.5
319.212	319.5
319.441	311.5
319.67	299.5
319.9	314.5
320.129	299.5
320.358	316.5
320.587	306.5
320.816	324.5
321.046	318.5
321.275	300.5
321.504	315.5
321.733	315.5
321.962	326.5
322.191	313.5
322.42	321.5
322.649	331.5
322.878	336.5
323.108	347.5
323.337	355.5
323.566	356.5
323.795	379.5
324.024	393.5
324.253	442.5
324.482	570.5
324.71	834.5
324.939	1089.5
325.168	901.5
325.397	521.5
325.626	390.5
325.855	364.5
326.084	375.5
326.313	371.5
326.542	360.5
326.77	383.5
326.999	437.5
327.228	571.5
327.457	759.5
327.686	810.5
327.914	593.5
328.143	439.5
328.372	397.5
328.6	400.5
328.829	399.5
329.058	403.5
329.287	408.5
329.515	414.5
329.744	373.5
329.972	373.5
330.201	411.5
330.43	405.5
330.658	424.5
330.887	411.5
331.115	409.5
331.344	384.5
331.572	380.5
331.801	374.5
332.03	364.5
332.258	410.5
332.486	369.5
332.715	371.5
332.943	385.5
333.172	393.5
333.4	391.5
333.629	404.5
333.857	400.5
334.085	413.5
334.314	440.5
334.542	428.5
334.771	426.5
334.999	417.5
335.227	388.5
335.455	389.5
335.684	392.5
335.912	381.5
336.14	384.5
336.369	375.5
336.597	372.5
336.825	361.5
337.053	369.5
337.281	374.5
337.51	360.5
337.738	370.5
337.966	347.5
338.194	345.5
338.422	353.5
338.65	340.5
338.878	353.5
339.106	339.5
339.334	375.5
339.562	355.5
339.79	353.5
340.018	363.5
340.246	368.5
340.474	325.5
340.702	344.5
340.93	338.5
341.158	354.5
341.386	338.5
341.614	356.5
341.842	338.5
342.07	355.5
342.298	346.5
342.526	333.5
342.754	327.5
342.981	341.5
343.209	333.5
343.437	348.5
343.665	353.5
343.893	382.5
344.12	397.5
344.348	371.5
344.576	373.5
344.804	368.5
345.031	346.5
345.259	365.5
345.487	375.5
345.714	336.5
345.942	337.5
346.17	336.5
346.397	352.5
346.625	352.5
346.853	332.5
347.08	325.5
347.308	331.5
347.535	335.5
347.763	321.5
347.99	313.5
348.218	330.5
348.445	338.5
348.673	330.5
348.9	335.5
349.128	342.5
349.355	323.5
349.583	328.5
349.81	307.5
350.037	305.5
350.265	330.5
350.492	330.5
350.72	321.5
350.947	328.5
351.174	335.5
351.402	341.5
351.629	332.5
351.856	351.5
352.083	349.5
352.311	327.5
352.538	339.5
352.765	306.5
352.992	319.5
353.22	339.5
353.447	335.5
353.674	319.5
353.901	338.5
354.128	314.5
354.355	309.5
354.583	322.5
354.81	313.5
355.037	316.5
355.264	318.5
355.491	326.5
355.718	321.5
355.945	317.5
356.172	303.5
356.399	319.5
356.626	310.5
356.853	310.5
357.08	317.5
357.307	317.5
357.534	323.5
357.761	298.5
357.988	319.5
358.215	301.5
358.441	289.5
358.668	307.5
358.895	298.5
359.122	317.5
359.349	327.5
359.576	331.5
359.802	330.5
360.029	349.5
360.256	340.5
360.483	333.5
360.709	332.5
360.936	328.5
361.163	323.5
361.39	325.5
361.616	307.5
361.843	321.5
362.07	319.5
362.296	328.5
362.523	333.5
362.749	323.5
362.976	323.5
363.203	321.5
363.429	313.5
363.656	310.5
363.882	306.5
364.109	303.5
364.335	321.5
364.562	323.5
364.788	310.5
365.015	307.5
365.241	311.5
365.468	319.5
365.694	314.5
365.92	313.5
366.147	313.5
366.373	326.5
366.599	327.5
366.826	346.5
367.052	308.5
367.278	328.5
367.505	319.5
367.731	319.5
367.957	323.5
368.184	314.5
368.41	327.5
368.636	313.5
368.862	349.5
369.089	331.5
369.315	316.5
369.541	317.5
369.767	305.5
369.993	329.5
370.219	314.5
370.445	318.5
370.672	332.5
370.898	318.5
371.124	319.5
371.35	314.5
371.576	317.5
371.802	309.5
372.028	329.5
372.254	325.5
372.48	316.5
372.706	323.5
372.932	331.5
373.158	331.5
373.384	348.5
373.61	319.5
373.835	331.5
374.061	321.5
374.287	327.5
374.513	339.5
374.739	359.5
374.965	349.5
375.191	351.5
375.416	327.5
375.642	327.5
375.868	350.5
376.094	334.5
376.319	316.5
376.545	329.5
376.771	330.5
376.997	334.5
377.222	328.5
377.448	324.5
377.674	323.5
377.899	298.5
378.125	318.5
378.35	321.5
378.576	323.5
378.802	323.5
379.027	299.5
379.253	322.5
379.478	316.5
379.704	320.5
379.929	327.5
380.155	331.5
380.38	328.5
380.606	330.5
380.831	293.5
381.057	297.5
381.282	325.5
381.507	317.5
381.733	317.5
381.958	332.5
382.184	319.5
382.409	337.5
382.634	340.5
382.86	335.5
383.085	332.5
383.31	323.5
383.535	350.5
383.761	334.5
383.986	340.5
384.211	331.5
384.436	346.5
384.662	355.5
384.887	356.5
385.112	354.5
385.337	372.5
385.562	367.5
385.787	349.5
386.013	367.5
386.238	361.5
386.463	375.5
386.688	353.5
386.913	351.5
387.138	362.5
387.363	364.5
387.588	347.5
387.813	360.5
388.038	344.5
388.263	378.5
388.488	356.5
388.713	358.5
388.938	349.5
389.163	352.5
389.387	364.5
389.612	340.5
389.837	358.5
390.062	360.5
390.287	368.5
390.512	369.5
390.736	365.5
390.961	379.5
391.186	359.5
391.411	371.5
391.636	379.5
391.86	352.5
392.085	389.5
392.31	395.5
392.534	377.5
392.759	365.5
392.984	359.5
393.208	362.5
393.433	367.5
393.658	377.5
393.882	390.5
394.107	371.5
394.331	357.5
394.556	373.5
394.78	350.5
395.005	365.5
395.229	372.5
395.454	379.5
395.678	393.5
395.903	371.5
396.127	387.5
396.352	377.5
396.576	382.5
396.801	375.5
397.025	375.5
397.249	373.5
397.474	376.5
397.698	389.5
397.922	379.5
398.147	397.5
398.371	405.5
398.595	423.5
398.82	432.5
399.044	429.5
399.268	464.5
399.492	479.5
399.717	553.5
399.941	533.5
400.165	533.5
400.389	503.5
400.613	475.5
400.837	459.5
401.062	439.5
401.286	416.5
401.51	396.5
401.734	419.5
401.958	423.5
402.182	434.5
402.406	451.5
402.63	444.5
402.854	436.5
403.078	436.5
403.302	451.5
403.526	455.5
403.75	431.5
403.974	450.5
404.198	453.5
404.422	470.5
404.645	460.5
404.869	455.5
405.093	469.5
405.317	509.5
405.541	486.5
405.765	481.5
405.988	439.5
406.212	455.5
406.436	443.5
406.66	487.5
406.883	480.5
407.107	491.5
407.331	504.5
407.555	561.5
407.778	531.5
408.002	507.5
408.226	474.5
408.449	474.5
408.673	482.5
408.896	485.5
409.12	512.5
409.344	502.5
409.567	445.5
409.791	436.5
410.014	440.5
410.238	420.5
410.461	433.5
410.685	437.5
410.908	450.5
411.132	477.5
411.355	447.5
411.578	466.5
411.802	435.5
412.025	417.5
412.249	439.5
412.472	447.5
412.695	474.5
412.919	459.5
413.142	429.5
413.365	395.5
413.589	434.5
413.812	416.5
414.035	426.5
414.258	420.5
414.482	421.5
414.705	415.5
414.928	412.5
415.151	410.5
415.374	407.5
415.597	410.5
415.821	416.5
416.044	415.5
416.267	415.5
416.49	412.5
416.713	401.5
416.936	425.5
417.159	412.5
417.382	410.5
417.605	416.5
417.828	431.5
418.051	428.5
418.274	433.5
418.497	419.5
418.72	425.5
418.943	427.5
419.166	436.5
419.389	463.5
419.611	450.5
419.834	452.5
420.057	445.5
420.28	415.5
420.503	419.5
420.726	427.5
420.948	441.5
421.171	444.5
421.394	465.5
421.617	422.5
421.839	439.5
422.062	432.5
422.285	442.5
422.507	469.5
422.73	473.5
422.953	487.5
423.175	455.5
423.398	443.5
423.621	443.5
423.843	456.5
424.066	442.5
424.288	443.5
424.511	470.5
424.733	491.5
424.956	521.5
425.178	489.5
425.401	492.5
425.623	504.5
425.846	459.5
426.068	434.5
426.291	427.5
426.513	441.5
426.735	473.5
426.958	456.5
427.18	488.5
427.402	555.5
427.625	611.5
427.847	513.5
428.069	474.5
428.292	441.5
428.514	413.5
428.736	415.5
428.958	409.5
429.181	376.5
429.403	397.5
429.625	411.5
429.847	427.5
430.069	443.5
430.292	452.5
430.514	399.5
430.736	391.5
430.958	408.5
431.18	389.5
431.402	381.5
431.624	388.5
431.846	388.5
432.068	392.5
432.29	392.5
432.512	380.5
432.734	389.5
432.956	384.5
433.178	412.5
433.4	399.5
433.622	391.5
433.844	394.5
434.066	386.5
434.287	385.5
434.509	396.5
434.731	406.5
434.953	426.5
435.175	437.5
435.397	435.5
435.618	427.5
435.84	448.5
436.062	500.5
436.284	516.5
436.505	437.5
436.727	415.5
436.949	395.5
437.17	409.5
437.392	390.5
437.614	413.5
437.835	401.5
438.057	455.5
438.278	518.5
438.5	506.5
438.721	572.5
438.943	526.5
439.165	444.5
439.386	419.5
439.608	409.5
439.829	425.5
440.05	424.5
440.272	461.5
440.493	451.5
440.715	415.5
440.936	410.5
441.158	424.5
441.379	433.5
441.6	448.5
441.822	453.5
442.043	484.5
442.264	514.5
442.486	520.5
442.707	467.5
442.928	447.5
443.149	434.5
443.371	456.5
443.592	479.5
443.813	540.5
444.034	539.5
444.255	517.5
444.476	458.5
444.698	467.5
444.919	464.5
445.14	567.5
445.361	498.5
445.582	449.5
445.803	487.5
446.024	524.5
446.245	548.5
446.466	514.5
446.687	455.5
446.908	411.5
447.129	389.5
447.35	390.5
447.571	387.5
447.792	377.5
448.013	391.5
448.234	413.5
448.455	413.5
448.675	476.5
448.896	541.5
449.117	470.5
449.338	460.5
449.559	518.5
449.779	570.5
450	471.5
450.221	394.5
450.442	388.5
450.662	379.5
450.883	411.5
451.104	416.5
451.324	377.5
451.545	381.5
451.766	360.5
451.986	362.5
452.207	380.5
452.428	350.5
452.648	352.5
452.869	373.5
453.089	375.5
453.31	358.5
453.53	367.5
453.751	336.5
453.971	371.5
454.192	365.5
454.412	343.5
454.633	359.5
454.853	355.5
455.073	349.5
455.294	375.5
455.514	408.5
455.734	395.5
455.955	351.5
456.175	351.5
456.395	341.5
456.616	336.5
456.836	346.5
457.056	348.5
457.276	333.5
457.497	352.5
457.717	349.5
457.937	348.5
458.157	332.5
458.377	347.5
458.598	349.5
458.818	386.5
459.038	453.5
459.258	454.5
459.478	406.5
459.698	395.5
459.918	389.5
460.138	404.5
460.358	419.5
460.578	421.5
460.798	435.5
461.018	421.5
461.238	408.5
461.458	419.5
461.678	435.5
461.898	433.5
462.118	439.5
462.338	412.5
462.558	449.5
462.777	465.5
462.997	480.5
463.217	491.5
463.437	472.5
463.657	461.5
463.876	432.5
464.096	486.5
464.316	451.5
464.536	453.5
464.755	450.5
464.975	461.5
465.195	476.5
465.414	466.5
465.634	424.5
465.854	404.5
466.073	389.5
466.293	378.5
466.512	388.5
466.732	382.5
466.951	381.5
467.171	403.5
467.391	385.5
467.61	386.5
467.829	394.5
468.049	388.5
468.268	377.5
468.488	348.5
468.707	365.5
468.927	371.5
469.146	367.5
469.365	346.5
469.585	354.5
469.804	368.5
470.023	397.5
470.243	377.5
470.462	389.5
470.681	395.5
470.901	390.5
471.12	383.5
471.339	371.5
471.558	383.5
471.777	392.5
471.997	363.5
472.216	378.5
472.435	409.5
472.654	392.5
472.873	392.5
473.092	376.5
473.311	360.5
473.53	384.5
473.749	385.5
473.968	403.5
474.187	434.5
474.406	441.5
474.625	390.5
474.844	347.5
475.063	387.5
475.282	365.5
475.501	380.5
475.72	391.5
475.939	372.5
476.158	389.5
476.377	387.5
476.596	375.5
476.814	380.5
477.033	387.5
477.252	403.5
477.471	384.5
477.69	400.5
477.908	413.5
478.127	434.5
478.346	404.5
478.564	432.5
478.783	405.5
479.002	428.5
479.22	442.5
479.439	463.5
479.658	457.5
479.876	451.5
480.095	442.5
480.313	487.5
480.532	478.5
480.751	478.5
480.969	473.5
481.188	486.5
481.406	507.5
481.624	475.5
481.843	448.5
482.061	441.5
482.28	444.5
482.498	436.5
482.717	417.5
482.935	415.5
483.153	425.5
483.372	424.5
483.59	419.5
483.808	428.5
484.027	416.5
484.245	431.5
484.463	433.5
484.681	453.5
484.9	435.5
485.118	428.5
485.336	423.5
485.554	442.5
485.772	434.5
485.99	436.5
486.209	444.5
486.427	452.5
486.645	458.5
486.863	452.5
487.081	443.5
487.299	468.5
487.517	452.5
487.735	459.5
487.953	467.5
488.171	457.5
488.389	465.5
488.607	447.5
488.825	432.5
489.043	467.5
489.261	462.5
489.479	454.5
489.696	456.5
489.914	485.5
490.132	476.5
490.35	477.5
490.568	479.5
490.786	478.5
491.003	479.5
491.221	499.5
491.439	497.5
491.657	498.5
491.874	501.5
492.092	507.5
492.31	509.5
492.527	525.5
492.745	541.5
492.963	532.5
493.18	533.5
493.398	532.5
493.615	541.5
493.833	538.5
494.05	553.5
494.268	538.5
494.485	540.5
494.703	524.5
494.92	531.5
495.138	535.5
495.355	532.5
495.573	537.5
495.79	527.5
496.008	541.5
496.225	569.5
496.442	569.5
496.66	557.5
496.877	555.5
497.094	541.5
497.312	557.5
497.529	556.5
497.746	582.5
497.963	585.5
498.181	592.5
498.398	593.5
498.615	608.5
498.832	627.5
499.049	668.5
499.267	696.5
499.484	744.5
499.701	801.5
499.918	821.5
500.135	892.5
500.352	952.5
500.569	992.5
500.786	968.5
501.003	916.5
501.22	891.5
501.437	843.5
501.654	799.5
501.871	732.5
502.088	698.5
502.305	672.5
502.522	633.5
502.739	630.5
502.956	611.5
503.172	597.5
503.389	570.5
503.606	564.5
503.823	565.5
504.04	554.5
504.256	551.5
504.473	565.5
504.69	563.5
504.907	564.5
505.123	547.5
505.34	517.5
505.557	522.5
505.773	519.5
505.99	502.5
506.207	483.5
506.423	497.5
506.64	496.5
506.856	496.5
507.073	491.5
507.289	486.5
507.506	503.5
507.722	485.5
507.939	484.5
508.155	472.5
508.372	448.5
508.588	443.5
508.805	451.5
509.021	470.5
509.238	468.5
509.454	478.5
509.67	438.5
509.887	456.5
510.103	453.5
510.319	471.5
510.536	495.5
510.752	694.5
510.968	634.5
511.184	456.5
511.401	437.5
511.617	448.5
511.833	439.5
512.049	437.5
512.265	425.5
512.481	420.5
512.698	447.5
512.914	425.5
513.13	432.5
513.346	437.5
513.562	444.5
513.778	424.5
513.994	423.5
514.21	447.5
514.426	453.5
514.642	471.5
514.858	477.5
515.074	481.5
515.29	530.5
515.506	715.5
515.721	634.5
515.937	488.5
516.153	476.5
516.369	473.5
516.585	477.5
516.801	473.5
517.016	472.5
517.232	505.5
517.448	506.5
517.664	512.5
517.879	504.5
518.095	528.5
518.311	498.5
518.527	482.5
518.742	474.5
518.958	470.5
519.173	452.5
519.389	449.5
519.605	451.5
519.82	459.5
520.036	439.5
