Data from 1969.PennyLincolnUp.Lamp.En5.5.200Scan.071719.P1._HRD10591_14-55-20-973.txt Node
Date: Thu Jul 18 14:55:20 EDT 2019
User: cochatt
Spectrometer: HR+D1059
Trigger mode: 1
Integration Time (sec): 1.000000E-1
Scans to average: 1
Electric dark correction enabled: true
Nonlinearity correction enabled: false
Boxcar width: 0
XAxis mode: Wavelengths
Number of Pixels in Spectrum: 2048
>>>>>Begin Spectral Data<<<<<
223.165	-12.69
223.4	-12.69
223.635	-12.69
223.869	-13.69
224.104	-5.69
224.338	-17.69
224.573	-9.69
224.808	-25.69
225.042	-11.69
225.277	-15.69
225.511	-5.69
225.746	11.31
225.98	7.31
226.215	13.31
226.449	4.31
226.683	23.31
226.918	29.31
227.152	29.31
227.387	8.31
227.621	42.31
227.856	49.31
228.09	50.31
228.324	52.31
228.559	46.31
228.793	62.31
229.027	69.31
229.262	86.31
229.496	92.31
229.73	98.31
229.964	110.31
230.199	110.31
230.433	83.31
230.667	101.31
230.901	110.31
231.136	86.31
231.37	89.31
231.604	93.31
231.838	90.31
232.072	91.31
232.306	110.31
232.541	97.31
232.775	99.31
233.009	100.31
233.243	115.31
233.477	106.31
233.711	96.31
233.945	107.31
234.179	109.31
234.413	113.31
234.647	105.31
234.881	101.31
235.115	108.31
235.349	105.31
235.583	110.31
235.817	97.31
236.051	100.31
236.285	129.31
236.519	99.31
236.753	111.31
236.987	126.31
237.221	150.31
237.455	163.31
237.689	136.31
237.922	104.31
238.156	112.31
238.39	106.31
238.624	120.31
238.858	127.31
239.091	100.31
239.325	107.31
239.559	109.31
239.793	119.31
240.027	124.31
240.26	122.31
240.494	136.31
240.728	122.31
240.961	133.31
241.195	125.31
241.429	122.31
241.662	119.31
241.896	118.31
242.13	107.31
242.363	128.31
242.597	122.31
242.83	125.31
243.064	125.31
243.298	113.31
243.531	111.31
243.765	117.31
243.998	130.31
244.232	140.31
244.465	128.31
244.699	129.31
244.932	133.31
245.166	121.31
245.399	119.31
245.633	119.31
245.866	140.31
246.099	108.31
246.333	144.31
246.566	132.31
246.8	129.31
247.033	129.31
247.266	119.31
247.5	140.31
247.733	131.31
247.966	142.31
248.2	136.31
248.433	135.31
248.666	150.31
248.899	148.31
249.133	161.31
249.366	176.31
249.599	162.31
249.832	134.31
250.066	145.31
250.299	164.31
250.532	149.31
250.765	165.31
250.998	172.31
251.231	167.31
251.465	170.31
251.698	166.31
251.931	161.31
252.164	179.31
252.397	163.31
252.63	179.31
252.863	171.31
253.096	163.31
253.329	188.31
253.562	173.31
253.795	174.31
254.028	158.31
254.261	166.31
254.494	178.31
254.727	202.31
254.96	208.31
255.193	198.31
255.426	189.31
255.659	154.31
255.892	188.31
256.124	176.31
256.357	205.31
256.59	194.31
256.823	166.31
257.056	172.31
257.289	171.31
257.521	180.31
257.754	162.31
257.987	176.31
258.22	173.31
258.452	162.31
258.685	171.31
258.918	166.31
259.151	179.31
259.383	178.31
259.616	183.31
259.849	192.31
260.081	195.31
260.314	201.31
260.547	194.31
260.779	189.31
261.012	186.31
261.244	196.31
261.477	200.31
261.71	180.31
261.942	188.31
262.175	194.31
262.407	170.31
262.64	170.31
262.872	185.31
263.105	176.31
263.337	188.31
263.57	182.31
263.802	181.31
264.035	200.31
264.267	170.31
264.499	179.31
264.732	178.31
264.964	188.31
265.197	183.31
265.429	178.31
265.661	188.31
265.894	190.31
266.126	205.31
266.358	186.31
266.591	196.31
266.823	171.31
267.055	188.31
267.287	196.31
267.52	195.31
267.752	201.31
267.984	193.31
268.216	193.31
268.448	201.31
268.681	201.31
268.913	197.31
269.145	218.31
269.377	211.31
269.609	234.31
269.841	209.31
270.073	221.31
270.306	236.31
270.538	243.31
270.77	248.31
271.002	235.31
271.234	228.31
271.466	232.31
271.698	244.31
271.93	244.31
272.162	253.31
272.394	256.31
272.626	242.31
272.858	232.31
273.09	240.31
273.322	224.31
273.553	231.31
273.785	227.31
274.017	221.31
274.249	230.31
274.481	208.31
274.713	229.31
274.945	228.31
275.176	236.31
275.408	213.31
275.64	217.31
275.872	224.31
276.104	226.31
276.335	217.31
276.567	216.31
276.799	234.31
277.031	250.31
277.262	261.31
277.494	267.31
277.726	229.31
277.957	248.31
278.189	233.31
278.421	229.31
278.652	240.31
278.884	224.31
279.115	228.31
279.347	223.31
279.579	238.31
279.81	230.31
280.042	211.31
280.273	219.31
280.505	229.31
280.736	224.31
280.968	219.31
281.199	218.31
281.431	222.31
281.662	214.31
281.894	240.31
282.125	236.31
282.356	238.31
282.588	243.31
282.819	245.31
283.051	232.31
283.282	238.31
283.513	221.31
283.745	242.31
283.976	233.31
284.207	232.31
284.439	262.31
284.67	236.31
284.901	251.31
285.132	244.31
285.364	246.31
285.595	235.31
285.826	241.31
286.057	238.31
286.288	234.31
286.52	248.31
286.751	255.31
286.982	259.31
287.213	235.31
287.444	249.31
287.675	248.31
287.906	263.31
288.138	250.31
288.369	266.31
288.6	251.31
288.831	256.31
289.062	246.31
289.293	264.31
289.524	265.31
289.755	233.31
289.986	252.31
290.217	254.31
290.448	259.31
290.679	252.31
290.91	246.31
291.141	242.31
291.371	248.31
291.602	259.31
291.833	237.31
292.064	245.31
292.295	252.31
292.526	262.31
292.757	234.31
292.987	251.31
293.218	249.31
293.449	275.31
293.68	243.31
293.91	256.31
294.141	245.31
294.372	258.31
294.603	258.31
294.833	257.31
295.064	270.31
295.295	244.31
295.525	235.31
295.756	252.31
295.987	257.31
296.217	275.31
296.448	295.31
296.679	272.31
296.909	254.31
297.14	260.31
297.37	256.31
297.601	282.31
297.831	260.31
298.062	262.31
298.292	262.31
298.523	265.31
298.753	260.31
298.984	258.31
299.214	243.31
299.445	276.31
299.675	271.31
299.905	286.31
300.136	262.31
300.366	290.31
300.597	293.31
300.827	276.31
301.057	281.31
301.288	310.31
301.518	301.31
301.748	273.31
301.979	272.31
302.209	282.31
302.439	284.31
302.669	281.31
302.9	289.31
303.13	282.31
303.36	295.31
303.59	280.31
303.82	294.31
304.051	289.31
304.281	297.31
304.511	269.31
304.741	293.31
304.971	303.31
305.201	280.31
305.431	293.31
305.661	287.31
305.891	314.31
306.121	279.31
306.352	292.31
306.582	285.31
306.812	292.31
307.042	300.31
307.272	286.31
307.502	281.31
307.731	292.31
307.961	285.31
308.191	282.31
308.421	296.31
308.651	299.31
308.881	297.31
309.111	287.31
309.341	297.31
309.571	294.31
309.8	305.31
310.03	301.31
310.26	312.31
310.49	301.31
310.72	321.31
310.949	308.31
311.179	314.31
311.409	317.31
311.639	301.31
311.868	286.31
312.098	314.31
312.328	313.31
312.557	323.31
312.787	321.31
313.017	324.31
313.246	335.31
313.476	292.31
313.706	312.31
313.935	315.31
314.165	323.31
314.394	332.31
314.624	356.31
314.853	331.31
315.083	310.31
315.312	329.31
315.542	315.31
315.771	306.31
316.001	320.31
316.23	310.31
316.46	299.31
316.689	308.31
316.919	327.31
317.148	317.31
317.377	301.31
317.607	310.31
317.836	323.31
318.065	318.31
318.295	326.31
318.524	295.31
318.753	312.31
318.983	307.31
319.212	317.31
319.441	315.31
319.67	321.31
319.9	317.31
320.129	308.31
320.358	313.31
320.587	330.31
320.816	308.31
321.046	317.31
321.275	312.31
321.504	318.31
321.733	319.31
321.962	341.31
322.191	330.31
322.42	344.31
322.649	352.31
322.878	348.31
323.108	340.31
323.337	378.31
323.566	371.31
323.795	378.31
324.024	397.31
324.253	440.31
324.482	610.31
324.71	852.31
324.939	1110.31
325.168	939.31
325.397	548.31
325.626	415.31
325.855	382.31
326.084	381.31
326.313	376.31
326.542	380.31
326.77	398.31
326.999	432.31
327.228	553.31
327.457	790.31
327.686	853.31
327.914	595.31
328.143	449.31
328.372	428.31
328.6	420.31
328.829	395.31
329.058	434.31
329.287	436.31
329.515	409.31
329.744	417.31
329.972	391.31
330.201	400.31
330.43	413.31
330.658	421.31
330.887	432.31
331.115	429.31
331.344	388.31
331.572	408.31
331.801	390.31
332.03	384.31
332.258	392.31
332.486	382.31
332.715	377.31
332.943	374.31
333.172	412.31
333.4	397.31
333.629	395.31
333.857	424.31
334.085	420.31
334.314	429.31
334.542	445.31
334.771	427.31
334.999	419.31
335.227	412.31
335.455	393.31
335.684	393.31
335.912	393.31
336.14	386.31
336.369	376.31
336.597	382.31
336.825	391.31
337.053	356.31
337.281	359.31
337.51	374.31
337.738	360.31
337.966	380.31
338.194	359.31
338.422	374.31
338.65	352.31
338.878	354.31
339.106	374.31
339.334	361.31
339.562	368.31
339.79	342.31
340.018	346.31
340.246	358.31
340.474	364.31
340.702	366.31
340.93	347.31
341.158	361.31
341.386	352.31
341.614	353.31
341.842	353.31
342.07	355.31
342.298	346.31
342.526	353.31
342.754	339.31
342.981	341.31
343.209	346.31
343.437	354.31
343.665	389.31
343.893	394.31
344.12	382.31
344.348	384.31
344.576	372.31
344.804	382.31
345.031	362.31
345.259	361.31
345.487	360.31
345.714	349.31
345.942	336.31
346.17	334.31
346.397	344.31
346.625	328.31
346.853	326.31
347.08	314.31
347.308	360.31
347.535	330.31
347.763	356.31
347.99	334.31
348.218	347.31
348.445	340.31
348.673	349.31
348.9	339.31
349.128	324.31
349.355	332.31
349.583	324.31
349.81	337.31
350.037	341.31
350.265	342.31
350.492	344.31
350.72	342.31
350.947	334.31
351.174	342.31
351.402	351.31
351.629	320.31
351.856	339.31
352.083	344.31
352.311	356.31
352.538	349.31
352.765	342.31
352.992	345.31
353.22	331.31
353.447	325.31
353.674	322.31
353.901	331.31
354.128	320.31
354.355	329.31
354.583	325.31
354.81	320.31
355.037	322.31
355.264	320.31
355.491	312.31
355.718	323.31
355.945	324.31
356.172	317.31
356.399	324.31
356.626	317.31
356.853	317.31
357.08	302.31
357.307	320.31
357.534	318.31
357.761	304.31
357.988	323.31
358.215	312.31
358.441	320.31
358.668	303.31
358.895	333.31
359.122	317.31
359.349	337.31
359.576	337.31
359.802	327.31
360.029	356.31
360.256	358.31
360.483	349.31
360.709	325.31
360.936	338.31
361.163	348.31
361.39	340.31
361.616	317.31
361.843	328.31
362.07	312.31
362.296	340.31
362.523	340.31
362.749	340.31
362.976	332.31
363.203	320.31
363.429	322.31
363.656	322.31
363.882	331.31
364.109	332.31
364.335	322.31
364.562	309.31
364.788	325.31
365.015	324.31
365.241	326.31
365.468	321.31
365.694	349.31
365.92	322.31
366.147	333.31
366.373	323.31
366.599	306.31
366.826	338.31
367.052	307.31
367.278	328.31
367.505	333.31
367.731	330.31
367.957	322.31
368.184	330.31
368.41	333.31
368.636	346.31
368.862	314.31
369.089	338.31
369.315	325.31
369.541	334.31
369.767	333.31
369.993	336.31
370.219	322.31
370.445	311.31
370.672	322.31
370.898	330.31
371.124	345.31
371.35	334.31
371.576	332.31
371.802	325.31
372.028	339.31
372.254	336.31
372.48	330.31
372.706	340.31
372.932	329.31
373.158	337.31
373.384	341.31
373.61	332.31
373.835	328.31
374.061	318.31
374.287	324.31
374.513	342.31
374.739	352.31
374.965	360.31
375.191	351.31
375.416	340.31
375.642	345.31
375.868	340.31
376.094	325.31
376.319	322.31
376.545	338.31
376.771	328.31
376.997	327.31
377.222	340.31
377.448	344.31
377.674	318.31
377.899	331.31
378.125	317.31
378.35	323.31
378.576	324.31
378.802	323.31
379.027	316.31
379.253	329.31
379.478	337.31
379.704	328.31
379.929	343.31
380.155	322.31
380.38	326.31
380.606	324.31
380.831	325.31
381.057	353.31
381.282	322.31
381.507	319.31
381.733	323.31
381.958	320.31
382.184	345.31
382.409	332.31
382.634	339.31
382.86	328.31
383.085	341.31
383.31	353.31
383.535	356.31
383.761	345.31
383.986	354.31
384.211	364.31
384.436	351.31
384.662	359.31
384.887	365.31
385.112	360.31
385.337	356.31
385.562	361.31
385.787	374.31
386.013	390.31
386.238	383.31
386.463	376.31
386.688	368.31
386.913	361.31
387.138	362.31
387.363	392.31
387.588	364.31
387.813	358.31
388.038	390.31
388.263	382.31
388.488	363.31
388.713	374.31
388.938	371.31
389.163	350.31
389.387	359.31
389.612	365.31
389.837	352.31
390.062	343.31
390.287	363.31
390.512	357.31
390.736	378.31
390.961	368.31
391.186	358.31
391.411	378.31
391.636	384.31
391.86	372.31
392.085	399.31
392.31	404.31
392.534	396.31
392.759	364.31
392.984	370.31
393.208	372.31
393.433	373.31
393.658	385.31
393.882	369.31
394.107	377.31
394.331	369.31
394.556	375.31
394.78	386.31
395.005	382.31
395.229	396.31
395.454	394.31
395.678	398.31
395.903	389.31
396.127	416.31
396.352	393.31
396.576	392.31
396.801	391.31
397.025	408.31
397.249	387.31
397.474	396.31
397.698	401.31
397.922	410.31
398.147	399.31
398.371	408.31
398.595	416.31
398.82	432.31
399.044	465.31
399.268	485.31
399.492	520.31
399.717	538.31
399.941	565.31
400.165	536.31
400.389	519.31
400.613	480.31
400.837	442.31
401.062	441.31
401.286	447.31
401.51	434.31
401.734	434.31
401.958	435.31
402.182	428.31
402.406	448.31
402.63	440.31
402.854	446.31
403.078	478.31
403.302	449.31
403.526	467.31
403.75	464.31
403.974	461.31
404.198	460.31
404.422	476.31
404.645	465.31
404.869	457.31
405.093	492.31
405.317	516.31
405.541	508.31
405.765	482.31
405.988	458.31
406.212	470.31
406.436	479.31
406.66	514.31
406.883	504.31
407.107	488.31
407.331	526.31
407.555	566.31
407.778	550.31
408.002	529.31
408.226	497.31
408.449	470.31
408.673	471.31
408.896	492.31
409.12	508.31
409.344	505.31
409.567	462.31
409.791	459.31
410.014	446.31
410.238	452.31
410.461	447.31
410.685	435.31
410.908	459.31
411.132	459.31
411.355	487.31
411.578	466.31
411.802	438.31
412.025	452.31
412.249	451.31
412.472	458.31
412.695	486.31
412.919	479.31
413.142	454.31
413.365	451.31
413.589	453.31
413.812	425.31
414.035	432.31
414.258	435.31
414.482	443.31
414.705	415.31
414.928	441.31
415.151	408.31
415.374	432.31
415.597	420.31
415.821	385.31
416.044	422.31
416.267	417.31
416.49	422.31
416.713	414.31
416.936	404.31
417.159	411.31
417.382	429.31
417.605	433.31
417.828	429.31
418.051	446.31
418.274	460.31
418.497	424.31
418.72	424.31
418.943	427.31
419.166	426.31
419.389	464.31
419.611	464.31
419.834	468.31
420.057	426.31
420.28	444.31
420.503	420.31
420.726	434.31
420.948	453.31
421.171	469.31
421.394	464.31
421.617	449.31
421.839	446.31
422.062	452.31
422.285	436.31
422.507	477.31
422.73	508.31
422.953	498.31
423.175	468.31
423.398	469.31
423.621	460.31
423.843	480.31
424.066	450.31
424.288	473.31
424.511	473.31
424.733	524.31
424.956	530.31
425.178	543.31
425.401	512.31
425.623	529.31
425.846	467.31
426.068	437.31
426.291	446.31
426.513	433.31
426.735	453.31
426.958	464.31
427.18	508.31
427.402	574.31
427.625	593.31
427.847	530.31
428.069	466.31
428.292	445.31
428.514	439.31
428.736	422.31
428.958	422.31
429.181	410.31
429.403	416.31
429.625	415.31
429.847	417.31
430.069	470.31
430.292	454.31
430.514	390.31
430.736	396.31
430.958	417.31
431.18	394.31
431.402	400.31
431.624	383.31
431.846	376.31
432.068	384.31
432.29	412.31
432.512	414.31
432.734	401.31
432.956	405.31
433.178	413.31
433.4	402.31
433.622	406.31
433.844	405.31
434.066	405.31
434.287	410.31
434.509	409.31
434.731	434.31
434.953	442.31
435.175	429.31
435.397	439.31
435.618	442.31
435.84	471.31
436.062	508.31
436.284	517.31
436.505	477.31
436.727	420.31
436.949	420.31
437.17	419.31
437.392	415.31
437.614	418.31
437.835	440.31
438.057	468.31
438.278	519.31
438.5	512.31
438.721	570.31
438.943	560.31
439.165	455.31
439.386	437.31
439.608	427.31
439.829	427.31
440.05	450.31
440.272	467.31
440.493	432.31
440.715	405.31
440.936	429.31
441.158	421.31
441.379	430.31
441.6	441.31
441.822	460.31
442.043	478.31
442.264	534.31
442.486	524.31
442.707	466.31
442.928	469.31
443.149	461.31
443.371	461.31
443.592	490.31
443.813	556.31
444.034	580.31
444.255	531.31
444.476	453.31
444.698	487.31
444.919	483.31
445.14	580.31
445.361	532.31
445.582	479.31
445.803	512.31
446.024	551.31
446.245	543.31
446.466	487.31
446.687	459.31
446.908	428.31
447.129	417.31
447.35	416.31
447.571	401.31
447.792	380.31
448.013	402.31
448.234	404.31
448.455	452.31
448.675	498.31
448.896	554.31
449.117	484.31
449.338	470.31
449.559	522.31
449.779	572.31
450	470.31
450.221	423.31
450.442	393.31
450.662	382.31
450.883	408.31
451.104	404.31
451.324	395.31
451.545	378.31
451.766	394.31
451.986	372.31
452.207	355.31
452.428	347.31
452.648	369.31
452.869	376.31
453.089	380.31
453.31	373.31
453.53	352.31
453.751	358.31
453.971	360.31
454.192	364.31
454.412	360.31
454.633	356.31
454.853	357.31
455.073	378.31
455.294	372.31
455.514	420.31
455.734	404.31
455.955	354.31
456.175	355.31
456.395	330.31
456.616	356.31
456.836	365.31
457.056	369.31
457.276	333.31
457.497	353.31
457.717	344.31
457.937	353.31
458.157	358.31
458.377	364.31
458.598	402.31
458.818	392.31
459.038	469.31
459.258	450.31
459.478	422.31
459.698	389.31
459.918	410.31
460.138	402.31
460.358	425.31
460.578	431.31
460.798	416.31
461.018	434.31
461.238	425.31
461.458	444.31
461.678	445.31
461.898	414.31
462.118	430.31
462.338	437.31
462.558	442.31
462.777	460.31
462.997	490.31
463.217	516.31
463.437	522.31
463.657	481.31
463.876	458.31
464.096	466.31
464.316	484.31
464.536	463.31
464.755	469.31
464.975	478.31
465.195	467.31
465.414	466.31
465.634	414.31
465.854	417.31
466.073	399.31
466.293	410.31
466.512	375.31
466.732	359.31
466.951	375.31
467.171	396.31
467.391	384.31
467.61	394.31
467.829	399.31
468.049	393.31
468.268	378.31
468.488	378.31
468.707	381.31
468.927	356.31
469.146	370.31
469.365	370.31
469.585	373.31
469.804	408.31
470.023	396.31
470.243	394.31
470.462	384.31
470.681	417.31
470.901	396.31
471.12	386.31
471.339	371.31
471.558	404.31
471.777	371.31
471.997	391.31
472.216	372.31
472.435	406.31
472.654	386.31
472.873	378.31
473.092	370.31
473.311	369.31
473.53	386.31
473.749	382.31
473.968	415.31
474.187	461.31
474.406	474.31
474.625	403.31
474.844	397.31
475.063	393.31
475.282	397.31
475.501	386.31
475.72	390.31
475.939	378.31
476.158	391.31
476.377	397.31
476.596	396.31
476.814	384.31
477.033	404.31
477.252	396.31
477.471	381.31
477.69	422.31
477.908	420.31
478.127	429.31
478.346	451.31
478.564	446.31
478.783	433.31
479.002	453.31
479.22	468.31
479.439	445.31
479.658	454.31
479.876	473.31
480.095	444.31
480.313	517.31
480.532	496.31
480.751	485.31
480.969	479.31
481.188	489.31
481.406	523.31
481.624	465.31
481.843	470.31
482.061	433.31
482.28	428.31
482.498	429.31
482.717	429.31
482.935	426.31
483.153	440.31
483.372	434.31
483.59	420.31
483.808	436.31
484.027	427.31
484.245	446.31
484.463	465.31
484.681	448.31
484.9	436.31
485.118	464.31
485.336	481.31
485.554	468.31
485.772	456.31
485.99	458.31
486.209	468.31
486.427	457.31
486.645	458.31
486.863	475.31
487.081	450.31
487.299	460.31
487.517	464.31
487.735	456.31
487.953	461.31
488.171	466.31
488.389	470.31
488.607	458.31
488.825	470.31
489.043	471.31
489.261	451.31
489.479	460.31
489.696	470.31
489.914	478.31
490.132	469.31
490.35	482.31
490.568	490.31
490.786	498.31
491.003	501.31
491.221	501.31
491.439	533.31
491.657	516.31
491.874	536.31
492.092	532.31
492.31	545.31
492.527	540.31
492.745	526.31
492.963	537.31
493.18	542.31
493.398	537.31
493.615	562.31
493.833	568.31
494.05	560.31
494.268	534.31
494.485	526.31
494.703	533.31
494.92	544.31
495.138	528.31
495.355	525.31
495.573	537.31
495.79	575.31
496.008	555.31
496.225	563.31
496.442	556.31
496.66	561.31
496.877	555.31
497.094	556.31
497.312	573.31
497.529	564.31
497.746	594.31
497.963	597.31
498.181	607.31
498.398	606.31
498.615	636.31
498.832	627.31
499.049	690.31
499.267	712.31
499.484	758.31
499.701	800.31
499.918	826.31
500.135	880.31
500.352	965.31
500.569	993.31
500.786	982.31
501.003	957.31
501.22	884.31
501.437	813.31
501.654	828.31
501.871	758.31
502.088	674.31
