Data from 1969.PennyLincolnUp.Lamp.En5.5.200Scan.071719.P1._HRD10591_14-56-04-019.txt Node
Date: Thu Jul 18 14:56:04 EDT 2019
User: cochatt
Spectrometer: HR+D1059
Trigger mode: 1
Integration Time (sec): 1.000000E-1
Scans to average: 1
Electric dark correction enabled: true
Nonlinearity correction enabled: false
Boxcar width: 0
XAxis mode: Wavelengths
Number of Pixels in Spectrum: 2048
>>>>>Begin Spectral Data<<<<<
223.165	-14.12
223.4	-14.12
223.635	-14.12
223.869	-18.12
224.104	-13.12
224.338	-14.12
224.573	-25.12
224.808	-13.12
225.042	2.88
225.277	-19.12
225.511	1.88
225.746	11.88
225.98	-0.12
226.215	-2.12
226.449	27.88
226.683	17.88
226.918	26.88
227.152	29.88
227.387	21.88
227.621	28.88
227.856	38.88
228.09	39.88
228.324	32.88
228.559	45.88
228.793	53.88
229.027	80.88
229.262	85.88
229.496	98.88
229.73	106.88
229.964	114.88
230.199	95.88
230.433	105.88
230.667	104.88
230.901	97.88
231.136	85.88
231.37	88.88
231.604	102.88
231.838	106.88
232.072	101.88
232.306	105.88
232.541	99.88
232.775	94.88
233.009	98.88
233.243	101.88
233.477	111.88
233.711	108.88
233.945	101.88
234.179	105.88
234.413	118.88
234.647	98.88
234.881	109.88
235.115	109.88
235.349	110.88
235.583	112.88
235.817	106.88
236.051	101.88
236.285	101.88
236.519	121.88
236.753	118.88
236.987	119.88
237.221	137.88
237.455	154.88
237.689	152.88
237.922	123.88
238.156	106.88
238.39	119.88
238.624	100.88
238.858	109.88
239.091	109.88
239.325	118.88
239.559	117.88
239.793	114.88
240.027	129.88
240.26	126.88
240.494	117.88
240.728	125.88
240.961	126.88
241.195	118.88
241.429	127.88
241.662	136.88
241.896	131.88
242.13	111.88
242.363	119.88
242.597	112.88
242.83	116.88
243.064	127.88
243.298	125.88
243.531	119.88
243.765	122.88
243.998	128.88
244.232	116.88
244.465	139.88
244.699	117.88
244.932	132.88
245.166	122.88
245.399	125.88
245.633	123.88
245.866	133.88
246.099	127.88
246.333	142.88
246.566	110.88
246.8	124.88
247.033	134.88
247.266	127.88
247.5	150.88
247.733	143.88
247.966	145.88
248.2	159.88
248.433	134.88
248.666	153.88
248.899	156.88
249.133	166.88
249.366	158.88
249.599	152.88
249.832	149.88
250.066	167.88
250.299	155.88
250.532	165.88
250.765	175.88
250.998	192.88
251.231	177.88
251.465	178.88
251.698	178.88
251.931	163.88
252.164	177.88
252.397	159.88
252.63	169.88
252.863	177.88
253.096	180.88
253.329	192.88
253.562	194.88
253.795	184.88
254.028	170.88
254.261	190.88
254.494	181.88
254.727	191.88
254.96	221.88
255.193	210.88
255.426	213.88
255.659	193.88
255.892	192.88
256.124	190.88
256.357	205.88
256.59	194.88
256.823	193.88
257.056	178.88
257.289	199.88
257.521	187.88
257.754	171.88
257.987	174.88
258.22	173.88
258.452	177.88
258.685	169.88
258.918	186.88
259.151	189.88
259.383	188.88
259.616	192.88
259.849	180.88
260.081	176.88
260.314	208.88
260.547	206.88
260.779	210.88
261.012	178.88
261.244	181.88
261.477	201.88
261.71	163.88
261.942	171.88
262.175	189.88
262.407	177.88
262.64	177.88
262.872	184.88
263.105	181.88
263.337	175.88
263.57	189.88
263.802	188.88
264.035	175.88
264.267	189.88
264.499	171.88
264.732	199.88
264.964	189.88
265.197	199.88
265.429	183.88
265.661	199.88
265.894	189.88
266.126	195.88
266.358	169.88
266.591	170.88
266.823	202.88
267.055	189.88
267.287	196.88
267.52	193.88
267.752	195.88
267.984	198.88
268.216	211.88
268.448	200.88
268.681	184.88
268.913	214.88
269.145	228.88
269.377	233.88
269.609	232.88
269.841	243.88
270.073	221.88
270.306	261.88
270.538	252.88
270.77	266.88
271.002	237.88
271.234	226.88
271.466	238.88
271.698	251.88
271.93	248.88
272.162	257.88
272.394	257.88
272.626	238.88
272.858	243.88
273.09	224.88
273.322	223.88
273.553	233.88
273.785	237.88
274.017	225.88
274.249	233.88
274.481	216.88
274.713	223.88
274.945	237.88
275.176	223.88
275.408	228.88
275.64	215.88
275.872	213.88
276.104	223.88
276.335	221.88
276.567	226.88
276.799	223.88
277.031	247.88
277.262	243.88
277.494	251.88
277.726	262.88
277.957	241.88
278.189	241.88
278.421	228.88
278.652	238.88
278.884	241.88
279.115	224.88
279.347	229.88
279.579	233.88
279.81	249.88
280.042	243.88
280.273	225.88
280.505	253.88
280.736	237.88
280.968	230.88
281.199	238.88
281.431	228.88
281.662	235.88
281.894	235.88
282.125	256.88
282.356	243.88
282.588	251.88
282.819	260.88
283.051	244.88
283.282	268.88
283.513	248.88
283.745	241.88
283.976	247.88
284.207	262.88
284.439	252.88
284.67	242.88
284.901	259.88
285.132	245.88
285.364	241.88
285.595	250.88
285.826	237.88
286.057	258.88
286.288	256.88
286.52	259.88
286.751	246.88
286.982	248.88
287.213	244.88
287.444	259.88
287.675	270.88
287.906	280.88
288.138	268.88
288.369	264.88
288.6	281.88
288.831	280.88
289.062	259.88
289.293	261.88
289.524	264.88
289.755	250.88
289.986	279.88
290.217	251.88
290.448	259.88
290.679	257.88
290.91	268.88
291.141	249.88
291.371	269.88
291.602	260.88
291.833	246.88
292.064	267.88
292.295	252.88
292.526	264.88
292.757	263.88
292.987	265.88
293.218	278.88
293.449	265.88
293.68	258.88
293.91	263.88
294.141	262.88
294.372	258.88
294.603	263.88
294.833	268.88
295.064	253.88
295.295	278.88
295.525	265.88
295.756	262.88
295.987	272.88
296.217	285.88
296.448	285.88
296.679	268.88
296.909	269.88
297.14	271.88
297.37	287.88
297.601	272.88
297.831	282.88
298.062	282.88
298.292	270.88
298.523	280.88
298.753	288.88
298.984	274.88
299.214	276.88
299.445	292.88
299.675	269.88
299.905	280.88
300.136	279.88
300.366	279.88
300.597	290.88
300.827	281.88
301.057	289.88
301.288	290.88
301.518	299.88
301.748	294.88
301.979	313.88
302.209	285.88
302.439	283.88
302.669	306.88
302.9	291.88
303.13	273.88
303.36	282.88
303.59	313.88
303.82	289.88
304.051	299.88
304.281	307.88
304.511	294.88
304.741	281.88
304.971	290.88
305.201	293.88
305.431	299.88
305.661	291.88
305.891	272.88
306.121	310.88
306.352	286.88
306.582	308.88
306.812	289.88
307.042	312.88
307.272	287.88
307.502	305.88
307.731	288.88
307.961	279.88
308.191	311.88
308.421	301.88
308.651	313.88
308.881	303.88
309.111	306.88
309.341	297.88
309.571	297.88
309.8	299.88
310.03	310.88
310.26	301.88
310.49	298.88
310.72	312.88
310.949	313.88
311.179	352.88
311.409	328.88
311.639	323.88
311.868	332.88
312.098	328.88
312.328	327.88
312.557	323.88
312.787	334.88
313.017	310.88
313.246	336.88
313.476	325.88
313.706	322.88
313.935	340.88
314.165	310.88
314.394	346.88
314.624	323.88
314.853	325.88
315.083	327.88
315.312	313.88
315.542	326.88
315.771	309.88
316.001	326.88
316.23	317.88
316.46	310.88
316.689	313.88
316.919	308.88
317.148	323.88
317.377	345.88
317.607	331.88
317.836	322.88
318.065	329.88
318.295	324.88
318.524	325.88
318.753	318.88
318.983	324.88
319.212	317.88
319.441	336.88
319.67	323.88
319.9	320.88
320.129	326.88
320.358	333.88
320.587	325.88
320.816	320.88
321.046	337.88
321.275	341.88
321.504	317.88
321.733	331.88
321.962	339.88
322.191	325.88
322.42	335.88
322.649	343.88
322.878	355.88
323.108	351.88
323.337	371.88
323.566	384.88
323.795	405.88
324.024	424.88
324.253	471.88
324.482	642.88
324.71	920.88
324.939	1183.88
325.168	998.88
325.397	601.88
325.626	439.88
325.855	404.88
326.084	387.88
326.313	394.88
326.542	386.88
326.77	401.88
326.999	471.88
327.228	591.88
327.457	802.88
327.686	930.88
327.914	650.88
328.143	469.88
328.372	428.88
328.6	424.88
328.829	422.88
329.058	447.88
329.287	441.88
329.515	425.88
329.744	400.88
329.972	411.88
330.201	413.88
330.43	435.88
330.658	450.88
330.887	467.88
331.115	445.88
331.344	413.88
331.572	401.88
331.801	410.88
332.03	392.88
332.258	391.88
332.486	395.88
332.715	411.88
332.943	400.88
333.172	401.88
333.4	394.88
333.629	425.88
333.857	419.88
334.085	412.88
334.314	436.88
334.542	478.88
334.771	464.88
334.999	429.88
335.227	419.88
335.455	398.88
335.684	395.88
335.912	409.88
336.14	393.88
336.369	390.88
336.597	383.88
336.825	389.88
337.053	399.88
337.281	385.88
337.51	380.88
337.738	387.88
337.966	379.88
338.194	374.88
338.422	384.88
338.65	362.88
338.878	361.88
339.106	352.88
339.334	385.88
339.562	359.88
339.79	338.88
340.018	372.88
340.246	373.88
340.474	361.88
340.702	365.88
340.93	345.88
341.158	374.88
341.386	375.88
341.614	377.88
341.842	347.88
342.07	378.88
342.298	368.88
342.526	360.88
342.754	365.88
342.981	339.88
343.209	367.88
343.437	371.88
343.665	369.88
343.893	384.88
344.12	393.88
344.348	417.88
344.576	373.88
344.804	371.88
345.031	356.88
345.259	369.88
345.487	371.88
345.714	369.88
345.942	352.88
346.17	349.88
346.397	346.88
346.625	350.88
346.853	333.88
347.08	342.88
347.308	344.88
347.535	360.88
347.763	350.88
347.99	357.88
348.218	353.88
348.445	352.88
348.673	366.88
348.9	356.88
349.128	361.88
349.355	351.88
349.583	344.88
349.81	355.88
350.037	322.88
350.265	330.88
350.492	341.88
350.72	341.88
350.947	342.88
351.174	350.88
351.402	341.88
351.629	343.88
351.856	334.88
352.083	365.88
352.311	343.88
352.538	342.88
352.765	327.88
352.992	368.88
353.22	339.88
353.447	348.88
353.674	344.88
353.901	327.88
354.128	341.88
354.355	330.88
354.583	324.88
354.81	325.88
355.037	318.88
355.264	305.88
355.491	326.88
355.718	328.88
355.945	349.88
356.172	309.88
356.399	307.88
356.626	325.88
356.853	326.88
357.08	316.88
357.307	329.88
357.534	326.88
357.761	343.88
357.988	325.88
358.215	320.88
358.441	318.88
358.668	328.88
358.895	322.88
359.122	331.88
359.349	330.88
359.576	328.88
359.802	354.88
360.029	354.88
360.256	366.88
360.483	362.88
360.709	347.88
360.936	334.88
361.163	333.88
361.39	335.88
361.616	326.88
361.843	339.88
362.07	331.88
362.296	334.88
362.523	347.88
362.749	335.88
362.976	329.88
363.203	340.88
363.429	338.88
363.656	341.88
363.882	315.88
364.109	306.88
364.335	340.88
364.562	331.88
364.788	332.88
365.015	347.88
365.241	339.88
365.468	338.88
365.694	337.88
365.92	342.88
366.147	328.88
366.373	332.88
366.599	311.88
366.826	313.88
367.052	324.88
367.278	324.88
367.505	320.88
367.731	345.88
367.957	322.88
368.184	317.88
368.41	337.88
368.636	340.88
368.862	356.88
369.089	327.88
369.315	325.88
369.541	328.88
369.767	318.88
369.993	347.88
370.219	339.88
370.445	328.88
370.672	331.88
370.898	331.88
371.124	345.88
371.35	343.88
371.576	322.88
371.802	341.88
372.028	333.88
372.254	329.88
372.48	326.88
372.706	343.88
372.932	343.88
373.158	354.88
373.384	344.88
373.61	343.88
373.835	326.88
374.061	345.88
374.287	330.88
374.513	347.88
374.739	346.88
374.965	354.88
375.191	367.88
375.416	339.88
375.642	347.88
375.868	345.88
376.094	349.88
376.319	346.88
376.545	331.88
376.771	344.88
376.997	335.88
377.222	322.88
377.448	349.88
377.674	320.88
377.899	336.88
378.125	329.88
378.35	344.88
378.576	328.88
378.802	333.88
379.027	338.88
379.253	328.88
379.478	329.88
379.704	321.88
379.929	338.88
380.155	341.88
380.38	337.88
380.606	326.88
380.831	338.88
381.057	345.88
381.282	337.88
381.507	325.88
381.733	336.88
381.958	350.88
382.184	351.88
382.409	342.88
382.634	336.88
382.86	357.88
383.085	352.88
383.31	355.88
383.535	359.88
383.761	361.88
383.986	357.88
384.211	359.88
384.436	348.88
384.662	354.88
384.887	351.88
385.112	362.88
385.337	383.88
385.562	383.88
385.787	366.88
386.013	377.88
386.238	365.88
386.463	377.88
386.688	376.88
386.913	358.88
387.138	372.88
387.363	369.88
387.588	385.88
387.813	366.88
388.038	373.88
388.263	353.88
388.488	381.88
388.713	367.88
388.938	362.88
389.163	360.88
389.387	366.88
389.612	371.88
389.837	354.88
390.062	379.88
390.287	369.88
390.512	376.88
390.736	381.88
390.961	363.88
391.186	381.88
391.411	395.88
391.636	398.88
391.86	390.88
392.085	396.88
392.31	373.88
392.534	381.88
392.759	379.88
392.984	378.88
393.208	381.88
393.433	370.88
393.658	385.88
393.882	374.88
394.107	382.88
394.331	394.88
394.556	383.88
394.78	381.88
395.005	389.88
395.229	402.88
395.454	398.88
395.678	389.88
395.903	413.88
396.127	410.88
396.352	389.88
396.576	410.88
396.801	389.88
397.025	391.88
397.249	410.88
397.474	409.88
397.698	417.88
397.922	409.88
398.147	415.88
398.371	440.88
398.595	421.88
398.82	431.88
399.044	449.88
399.268	484.88
399.492	541.88
399.717	537.88
399.941	559.88
400.165	554.88
400.389	557.88
400.613	487.88
400.837	458.88
401.062	455.88
401.286	449.88
401.51	441.88
401.734	445.88
401.958	446.88
402.182	420.88
402.406	434.88
402.63	452.88
402.854	465.88
403.078	445.88
403.302	443.88
403.526	465.88
403.75	470.88
403.974	467.88
404.198	452.88
404.422	467.88
404.645	475.88
404.869	470.88
405.093	504.88
405.317	518.88
405.541	522.88
405.765	479.88
405.988	477.88
406.212	485.88
406.436	510.88
406.66	523.88
406.883	495.88
407.107	511.88
407.331	538.88
407.555	583.88
407.778	585.88
408.002	547.88
408.226	487.88
408.449	507.88
408.673	495.88
408.896	495.88
409.12	521.88
409.344	491.88
409.567	467.88
409.791	471.88
410.014	442.88
410.238	472.88
410.461	443.88
410.685	451.88
410.908	454.88
411.132	482.88
411.355	490.88
411.578	506.88
411.802	459.88
412.025	463.88
412.249	458.88
412.472	484.88
412.695	467.88
412.919	466.88
413.142	462.88
413.365	446.88
413.589	440.88
413.812	430.88
414.035	441.88
414.258	425.88
414.482	438.88
414.705	433.88
414.928	446.88
415.151	426.88
415.374	441.88
415.597	425.88
415.821	422.88
416.044	424.88
416.267	452.88
416.49	431.88
416.713	430.88
416.936	416.88
417.159	411.88
417.382	422.88
417.605	450.88
417.828	437.88
418.051	427.88
418.274	450.88
418.497	439.88
418.72	445.88
418.943	445.88
419.166	443.88
419.389	477.88
419.611	469.88
419.834	445.88
420.057	436.88
420.28	460.88
420.503	447.88
420.726	435.88
420.948	474.88
421.171	467.88
421.394	486.88
421.617	456.88
421.839	441.88
422.062	441.88
422.285	457.88
422.507	487.88
422.73	536.88
422.953	502.88
423.175	464.88
423.398	459.88
423.621	483.88
423.843	481.88
424.066	467.88
424.288	467.88
424.511	477.88
424.733	483.88
424.956	547.88
425.178	524.88
425.401	520.88
425.623	539.88
425.846	479.88
426.068	456.88
426.291	444.88
426.513	467.88
426.735	464.88
426.958	466.88
427.18	517.88
427.402	600.88
427.625	622.88
427.847	553.88
428.069	521.88
428.292	469.88
428.514	418.88
428.736	445.88
428.958	397.88
429.181	425.88
429.403	424.88
429.625	432.88
429.847	441.88
430.069	462.88
430.292	469.88
430.514	401.88
430.736	432.88
430.958	421.88
431.18	409.88
431.402	402.88
431.624	417.88
431.846	406.88
432.068	403.88
432.29	380.88
432.512	412.88
432.734	413.88
432.956	394.88
433.178	410.88
433.4	403.88
433.622	393.88
433.844	426.88
434.066	415.88
434.287	423.88
434.509	417.88
434.731	405.88
434.953	431.88
435.175	452.88
435.397	471.88
435.618	443.88
435.84	474.88
436.062	515.88
436.284	550.88
436.505	462.88
436.727	445.88
436.949	416.88
437.17	423.88
437.392	412.88
437.614	409.88
437.835	438.88
438.057	493.88
438.278	527.88
438.5	538.88
438.721	585.88
438.943	561.88
439.165	468.88
439.386	435.88
439.608	458.88
439.829	457.88
440.05	458.88
440.272	458.88
440.493	458.88
440.715	414.88
440.936	433.88
441.158	428.88
441.379	440.88
441.6	428.88
441.822	457.88
442.043	460.88
442.264	518.88
442.486	548.88
442.707	484.88
442.928	471.88
443.149	461.88
443.371	478.88
443.592	493.88
443.813	582.88
444.034	604.88
444.255	508.88
444.476	481.88
444.698	506.88
444.919	497.88
445.14	603.88
445.361	505.88
445.582	488.88
445.803	546.88
446.024	553.88
446.245	576.88
446.466	524.88
446.687	465.88
446.908	441.88
447.129	433.88
447.35	419.88
447.571	429.88
447.792	422.88
448.013	401.88
448.234	408.88
448.455	456.88
448.675	509.88
448.896	553.88
449.117	531.88
449.338	482.88
449.559	539.88
449.779	575.88
450	480.88
450.221	417.88
450.442	417.88
450.662	401.88
450.883	413.88
451.104	417.88
451.324	397.88
451.545	402.88
451.766	382.88
451.986	396.88
452.207	371.88
452.428	385.88
452.648	372.88
452.869	379.88
453.089	378.88
453.31	392.88
453.53	384.88
453.751	376.88
453.971	371.88
454.192	390.88
454.412	368.88
454.633	367.88
454.853	393.88
455.073	393.88
455.294	392.88
455.514	426.88
455.734	386.88
455.955	371.88
456.175	363.88
456.395	350.88
456.616	338.88
456.836	358.88
457.056	349.88
457.276	346.88
457.497	355.88
457.717	359.88
457.937	357.88
458.157	363.88
458.377	357.88
458.598	378.88
458.818	407.88
459.038	475.88
459.258	493.88
459.478	453.88
459.698	398.88
459.918	407.88
460.138	418.88
460.358	446.88
460.578	411.88
460.798	439.88
461.018	435.88
461.238	434.88
461.458	439.88
461.678	434.88
461.898	454.88
462.118	458.88
462.338	452.88
462.558	462.88
462.777	455.88
462.997	517.88
463.217	512.88
463.437	530.88
463.657	499.88
463.876	476.88
464.096	474.88
464.316	466.88
464.536	488.88
464.755	463.88
464.975	474.88
465.195	497.88
465.414	507.88
465.634	456.88
465.854	427.88
466.073	414.88
466.293	387.88
466.512	386.88
466.732	386.88
466.951	402.88
467.171	384.88
467.391	385.88
467.61	378.88
467.829	394.88
468.049	414.88
468.268	382.88
468.488	376.88
468.707	363.88
468.927	373.88
469.146	381.88
469.365	389.88
469.585	380.88
469.804	394.88
470.023	388.88
470.243	398.88
470.462	392.88
470.681	432.88
470.901	407.88
471.12	403.88
471.339	392.88
471.558	406.88
471.777	408.88
471.997	391.88
472.216	419.88
472.435	418.88
472.654	395.88
472.873	373.88
473.092	405.88
473.311	399.88
473.53	387.88
473.749	374.88
473.968	397.88
474.187	462.88
474.406	484.88
474.625	425.88
474.844	398.88
475.063	384.88
475.282	414.88
475.501	395.88
475.72	365.88
475.939	415.88
476.158	409.88
476.377	385.88
476.596	391.88
476.814	413.88
477.033	425.88
477.252	399.88
477.471	400.88
477.69	426.88
477.908	426.88
478.127	449.88
478.346	442.88
478.564	457.88
478.783	443.88
479.002	468.88
479.22	456.88
479.439	466.88
479.658	463.88
479.876	486.88
480.095	488.88
480.313	492.88
480.532	509.88
480.751	502.88
480.969	472.88
481.188	521.88
481.406	536.88
481.624	471.88
481.843	449.88
482.061	475.88
482.28	451.88
482.498	443.88
482.717	449.88
482.935	447.88
483.153	437.88
483.372	450.88
483.59	465.88
483.808	458.88
484.027	439.88
484.245	458.88
484.463	465.88
484.681	475.88
484.9	457.88
485.118	441.88
485.336	447.88
485.554	464.88
485.772	454.88
485.99	470.88
486.209	474.88
486.427	443.88
486.645	479.88
486.863	475.88
487.081	496.88
487.299	481.88
487.517	490.88
487.735	486.88
487.953	454.88
488.171	478.88
488.389	473.88
488.607	489.88
488.825	454.88
489.043	467.88
489.261	488.88
489.479	461.88
489.696	486.88
489.914	471.88
490.132	469.88
490.35	506.88
490.568	499.88
490.786	513.88
491.003	494.88
491.221	548.88
491.439	546.88
491.657	538.88
491.874	550.88
492.092	543.88
492.31	576.88
492.527	542.88
492.745	557.88
492.963	563.88
493.18	547.88
493.398	571.88
493.615	574.88
493.833	572.88
494.05	555.88
494.268	580.88
494.485	550.88
494.703	538.88
494.92	573.88
495.138	548.88
495.355	581.88
495.573	582.88
495.79	570.88
496.008	562.88
496.225	553.88
496.442	568.88
496.66	569.88
496.877	576.88
497.094	593.88
497.312	595.88
497.529	576.88
497.746	600.88
497.963	600.88
498.181	625.88
498.398	638.88
498.615	645.88
498.832	687.88
499.049	714.88
499.267	717.88
499.484	768.88
499.701	837.88
499.918	863.88
500.135	913.88
500.352	984.88
500.569	1002.88
500.786	993.88
501.003	987.88
501.22	927.88
501.437	856.88
501.654	823.88
501.871	773.88
502.088	749.88
