Data from 1969.PennyLincolnUp.Lamp.En5.5.200Scan.071719.P1._HRD10591_14-56-47-974.txt Node
Date: Thu Jul 18 14:56:47 EDT 2019
User: cochatt
Spectrometer: HR+D1059
Trigger mode: 1
Integration Time (sec): 1.000000E-1
Scans to average: 1
Electric dark correction enabled: true
Nonlinearity correction enabled: false
Boxcar width: 0
XAxis mode: Wavelengths
Number of Pixels in Spectrum: 2048
>>>>>Begin Spectral Data<<<<<
223.165	-20.06
223.4	-20.06
223.635	-20.06
223.869	-19.06
224.104	-24.06
224.338	-10.06
224.573	-19.06
224.808	-12.06
225.042	-10.06
225.277	-11.06
225.511	-11.06
225.746	-0.06
225.98	13.94
226.215	9.94
226.449	17.94
226.683	27.94
226.918	32.94
227.152	33.94
227.387	43.94
227.621	45.94
227.856	44.94
228.09	41.94
228.324	56.94
228.559	58.94
228.793	71.94
229.027	80.94
229.262	97.94
229.496	99.94
229.73	104.94
229.964	123.94
230.199	107.94
230.433	104.94
230.667	95.94
230.901	110.94
231.136	95.94
231.37	104.94
231.604	91.94
231.838	101.94
232.072	113.94
232.306	94.94
232.541	99.94
232.775	102.94
233.009	89.94
233.243	115.94
233.477	111.94
233.711	90.94
233.945	106.94
234.179	110.94
234.413	103.94
234.647	114.94
234.881	115.94
235.115	115.94
235.349	105.94
235.583	111.94
235.817	127.94
236.051	102.94
236.285	122.94
236.519	119.94
236.753	116.94
236.987	142.94
237.221	133.94
237.455	181.94
237.689	157.94
237.922	131.94
238.156	127.94
238.39	115.94
238.624	119.94
238.858	97.94
239.091	118.94
239.325	95.94
239.559	109.94
239.793	112.94
240.027	115.94
240.26	128.94
240.494	132.94
240.728	119.94
240.961	117.94
241.195	130.94
241.429	120.94
241.662	107.94
241.896	113.94
242.13	120.94
242.363	122.94
242.597	116.94
242.83	128.94
243.064	123.94
243.298	123.94
243.531	136.94
243.765	132.94
243.998	137.94
244.232	127.94
244.465	117.94
244.699	128.94
244.932	136.94
245.166	138.94
245.399	146.94
245.633	129.94
245.866	135.94
246.099	123.94
246.333	127.94
246.566	161.94
246.8	146.94
247.033	127.94
247.266	134.94
247.5	155.94
247.733	144.94
247.966	142.94
248.2	145.94
248.433	151.94
248.666	157.94
248.899	135.94
249.133	157.94
249.366	179.94
249.599	169.94
249.832	151.94
250.066	150.94
250.299	150.94
250.532	172.94
250.765	150.94
250.998	174.94
251.231	194.94
251.465	175.94
251.698	175.94
251.931	176.94
252.164	172.94
252.397	169.94
252.63	184.94
252.863	179.94
253.096	181.94
253.329	201.94
253.562	189.94
253.795	180.94
254.028	185.94
254.261	184.94
254.494	200.94
254.727	202.94
254.96	235.94
255.193	208.94
255.426	190.94
255.659	192.94
255.892	213.94
256.124	193.94
256.357	196.94
256.59	184.94
256.823	172.94
257.056	183.94
257.289	160.94
257.521	170.94
257.754	170.94
257.987	179.94
258.22	179.94
258.452	174.94
258.685	171.94
258.918	186.94
259.151	183.94
259.383	193.94
259.616	186.94
259.849	206.94
260.081	207.94
260.314	212.94
260.547	219.94
260.779	204.94
261.012	192.94
261.244	198.94
261.477	190.94
261.71	181.94
261.942	195.94
262.175	188.94
262.407	196.94
262.64	189.94
262.872	193.94
263.105	176.94
263.337	179.94
263.57	189.94
263.802	172.94
264.035	192.94
264.267	181.94
264.499	182.94
264.732	185.94
264.964	188.94
265.197	177.94
265.429	193.94
265.661	186.94
265.894	185.94
266.126	190.94
266.358	179.94
266.591	197.94
266.823	203.94
267.055	196.94
267.287	217.94
267.52	188.94
267.752	198.94
267.984	190.94
268.216	190.94
268.448	206.94
268.681	220.94
268.913	218.94
269.145	219.94
269.377	230.94
269.609	227.94
269.841	235.94
270.073	222.94
270.306	261.94
270.538	263.94
270.77	261.94
271.002	240.94
271.234	246.94
271.466	237.94
271.698	256.94
271.93	271.94
272.162	255.94
272.394	259.94
272.626	257.94
272.858	236.94
273.09	227.94
273.322	230.94
273.553	214.94
273.785	214.94
274.017	231.94
274.249	217.94
274.481	216.94
274.713	224.94
274.945	237.94
275.176	235.94
275.408	223.94
275.64	221.94
275.872	236.94
276.104	238.94
276.335	239.94
276.567	242.94
276.799	245.94
277.031	247.94
277.262	263.94
277.494	264.94
277.726	272.94
277.957	247.94
278.189	232.94
278.421	237.94
278.652	231.94
278.884	226.94
279.115	233.94
279.347	230.94
279.579	243.94
279.81	233.94
280.042	228.94
280.273	219.94
280.505	235.94
280.736	240.94
280.968	244.94
281.199	243.94
281.431	250.94
281.662	241.94
281.894	256.94
282.125	232.94
282.356	233.94
282.588	267.94
282.819	261.94
283.051	249.94
283.282	245.94
283.513	239.94
283.745	257.94
283.976	257.94
284.207	255.94
284.439	251.94
284.67	246.94
284.901	253.94
285.132	224.94
285.364	239.94
285.595	241.94
285.826	260.94
286.057	243.94
286.288	238.94
286.52	245.94
286.751	273.94
286.982	264.94
287.213	247.94
287.444	265.94
287.675	263.94
287.906	256.94
288.138	266.94
288.369	277.94
288.6	237.94
288.831	272.94
289.062	281.94
289.293	256.94
289.524	246.94
289.755	275.94
289.986	243.94
290.217	250.94
290.448	277.94
290.679	262.94
290.91	263.94
291.141	258.94
291.371	281.94
291.602	266.94
291.833	284.94
292.064	268.94
292.295	260.94
292.526	269.94
292.757	267.94
292.987	254.94
293.218	268.94
293.449	254.94
293.68	253.94
293.91	264.94
294.141	259.94
294.372	268.94
294.603	247.94
294.833	244.94
295.064	263.94
295.295	263.94
295.525	258.94
295.756	248.94
295.987	276.94
296.217	266.94
296.448	291.94
296.679	278.94
296.909	266.94
297.14	273.94
297.37	287.94
297.601	271.94
297.831	265.94
298.062	265.94
298.292	265.94
298.523	299.94
298.753	286.94
298.984	271.94
299.214	282.94
299.445	295.94
299.675	288.94
299.905	265.94
300.136	292.94
300.366	271.94
300.597	286.94
300.827	281.94
301.057	296.94
301.288	296.94
301.518	305.94
301.748	297.94
301.979	279.94
302.209	293.94
302.439	298.94
302.669	289.94
302.9	307.94
303.13	287.94
303.36	277.94
303.59	297.94
303.82	311.94
304.051	303.94
304.281	294.94
304.511	297.94
304.741	300.94
304.971	297.94
305.201	283.94
305.431	306.94
305.661	292.94
305.891	300.94
306.121	292.94
306.352	283.94
306.582	295.94
306.812	285.94
307.042	290.94
307.272	313.94
307.502	293.94
307.731	297.94
307.961	297.94
308.191	291.94
308.421	279.94
308.651	317.94
308.881	307.94
309.111	304.94
309.341	310.94
309.571	299.94
309.8	301.94
310.03	320.94
310.26	319.94
310.49	311.94
310.72	310.94
310.949	313.94
311.179	317.94
311.409	328.94
311.639	303.94
311.868	313.94
312.098	313.94
312.328	329.94
312.557	337.94
312.787	331.94
313.017	319.94
313.246	323.94
313.476	318.94
313.706	328.94
313.935	333.94
314.165	335.94
314.394	338.94
314.624	347.94
314.853	344.94
315.083	329.94
315.312	319.94
315.542	323.94
315.771	339.94
316.001	333.94
316.23	312.94
316.46	300.94
316.689	319.94
316.919	333.94
317.148	324.94
317.377	341.94
317.607	337.94
317.836	302.94
318.065	331.94
318.295	327.94
318.524	326.94
318.753	324.94
318.983	325.94
319.212	328.94
319.441	314.94
319.67	331.94
319.9	325.94
320.129	327.94
320.358	316.94
320.587	328.94
320.816	322.94
321.046	334.94
321.275	337.94
321.504	334.94
321.733	342.94
321.962	352.94
322.191	344.94
322.42	365.94
322.649	364.94
322.878	350.94
323.108	359.94
323.337	398.94
323.566	378.94
323.795	399.94
324.024	428.94
324.253	486.94
324.482	639.94
324.71	897.94
324.939	1177.94
325.168	983.94
325.397	560.94
325.626	431.94
325.855	392.94
326.084	382.94
326.313	391.94
326.542	395.94
326.77	403.94
326.999	440.94
327.228	585.94
327.457	816.94
327.686	896.94
327.914	619.94
328.143	461.94
328.372	432.94
328.6	437.94
328.829	424.94
329.058	437.94
329.287	441.94
329.515	414.94
329.744	407.94
329.972	389.94
330.201	417.94
330.43	442.94
330.658	451.94
330.887	465.94
331.115	456.94
331.344	419.94
331.572	392.94
331.801	394.94
332.03	406.94
332.258	389.94
332.486	375.94
332.715	405.94
332.943	407.94
333.172	414.94
333.4	408.94
333.629	411.94
333.857	425.94
334.085	435.94
334.314	443.94
334.542	470.94
334.771	471.94
334.999	441.94
335.227	426.94
335.455	416.94
335.684	384.94
335.912	387.94
336.14	386.94
336.369	374.94
336.597	392.94
336.825	387.94
337.053	393.94
337.281	390.94
337.51	372.94
337.738	379.94
337.966	382.94
338.194	367.94
338.422	363.94
338.65	361.94
338.878	378.94
339.106	365.94
339.334	370.94
339.562	360.94
339.79	352.94
340.018	368.94
340.246	375.94
340.474	363.94
340.702	371.94
340.93	357.94
341.158	371.94
341.386	364.94
341.614	365.94
341.842	371.94
342.07	355.94
342.298	352.94
342.526	367.94
342.754	352.94
342.981	381.94
343.209	366.94
343.437	367.94
343.665	384.94
343.893	401.94
344.12	386.94
344.348	384.94
344.576	389.94
344.804	373.94
345.031	376.94
345.259	364.94
345.487	379.94
345.714	349.94
345.942	357.94
346.17	373.94
346.397	347.94
346.625	363.94
346.853	356.94
347.08	348.94
347.308	343.94
347.535	358.94
347.763	337.94
347.99	350.94
348.218	350.94
348.445	377.94
348.673	337.94
348.9	363.94
349.128	346.94
349.355	337.94
349.583	355.94
349.81	346.94
350.037	331.94
350.265	338.94
350.492	345.94
350.72	357.94
350.947	330.94
351.174	327.94
351.402	347.94
351.629	336.94
351.856	356.94
352.083	353.94
352.311	342.94
352.538	341.94
352.765	364.94
352.992	349.94
353.22	349.94
353.447	312.94
353.674	342.94
353.901	340.94
354.128	331.94
354.355	330.94
354.583	339.94
354.81	330.94
355.037	325.94
355.264	318.94
355.491	323.94
355.718	334.94
355.945	317.94
356.172	325.94
356.399	332.94
356.626	313.94
356.853	326.94
357.08	332.94
357.307	335.94
357.534	340.94
357.761	341.94
357.988	333.94
358.215	331.94
358.441	328.94
358.668	321.94
358.895	324.94
359.122	337.94
359.349	332.94
359.576	334.94
359.802	334.94
360.029	387.94
360.256	359.94
360.483	344.94
360.709	353.94
360.936	322.94
361.163	332.94
361.39	329.94
361.616	342.94
361.843	334.94
362.07	324.94
362.296	331.94
362.523	332.94
362.749	340.94
362.976	334.94
363.203	333.94
363.429	331.94
363.656	331.94
363.882	338.94
364.109	335.94
364.335	323.94
364.562	336.94
364.788	325.94
365.015	320.94
365.241	323.94
365.468	323.94
365.694	344.94
365.92	336.94
366.147	350.94
366.373	316.94
366.599	332.94
366.826	330.94
367.052	312.94
367.278	303.94
367.505	323.94
367.731	342.94
367.957	335.94
368.184	321.94
368.41	326.94
368.636	359.94
368.862	324.94
369.089	335.94
369.315	328.94
369.541	329.94
369.767	335.94
369.993	331.94
370.219	341.94
370.445	325.94
370.672	332.94
370.898	327.94
371.124	330.94
371.35	340.94
371.576	330.94
371.802	341.94
372.028	358.94
372.254	345.94
372.48	349.94
372.706	353.94
372.932	354.94
373.158	339.94
373.384	333.94
373.61	345.94
373.835	339.94
374.061	328.94
374.287	342.94
374.513	362.94
374.739	347.94
374.965	364.94
375.191	350.94
375.416	343.94
375.642	340.94
375.868	349.94
376.094	349.94
376.319	355.94
376.545	337.94
376.771	340.94
376.997	318.94
377.222	345.94
377.448	338.94
377.674	345.94
377.899	321.94
378.125	346.94
378.35	341.94
378.576	328.94
378.802	334.94
379.027	327.94
379.253	302.94
379.478	317.94
379.704	321.94
379.929	313.94
380.155	321.94
380.38	335.94
380.606	345.94
380.831	335.94
381.057	341.94
381.282	336.94
381.507	321.94
381.733	343.94
381.958	356.94
382.184	345.94
382.409	355.94
382.634	345.94
382.86	368.94
383.085	335.94
383.31	361.94
383.535	354.94
383.761	356.94
383.986	352.94
384.211	375.94
384.436	365.94
384.662	382.94
384.887	360.94
385.112	365.94
385.337	381.94
385.562	381.94
385.787	377.94
386.013	375.94
386.238	391.94
386.463	382.94
386.688	392.94
386.913	363.94
387.138	387.94
387.363	376.94
387.588	358.94
387.813	356.94
388.038	389.94
388.263	385.94
388.488	372.94
388.713	377.94
388.938	374.94
389.163	373.94
389.387	398.94
389.612	368.94
389.837	363.94
390.062	366.94
390.287	387.94
390.512	366.94
390.736	376.94
390.961	375.94
391.186	382.94
391.411	365.94
391.636	393.94
391.86	412.94
392.085	383.94
392.31	384.94
392.534	389.94
392.759	377.94
392.984	385.94
393.208	369.94
393.433	373.94
393.658	397.94
393.882	396.94
394.107	363.94
394.331	375.94
394.556	375.94
394.78	399.94
395.005	397.94
395.229	382.94
395.454	395.94
395.678	383.94
395.903	379.94
396.127	405.94
396.352	407.94
396.576	392.94
396.801	396.94
397.025	388.94
397.249	396.94
397.474	405.94
397.698	404.94
397.922	411.94
398.147	427.94
398.371	429.94
398.595	418.94
398.82	409.94
399.044	457.94
399.268	477.94
399.492	535.94
399.717	562.94
399.941	558.94
400.165	536.94
400.389	522.94
400.613	488.94
400.837	429.94
401.062	443.94
401.286	448.94
401.51	447.94
401.734	453.94
401.958	423.94
402.182	437.94
402.406	462.94
402.63	472.94
402.854	447.94
403.078	460.94
403.302	432.94
403.526	469.94
403.75	469.94
403.974	470.94
404.198	468.94
404.422	477.94
404.645	489.94
404.869	491.94
405.093	487.94
405.317	514.94
405.541	502.94
405.765	496.94
405.988	487.94
406.212	495.94
406.436	497.94
406.66	480.94
406.883	476.94
407.107	512.94
407.331	524.94
407.555	585.94
407.778	567.94
408.002	522.94
408.226	508.94
408.449	511.94
408.673	489.94
408.896	489.94
409.12	508.94
409.344	488.94
409.567	469.94
409.791	465.94
410.014	439.94
410.238	457.94
410.461	451.94
410.685	442.94
410.908	477.94
411.132	489.94
411.355	481.94
411.578	462.94
411.802	468.94
412.025	441.94
412.249	445.94
412.472	471.94
412.695	495.94
412.919	495.94
413.142	464.94
413.365	446.94
413.589	444.94
413.812	440.94
414.035	442.94
414.258	417.94
414.482	439.94
414.705	425.94
414.928	436.94
415.151	438.94
415.374	417.94
415.597	429.94
415.821	414.94
416.044	430.94
416.267	423.94
416.49	416.94
416.713	432.94
416.936	417.94
417.159	420.94
417.382	436.94
417.605	394.94
417.828	440.94
418.051	458.94
418.274	442.94
418.497	454.94
418.72	431.94
418.943	432.94
419.166	437.94
419.389	481.94
419.611	468.94
419.834	461.94
420.057	461.94
420.28	461.94
420.503	443.94
420.726	433.94
420.948	443.94
421.171	450.94
421.394	483.94
421.617	463.94
421.839	453.94
422.062	441.94
422.285	418.94
422.507	488.94
422.73	509.94
422.953	505.94
423.175	465.94
423.398	457.94
423.621	445.94
423.843	461.94
424.066	469.94
424.288	486.94
424.511	477.94
424.733	502.94
424.956	575.94
425.178	546.94
425.401	505.94
425.623	527.94
425.846	477.94
426.068	457.94
426.291	447.94
426.513	441.94
426.735	455.94
426.958	468.94
427.18	508.94
427.402	601.94
427.625	635.94
427.847	543.94
428.069	477.94
428.292	457.94
428.514	425.94
428.736	425.94
428.958	443.94
429.181	414.94
429.403	406.94
429.625	437.94
429.847	455.94
430.069	478.94
430.292	480.94
430.514	406.94
430.736	422.94
430.958	389.94
431.18	399.94
431.402	425.94
431.624	392.94
431.846	414.94
432.068	421.94
432.29	405.94
432.512	382.94
432.734	415.94
432.956	400.94
433.178	401.94
433.4	411.94
433.622	395.94
433.844	405.94
434.066	411.94
434.287	413.94
434.509	428.94
434.731	422.94
434.953	428.94
435.175	445.94
435.397	433.94
435.618	455.94
435.84	457.94
436.062	515.94
436.284	533.94
436.505	480.94
436.727	449.94
436.949	440.94
437.17	428.94
437.392	421.94
437.614	436.94
437.835	448.94
438.057	475.94
438.278	528.94
438.5	552.94
438.721	578.94
438.943	540.94
439.165	464.94
439.386	439.94
439.608	448.94
439.829	430.94
440.05	469.94
440.272	486.94
440.493	451.94
440.715	450.94
440.936	427.94
441.158	418.94
441.379	416.94
441.6	430.94
441.822	461.94
442.043	471.94
442.264	527.94
442.486	527.94
442.707	475.94
442.928	466.94
443.149	457.94
443.371	484.94
443.592	529.94
443.813	541.94
444.034	581.94
444.255	536.94
444.476	502.94
444.698	473.94
444.919	527.94
445.14	561.94
445.361	537.94
445.582	507.94
445.803	495.94
446.024	563.94
446.245	558.94
446.466	520.94
446.687	442.94
446.908	457.94
447.129	427.94
447.35	439.94
447.571	401.94
447.792	409.94
448.013	411.94
448.234	420.94
448.455	431.94
448.675	477.94
448.896	537.94
449.117	483.94
449.338	474.94
449.559	552.94
449.779	597.94
450	480.94
450.221	444.94
450.442	422.94
450.662	399.94
450.883	417.94
451.104	400.94
451.324	386.94
451.545	373.94
451.766	367.94
451.986	365.94
452.207	350.94
452.428	352.94
452.648	386.94
452.869	371.94
453.089	383.94
453.31	375.94
453.53	377.94
453.751	347.94
453.971	360.94
454.192	363.94
454.412	388.94
454.633	377.94
454.853	372.94
455.073	344.94
455.294	375.94
455.514	409.94
455.734	402.94
455.955	369.94
456.175	347.94
456.395	351.94
456.616	363.94
456.836	341.94
457.056	345.94
457.276	343.94
457.497	359.94
457.717	360.94
457.937	352.94
458.157	346.94
458.377	373.94
458.598	387.94
458.818	420.94
459.038	466.94
459.258	473.94
459.478	433.94
459.698	423.94
459.918	419.94
460.138	411.94
460.358	421.94
460.578	451.94
460.798	423.94
461.018	426.94
461.238	426.94
461.458	425.94
461.678	410.94
461.898	427.94
462.118	423.94
462.338	447.94
462.558	432.94
462.777	460.94
462.997	470.94
463.217	493.94
463.437	499.94
463.657	466.94
463.876	480.94
464.096	488.94
464.316	475.94
464.536	466.94
464.755	467.94
464.975	456.94
465.195	454.94
465.414	504.94
465.634	441.94
465.854	397.94
466.073	411.94
466.293	412.94
466.512	378.94
466.732	379.94
466.951	388.94
467.171	381.94
467.391	378.94
467.61	386.94
467.829	407.94
468.049	409.94
468.268	381.94
468.488	387.94
468.707	381.94
468.927	363.94
469.146	377.94
469.365	373.94
469.585	367.94
469.804	387.94
470.023	405.94
470.243	393.94
470.462	404.94
470.681	425.94
470.901	402.94
471.12	385.94
471.339	394.94
471.558	388.94
471.777	413.94
471.997	400.94
472.216	394.94
472.435	421.94
472.654	397.94
472.873	395.94
473.092	368.94
473.311	377.94
473.53	376.94
473.749	382.94
473.968	406.94
474.187	451.94
474.406	461.94
474.625	399.94
474.844	383.94
475.063	405.94
475.282	385.94
475.501	385.94
475.72	380.94
475.939	390.94
476.158	383.94
476.377	365.94
476.596	403.94
476.814	395.94
477.033	405.94
477.252	408.94
477.471	422.94
477.69	403.94
477.908	410.94
478.127	437.94
478.346	440.94
478.564	431.94
478.783	443.94
479.002	458.94
479.22	453.94
479.439	457.94
479.658	475.94
479.876	470.94
480.095	472.94
480.313	487.94
480.532	489.94
480.751	481.94
480.969	477.94
481.188	500.94
481.406	526.94
481.624	465.94
481.843	477.94
482.061	436.94
482.28	449.94
482.498	443.94
482.717	445.94
482.935	440.94
483.153	440.94
483.372	417.94
483.59	440.94
483.808	421.94
484.027	426.94
484.245	434.94
484.463	451.94
484.681	443.94
484.9	463.94
485.118	464.94
485.336	465.94
485.554	462.94
485.772	451.94
485.99	447.94
486.209	458.94
486.427	466.94
486.645	467.94
486.863	489.94
487.081	455.94
487.299	443.94
487.517	483.94
487.735	464.94
487.953	487.94
488.171	477.94
488.389	488.94
488.607	459.94
488.825	461.94
489.043	480.94
489.261	480.94
489.479	491.94
489.696	468.94
489.914	472.94
490.132	489.94
490.35	494.94
490.568	509.94
490.786	490.94
491.003	519.94
491.221	519.94
491.439	529.94
491.657	557.94
491.874	525.94
492.092	563.94
492.31	544.94
492.527	549.94
492.745	557.94
492.963	536.94
493.18	542.94
493.398	545.94
493.615	544.94
493.833	583.94
494.05	553.94
494.268	583.94
494.485	564.94
494.703	564.94
494.92	570.94
495.138	552.94
495.355	534.94
495.573	556.94
495.79	552.94
496.008	554.94
496.225	552.94
496.442	561.94
496.66	572.94
496.877	576.94
497.094	572.94
497.312	594.94
497.529	568.94
497.746	596.94
497.963	608.94
498.181	638.94
498.398	624.94
498.615	645.94
498.832	676.94
499.049	689.94
499.267	712.94
499.484	748.94
499.701	788.94
499.918	876.94
500.135	908.94
500.352	991.94
500.569	984.94
500.786	982.94
501.003	959.94
501.22	899.94
501.437	870.94
501.654	783.94
501.871	759.94
502.088	731.94
