Data from 1969.PennyLincolnUp.Lamp.En5.5.200Scan.071719.P1._HRD10591_14-54-57-972.txt Node
Date: Thu Jul 18 14:54:57 EDT 2019
User: cochatt
Spectrometer: HR+D1059
Trigger mode: 1
Integration Time (sec): 1.000000E-1
Scans to average: 1
Electric dark correction enabled: true
Nonlinearity correction enabled: false
Boxcar width: 0
XAxis mode: Wavelengths
Number of Pixels in Spectrum: 2048
>>>>>Begin Spectral Data<<<<<
223.165	-20.19
223.4	-20.19
223.635	-20.19
223.869	-12.19
224.104	-32.19
224.338	-15.19
224.573	-19.19
224.808	-15.19
225.042	2.81
225.277	-5.19
225.511	5.81
225.746	6.81
225.98	-1.19
226.215	4.81
226.449	32.81
226.683	10.81
226.918	26.81
227.152	29.81
227.387	43.81
227.621	26.81
227.856	48.81
228.09	38.81
228.324	33.81
228.559	52.81
228.793	73.81
229.027	83.81
229.262	82.81
229.496	99.81
229.73	107.81
229.964	113.81
230.199	106.81
230.433	86.81
230.667	94.81
230.901	96.81
231.136	95.81
231.37	97.81
231.604	106.81
231.838	97.81
232.072	93.81
232.306	91.81
232.541	83.81
232.775	103.81
233.009	98.81
233.243	103.81
233.477	107.81
233.711	111.81
233.945	93.81
234.179	99.81
234.413	98.81
234.647	112.81
234.881	89.81
235.115	100.81
235.349	105.81
235.583	114.81
235.817	105.81
236.051	115.81
236.285	104.81
236.519	111.81
236.753	113.81
236.987	126.81
237.221	134.81
237.455	146.81
237.689	133.81
237.922	120.81
238.156	107.81
238.39	106.81
238.624	106.81
238.858	89.81
239.091	103.81
239.325	109.81
239.559	114.81
239.793	128.81
240.027	135.81
240.26	107.81
240.494	132.81
240.728	115.81
240.961	129.81
241.195	114.81
241.429	124.81
241.662	132.81
241.896	117.81
242.13	114.81
242.363	125.81
242.597	106.81
242.83	130.81
243.064	97.81
243.298	119.81
243.531	117.81
243.765	126.81
243.998	125.81
244.232	124.81
244.465	124.81
244.699	115.81
244.932	137.81
245.166	132.81
245.399	126.81
245.633	128.81
245.866	133.81
246.099	121.81
246.333	137.81
246.566	133.81
246.8	134.81
247.033	134.81
247.266	148.81
247.5	142.81
247.733	139.81
247.966	152.81
248.2	147.81
248.433	151.81
248.666	156.81
248.899	143.81
249.133	159.81
249.366	154.81
249.599	160.81
249.832	160.81
250.066	155.81
250.299	159.81
250.532	159.81
250.765	187.81
250.998	164.81
251.231	180.81
251.465	160.81
251.698	172.81
251.931	160.81
252.164	165.81
252.397	151.81
252.63	155.81
252.863	168.81
253.096	182.81
253.329	180.81
253.562	170.81
253.795	183.81
254.028	164.81
254.261	176.81
254.494	189.81
254.727	194.81
254.96	225.81
255.193	212.81
255.426	184.81
255.659	176.81
255.892	190.81
256.124	180.81
256.357	187.81
256.59	168.81
256.823	168.81
257.056	183.81
257.289	167.81
257.521	181.81
257.754	189.81
257.987	169.81
258.22	170.81
258.452	177.81
258.685	152.81
258.918	165.81
259.151	173.81
259.383	184.81
259.616	180.81
259.849	173.81
260.081	186.81
260.314	203.81
260.547	203.81
260.779	187.81
261.012	191.81
261.244	178.81
261.477	187.81
261.71	180.81
261.942	166.81
262.175	189.81
262.407	189.81
262.64	187.81
262.872	172.81
263.105	186.81
263.337	184.81
263.57	180.81
263.802	173.81
264.035	166.81
264.267	193.81
264.499	178.81
264.732	184.81
264.964	210.81
265.197	178.81
265.429	198.81
265.661	180.81
265.894	179.81
266.126	200.81
266.358	201.81
266.591	204.81
266.823	194.81
267.055	194.81
267.287	186.81
267.52	183.81
267.752	190.81
267.984	214.81
268.216	196.81
268.448	202.81
268.681	197.81
268.913	212.81
269.145	219.81
269.377	222.81
269.609	226.81
269.841	220.81
270.073	217.81
270.306	245.81
270.538	230.81
270.77	228.81
271.002	237.81
271.234	233.81
271.466	244.81
271.698	240.81
271.93	235.81
272.162	253.81
272.394	251.81
272.626	231.81
272.858	201.81
273.09	216.81
273.322	214.81
273.553	241.81
273.785	218.81
274.017	219.81
274.249	237.81
274.481	211.81
274.713	209.81
274.945	226.81
275.176	225.81
275.408	219.81
275.64	217.81
275.872	241.81
276.104	218.81
276.335	216.81
276.567	210.81
276.799	229.81
277.031	241.81
277.262	258.81
277.494	235.81
277.726	242.81
277.957	242.81
278.189	221.81
278.421	216.81
278.652	228.81
278.884	234.81
279.115	214.81
279.347	210.81
279.579	246.81
279.81	225.81
280.042	224.81
280.273	238.81
280.505	224.81
280.736	218.81
280.968	225.81
281.199	240.81
281.431	233.81
281.662	228.81
281.894	242.81
282.125	244.81
282.356	246.81
282.588	254.81
282.819	258.81
283.051	237.81
283.282	240.81
283.513	233.81
283.745	235.81
283.976	246.81
284.207	248.81
284.439	251.81
284.67	254.81
284.901	252.81
285.132	258.81
285.364	252.81
285.595	252.81
285.826	246.81
286.057	252.81
286.288	250.81
286.52	232.81
286.751	241.81
286.982	251.81
287.213	261.81
287.444	246.81
287.675	237.81
287.906	249.81
288.138	245.81
288.369	263.81
288.6	248.81
288.831	269.81
289.062	261.81
289.293	251.81
289.524	260.81
289.755	260.81
289.986	252.81
290.217	240.81
290.448	237.81
290.679	262.81
290.91	251.81
291.141	262.81
291.371	261.81
291.602	251.81
291.833	243.81
292.064	263.81
292.295	268.81
292.526	254.81
292.757	249.81
292.987	251.81
293.218	227.81
293.449	255.81
293.68	260.81
293.91	264.81
294.141	252.81
294.372	266.81
294.603	258.81
294.833	241.81
295.064	244.81
295.295	240.81
295.525	261.81
295.756	258.81
295.987	245.81
296.217	262.81
296.448	282.81
296.679	252.81
296.909	265.81
297.14	256.81
297.37	261.81
297.601	280.81
297.831	264.81
298.062	265.81
298.292	276.81
298.523	275.81
298.753	268.81
298.984	268.81
299.214	286.81
299.445	247.81
299.675	261.81
299.905	258.81
300.136	262.81
300.366	279.81
300.597	276.81
300.827	299.81
301.057	277.81
301.288	284.81
301.518	305.81
301.748	292.81
301.979	284.81
302.209	296.81
302.439	303.81
302.669	278.81
302.9	282.81
303.13	290.81
303.36	289.81
303.59	299.81
303.82	293.81
304.051	288.81
304.281	290.81
304.511	265.81
304.741	292.81
304.971	300.81
305.201	284.81
305.431	296.81
305.661	299.81
305.891	286.81
306.121	276.81
306.352	301.81
306.582	295.81
306.812	273.81
307.042	285.81
307.272	295.81
307.502	284.81
307.731	280.81
307.961	295.81
308.191	275.81
308.421	286.81
308.651	276.81
308.881	278.81
309.111	280.81
309.341	289.81
309.571	300.81
309.8	308.81
310.03	289.81
310.26	306.81
310.49	281.81
310.72	293.81
310.949	323.81
311.179	300.81
311.409	309.81
311.639	286.81
311.868	308.81
312.098	304.81
312.328	313.81
312.557	316.81
312.787	318.81
313.017	306.81
313.246	322.81
313.476	308.81
313.706	339.81
313.935	321.81
314.165	330.81
314.394	342.81
314.624	328.81
314.853	333.81
315.083	312.81
315.312	320.81
315.542	316.81
315.771	313.81
316.001	314.81
316.23	301.81
316.46	326.81
316.689	319.81
316.919	311.81
317.148	312.81
317.377	307.81
317.607	305.81
317.836	309.81
318.065	301.81
318.295	332.81
318.524	329.81
318.753	302.81
318.983	302.81
319.212	310.81
319.441	314.81
319.67	300.81
319.9	311.81
320.129	313.81
320.358	306.81
320.587	309.81
320.816	321.81
321.046	324.81
321.275	326.81
321.504	320.81
321.733	325.81
321.962	323.81
322.191	346.81
322.42	343.81
322.649	332.81
322.878	352.81
323.108	342.81
323.337	350.81
323.566	373.81
323.795	388.81
324.024	402.81
324.253	463.81
324.482	599.81
324.71	878.81
324.939	1120.81
325.168	933.81
325.397	541.81
325.626	413.81
325.855	379.81
326.084	353.81
326.313	363.81
326.542	388.81
326.77	390.81
326.999	456.81
327.228	563.81
327.457	788.81
327.686	855.81
327.914	605.81
328.143	463.81
328.372	429.81
328.6	413.81
328.829	393.81
329.058	409.81
329.287	425.81
329.515	394.81
329.744	385.81
329.972	375.81
330.201	410.81
330.43	430.81
330.658	417.81
330.887	447.81
331.115	444.81
331.344	394.81
331.572	386.81
331.801	375.81
332.03	399.81
332.258	386.81
332.486	380.81
332.715	380.81
332.943	383.81
333.172	398.81
333.4	420.81
333.629	430.81
333.857	427.81
334.085	405.81
334.314	412.81
334.542	446.81
334.771	470.81
334.999	419.81
335.227	396.81
335.455	398.81
335.684	396.81
335.912	386.81
336.14	393.81
336.369	365.81
336.597	370.81
336.825	391.81
337.053	368.81
337.281	373.81
337.51	362.81
337.738	354.81
337.966	363.81
338.194	357.81
338.422	373.81
338.65	368.81
338.878	353.81
339.106	364.81
339.334	366.81
339.562	351.81
339.79	371.81
340.018	361.81
340.246	343.81
340.474	345.81
340.702	345.81
340.93	352.81
341.158	329.81
341.386	344.81
341.614	347.81
341.842	348.81
342.07	330.81
342.298	337.81
342.526	342.81
342.754	333.81
342.981	338.81
343.209	334.81
343.437	372.81
343.665	339.81
343.893	371.81
344.12	379.81
344.348	374.81
344.576	367.81
344.804	348.81
345.031	357.81
345.259	361.81
345.487	362.81
345.714	350.81
345.942	346.81
346.17	365.81
346.397	332.81
346.625	334.81
346.853	349.81
347.08	308.81
347.308	344.81
347.535	341.81
347.763	328.81
347.99	338.81
348.218	347.81
348.445	348.81
348.673	346.81
348.9	334.81
349.128	326.81
349.355	328.81
349.583	333.81
349.81	314.81
350.037	324.81
350.265	328.81
350.492	331.81
350.72	317.81
350.947	331.81
351.174	327.81
351.402	332.81
351.629	340.81
351.856	331.81
352.083	321.81
352.311	342.81
352.538	349.81
352.765	360.81
352.992	337.81
353.22	310.81
353.447	319.81
353.674	321.81
353.901	309.81
354.128	324.81
354.355	297.81
354.583	312.81
354.81	322.81
355.037	318.81
355.264	326.81
355.491	313.81
355.718	307.81
355.945	324.81
356.172	324.81
356.399	321.81
356.626	329.81
356.853	333.81
357.08	305.81
357.307	318.81
357.534	303.81
357.761	323.81
357.988	314.81
358.215	321.81
358.441	322.81
358.668	329.81
358.895	310.81
359.122	327.81
359.349	331.81
359.576	331.81
359.802	336.81
360.029	365.81
360.256	332.81
360.483	333.81
360.709	329.81
360.936	337.81
361.163	329.81
361.39	340.81
361.616	322.81
361.843	325.81
362.07	314.81
362.296	348.81
362.523	348.81
362.749	310.81
362.976	308.81
363.203	336.81
363.429	327.81
363.656	320.81
363.882	313.81
364.109	321.81
364.335	325.81
364.562	312.81
364.788	320.81
365.015	321.81
365.241	324.81
365.468	326.81
365.694	311.81
365.92	321.81
366.147	318.81
366.373	322.81
366.599	331.81
366.826	321.81
367.052	313.81
367.278	334.81
367.505	317.81
367.731	311.81
367.957	316.81
368.184	308.81
368.41	343.81
368.636	313.81
368.862	318.81
369.089	328.81
369.315	321.81
369.541	312.81
369.767	332.81
369.993	319.81
370.219	339.81
370.445	339.81
370.672	338.81
370.898	334.81
371.124	325.81
371.35	328.81
371.576	334.81
371.802	320.81
372.028	332.81
372.254	358.81
372.48	330.81
372.706	334.81
372.932	356.81
373.158	341.81
373.384	336.81
373.61	360.81
373.835	320.81
374.061	329.81
374.287	342.81
374.513	326.81
374.739	338.81
374.965	348.81
375.191	345.81
375.416	331.81
375.642	334.81
375.868	337.81
376.094	324.81
376.319	330.81
376.545	332.81
376.771	317.81
376.997	323.81
377.222	320.81
377.448	326.81
377.674	323.81
377.899	343.81
378.125	321.81
378.35	332.81
378.576	334.81
378.802	314.81
379.027	327.81
379.253	337.81
379.478	327.81
379.704	311.81
379.929	333.81
380.155	344.81
380.38	321.81
380.606	330.81
380.831	325.81
381.057	335.81
381.282	334.81
381.507	315.81
381.733	309.81
381.958	320.81
382.184	334.81
382.409	334.81
382.634	344.81
382.86	331.81
383.085	320.81
383.31	336.81
383.535	348.81
383.761	331.81
383.986	337.81
384.211	336.81
384.436	349.81
384.662	371.81
384.887	363.81
385.112	346.81
385.337	354.81
385.562	377.81
385.787	371.81
386.013	395.81
386.238	394.81
386.463	390.81
386.688	378.81
386.913	373.81
387.138	354.81
387.363	361.81
387.588	369.81
387.813	354.81
388.038	348.81
388.263	373.81
388.488	376.81
388.713	364.81
388.938	361.81
389.163	374.81
389.387	360.81
389.612	360.81
389.837	382.81
390.062	362.81
390.287	369.81
390.512	354.81
390.736	341.81
390.961	339.81
391.186	376.81
391.411	378.81
391.636	380.81
391.86	378.81
392.085	359.81
392.31	388.81
392.534	378.81
392.759	378.81
392.984	386.81
393.208	370.81
393.433	376.81
393.658	373.81
393.882	371.81
394.107	386.81
394.331	388.81
394.556	373.81
394.78	377.81
395.005	388.81
395.229	383.81
395.454	388.81
395.678	385.81
395.903	394.81
396.127	411.81
396.352	396.81
396.576	393.81
396.801	360.81
397.025	384.81
397.249	382.81
397.474	401.81
397.698	394.81
397.922	404.81
398.147	404.81
398.371	397.81
398.595	428.81
398.82	418.81
399.044	436.81
399.268	481.81
399.492	510.81
399.717	568.81
399.941	544.81
400.165	536.81
400.389	510.81
400.613	488.81
400.837	438.81
401.062	432.81
401.286	422.81
401.51	434.81
401.734	438.81
401.958	445.81
402.182	445.81
402.406	440.81
402.63	447.81
402.854	424.81
403.078	445.81
403.302	440.81
403.526	452.81
403.75	463.81
403.974	451.81
404.198	463.81
404.422	459.81
404.645	472.81
404.869	467.81
405.093	485.81
405.317	507.81
405.541	501.81
405.765	480.81
405.988	462.81
406.212	464.81
406.436	488.81
406.66	500.81
406.883	496.81
407.107	501.81
407.331	555.81
407.555	568.81
407.778	555.81
408.002	515.81
408.226	500.81
408.449	483.81
408.673	480.81
408.896	498.81
409.12	497.81
409.344	453.81
409.567	468.81
409.791	450.81
410.014	429.81
410.238	460.81
410.461	436.81
410.685	462.81
410.908	456.81
411.132	462.81
411.355	469.81
411.578	470.81
411.802	449.81
412.025	433.81
412.249	453.81
412.472	437.81
412.695	452.81
412.919	448.81
413.142	440.81
413.365	450.81
413.589	454.81
413.812	418.81
414.035	418.81
414.258	425.81
414.482	423.81
414.705	418.81
414.928	428.81
415.151	427.81
415.374	414.81
415.597	414.81
415.821	412.81
416.044	394.81
416.267	424.81
416.49	431.81
416.713	418.81
416.936	427.81
417.159	414.81
417.382	409.81
417.605	421.81
417.828	435.81
418.051	441.81
418.274	426.81
418.497	426.81
418.72	428.81
418.943	428.81
419.166	439.81
419.389	478.81
419.611	460.81
419.834	446.81
420.057	457.81
420.28	459.81
420.503	457.81
420.726	453.81
420.948	448.81
421.171	480.81
421.394	472.81
421.617	467.81
421.839	438.81
422.062	445.81
422.285	427.81
422.507	475.81
422.73	499.81
422.953	487.81
423.175	463.81
423.398	440.81
423.621	445.81
423.843	468.81
424.066	471.81
424.288	479.81
424.511	488.81
424.733	501.81
424.956	534.81
425.178	522.81
425.401	518.81
425.623	525.81
425.846	457.81
426.068	442.81
426.291	429.81
426.513	434.81
426.735	437.81
426.958	477.81
427.18	498.81
427.402	593.81
427.625	571.81
427.847	520.81
428.069	468.81
428.292	435.81
428.514	428.81
428.736	430.81
428.958	417.81
429.181	406.81
429.403	424.81
429.625	410.81
429.847	435.81
430.069	455.81
430.292	444.81
430.514	410.81
430.736	403.81
430.958	404.81
431.18	410.81
431.402	395.81
431.624	382.81
431.846	388.81
432.068	394.81
432.29	384.81
432.512	390.81
432.734	406.81
432.956	393.81
433.178	411.81
433.4	410.81
433.622	387.81
433.844	380.81
434.066	392.81
434.287	392.81
434.509	403.81
434.731	408.81
434.953	433.81
435.175	417.81
435.397	422.81
435.618	446.81
435.84	475.81
436.062	500.81
436.284	511.81
436.505	449.81
436.727	432.81
436.949	404.81
437.17	404.81
437.392	422.81
437.614	440.81
437.835	445.81
438.057	472.81
438.278	525.81
438.5	504.81
438.721	590.81
438.943	551.81
439.165	461.81
439.386	419.81
439.608	446.81
439.829	411.81
440.05	438.81
440.272	466.81
440.493	445.81
440.715	411.81
440.936	429.81
441.158	397.81
441.379	434.81
441.6	422.81
441.822	468.81
442.043	477.81
442.264	504.81
442.486	510.81
442.707	478.81
442.928	457.81
443.149	468.81
443.371	493.81
443.592	487.81
443.813	528.81
444.034	555.81
444.255	508.81
444.476	479.81
444.698	484.81
444.919	480.81
445.14	573.81
445.361	531.81
445.582	473.81
445.803	500.81
446.024	528.81
446.245	557.81
446.466	514.81
446.687	456.81
446.908	448.81
447.129	429.81
447.35	401.81
447.571	402.81
447.792	407.81
448.013	400.81
448.234	391.81
448.455	416.81
448.675	519.81
448.896	555.81
449.117	482.81
449.338	469.81
449.559	524.81
449.779	562.81
450	469.81
450.221	415.81
450.442	397.81
450.662	388.81
450.883	407.81
451.104	406.81
451.324	389.81
451.545	385.81
451.766	379.81
451.986	348.81
452.207	352.81
452.428	361.81
452.648	364.81
452.869	370.81
453.089	365.81
453.31	365.81
453.53	362.81
453.751	378.81
453.971	356.81
454.192	361.81
454.412	360.81
454.633	370.81
454.853	365.81
455.073	363.81
455.294	380.81
455.514	402.81
455.734	381.81
455.955	368.81
456.175	340.81
456.395	342.81
456.616	348.81
456.836	349.81
457.056	339.81
457.276	345.81
457.497	338.81
457.717	335.81
457.937	351.81
458.157	342.81
458.377	357.81
458.598	372.81
458.818	408.81
459.038	451.81
459.258	480.81
459.478	412.81
459.698	406.81
459.918	415.81
460.138	424.81
460.358	410.81
460.578	437.81
460.798	407.81
461.018	420.81
461.238	428.81
461.458	427.81
461.678	429.81
461.898	409.81
462.118	418.81
462.338	453.81
462.558	439.81
462.777	470.81
462.997	480.81
463.217	495.81
463.437	492.81
463.657	490.81
463.876	456.81
464.096	466.81
464.316	461.81
464.536	462.81
464.755	462.81
464.975	460.81
465.195	464.81
465.414	507.81
465.634	421.81
465.854	434.81
466.073	395.81
466.293	405.81
466.512	366.81
466.732	378.81
466.951	398.81
467.171	374.81
467.391	370.81
467.61	389.81
467.829	381.81
468.049	396.81
468.268	389.81
468.488	378.81
468.707	372.81
468.927	364.81
469.146	380.81
469.365	392.81
469.585	363.81
469.804	402.81
470.023	398.81
470.243	398.81
470.462	404.81
470.681	396.81
470.901	397.81
471.12	398.81
471.339	392.81
471.558	380.81
471.777	390.81
471.997	380.81
472.216	385.81
472.435	404.81
472.654	393.81
472.873	378.81
473.092	372.81
473.311	393.81
473.53	402.81
473.749	404.81
473.968	407.81
474.187	452.81
474.406	460.81
474.625	416.81
474.844	384.81
475.063	382.81
475.282	390.81
475.501	378.81
475.72	386.81
475.939	402.81
476.158	411.81
476.377	406.81
476.596	389.81
476.814	389.81
477.033	412.81
477.252	383.81
477.471	415.81
477.69	405.81
477.908	426.81
478.127	416.81
478.346	419.81
478.564	428.81
478.783	429.81
479.002	423.81
479.22	463.81
479.439	443.81
479.658	449.81
479.876	447.81
480.095	458.81
480.313	470.81
480.532	486.81
480.751	488.81
480.969	460.81
481.188	494.81
481.406	516.81
481.624	483.81
481.843	442.81
482.061	453.81
482.28	462.81
482.498	448.81
482.717	411.81
482.935	445.81
483.153	436.81
483.372	429.81
483.59	432.81
483.808	446.81
484.027	446.81
484.245	448.81
484.463	427.81
484.681	445.81
484.9	444.81
485.118	455.81
485.336	459.81
485.554	460.81
485.772	461.81
485.99	452.81
486.209	454.81
486.427	449.81
486.645	457.81
486.863	492.81
487.081	488.81
487.299	467.81
487.517	480.81
487.735	476.81
487.953	468.81
488.171	482.81
488.389	444.81
488.607	462.81
488.825	470.81
489.043	458.81
489.261	473.81
489.479	484.81
489.696	469.81
489.914	455.81
490.132	491.81
490.35	481.81
490.568	503.81
490.786	488.81
491.003	490.81
491.221	526.81
491.439	524.81
491.657	517.81
491.874	533.81
492.092	547.81
492.31	531.81
492.527	548.81
492.745	538.81
492.963	557.81
493.18	534.81
493.398	530.81
493.615	542.81
493.833	532.81
494.05	540.81
494.268	554.81
494.485	546.81
494.703	561.81
494.92	531.81
495.138	530.81
495.355	543.81
495.573	549.81
495.79	519.81
496.008	538.81
496.225	548.81
496.442	542.81
496.66	534.81
496.877	561.81
497.094	549.81
497.312	575.81
497.529	582.81
497.746	584.81
497.963	578.81
498.181	599.81
498.398	615.81
498.615	630.81
498.832	662.81
499.049	678.81
499.267	696.81
499.484	742.81
499.701	801.81
499.918	837.81
500.135	902.81
500.352	971.81
500.569	1004.81
500.786	970.81
501.003	960.81
501.22	880.81
501.437	851.81
501.654	783.81
501.871	781.81
502.088	718.81
502.305	676.81
