Data from 1969.PennyLincolnUp.Lamp.En5.5.200Scan.071719.P1._HRD10591_14-55-35-973.txt Node
Date: Thu Jul 18 14:55:35 EDT 2019
User: cochatt
Spectrometer: HR+D1059
Trigger mode: 1
Integration Time (sec): 1.000000E-1
Scans to average: 1
Electric dark correction enabled: true
Nonlinearity correction enabled: false
Boxcar width: 0
XAxis mode: Wavelengths
Number of Pixels in Spectrum: 2048
>>>>>Begin Spectral Data<<<<<
223.165	-26.75
223.4	-26.75
223.635	-26.75
223.869	-10.75
224.104	-12.75
224.338	-18.75
224.573	-0.75
224.808	-12.75
225.042	-6.75
225.277	0.25
225.511	-16.75
225.746	0.25
225.98	11.25
226.215	8.25
226.449	26.25
226.683	15.25
226.918	16.25
227.152	28.25
227.387	25.25
227.621	33.25
227.856	43.25
228.09	27.25
228.324	51.25
228.559	47.25
228.793	64.25
229.027	83.25
229.262	89.25
229.496	101.25
229.73	97.25
229.964	121.25
230.199	99.25
230.433	90.25
230.667	88.25
230.901	97.25
231.136	113.25
231.37	89.25
231.604	100.25
231.838	103.25
232.072	98.25
232.306	91.25
232.541	103.25
232.775	97.25
233.009	100.25
233.243	97.25
233.477	112.25
233.711	103.25
233.945	116.25
234.179	101.25
234.413	106.25
234.647	100.25
234.881	98.25
235.115	107.25
235.349	96.25
235.583	106.25
235.817	113.25
236.051	122.25
236.285	113.25
236.519	122.25
236.753	129.25
236.987	125.25
237.221	135.25
237.455	157.25
237.689	131.25
237.922	121.25
238.156	113.25
238.39	108.25
238.624	97.25
238.858	125.25
239.091	117.25
239.325	99.25
239.559	99.25
239.793	112.25
240.027	118.25
240.26	115.25
240.494	126.25
240.728	120.25
240.961	116.25
241.195	127.25
241.429	112.25
241.662	131.25
241.896	103.25
242.13	108.25
242.363	119.25
242.597	125.25
242.83	129.25
243.064	125.25
243.298	120.25
243.531	125.25
243.765	120.25
243.998	118.25
244.232	120.25
244.465	133.25
244.699	127.25
244.932	132.25
245.166	118.25
245.399	141.25
245.633	121.25
245.866	128.25
246.099	152.25
246.333	134.25
246.566	138.25
246.8	135.25
247.033	139.25
247.266	147.25
247.5	130.25
247.733	148.25
247.966	154.25
248.2	157.25
248.433	165.25
248.666	153.25
248.899	154.25
249.133	153.25
249.366	162.25
249.599	178.25
249.832	163.25
250.066	146.25
250.299	156.25
250.532	159.25
250.765	183.25
250.998	184.25
251.231	178.25
251.465	183.25
251.698	162.25
251.931	164.25
252.164	156.25
252.397	164.25
252.63	169.25
252.863	182.25
253.096	188.25
253.329	186.25
253.562	184.25
253.795	170.25
254.028	185.25
254.261	182.25
254.494	184.25
254.727	205.25
254.96	244.25
255.193	220.25
255.426	183.25
255.659	207.25
255.892	200.25
256.124	200.25
256.357	203.25
256.59	180.25
256.823	178.25
257.056	168.25
257.289	170.25
257.521	165.25
257.754	165.25
257.987	172.25
258.22	177.25
258.452	162.25
258.685	179.25
258.918	182.25
259.151	164.25
259.383	181.25
259.616	186.25
259.849	183.25
260.081	185.25
260.314	198.25
260.547	228.25
260.779	197.25
261.012	187.25
261.244	200.25
261.477	191.25
261.71	195.25
261.942	193.25
262.175	214.25
262.407	199.25
262.64	184.25
262.872	195.25
263.105	176.25
263.337	183.25
263.57	186.25
263.802	180.25
264.035	186.25
264.267	176.25
264.499	197.25
264.732	189.25
264.964	183.25
265.197	193.25
265.429	192.25
265.661	186.25
265.894	185.25
266.126	192.25
266.358	190.25
266.591	203.25
266.823	194.25
267.055	179.25
267.287	194.25
267.52	213.25
267.752	188.25
267.984	223.25
268.216	200.25
268.448	198.25
268.681	202.25
268.913	210.25
269.145	236.25
269.377	215.25
269.609	219.25
269.841	234.25
270.073	226.25
270.306	245.25
270.538	257.25
270.77	251.25
271.002	261.25
271.234	232.25
271.466	253.25
271.698	265.25
271.93	260.25
272.162	259.25
272.394	247.25
272.626	233.25
272.858	239.25
273.09	241.25
273.322	228.25
273.553	217.25
273.785	222.25
274.017	220.25
274.249	212.25
274.481	215.25
274.713	232.25
274.945	236.25
275.176	225.25
275.408	215.25
275.64	221.25
275.872	239.25
276.104	219.25
276.335	229.25
276.567	245.25
276.799	227.25
277.031	257.25
277.262	275.25
277.494	263.25
277.726	257.25
277.957	249.25
278.189	223.25
278.421	242.25
278.652	227.25
278.884	233.25
279.115	229.25
279.347	239.25
279.579	224.25
279.81	232.25
280.042	220.25
280.273	242.25
280.505	221.25
280.736	239.25
280.968	213.25
281.199	232.25
281.431	245.25
281.662	233.25
281.894	237.25
282.125	238.25
282.356	260.25
282.588	265.25
282.819	252.25
283.051	259.25
283.282	225.25
283.513	252.25
283.745	244.25
283.976	235.25
284.207	265.25
284.439	265.25
284.67	256.25
284.901	230.25
285.132	245.25
285.364	247.25
285.595	256.25
285.826	245.25
286.057	228.25
286.288	242.25
286.52	236.25
286.751	259.25
286.982	258.25
287.213	255.25
287.444	280.25
287.675	255.25
287.906	279.25
288.138	269.25
288.369	277.25
288.6	261.25
288.831	262.25
289.062	257.25
289.293	256.25
289.524	248.25
289.755	244.25
289.986	256.25
290.217	248.25
290.448	258.25
290.679	253.25
290.91	265.25
291.141	266.25
291.371	274.25
291.602	269.25
291.833	271.25
292.064	253.25
292.295	254.25
292.526	255.25
292.757	280.25
292.987	271.25
293.218	254.25
293.449	266.25
293.68	244.25
293.91	260.25
294.141	252.25
294.372	264.25
294.603	263.25
294.833	257.25
295.064	267.25
295.295	259.25
295.525	262.25
295.756	269.25
295.987	259.25
296.217	258.25
296.448	284.25
296.679	274.25
296.909	292.25
297.14	282.25
297.37	273.25
297.601	262.25
297.831	287.25
298.062	272.25
298.292	269.25
298.523	287.25
298.753	285.25
298.984	282.25
299.214	273.25
299.445	279.25
299.675	264.25
299.905	271.25
300.136	281.25
300.366	276.25
300.597	275.25
300.827	296.25
301.057	279.25
301.288	310.25
301.518	305.25
301.748	299.25
301.979	278.25
302.209	291.25
302.439	307.25
302.669	294.25
302.9	284.25
303.13	295.25
303.36	297.25
303.59	304.25
303.82	294.25
304.051	291.25
304.281	315.25
304.511	293.25
304.741	300.25
304.971	288.25
305.201	276.25
305.431	306.25
305.661	290.25
305.891	287.25
306.121	305.25
306.352	304.25
306.582	286.25
306.812	306.25
307.042	293.25
307.272	292.25
307.502	297.25
307.731	321.25
307.961	298.25
308.191	287.25
308.421	285.25
308.651	297.25
308.881	295.25
309.111	294.25
309.341	293.25
309.571	304.25
309.8	291.25
310.03	328.25
310.26	307.25
310.49	293.25
310.72	327.25
310.949	343.25
311.179	325.25
311.409	307.25
311.639	323.25
311.868	311.25
312.098	300.25
312.328	338.25
312.557	331.25
312.787	339.25
313.017	328.25
313.246	322.25
313.476	316.25
313.706	311.25
313.935	325.25
314.165	346.25
314.394	343.25
314.624	321.25
314.853	319.25
315.083	324.25
315.312	319.25
315.542	320.25
315.771	325.25
316.001	315.25
316.23	331.25
316.46	329.25
316.689	325.25
316.919	330.25
317.148	334.25
317.377	337.25
317.607	333.25
317.836	333.25
318.065	322.25
318.295	328.25
318.524	325.25
318.753	329.25
318.983	320.25
319.212	322.25
319.441	327.25
319.67	324.25
319.9	327.25
320.129	309.25
320.358	323.25
320.587	321.25
320.816	329.25
321.046	336.25
321.275	322.25
321.504	348.25
321.733	327.25
321.962	343.25
322.191	342.25
322.42	336.25
322.649	349.25
322.878	361.25
323.108	342.25
323.337	357.25
323.566	385.25
323.795	396.25
324.024	423.25
324.253	486.25
324.482	633.25
324.71	891.25
324.939	1171.25
325.168	985.25
325.397	562.25
325.626	454.25
325.855	378.25
326.084	381.25
326.313	386.25
326.542	387.25
326.77	400.25
326.999	463.25
327.228	592.25
327.457	789.25
327.686	913.25
327.914	641.25
328.143	487.25
328.372	450.25
328.6	434.25
328.829	418.25
329.058	433.25
329.287	426.25
329.515	414.25
329.744	393.25
329.972	408.25
330.201	408.25
330.43	435.25
330.658	441.25
330.887	431.25
331.115	429.25
331.344	439.25
331.572	393.25
331.801	386.25
332.03	404.25
332.258	388.25
332.486	390.25
332.715	406.25
332.943	391.25
333.172	392.25
333.4	408.25
333.629	425.25
333.857	426.25
334.085	437.25
334.314	466.25
334.542	458.25
334.771	451.25
334.999	436.25
335.227	413.25
335.455	397.25
335.684	416.25
335.912	396.25
336.14	399.25
336.369	381.25
336.597	390.25
336.825	385.25
337.053	395.25
337.281	376.25
337.51	379.25
337.738	379.25
337.966	385.25
338.194	388.25
338.422	397.25
338.65	384.25
338.878	358.25
339.106	373.25
339.334	371.25
339.562	376.25
339.79	362.25
340.018	365.25
340.246	384.25
340.474	362.25
340.702	358.25
340.93	363.25
341.158	355.25
341.386	353.25
341.614	362.25
341.842	371.25
342.07	375.25
342.298	359.25
342.526	341.25
342.754	355.25
342.981	360.25
343.209	372.25
343.437	381.25
343.665	383.25
343.893	380.25
344.12	386.25
344.348	399.25
344.576	374.25
344.804	356.25
345.031	355.25
345.259	374.25
345.487	359.25
345.714	350.25
345.942	350.25
346.17	337.25
346.397	338.25
346.625	335.25
346.853	329.25
347.08	344.25
347.308	359.25
347.535	359.25
347.763	351.25
347.99	356.25
348.218	346.25
348.445	346.25
348.673	344.25
348.9	346.25
349.128	343.25
349.355	330.25
349.583	321.25
349.81	343.25
350.037	340.25
350.265	341.25
350.492	330.25
350.72	340.25
350.947	352.25
351.174	339.25
351.402	341.25
351.629	328.25
351.856	327.25
352.083	337.25
352.311	360.25
352.538	343.25
352.765	349.25
352.992	364.25
353.22	329.25
353.447	333.25
353.674	346.25
353.901	337.25
354.128	328.25
354.355	347.25
354.583	336.25
354.81	341.25
355.037	334.25
355.264	336.25
355.491	342.25
355.718	348.25
355.945	329.25
356.172	348.25
356.399	327.25
356.626	329.25
356.853	317.25
357.08	320.25
357.307	328.25
357.534	322.25
357.761	334.25
357.988	329.25
358.215	330.25
358.441	325.25
358.668	360.25
358.895	340.25
359.122	314.25
359.349	314.25
359.576	339.25
359.802	353.25
360.029	344.25
360.256	371.25
360.483	353.25
360.709	339.25
360.936	330.25
361.163	337.25
361.39	351.25
361.616	333.25
361.843	335.25
362.07	330.25
362.296	336.25
362.523	332.25
362.749	346.25
362.976	353.25
363.203	352.25
363.429	336.25
363.656	354.25
363.882	336.25
364.109	337.25
364.335	337.25
364.562	338.25
364.788	318.25
365.015	305.25
365.241	321.25
365.468	319.25
365.694	313.25
365.92	333.25
366.147	333.25
366.373	330.25
366.599	340.25
366.826	326.25
367.052	338.25
367.278	309.25
367.505	340.25
367.731	307.25
367.957	348.25
368.184	329.25
368.41	342.25
368.636	333.25
368.862	345.25
369.089	336.25
369.315	337.25
369.541	338.25
369.767	329.25
369.993	337.25
370.219	347.25
370.445	339.25
370.672	349.25
370.898	321.25
371.124	347.25
371.35	337.25
371.576	331.25
371.802	320.25
372.028	323.25
372.254	339.25
372.48	338.25
372.706	334.25
372.932	317.25
373.158	336.25
373.384	352.25
373.61	357.25
373.835	357.25
374.061	321.25
374.287	344.25
374.513	333.25
374.739	351.25
374.965	373.25
375.191	362.25
375.416	342.25
375.642	359.25
375.868	355.25
376.094	349.25
376.319	329.25
376.545	325.25
376.771	342.25
376.997	334.25
377.222	341.25
377.448	326.25
377.674	328.25
377.899	343.25
378.125	325.25
378.35	307.25
378.576	331.25
378.802	341.25
379.027	314.25
379.253	340.25
379.478	331.25
379.704	342.25
379.929	332.25
380.155	331.25
380.38	331.25
380.606	361.25
380.831	335.25
381.057	338.25
381.282	345.25
381.507	329.25
381.733	338.25
381.958	323.25
382.184	330.25
382.409	352.25
382.634	347.25
382.86	333.25
383.085	352.25
383.31	353.25
383.535	360.25
383.761	337.25
383.986	362.25
384.211	367.25
384.436	376.25
384.662	363.25
384.887	375.25
385.112	379.25
385.337	372.25
385.562	373.25
385.787	376.25
386.013	393.25
386.238	403.25
386.463	383.25
386.688	389.25
386.913	352.25
387.138	358.25
387.363	381.25
387.588	357.25
387.813	391.25
388.038	375.25
388.263	384.25
388.488	384.25
388.713	375.25
388.938	383.25
389.163	376.25
389.387	377.25
389.612	357.25
389.837	369.25
390.062	359.25
390.287	375.25
390.512	381.25
390.736	374.25
390.961	377.25
391.186	367.25
391.411	384.25
391.636	393.25
391.86	404.25
392.085	411.25
392.31	411.25
392.534	404.25
392.759	397.25
392.984	402.25
393.208	381.25
393.433	375.25
393.658	383.25
393.882	379.25
394.107	386.25
394.331	387.25
394.556	378.25
394.78	357.25
395.005	362.25
395.229	392.25
395.454	403.25
395.678	387.25
395.903	414.25
396.127	387.25
396.352	408.25
396.576	408.25
396.801	403.25
397.025	399.25
397.249	383.25
397.474	402.25
397.698	408.25
397.922	407.25
398.147	392.25
398.371	419.25
398.595	419.25
398.82	440.25
399.044	455.25
399.268	475.25
399.492	540.25
399.717	549.25
399.941	559.25
400.165	527.25
400.389	512.25
400.613	483.25
400.837	452.25
401.062	423.25
401.286	448.25
401.51	436.25
401.734	436.25
401.958	452.25
402.182	457.25
402.406	449.25
402.63	449.25
402.854	460.25
403.078	436.25
403.302	459.25
403.526	454.25
403.75	485.25
403.974	495.25
404.198	481.25
404.422	484.25
404.645	477.25
404.869	480.25
405.093	471.25
405.317	509.25
405.541	524.25
405.765	499.25
405.988	497.25
406.212	489.25
406.436	468.25
406.66	485.25
406.883	486.25
407.107	530.25
407.331	540.25
407.555	600.25
407.778	573.25
408.002	526.25
408.226	520.25
408.449	509.25
408.673	499.25
408.896	516.25
409.12	503.25
409.344	500.25
409.567	468.25
409.791	504.25
410.014	479.25
410.238	475.25
410.461	440.25
410.685	477.25
410.908	447.25
411.132	487.25
411.355	488.25
411.578	490.25
411.802	473.25
412.025	454.25
412.249	467.25
412.472	472.25
412.695	504.25
412.919	474.25
413.142	449.25
413.365	403.25
413.589	424.25
413.812	444.25
414.035	442.25
414.258	436.25
414.482	428.25
414.705	448.25
414.928	450.25
415.151	428.25
415.374	434.25
415.597	436.25
415.821	443.25
416.044	447.25
416.267	446.25
416.49	431.25
416.713	421.25
416.936	443.25
417.159	425.25
417.382	413.25
417.605	464.25
417.828	452.25
418.051	451.25
418.274	449.25
418.497	449.25
418.72	448.25
418.943	453.25
419.166	449.25
419.389	484.25
419.611	458.25
419.834	458.25
420.057	439.25
420.28	475.25
420.503	452.25
420.726	437.25
420.948	461.25
421.171	452.25
421.394	472.25
421.617	461.25
421.839	448.25
422.062	458.25
422.285	446.25
422.507	503.25
422.73	524.25
422.953	519.25
423.175	453.25
423.398	459.25
423.621	457.25
423.843	499.25
424.066	495.25
424.288	465.25
424.511	471.25
424.733	511.25
424.956	534.25
425.178	540.25
425.401	527.25
425.623	559.25
425.846	484.25
426.068	457.25
426.291	449.25
426.513	445.25
426.735	464.25
426.958	467.25
427.18	525.25
427.402	583.25
427.625	618.25
427.847	545.25
428.069	521.25
428.292	472.25
428.514	431.25
428.736	407.25
428.958	431.25
429.181	419.25
429.403	407.25
429.625	429.25
429.847	444.25
430.069	459.25
430.292	447.25
430.514	411.25
430.736	417.25
430.958	429.25
431.18	416.25
431.402	398.25
431.624	390.25
431.846	416.25
432.068	412.25
432.29	400.25
432.512	425.25
432.734	405.25
432.956	428.25
433.178	431.25
433.4	433.25
433.622	412.25
433.844	404.25
434.066	401.25
434.287	448.25
434.509	419.25
434.731	442.25
434.953	457.25
435.175	450.25
435.397	460.25
435.618	453.25
435.84	467.25
436.062	533.25
436.284	542.25
436.505	475.25
436.727	446.25
436.949	421.25
437.17	418.25
437.392	403.25
437.614	432.25
437.835	449.25
438.057	475.25
438.278	524.25
438.5	565.25
438.721	582.25
438.943	551.25
439.165	476.25
439.386	434.25
439.608	437.25
439.829	451.25
440.05	458.25
440.272	468.25
440.493	455.25
440.715	457.25
440.936	427.25
441.158	433.25
441.379	436.25
441.6	455.25
441.822	456.25
442.043	489.25
442.264	523.25
442.486	506.25
442.707	490.25
442.928	477.25
443.149	453.25
443.371	490.25
443.592	502.25
443.813	576.25
444.034	572.25
444.255	515.25
444.476	496.25
444.698	482.25
444.919	501.25
445.14	613.25
445.361	544.25
445.582	499.25
445.803	515.25
446.024	570.25
446.245	566.25
446.466	511.25
446.687	491.25
446.908	443.25
447.129	427.25
447.35	401.25
447.571	435.25
447.792	409.25
448.013	405.25
448.234	425.25
448.455	456.25
448.675	505.25
448.896	551.25
449.117	489.25
449.338	476.25
449.559	543.25
449.779	592.25
450	470.25
450.221	438.25
450.442	405.25
450.662	417.25
450.883	394.25
451.104	408.25
451.324	383.25
451.545	377.25
451.766	394.25
451.986	357.25
452.207	353.25
452.428	372.25
452.648	385.25
452.869	385.25
453.089	389.25
453.31	402.25
453.53	370.25
453.751	387.25
453.971	383.25
454.192	369.25
454.412	381.25
454.633	356.25
454.853	367.25
455.073	363.25
455.294	377.25
455.514	431.25
455.734	405.25
455.955	373.25
456.175	357.25
456.395	350.25
456.616	338.25
456.836	344.25
457.056	336.25
457.276	355.25
457.497	351.25
457.717	341.25
457.937	357.25
458.157	374.25
458.377	362.25
458.598	394.25
458.818	408.25
459.038	456.25
459.258	474.25
459.478	433.25
459.698	406.25
459.918	416.25
460.138	447.25
460.358	427.25
460.578	450.25
460.798	443.25
461.018	424.25
461.238	448.25
461.458	433.25
461.678	437.25
461.898	426.25
462.118	443.25
462.338	448.25
462.558	454.25
462.777	445.25
462.997	494.25
463.217	507.25
463.437	499.25
463.657	503.25
463.876	482.25
464.096	497.25
464.316	476.25
464.536	478.25
464.755	466.25
464.975	471.25
465.195	466.25
465.414	478.25
465.634	463.25
465.854	440.25
466.073	396.25
466.293	399.25
466.512	387.25
466.732	373.25
466.951	396.25
467.171	405.25
467.391	403.25
467.61	395.25
467.829	401.25
468.049	398.25
468.268	411.25
468.488	389.25
468.707	390.25
468.927	365.25
469.146	391.25
469.365	382.25
469.585	385.25
469.804	402.25
470.023	387.25
470.243	402.25
470.462	409.25
470.681	420.25
470.901	412.25
471.12	400.25
471.339	402.25
471.558	393.25
471.777	401.25
471.997	390.25
472.216	396.25
472.435	412.25
472.654	421.25
472.873	389.25
473.092	377.25
473.311	381.25
473.53	397.25
473.749	395.25
473.968	408.25
474.187	487.25
474.406	479.25
474.625	415.25
474.844	405.25
475.063	386.25
475.282	383.25
475.501	390.25
475.72	403.25
475.939	396.25
476.158	389.25
476.377	410.25
476.596	395.25
476.814	408.25
477.033	419.25
477.252	414.25
477.471	410.25
477.69	430.25
477.908	436.25
478.127	441.25
478.346	449.25
478.564	452.25
478.783	464.25
479.002	451.25
479.22	439.25
479.439	454.25
479.658	469.25
479.876	457.25
480.095	460.25
480.313	526.25
480.532	491.25
480.751	502.25
480.969	491.25
481.188	549.25
481.406	536.25
481.624	499.25
481.843	464.25
482.061	467.25
482.28	435.25
482.498	432.25
482.717	443.25
482.935	443.25
483.153	467.25
483.372	446.25
483.59	465.25
483.808	446.25
484.027	446.25
484.245	451.25
484.463	434.25
484.681	460.25
484.9	476.25
485.118	455.25
485.336	442.25
485.554	457.25
485.772	485.25
485.99	478.25
486.209	454.25
486.427	465.25
486.645	482.25
486.863	503.25
487.081	473.25
487.299	479.25
487.517	475.25
487.735	460.25
487.953	480.25
488.171	477.25
488.389	489.25
488.607	481.25
488.825	475.25
489.043	485.25
489.261	485.25
489.479	483.25
489.696	483.25
489.914	492.25
490.132	507.25
490.35	495.25
490.568	492.25
490.786	519.25
491.003	521.25
491.221	513.25
491.439	516.25
491.657	545.25
491.874	552.25
492.092	553.25
492.31	530.25
492.527	556.25
492.745	576.25
492.963	556.25
493.18	556.25
493.398	586.25
493.615	561.25
493.833	565.25
494.05	579.25
494.268	546.25
494.485	585.25
494.703	575.25
494.92	565.25
495.138	544.25
495.355	564.25
495.573	567.25
495.79	559.25
496.008	565.25
496.225	549.25
496.442	571.25
496.66	569.25
496.877	572.25
497.094	574.25
497.312	571.25
497.529	566.25
497.746	601.25
497.963	627.25
498.181	647.25
498.398	638.25
498.615	650.25
498.832	679.25
499.049	696.25
499.267	729.25
499.484	780.25
499.701	799.25
499.918	856.25
500.135	915.25
500.352	987.25
500.569	1002.25
500.786	983.25
501.003	921.25
501.22	887.25
501.437	858.25
501.654	803.25
501.871	769.25
502.088	733.25
502.305	710.25
