Data from 1969.PennyLincolnUp.Lamp.En5.5.200Scan.071719.P1._HRD10591_14-53-56-971.txt Node
Date: Thu Jul 18 14:53:56 EDT 2019
User: cochatt
Spectrometer: HR+D1059
Trigger mode: 1
Integration Time (sec): 1.000000E-1
Scans to average: 1
Electric dark correction enabled: true
Nonlinearity correction enabled: false
Boxcar width: 0
XAxis mode: Wavelengths
Number of Pixels in Spectrum: 2048
>>>>>Begin Spectral Data<<<<<
223.165	-18.75
223.4	-18.75
223.635	-18.75
223.869	-19.75
224.104	-18.75
224.338	-10.75
224.573	-25.75
224.808	-19.75
225.042	-3.75
225.277	-9.75
225.511	-1.75
225.746	5.25
225.98	17.25
226.215	13.25
226.449	7.25
226.683	18.25
226.918	35.25
227.152	32.25
227.387	42.25
227.621	45.25
227.856	52.25
228.09	53.25
228.324	46.25
228.559	64.25
228.793	61.25
229.027	73.25
229.262	75.25
229.496	100.25
229.73	95.25
229.964	96.25
230.199	100.25
230.433	101.25
230.667	94.25
230.901	98.25
231.136	102.25
231.37	106.25
231.604	100.25
231.838	115.25
232.072	104.25
232.306	101.25
232.541	104.25
232.775	103.25
233.009	117.25
233.243	104.25
233.477	107.25
233.711	109.25
233.945	105.25
234.179	104.25
234.413	100.25
234.647	96.25
234.881	122.25
235.115	121.25
235.349	116.25
235.583	110.25
235.817	115.25
236.051	118.25
236.285	113.25
236.519	127.25
236.753	120.25
236.987	115.25
237.221	125.25
237.455	163.25
237.689	139.25
237.922	124.25
238.156	120.25
238.39	122.25
238.624	109.25
238.858	107.25
239.091	108.25
239.325	93.25
239.559	103.25
239.793	106.25
240.027	102.25
240.26	110.25
240.494	114.25
240.728	113.25
240.961	121.25
241.195	119.25
241.429	108.25
241.662	127.25
241.896	109.25
242.13	109.25
242.363	107.25
242.597	125.25
242.83	130.25
243.064	125.25
243.298	134.25
243.531	125.25
243.765	117.25
243.998	130.25
244.232	124.25
244.465	118.25
244.699	128.25
244.932	147.25
245.166	132.25
245.399	141.25
245.633	111.25
245.866	148.25
246.099	140.25
246.333	120.25
246.566	131.25
246.8	141.25
247.033	132.25
247.266	132.25
247.5	136.25
247.733	137.25
247.966	137.25
248.2	148.25
248.433	140.25
248.666	150.25
248.899	143.25
249.133	137.25
249.366	168.25
249.599	157.25
249.832	148.25
250.066	145.25
250.299	152.25
250.532	162.25
250.765	165.25
250.998	169.25
251.231	177.25
251.465	171.25
251.698	152.25
251.931	163.25
252.164	165.25
252.397	163.25
252.63	167.25
252.863	175.25
253.096	168.25
253.329	168.25
253.562	173.25
253.795	180.25
254.028	165.25
254.261	163.25
254.494	176.25
254.727	186.25
254.96	198.25
255.193	182.25
255.426	182.25
255.659	183.25
255.892	190.25
256.124	169.25
256.357	179.25
256.59	174.25
256.823	171.25
257.056	169.25
257.289	173.25
257.521	170.25
257.754	177.25
257.987	182.25
258.22	179.25
258.452	180.25
258.685	159.25
258.918	165.25
259.151	178.25
259.383	172.25
259.616	176.25
259.849	179.25
260.081	171.25
260.314	206.25
260.547	197.25
260.779	191.25
261.012	171.25
261.244	153.25
261.477	171.25
261.71	189.25
261.942	168.25
262.175	187.25
262.407	167.25
262.64	168.25
262.872	187.25
263.105	170.25
263.337	184.25
263.57	166.25
263.802	171.25
264.035	166.25
264.267	171.25
264.499	177.25
264.732	175.25
264.964	185.25
265.197	183.25
265.429	175.25
265.661	176.25
265.894	173.25
266.126	201.25
266.358	172.25
266.591	179.25
266.823	172.25
267.055	179.25
267.287	191.25
267.52	180.25
267.752	177.25
267.984	191.25
268.216	197.25
268.448	188.25
268.681	202.25
268.913	193.25
269.145	205.25
269.377	221.25
269.609	197.25
269.841	199.25
270.073	226.25
270.306	230.25
270.538	220.25
270.77	212.25
271.002	208.25
271.234	208.25
271.466	222.25
271.698	233.25
271.93	228.25
272.162	229.25
272.394	231.25
272.626	235.25
272.858	217.25
273.09	216.25
273.322	217.25
273.553	210.25
273.785	209.25
274.017	200.25
274.249	209.25
274.481	208.25
274.713	218.25
274.945	206.25
275.176	204.25
275.408	221.25
275.64	214.25
275.872	208.25
276.104	208.25
276.335	211.25
276.567	210.25
276.799	229.25
277.031	232.25
277.262	229.25
277.494	228.25
277.726	234.25
277.957	227.25
278.189	231.25
278.421	212.25
278.652	213.25
278.884	233.25
279.115	220.25
279.347	232.25
279.579	229.25
279.81	216.25
280.042	221.25
280.273	229.25
280.505	220.25
280.736	209.25
280.968	228.25
281.199	235.25
281.431	225.25
281.662	213.25
281.894	221.25
282.125	229.25
282.356	258.25
282.588	251.25
282.819	229.25
283.051	219.25
283.282	216.25
283.513	227.25
283.745	203.25
283.976	227.25
284.207	234.25
284.439	234.25
284.67	253.25
284.901	235.25
285.132	212.25
285.364	221.25
285.595	240.25
285.826	217.25
286.057	247.25
286.288	239.25
286.52	235.25
286.751	231.25
286.982	232.25
287.213	245.25
287.444	257.25
287.675	226.25
287.906	230.25
288.138	266.25
288.369	246.25
288.6	242.25
288.831	256.25
289.062	261.25
289.293	224.25
289.524	256.25
289.755	246.25
289.986	245.25
290.217	254.25
290.448	231.25
290.679	241.25
290.91	257.25
291.141	237.25
291.371	250.25
291.602	243.25
291.833	225.25
292.064	250.25
292.295	240.25
292.526	231.25
292.757	230.25
292.987	235.25
293.218	233.25
293.449	241.25
293.68	240.25
293.91	234.25
294.141	248.25
294.372	248.25
294.603	252.25
294.833	247.25
295.064	233.25
295.295	237.25
295.525	249.25
295.756	236.25
295.987	250.25
296.217	274.25
296.448	272.25
296.679	263.25
296.909	265.25
297.14	260.25
297.37	261.25
297.601	267.25
297.831	233.25
298.062	257.25
298.292	265.25
298.523	271.25
298.753	250.25
298.984	259.25
299.214	256.25
299.445	252.25
299.675	246.25
299.905	261.25
300.136	273.25
300.366	234.25
300.597	264.25
300.827	263.25
301.057	275.25
301.288	279.25
301.518	270.25
301.748	259.25
301.979	278.25
302.209	279.25
302.439	279.25
302.669	279.25
302.9	292.25
303.13	267.25
303.36	277.25
303.59	274.25
303.82	288.25
304.051	274.25
304.281	276.25
304.511	280.25
304.741	284.25
304.971	287.25
305.201	280.25
305.431	279.25
305.661	282.25
305.891	263.25
306.121	281.25
306.352	288.25
306.582	271.25
306.812	266.25
307.042	282.25
307.272	270.25
307.502	284.25
307.731	281.25
307.961	271.25
308.191	278.25
308.421	271.25
308.651	277.25
308.881	266.25
309.111	297.25
309.341	282.25
309.571	276.25
309.8	282.25
310.03	288.25
310.26	298.25
310.49	291.25
310.72	296.25
310.949	295.25
311.179	301.25
311.409	312.25
311.639	304.25
311.868	304.25
312.098	292.25
312.328	287.25
312.557	291.25
312.787	305.25
313.017	318.25
313.246	302.25
313.476	292.25
313.706	314.25
313.935	308.25
314.165	297.25
314.394	313.25
314.624	291.25
314.853	317.25
315.083	300.25
315.312	320.25
315.542	294.25
315.771	309.25
316.001	296.25
316.23	289.25
316.46	309.25
316.689	298.25
316.919	295.25
317.148	331.25
317.377	311.25
317.607	285.25
317.836	295.25
318.065	290.25
318.295	316.25
318.524	299.25
318.753	285.25
318.983	292.25
319.212	302.25
319.441	317.25
319.67	293.25
319.9	285.25
320.129	270.25
320.358	311.25
320.587	305.25
320.816	314.25
321.046	307.25
321.275	309.25
321.504	299.25
321.733	309.25
321.962	299.25
322.191	296.25
322.42	326.25
322.649	328.25
322.878	342.25
323.108	303.25
323.337	347.25
323.566	335.25
323.795	336.25
324.024	349.25
324.253	395.25
324.482	501.25
324.71	700.25
324.939	906.25
325.168	783.25
325.397	465.25
325.626	375.25
325.855	330.25
326.084	334.25
326.313	350.25
326.542	341.25
326.77	353.25
326.999	404.25
327.228	483.25
327.457	638.25
327.686	717.25
327.914	510.25
328.143	405.25
328.372	375.25
328.6	368.25
328.829	367.25
329.058	377.25
329.287	377.25
329.515	378.25
329.744	363.25
329.972	359.25
330.201	365.25
330.43	381.25
330.658	365.25
330.887	393.25
331.115	387.25
331.344	358.25
331.572	357.25
331.801	357.25
332.03	364.25
332.258	360.25
332.486	343.25
332.715	362.25
332.943	366.25
333.172	366.25
333.4	380.25
333.629	409.25
333.857	385.25
334.085	388.25
334.314	395.25
334.542	411.25
334.771	414.25
334.999	400.25
335.227	364.25
335.455	365.25
335.684	373.25
335.912	358.25
336.14	342.25
336.369	366.25
336.597	351.25
336.825	366.25
337.053	376.25
337.281	363.25
337.51	341.25
337.738	338.25
337.966	362.25
338.194	354.25
338.422	327.25
338.65	349.25
338.878	358.25
339.106	313.25
339.334	344.25
339.562	336.25
339.79	341.25
340.018	349.25
340.246	328.25
340.474	355.25
340.702	343.25
340.93	333.25
341.158	343.25
341.386	338.25
341.614	337.25
341.842	336.25
342.07	340.25
342.298	345.25
342.526	335.25
342.754	321.25
342.981	316.25
343.209	323.25
343.437	359.25
343.665	342.25
343.893	368.25
344.12	382.25
344.348	351.25
344.576	364.25
344.804	347.25
345.031	341.25
345.259	335.25
345.487	350.25
345.714	324.25
345.942	326.25
346.17	342.25
346.397	324.25
346.625	325.25
346.853	319.25
347.08	319.25
347.308	332.25
347.535	307.25
347.763	333.25
347.99	310.25
348.218	313.25
348.445	340.25
348.673	322.25
348.9	329.25
349.128	334.25
349.355	326.25
349.583	326.25
349.81	309.25
350.037	308.25
350.265	308.25
350.492	336.25
350.72	328.25
350.947	326.25
351.174	316.25
351.402	339.25
351.629	305.25
351.856	324.25
352.083	315.25
352.311	324.25
352.538	323.25
352.765	319.25
352.992	336.25
353.22	299.25
353.447	298.25
353.674	299.25
353.901	305.25
354.128	304.25
354.355	323.25
354.583	299.25
354.81	311.25
355.037	337.25
355.264	314.25
355.491	308.25
355.718	302.25
355.945	287.25
356.172	285.25
356.399	287.25
356.626	298.25
356.853	322.25
357.08	308.25
357.307	300.25
357.534	314.25
357.761	315.25
357.988	301.25
358.215	305.25
358.441	321.25
358.668	311.25
358.895	298.25
359.122	330.25
359.349	315.25
359.576	328.25
359.802	320.25
360.029	328.25
360.256	340.25
360.483	344.25
360.709	315.25
360.936	331.25
361.163	319.25
361.39	327.25
361.616	323.25
361.843	311.25
362.07	315.25
362.296	301.25
362.523	304.25
362.749	329.25
362.976	325.25
363.203	310.25
363.429	309.25
363.656	295.25
363.882	309.25
364.109	327.25
364.335	304.25
364.562	317.25
364.788	311.25
365.015	320.25
365.241	298.25
365.468	301.25
365.694	299.25
365.92	314.25
366.147	327.25
366.373	304.25
366.599	300.25
366.826	304.25
367.052	300.25
367.278	309.25
367.505	314.25
367.731	295.25
367.957	303.25
368.184	302.25
368.41	319.25
368.636	317.25
368.862	305.25
369.089	308.25
369.315	310.25
369.541	309.25
369.767	318.25
369.993	318.25
370.219	318.25
370.445	311.25
370.672	323.25
370.898	311.25
371.124	317.25
371.35	315.25
371.576	335.25
371.802	328.25
372.028	316.25
372.254	317.25
372.48	330.25
372.706	325.25
372.932	321.25
373.158	316.25
373.384	327.25
373.61	319.25
373.835	308.25
374.061	331.25
374.287	325.25
374.513	329.25
374.739	328.25
374.965	327.25
375.191	322.25
375.416	347.25
375.642	314.25
375.868	344.25
376.094	334.25
376.319	303.25
376.545	317.25
376.771	308.25
376.997	317.25
377.222	311.25
377.448	328.25
377.674	327.25
377.899	308.25
378.125	327.25
378.35	311.25
378.576	320.25
378.802	303.25
379.027	321.25
379.253	301.25
379.478	329.25
379.704	315.25
379.929	318.25
380.155	315.25
380.38	312.25
380.606	317.25
380.831	319.25
381.057	311.25
381.282	331.25
381.507	318.25
381.733	335.25
381.958	323.25
382.184	309.25
382.409	338.25
382.634	314.25
382.86	329.25
383.085	329.25
383.31	330.25
383.535	336.25
383.761	329.25
383.986	321.25
384.211	329.25
384.436	340.25
384.662	344.25
384.887	337.25
385.112	327.25
385.337	371.25
385.562	347.25
385.787	362.25
386.013	364.25
386.238	383.25
386.463	363.25
386.688	362.25
386.913	351.25
387.138	331.25
387.363	352.25
387.588	365.25
387.813	375.25
388.038	344.25
388.263	343.25
388.488	347.25
388.713	364.25
388.938	341.25
389.163	353.25
389.387	371.25
389.612	368.25
389.837	356.25
390.062	353.25
390.287	328.25
390.512	345.25
390.736	357.25
390.961	352.25
391.186	359.25
391.411	373.25
391.636	372.25
391.86	376.25
392.085	360.25
392.31	349.25
392.534	384.25
392.759	366.25
392.984	357.25
393.208	366.25
393.433	362.25
393.658	350.25
393.882	364.25
394.107	360.25
394.331	373.25
394.556	363.25
394.78	347.25
395.005	382.25
395.229	352.25
395.454	382.25
395.678	389.25
395.903	376.25
396.127	391.25
396.352	398.25
396.576	371.25
396.801	374.25
397.025	376.25
397.249	376.25
397.474	377.25
397.698	390.25
397.922	395.25
398.147	397.25
398.371	390.25
398.595	405.25
398.82	416.25
399.044	435.25
399.268	470.25
399.492	465.25
399.717	522.25
399.941	534.25
400.165	526.25
400.389	485.25
400.613	463.25
400.837	429.25
401.062	426.25
401.286	416.25
401.51	400.25
401.734	398.25
401.958	416.25
402.182	422.25
402.406	433.25
402.63	422.25
402.854	428.25
403.078	413.25
403.302	441.25
403.526	436.25
403.75	437.25
403.974	452.25
404.198	440.25
404.422	462.25
404.645	440.25
404.869	468.25
405.093	463.25
405.317	472.25
405.541	487.25
405.765	460.25
405.988	465.25
406.212	440.25
406.436	439.25
406.66	465.25
406.883	482.25
407.107	460.25
407.331	515.25
407.555	560.25
407.778	531.25
408.002	494.25
408.226	467.25
408.449	468.25
408.673	464.25
408.896	490.25
409.12	479.25
409.344	487.25
409.567	423.25
409.791	442.25
410.014	417.25
410.238	446.25
410.461	436.25
410.685	431.25
410.908	465.25
411.132	459.25
411.355	455.25
411.578	439.25
411.802	426.25
412.025	432.25
412.249	439.25
412.472	431.25
412.695	461.25
412.919	454.25
413.142	427.25
413.365	411.25
413.589	416.25
413.812	396.25
414.035	423.25
414.258	405.25
414.482	401.25
414.705	412.25
414.928	427.25
415.151	411.25
415.374	417.25
415.597	425.25
415.821	388.25
416.044	391.25
416.267	401.25
416.49	412.25
416.713	393.25
416.936	405.25
417.159	386.25
417.382	381.25
417.605	411.25
417.828	415.25
418.051	420.25
418.274	409.25
418.497	409.25
418.72	408.25
418.943	412.25
419.166	449.25
419.389	440.25
419.611	448.25
419.834	433.25
420.057	421.25
420.28	432.25
420.503	406.25
420.726	428.25
420.948	407.25
421.171	424.25
421.394	422.25
421.617	427.25
421.839	417.25
422.062	406.25
422.285	401.25
422.507	437.25
422.73	467.25
422.953	454.25
423.175	436.25
423.398	443.25
423.621	441.25
423.843	427.25
424.066	422.25
424.288	443.25
424.511	451.25
424.733	469.25
424.956	506.25
425.178	508.25
425.401	482.25
425.623	501.25
425.846	432.25
426.068	407.25
426.291	407.25
426.513	408.25
426.735	396.25
426.958	447.25
427.18	487.25
427.402	530.25
427.625	558.25
427.847	471.25
428.069	442.25
428.292	428.25
428.514	408.25
428.736	389.25
428.958	382.25
429.181	381.25
429.403	376.25
429.625	383.25
429.847	415.25
430.069	429.25
430.292	428.25
430.514	387.25
430.736	391.25
430.958	383.25
431.18	390.25
431.402	373.25
431.624	378.25
431.846	379.25
432.068	370.25
432.29	380.25
432.512	375.25
432.734	388.25
432.956	374.25
433.178	397.25
433.4	395.25
433.622	389.25
433.844	385.25
434.066	377.25
434.287	379.25
434.509	384.25
434.731	396.25
434.953	403.25
435.175	413.25
435.397	402.25
435.618	424.25
435.84	449.25
436.062	483.25
436.284	495.25
436.505	432.25
436.727	416.25
436.949	411.25
437.17	378.25
437.392	395.25
437.614	391.25
437.835	426.25
438.057	445.25
438.278	485.25
438.5	484.25
438.721	523.25
438.943	489.25
439.165	428.25
439.386	422.25
439.608	412.25
439.829	405.25
440.05	423.25
440.272	416.25
440.493	417.25
440.715	411.25
440.936	393.25
441.158	383.25
441.379	408.25
441.6	419.25
441.822	442.25
442.043	449.25
442.264	474.25
442.486	477.25
442.707	446.25
442.928	425.25
443.149	431.25
443.371	443.25
443.592	458.25
443.813	534.25
444.034	539.25
444.255	478.25
444.476	447.25
444.698	448.25
444.919	456.25
445.14	555.25
445.361	503.25
445.582	438.25
445.803	465.25
446.024	496.25
446.245	511.25
446.466	464.25
446.687	449.25
446.908	420.25
447.129	384.25
447.35	393.25
447.571	412.25
447.792	380.25
448.013	380.25
448.234	373.25
448.455	404.25
448.675	470.25
448.896	492.25
449.117	439.25
449.338	448.25
449.559	489.25
449.779	537.25
450	443.25
450.221	408.25
450.442	391.25
450.662	375.25
450.883	371.25
451.104	381.25
451.324	355.25
451.545	361.25
451.766	336.25
451.986	350.25
452.207	351.25
452.428	344.25
452.648	372.25
452.869	348.25
453.089	343.25
453.31	356.25
453.53	335.25
453.751	349.25
453.971	352.25
454.192	355.25
454.412	344.25
454.633	335.25
454.853	349.25
455.073	342.25
455.294	349.25
455.514	389.25
455.734	377.25
455.955	338.25
456.175	331.25
456.395	327.25
456.616	328.25
456.836	349.25
457.056	329.25
457.276	339.25
457.497	353.25
457.717	341.25
457.937	349.25
458.157	325.25
458.377	342.25
458.598	360.25
458.818	390.25
459.038	407.25
459.258	414.25
459.478	380.25
459.698	389.25
459.918	383.25
460.138	394.25
460.358	427.25
460.578	413.25
460.798	406.25
461.018	431.25
461.238	412.25
461.458	402.25
461.678	419.25
461.898	405.25
462.118	419.25
462.338	399.25
462.558	448.25
462.777	427.25
462.997	469.25
463.217	482.25
463.437	486.25
463.657	453.25
463.876	438.25
464.096	476.25
464.316	446.25
464.536	450.25
464.755	447.25
464.975	447.25
465.195	441.25
465.414	444.25
465.634	415.25
465.854	388.25
466.073	396.25
466.293	379.25
466.512	376.25
466.732	364.25
466.951	368.25
467.171	376.25
467.391	377.25
467.61	373.25
467.829	376.25
468.049	362.25
468.268	364.25
468.488	345.25
468.707	355.25
468.927	357.25
469.146	353.25
469.365	347.25
469.585	375.25
469.804	362.25
470.023	373.25
470.243	360.25
470.462	371.25
470.681	379.25
470.901	396.25
471.12	381.25
471.339	380.25
471.558	384.25
471.777	388.25
471.997	372.25
472.216	360.25
472.435	375.25
472.654	359.25
472.873	355.25
473.092	373.25
473.311	377.25
473.53	359.25
473.749	362.25
473.968	399.25
474.187	433.25
474.406	395.25
474.625	381.25
474.844	341.25
475.063	359.25
475.282	367.25
475.501	392.25
475.72	379.25
475.939	384.25
476.158	393.25
476.377	376.25
476.596	368.25
476.814	360.25
477.033	385.25
477.252	383.25
477.471	379.25
477.69	388.25
477.908	416.25
478.127	403.25
478.346	423.25
478.564	424.25
478.783	447.25
479.002	425.25
479.22	446.25
479.439	415.25
479.658	441.25
479.876	427.25
480.095	450.25
480.313	462.25
480.532	440.25
480.751	464.25
480.969	455.25
481.188	468.25
481.406	489.25
481.624	457.25
481.843	423.25
482.061	431.25
482.28	431.25
482.498	409.25
482.717	397.25
482.935	442.25
483.153	417.25
483.372	432.25
483.59	430.25
483.808	406.25
484.027	423.25
484.245	432.25
484.463	437.25
484.681	424.25
484.9	432.25
485.118	437.25
485.336	417.25
485.554	443.25
485.772	421.25
485.99	417.25
486.209	446.25
486.427	438.25
486.645	447.25
486.863	461.25
487.081	442.25
487.299	416.25
487.517	426.25
487.735	440.25
487.953	459.25
488.171	447.25
488.389	437.25
488.607	431.25
488.825	428.25
489.043	436.25
489.261	466.25
489.479	447.25
489.696	445.25
489.914	447.25
490.132	443.25
490.35	474.25
490.568	458.25
490.786	469.25
491.003	476.25
491.221	477.25
491.439	495.25
491.657	494.25
491.874	500.25
492.092	506.25
492.31	482.25
492.527	504.25
492.745	492.25
492.963	508.25
493.18	510.25
493.398	505.25
493.615	527.25
493.833	500.25
494.05	503.25
494.268	496.25
494.485	505.25
494.703	501.25
494.92	501.25
495.138	511.25
495.355	518.25
495.573	492.25
495.79	519.25
496.008	510.25
496.225	541.25
496.442	495.25
496.66	517.25
496.877	536.25
497.094	518.25
497.312	529.25
497.529	516.25
497.746	541.25
497.963	543.25
498.181	579.25
498.398	588.25
498.615	590.25
498.832	628.25
499.049	639.25
499.267	693.25
499.484	714.25
499.701	747.25
499.918	807.25
500.135	884.25
500.352	933.25
500.569	967.25
500.786	932.25
501.003	923.25
501.22	841.25
501.437	801.25
501.654	764.25
501.871	722.25
502.088	673.25
