Data from 1969.PennyLincolnUp.Lamp.En5.5.200Scan.071719.P1._HRD10591_14-54-52-971.txt Node
Date: Thu Jul 18 14:54:52 EDT 2019
User: cochatt
Spectrometer: HR+D1059
Trigger mode: 1
Integration Time (sec): 1.000000E-1
Scans to average: 1
Electric dark correction enabled: true
Nonlinearity correction enabled: false
Boxcar width: 0
XAxis mode: Wavelengths
Number of Pixels in Spectrum: 2048
>>>>>Begin Spectral Data<<<<<
223.165	-24.94
223.4	-24.94
223.635	-24.94
223.869	-21.94
224.104	-13.94
224.338	-12.94
224.573	-11.94
224.808	4.06
225.042	-13.94
225.277	3.06
225.511	-2.94
225.746	-1.94
225.98	6.06
226.215	-6.94
226.449	18.06
226.683	25.06
226.918	22.06
227.152	33.06
227.387	28.06
227.621	28.06
227.856	26.06
228.09	46.06
228.324	46.06
228.559	58.06
228.793	64.06
229.027	72.06
229.262	78.06
229.496	102.06
229.73	98.06
229.964	116.06
230.199	98.06
230.433	92.06
230.667	109.06
230.901	96.06
231.136	103.06
231.37	106.06
231.604	94.06
231.838	99.06
232.072	102.06
232.306	109.06
232.541	110.06
232.775	107.06
233.009	100.06
233.243	116.06
233.477	92.06
233.711	107.06
233.945	102.06
234.179	99.06
234.413	108.06
234.647	112.06
234.881	101.06
235.115	114.06
235.349	109.06
235.583	101.06
235.817	102.06
236.051	102.06
236.285	93.06
236.519	116.06
236.753	117.06
236.987	125.06
237.221	125.06
237.455	154.06
237.689	125.06
237.922	108.06
238.156	114.06
238.39	109.06
238.624	114.06
238.858	115.06
239.091	113.06
239.325	115.06
239.559	115.06
239.793	106.06
240.027	100.06
240.26	119.06
240.494	131.06
240.728	122.06
240.961	125.06
241.195	119.06
241.429	112.06
241.662	109.06
241.896	110.06
242.13	128.06
242.363	137.06
242.597	132.06
242.83	118.06
243.064	105.06
243.298	126.06
243.531	123.06
243.765	107.06
243.998	133.06
244.232	126.06
244.465	128.06
244.699	122.06
244.932	123.06
245.166	140.06
245.399	127.06
245.633	115.06
245.866	136.06
246.099	130.06
246.333	132.06
246.566	131.06
246.8	126.06
247.033	136.06
247.266	136.06
247.5	146.06
247.733	136.06
247.966	138.06
248.2	149.06
248.433	145.06
248.666	146.06
248.899	154.06
249.133	174.06
249.366	158.06
249.599	162.06
249.832	141.06
250.066	136.06
250.299	148.06
250.532	167.06
250.765	152.06
250.998	168.06
251.231	199.06
251.465	178.06
251.698	160.06
251.931	163.06
252.164	176.06
252.397	160.06
252.63	144.06
252.863	156.06
253.096	168.06
253.329	180.06
253.562	174.06
253.795	162.06
254.028	185.06
254.261	176.06
254.494	185.06
254.727	192.06
254.96	213.06
255.193	192.06
255.426	194.06
255.659	186.06
255.892	187.06
256.124	188.06
256.357	178.06
256.59	193.06
256.823	174.06
257.056	186.06
257.289	182.06
257.521	171.06
257.754	180.06
257.987	174.06
258.22	162.06
258.452	157.06
258.685	166.06
258.918	177.06
259.151	158.06
259.383	165.06
259.616	192.06
259.849	180.06
260.081	200.06
260.314	196.06
260.547	214.06
260.779	192.06
261.012	185.06
261.244	173.06
261.477	186.06
261.71	173.06
261.942	188.06
262.175	180.06
262.407	192.06
262.64	180.06
262.872	181.06
263.105	179.06
263.337	177.06
263.57	161.06
263.802	169.06
264.035	198.06
264.267	171.06
264.499	192.06
264.732	166.06
264.964	185.06
265.197	191.06
265.429	166.06
265.661	164.06
265.894	170.06
266.126	194.06
266.358	196.06
266.591	185.06
266.823	200.06
267.055	186.06
267.287	193.06
267.52	198.06
267.752	194.06
267.984	190.06
268.216	192.06
268.448	207.06
268.681	202.06
268.913	216.06
269.145	210.06
269.377	226.06
269.609	222.06
269.841	224.06
270.073	219.06
270.306	242.06
270.538	261.06
270.77	235.06
271.002	237.06
271.234	234.06
271.466	221.06
271.698	221.06
271.93	259.06
272.162	242.06
272.394	238.06
272.626	242.06
272.858	217.06
273.09	216.06
273.322	208.06
273.553	206.06
273.785	228.06
274.017	217.06
274.249	218.06
274.481	215.06
274.713	206.06
274.945	203.06
275.176	222.06
275.408	207.06
275.64	212.06
275.872	218.06
276.104	219.06
276.335	199.06
276.567	229.06
276.799	234.06
277.031	240.06
277.262	260.06
277.494	253.06
277.726	252.06
277.957	227.06
278.189	218.06
278.421	222.06
278.652	232.06
278.884	233.06
279.115	245.06
279.347	244.06
279.579	233.06
279.81	211.06
280.042	219.06
280.273	227.06
280.505	233.06
280.736	236.06
280.968	243.06
281.199	237.06
281.431	227.06
281.662	229.06
281.894	223.06
282.125	224.06
282.356	243.06
282.588	244.06
282.819	243.06
283.051	229.06
283.282	244.06
283.513	229.06
283.745	234.06
283.976	238.06
284.207	237.06
284.439	250.06
284.67	250.06
284.901	251.06
285.132	248.06
285.364	249.06
285.595	269.06
285.826	264.06
286.057	248.06
286.288	236.06
286.52	235.06
286.751	234.06
286.982	225.06
287.213	254.06
287.444	263.06
287.675	263.06
287.906	277.06
288.138	260.06
288.369	278.06
288.6	254.06
288.831	256.06
289.062	249.06
289.293	260.06
289.524	251.06
289.755	268.06
289.986	255.06
290.217	252.06
290.448	234.06
290.679	242.06
290.91	240.06
291.141	254.06
291.371	240.06
291.602	252.06
291.833	274.06
292.064	260.06
292.295	268.06
292.526	278.06
292.757	246.06
292.987	241.06
293.218	253.06
293.449	241.06
293.68	268.06
293.91	258.06
294.141	256.06
294.372	249.06
294.603	253.06
294.833	260.06
295.064	268.06
295.295	264.06
295.525	261.06
295.756	276.06
295.987	245.06
296.217	262.06
296.448	283.06
296.679	262.06
296.909	260.06
297.14	273.06
297.37	253.06
297.601	256.06
297.831	264.06
298.062	265.06
298.292	270.06
298.523	268.06
298.753	264.06
298.984	284.06
299.214	281.06
299.445	265.06
299.675	263.06
299.905	274.06
300.136	268.06
300.366	277.06
300.597	271.06
300.827	281.06
301.057	308.06
301.288	271.06
301.518	284.06
301.748	292.06
301.979	285.06
302.209	274.06
302.439	284.06
302.669	261.06
302.9	302.06
303.13	285.06
303.36	304.06
303.59	292.06
303.82	281.06
304.051	288.06
304.281	271.06
304.511	298.06
304.741	274.06
304.971	290.06
305.201	301.06
305.431	290.06
305.661	294.06
305.891	283.06
306.121	283.06
306.352	281.06
306.582	279.06
306.812	305.06
307.042	304.06
307.272	273.06
307.502	282.06
307.731	272.06
307.961	296.06
308.191	292.06
308.421	289.06
308.651	302.06
308.881	314.06
309.111	294.06
309.341	292.06
309.571	292.06
309.8	306.06
310.03	304.06
310.26	301.06
310.49	286.06
310.72	293.06
310.949	309.06
311.179	320.06
311.409	313.06
311.639	308.06
311.868	318.06
312.098	310.06
312.328	316.06
312.557	327.06
312.787	313.06
313.017	319.06
313.246	313.06
313.476	311.06
313.706	319.06
313.935	318.06
314.165	324.06
314.394	332.06
314.624	326.06
314.853	330.06
315.083	316.06
315.312	321.06
315.542	322.06
315.771	309.06
316.001	313.06
316.23	297.06
316.46	329.06
316.689	304.06
316.919	313.06
317.148	317.06
317.377	318.06
317.607	317.06
317.836	323.06
318.065	311.06
318.295	326.06
318.524	320.06
318.753	308.06
318.983	342.06
319.212	315.06
319.441	313.06
319.67	326.06
319.9	326.06
320.129	315.06
320.358	301.06
320.587	310.06
320.816	324.06
321.046	320.06
321.275	340.06
321.504	333.06
321.733	319.06
321.962	329.06
322.191	333.06
322.42	333.06
322.649	337.06
322.878	358.06
323.108	339.06
323.337	368.06
323.566	372.06
323.795	351.06
324.024	391.06
324.253	434.06
324.482	577.06
324.71	824.06
324.939	1083.06
325.168	878.06
325.397	518.06
325.626	410.06
325.855	370.06
326.084	362.06
326.313	354.06
326.542	371.06
326.77	386.06
326.999	426.06
327.228	556.06
327.457	699.06
327.686	820.06
327.914	590.06
328.143	462.06
328.372	414.06
328.6	409.06
328.829	381.06
329.058	381.06
329.287	407.06
329.515	388.06
329.744	382.06
329.972	389.06
330.201	403.06
330.43	408.06
330.658	420.06
330.887	425.06
331.115	418.06
331.344	393.06
331.572	394.06
331.801	393.06
332.03	390.06
332.258	383.06
332.486	390.06
332.715	385.06
332.943	376.06
333.172	387.06
333.4	389.06
333.629	414.06
333.857	412.06
334.085	425.06
334.314	431.06
334.542	424.06
334.771	426.06
334.999	417.06
335.227	413.06
335.455	388.06
335.684	402.06
335.912	384.06
336.14	376.06
336.369	376.06
336.597	385.06
336.825	378.06
337.053	360.06
337.281	392.06
337.51	346.06
337.738	359.06
337.966	361.06
338.194	369.06
338.422	357.06
338.65	359.06
338.878	348.06
339.106	350.06
339.334	349.06
339.562	348.06
339.79	349.06
340.018	364.06
340.246	354.06
340.474	378.06
340.702	361.06
340.93	346.06
341.158	357.06
341.386	355.06
341.614	357.06
341.842	361.06
342.07	346.06
342.298	353.06
342.526	342.06
342.754	341.06
342.981	359.06
343.209	348.06
343.437	342.06
343.665	369.06
343.893	376.06
344.12	399.06
344.348	378.06
344.576	367.06
344.804	368.06
345.031	370.06
345.259	349.06
345.487	347.06
345.714	346.06
345.942	319.06
346.17	335.06
346.397	324.06
346.625	338.06
346.853	342.06
347.08	338.06
347.308	333.06
347.535	340.06
347.763	324.06
347.99	340.06
348.218	327.06
348.445	329.06
348.673	341.06
348.9	344.06
349.128	338.06
349.355	329.06
349.583	331.06
349.81	315.06
350.037	327.06
350.265	323.06
350.492	305.06
350.72	334.06
350.947	346.06
351.174	318.06
351.402	345.06
351.629	348.06
351.856	351.06
352.083	327.06
352.311	322.06
352.538	326.06
352.765	330.06
352.992	337.06
353.22	345.06
353.447	322.06
353.674	338.06
353.901	329.06
354.128	335.06
354.355	320.06
354.583	320.06
354.81	328.06
355.037	335.06
355.264	324.06
355.491	304.06
355.718	324.06
355.945	292.06
356.172	323.06
356.399	314.06
356.626	318.06
356.853	326.06
357.08	321.06
357.307	314.06
357.534	316.06
357.761	299.06
357.988	318.06
358.215	330.06
358.441	307.06
358.668	314.06
358.895	322.06
359.122	306.06
359.349	334.06
359.576	334.06
359.802	347.06
360.029	369.06
360.256	355.06
360.483	361.06
360.709	324.06
360.936	319.06
361.163	316.06
361.39	313.06
361.616	329.06
361.843	334.06
362.07	321.06
362.296	310.06
362.523	331.06
362.749	325.06
362.976	317.06
363.203	331.06
363.429	340.06
363.656	326.06
363.882	326.06
364.109	317.06
364.335	327.06
364.562	339.06
364.788	316.06
365.015	310.06
365.241	318.06
365.468	331.06
365.694	306.06
365.92	332.06
366.147	330.06
366.373	326.06
366.599	321.06
366.826	325.06
367.052	315.06
367.278	297.06
367.505	340.06
367.731	316.06
367.957	332.06
368.184	316.06
368.41	307.06
368.636	342.06
368.862	320.06
369.089	330.06
369.315	333.06
369.541	317.06
369.767	335.06
369.993	321.06
370.219	322.06
370.445	320.06
370.672	321.06
370.898	331.06
371.124	332.06
371.35	311.06
371.576	330.06
371.802	309.06
372.028	340.06
372.254	342.06
372.48	327.06
372.706	312.06
372.932	350.06
373.158	355.06
373.384	333.06
373.61	348.06
373.835	334.06
374.061	324.06
374.287	347.06
374.513	346.06
374.739	325.06
374.965	363.06
375.191	340.06
375.416	350.06
375.642	315.06
375.868	337.06
376.094	325.06
376.319	328.06
376.545	333.06
376.771	330.06
376.997	317.06
377.222	336.06
377.448	327.06
377.674	315.06
377.899	335.06
378.125	335.06
378.35	319.06
378.576	328.06
378.802	326.06
379.027	328.06
379.253	327.06
379.478	320.06
379.704	333.06
379.929	317.06
380.155	325.06
380.38	331.06
380.606	332.06
380.831	301.06
381.057	329.06
381.282	327.06
381.507	331.06
381.733	363.06
381.958	341.06
382.184	318.06
382.409	338.06
382.634	312.06
382.86	348.06
383.085	343.06
383.31	347.06
383.535	346.06
383.761	357.06
383.986	366.06
384.211	360.06
384.436	372.06
384.662	344.06
384.887	365.06
385.112	376.06
385.337	376.06
385.562	355.06
385.787	362.06
386.013	357.06
386.238	361.06
386.463	356.06
386.688	366.06
386.913	374.06
387.138	370.06
387.363	346.06
387.588	337.06
387.813	368.06
388.038	360.06
388.263	379.06
388.488	368.06
388.713	358.06
388.938	373.06
389.163	376.06
389.387	374.06
389.612	353.06
389.837	346.06
390.062	366.06
390.287	376.06
390.512	366.06
390.736	361.06
390.961	357.06
391.186	370.06
391.411	395.06
391.636	392.06
391.86	387.06
392.085	412.06
392.31	396.06
392.534	373.06
392.759	371.06
392.984	376.06
393.208	398.06
393.433	380.06
393.658	387.06
393.882	380.06
394.107	379.06
394.331	372.06
394.556	345.06
394.78	361.06
395.005	373.06
395.229	380.06
395.454	401.06
395.678	368.06
395.903	397.06
396.127	408.06
396.352	413.06
396.576	379.06
396.801	384.06
397.025	391.06
397.249	384.06
397.474	420.06
397.698	395.06
397.922	408.06
398.147	409.06
398.371	408.06
398.595	391.06
398.82	436.06
399.044	442.06
399.268	471.06
399.492	507.06
399.717	544.06
399.941	546.06
400.165	534.06
400.389	520.06
400.613	458.06
400.837	442.06
401.062	432.06
401.286	441.06
401.51	432.06
401.734	406.06
401.958	424.06
402.182	432.06
402.406	439.06
402.63	460.06
402.854	436.06
403.078	455.06
403.302	455.06
403.526	463.06
403.75	470.06
403.974	434.06
404.198	437.06
404.422	461.06
404.645	465.06
404.869	451.06
405.093	455.06
405.317	524.06
405.541	514.06
405.765	486.06
405.988	464.06
406.212	453.06
406.436	475.06
406.66	506.06
406.883	496.06
407.107	518.06
407.331	539.06
407.555	587.06
407.778	560.06
408.002	498.06
408.226	499.06
408.449	485.06
408.673	466.06
408.896	517.06
409.12	505.06
409.344	461.06
409.567	458.06
409.791	475.06
410.014	442.06
410.238	450.06
410.461	448.06
410.685	450.06
410.908	456.06
411.132	455.06
411.355	460.06
411.578	456.06
411.802	429.06
412.025	438.06
412.249	456.06
412.472	457.06
412.695	477.06
412.919	468.06
413.142	441.06
413.365	438.06
413.589	436.06
413.812	424.06
414.035	422.06
414.258	434.06
414.482	444.06
414.705	425.06
414.928	440.06
415.151	415.06
415.374	430.06
415.597	417.06
415.821	420.06
416.044	428.06
416.267	408.06
416.49	414.06
416.713	422.06
416.936	405.06
417.159	420.06
417.382	419.06
417.605	421.06
417.828	423.06
418.051	430.06
418.274	451.06
418.497	421.06
418.72	437.06
418.943	418.06
419.166	468.06
419.389	454.06
419.611	472.06
419.834	446.06
420.057	441.06
420.28	429.06
420.503	450.06
420.726	438.06
420.948	434.06
421.171	448.06
421.394	452.06
421.617	442.06
421.839	425.06
422.062	437.06
422.285	421.06
422.507	472.06
422.73	492.06
422.953	472.06
423.175	457.06
423.398	464.06
423.621	456.06
423.843	461.06
424.066	483.06
424.288	480.06
424.511	469.06
424.733	491.06
424.956	521.06
425.178	494.06
425.401	502.06
425.623	504.06
425.846	474.06
426.068	426.06
426.291	434.06
426.513	441.06
426.735	445.06
426.958	458.06
427.18	492.06
427.402	556.06
427.625	596.06
427.847	517.06
428.069	461.06
428.292	435.06
428.514	426.06
428.736	419.06
428.958	413.06
429.181	392.06
429.403	386.06
429.625	389.06
429.847	410.06
430.069	441.06
430.292	446.06
430.514	434.06
430.736	396.06
430.958	398.06
431.18	381.06
431.402	405.06
431.624	406.06
431.846	413.06
432.068	378.06
432.29	397.06
432.512	394.06
432.734	418.06
432.956	396.06
433.178	387.06
433.4	404.06
433.622	397.06
433.844	425.06
434.066	405.06
434.287	394.06
434.509	419.06
434.731	426.06
434.953	426.06
435.175	438.06
435.397	438.06
435.618	437.06
435.84	466.06
436.062	497.06
436.284	524.06
436.505	474.06
436.727	444.06
436.949	413.06
437.17	422.06
437.392	401.06
437.614	404.06
437.835	407.06
438.057	473.06
438.278	510.06
438.5	536.06
438.721	570.06
438.943	541.06
439.165	445.06
439.386	413.06
439.608	421.06
439.829	413.06
440.05	440.06
440.272	451.06
440.493	456.06
440.715	430.06
440.936	430.06
441.158	429.06
441.379	407.06
441.6	429.06
441.822	443.06
442.043	456.06
442.264	522.06
442.486	515.06
442.707	473.06
442.928	461.06
443.149	461.06
443.371	461.06
443.592	476.06
443.813	526.06
444.034	566.06
444.255	485.06
444.476	457.06
444.698	481.06
444.919	474.06
445.14	555.06
445.361	496.06
445.582	476.06
445.803	512.06
446.024	526.06
446.245	524.06
446.466	474.06
446.687	447.06
446.908	420.06
447.129	414.06
447.35	416.06
447.571	386.06
447.792	397.06
448.013	398.06
448.234	410.06
448.455	426.06
448.675	474.06
448.896	526.06
449.117	473.06
449.338	466.06
449.559	496.06
449.779	542.06
450	460.06
450.221	390.06
450.442	414.06
450.662	397.06
450.883	376.06
451.104	411.06
451.324	390.06
451.545	382.06
451.766	380.06
451.986	369.06
452.207	353.06
452.428	362.06
452.648	375.06
452.869	373.06
453.089	368.06
453.31	393.06
453.53	360.06
453.751	357.06
453.971	358.06
454.192	357.06
454.412	342.06
454.633	357.06
454.853	352.06
455.073	362.06
455.294	386.06
455.514	402.06
455.734	385.06
455.955	358.06
456.175	344.06
456.395	344.06
456.616	346.06
456.836	338.06
457.056	334.06
457.276	340.06
457.497	349.06
457.717	342.06
457.937	358.06
458.157	354.06
458.377	366.06
458.598	358.06
458.818	421.06
459.038	429.06
459.258	437.06
459.478	401.06
459.698	398.06
459.918	398.06
460.138	403.06
460.358	418.06
460.578	440.06
460.798	441.06
461.018	405.06
461.238	420.06
461.458	424.06
461.678	420.06
461.898	426.06
462.118	430.06
462.338	446.06
462.558	435.06
462.777	478.06
462.997	457.06
463.217	492.06
463.437	490.06
463.657	485.06
463.876	451.06
464.096	477.06
464.316	462.06
464.536	473.06
464.755	467.06
464.975	452.06
465.195	453.06
465.414	470.06
465.634	434.06
465.854	422.06
466.073	412.06
466.293	380.06
466.512	374.06
466.732	393.06
466.951	398.06
467.171	381.06
467.391	380.06
467.61	375.06
467.829	385.06
468.049	378.06
468.268	372.06
468.488	392.06
468.707	375.06
468.927	381.06
469.146	368.06
469.365	372.06
469.585	375.06
469.804	386.06
470.023	402.06
470.243	382.06
470.462	390.06
470.681	394.06
470.901	408.06
471.12	406.06
471.339	390.06
471.558	386.06
471.777	380.06
471.997	394.06
472.216	388.06
472.435	408.06
472.654	366.06
472.873	374.06
473.092	356.06
473.311	382.06
473.53	368.06
473.749	365.06
473.968	406.06
474.187	452.06
474.406	439.06
474.625	418.06
474.844	390.06
475.063	365.06
475.282	378.06
475.501	372.06
475.72	382.06
475.939	396.06
476.158	405.06
476.377	406.06
476.596	395.06
476.814	386.06
477.033	387.06
477.252	391.06
477.471	428.06
477.69	434.06
477.908	412.06
478.127	425.06
478.346	421.06
478.564	428.06
478.783	412.06
479.002	437.06
479.22	449.06
479.439	450.06
479.658	471.06
479.876	445.06
480.095	472.06
480.313	497.06
480.532	469.06
480.751	473.06
480.969	490.06
481.188	512.06
481.406	501.06
481.624	463.06
481.843	446.06
482.061	441.06
482.28	431.06
482.498	443.06
482.717	439.06
482.935	426.06
483.153	436.06
483.372	461.06
483.59	446.06
483.808	417.06
484.027	436.06
484.245	430.06
484.463	468.06
484.681	434.06
484.9	442.06
485.118	443.06
485.336	448.06
485.554	450.06
485.772	468.06
485.99	466.06
486.209	452.06
486.427	436.06
486.645	458.06
486.863	479.06
487.081	464.06
487.299	473.06
487.517	461.06
487.735	461.06
487.953	462.06
488.171	492.06
488.389	463.06
488.607	470.06
488.825	481.06
489.043	464.06
489.261	496.06
489.479	468.06
489.696	460.06
489.914	461.06
490.132	477.06
490.35	460.06
490.568	481.06
490.786	487.06
491.003	486.06
491.221	483.06
491.439	529.06
491.657	519.06
491.874	520.06
492.092	515.06
492.31	498.06
492.527	530.06
492.745	539.06
492.963	549.06
493.18	534.06
493.398	555.06
493.615	515.06
493.833	521.06
494.05	547.06
494.268	523.06
494.485	532.06
494.703	531.06
494.92	543.06
495.138	556.06
495.355	535.06
495.573	545.06
495.79	545.06
496.008	535.06
496.225	530.06
496.442	552.06
496.66	556.06
496.877	555.06
497.094	542.06
497.312	546.06
497.529	588.06
497.746	578.06
497.963	579.06
498.181	602.06
498.398	632.06
498.615	616.06
498.832	641.06
499.049	685.06
499.267	722.06
499.484	732.06
499.701	764.06
499.918	822.06
500.135	905.06
500.352	963.06
500.569	978.06
500.786	972.06
501.003	965.06
501.22	901.06
501.437	845.06
501.654	772.06
501.871	760.06
502.088	717.06
