Data from 1969.PennyLincolnUp.Lamp.En5.5.200Scan.071719.P1._HRD10591_14-56-07-973.txt Node
Date: Thu Jul 18 14:56:07 EDT 2019
User: cochatt
Spectrometer: HR+D1059
Trigger mode: 1
Integration Time (sec): 1.000000E-1
Scans to average: 1
Electric dark correction enabled: true
Nonlinearity correction enabled: false
Boxcar width: 0
XAxis mode: Wavelengths
Number of Pixels in Spectrum: 2048
>>>>>Begin Spectral Data<<<<<
223.165	-9.62
223.4	-9.62
223.635	-9.62
223.869	-15.62
224.104	-11.62
224.338	-20.62
224.573	-3.62
224.808	-12.62
225.042	-11.62
225.277	-11.62
225.511	4.38
225.746	1.38
225.98	12.38
226.215	6.38
226.449	14.38
226.683	18.38
226.918	13.38
227.152	26.38
227.387	39.38
227.621	44.38
227.856	46.38
228.09	53.38
228.324	51.38
228.559	39.38
228.793	59.38
229.027	97.38
229.262	93.38
229.496	102.38
229.73	100.38
229.964	118.38
230.199	92.38
230.433	107.38
230.667	98.38
230.901	98.38
231.136	100.38
231.37	100.38
231.604	99.38
231.838	121.38
232.072	106.38
232.306	92.38
232.541	112.38
232.775	114.38
233.009	102.38
233.243	101.38
233.477	96.38
233.711	103.38
233.945	113.38
234.179	120.38
234.413	109.38
234.647	107.38
234.881	100.38
235.115	121.38
235.349	113.38
235.583	110.38
235.817	112.38
236.051	110.38
236.285	125.38
236.519	116.38
236.753	109.38
236.987	125.38
237.221	140.38
237.455	171.38
237.689	135.38
237.922	109.38
238.156	107.38
238.39	106.38
238.624	116.38
238.858	85.38
239.091	97.38
239.325	103.38
239.559	116.38
239.793	103.38
240.027	126.38
240.26	115.38
240.494	120.38
240.728	125.38
240.961	112.38
241.195	124.38
241.429	121.38
241.662	110.38
241.896	115.38
242.13	121.38
242.363	122.38
242.597	122.38
242.83	132.38
243.064	120.38
243.298	111.38
243.531	133.38
243.765	116.38
243.998	133.38
244.232	132.38
244.465	109.38
244.699	125.38
244.932	133.38
245.166	131.38
245.399	132.38
245.633	116.38
245.866	147.38
246.099	137.38
246.333	127.38
246.566	125.38
246.8	134.38
247.033	121.38
247.266	147.38
247.5	131.38
247.733	144.38
247.966	157.38
248.2	151.38
248.433	130.38
248.666	130.38
248.899	147.38
249.133	158.38
249.366	174.38
249.599	153.38
249.832	167.38
250.066	149.38
250.299	142.38
250.532	175.38
250.765	161.38
250.998	189.38
251.231	179.38
251.465	166.38
251.698	181.38
251.931	167.38
252.164	160.38
252.397	159.38
252.63	179.38
252.863	177.38
253.096	186.38
253.329	194.38
253.562	191.38
253.795	194.38
254.028	187.38
254.261	179.38
254.494	187.38
254.727	184.38
254.96	221.38
255.193	211.38
255.426	205.38
255.659	186.38
255.892	174.38
256.124	179.38
256.357	181.38
256.59	181.38
256.823	170.38
257.056	164.38
257.289	164.38
257.521	173.38
257.754	167.38
257.987	161.38
258.22	190.38
258.452	159.38
258.685	172.38
258.918	157.38
259.151	171.38
259.383	183.38
259.616	201.38
259.849	193.38
260.081	191.38
260.314	200.38
260.547	193.38
260.779	184.38
261.012	202.38
261.244	199.38
261.477	202.38
261.71	182.38
261.942	194.38
262.175	217.38
262.407	198.38
262.64	187.38
262.872	155.38
263.105	163.38
263.337	177.38
263.57	174.38
263.802	179.38
264.035	184.38
264.267	188.38
264.499	181.38
264.732	172.38
264.964	180.38
265.197	177.38
265.429	182.38
265.661	204.38
265.894	193.38
266.126	183.38
266.358	188.38
266.591	191.38
266.823	190.38
267.055	185.38
267.287	194.38
267.52	200.38
267.752	202.38
267.984	193.38
268.216	204.38
268.448	183.38
268.681	217.38
268.913	227.38
269.145	217.38
269.377	237.38
269.609	229.38
269.841	216.38
270.073	229.38
270.306	238.38
270.538	243.38
270.77	247.38
271.002	231.38
271.234	237.38
271.466	250.38
271.698	245.38
271.93	246.38
272.162	262.38
272.394	273.38
272.626	231.38
272.858	246.38
273.09	222.38
273.322	241.38
273.553	234.38
273.785	218.38
274.017	214.38
274.249	224.38
274.481	232.38
274.713	226.38
274.945	221.38
275.176	219.38
275.408	239.38
275.64	225.38
275.872	227.38
276.104	230.38
276.335	209.38
276.567	235.38
276.799	239.38
277.031	244.38
277.262	265.38
277.494	271.38
277.726	252.38
277.957	231.38
278.189	252.38
278.421	225.38
278.652	244.38
278.884	245.38
279.115	235.38
279.347	245.38
279.579	228.38
279.81	227.38
280.042	238.38
280.273	222.38
280.505	247.38
280.736	240.38
280.968	238.38
281.199	227.38
281.431	233.38
281.662	241.38
281.894	241.38
282.125	235.38
282.356	244.38
282.588	261.38
282.819	270.38
283.051	231.38
283.282	249.38
283.513	267.38
283.745	250.38
283.976	234.38
284.207	229.38
284.439	244.38
284.67	237.38
284.901	255.38
285.132	247.38
285.364	230.38
285.595	232.38
285.826	255.38
286.057	248.38
286.288	232.38
286.52	239.38
286.751	250.38
286.982	251.38
287.213	266.38
287.444	265.38
287.675	264.38
287.906	265.38
288.138	269.38
288.369	238.38
288.6	272.38
288.831	263.38
289.062	266.38
289.293	257.38
289.524	265.38
289.755	237.38
289.986	263.38
290.217	261.38
290.448	269.38
290.679	244.38
290.91	255.38
291.141	254.38
291.371	259.38
291.602	252.38
291.833	259.38
292.064	264.38
292.295	258.38
292.526	263.38
292.757	265.38
292.987	272.38
293.218	268.38
293.449	262.38
293.68	262.38
293.91	278.38
294.141	265.38
294.372	268.38
294.603	272.38
294.833	267.38
295.064	254.38
295.295	251.38
295.525	249.38
295.756	259.38
295.987	270.38
296.217	266.38
296.448	294.38
296.679	254.38
296.909	260.38
297.14	284.38
297.37	272.38
297.601	264.38
297.831	270.38
298.062	271.38
298.292	278.38
298.523	279.38
298.753	274.38
298.984	275.38
299.214	277.38
299.445	274.38
299.675	276.38
299.905	282.38
300.136	270.38
300.366	286.38
300.597	283.38
300.827	292.38
301.057	281.38
301.288	297.38
301.518	288.38
301.748	292.38
301.979	283.38
302.209	291.38
302.439	308.38
302.669	297.38
302.9	282.38
303.13	289.38
303.36	291.38
303.59	296.38
303.82	287.38
304.051	297.38
304.281	277.38
304.511	293.38
304.741	297.38
304.971	289.38
305.201	297.38
305.431	305.38
305.661	280.38
305.891	297.38
306.121	279.38
306.352	293.38
306.582	284.38
306.812	281.38
307.042	297.38
307.272	286.38
307.502	277.38
307.731	290.38
307.961	297.38
308.191	286.38
308.421	278.38
308.651	284.38
308.881	298.38
309.111	311.38
309.341	302.38
309.571	302.38
309.8	324.38
310.03	301.38
310.26	318.38
310.49	333.38
310.72	307.38
310.949	333.38
311.179	330.38
311.409	323.38
311.639	315.38
311.868	323.38
312.098	314.38
312.328	318.38
312.557	321.38
312.787	353.38
313.017	333.38
313.246	333.38
313.476	315.38
313.706	326.38
313.935	333.38
314.165	321.38
314.394	354.38
314.624	325.38
314.853	338.38
315.083	329.38
315.312	321.38
315.542	326.38
315.771	307.38
316.001	312.38
316.23	305.38
316.46	307.38
316.689	325.38
316.919	309.38
317.148	322.38
317.377	337.38
317.607	309.38
317.836	311.38
318.065	321.38
318.295	343.38
318.524	305.38
318.753	324.38
318.983	309.38
319.212	318.38
319.441	315.38
319.67	324.38
319.9	323.38
320.129	322.38
320.358	312.38
320.587	348.38
320.816	343.38
321.046	329.38
321.275	332.38
321.504	323.38
321.733	322.38
321.962	342.38
322.191	347.38
322.42	356.38
322.649	322.38
322.878	351.38
323.108	351.38
323.337	369.38
323.566	369.38
323.795	374.38
324.024	421.38
324.253	473.38
324.482	637.38
324.71	899.38
324.939	1179.38
325.168	983.38
325.397	539.38
325.626	426.38
325.855	403.38
326.084	382.38
326.313	378.38
326.542	378.38
326.77	410.38
326.999	465.38
327.228	557.38
327.457	779.38
327.686	859.38
327.914	604.38
328.143	462.38
328.372	450.38
328.6	439.38
328.829	425.38
329.058	408.38
329.287	412.38
329.515	397.38
329.744	404.38
329.972	393.38
330.201	411.38
330.43	430.38
330.658	447.38
330.887	462.38
331.115	444.38
331.344	394.38
331.572	390.38
331.801	404.38
332.03	395.38
332.258	399.38
332.486	376.38
332.715	376.38
332.943	396.38
333.172	417.38
333.4	405.38
333.629	430.38
333.857	423.38
334.085	430.38
334.314	433.38
334.542	446.38
334.771	452.38
334.999	441.38
335.227	405.38
335.455	419.38
335.684	406.38
335.912	377.38
336.14	389.38
336.369	384.38
336.597	373.38
336.825	385.38
337.053	386.38
337.281	377.38
337.51	361.38
337.738	409.38
337.966	365.38
338.194	387.38
338.422	389.38
338.65	358.38
338.878	389.38
339.106	349.38
339.334	376.38
339.562	356.38
339.79	371.38
340.018	371.38
340.246	381.38
340.474	357.38
340.702	366.38
340.93	359.38
341.158	350.38
341.386	365.38
341.614	354.38
341.842	343.38
342.07	351.38
342.298	355.38
342.526	350.38
342.754	339.38
342.981	363.38
343.209	350.38
343.437	367.38
343.665	376.38
343.893	396.38
344.12	371.38
344.348	391.38
344.576	373.38
344.804	363.38
345.031	372.38
345.259	366.38
345.487	374.38
345.714	346.38
345.942	356.38
346.17	346.38
346.397	348.38
346.625	345.38
346.853	357.38
347.08	357.38
347.308	366.38
347.535	348.38
347.763	369.38
347.99	360.38
348.218	347.38
348.445	349.38
348.673	360.38
348.9	334.38
349.128	330.38
349.355	333.38
349.583	343.38
349.81	343.38
350.037	336.38
350.265	342.38
350.492	315.38
350.72	324.38
350.947	323.38
351.174	357.38
351.402	356.38
351.629	343.38
351.856	358.38
352.083	321.38
352.311	340.38
352.538	343.38
352.765	346.38
352.992	348.38
353.22	331.38
353.447	344.38
353.674	345.38
353.901	337.38
354.128	338.38
354.355	328.38
354.583	339.38
354.81	309.38
355.037	338.38
355.264	317.38
355.491	318.38
355.718	326.38
355.945	338.38
356.172	315.38
356.399	316.38
356.626	305.38
356.853	335.38
357.08	326.38
357.307	330.38
357.534	331.38
357.761	325.38
357.988	338.38
358.215	295.38
358.441	316.38
358.668	335.38
358.895	329.38
359.122	331.38
359.349	327.38
359.576	332.38
359.802	344.38
360.029	366.38
360.256	366.38
360.483	321.38
360.709	339.38
360.936	346.38
361.163	334.38
361.39	335.38
361.616	354.38
361.843	348.38
362.07	311.38
362.296	345.38
362.523	339.38
362.749	330.38
362.976	350.38
363.203	335.38
363.429	324.38
363.656	342.38
363.882	323.38
364.109	338.38
364.335	327.38
364.562	319.38
364.788	324.38
365.015	346.38
365.241	349.38
365.468	328.38
365.694	337.38
365.92	339.38
366.147	321.38
366.373	317.38
366.599	321.38
366.826	321.38
367.052	306.38
367.278	316.38
367.505	314.38
367.731	335.38
367.957	329.38
368.184	328.38
368.41	324.38
368.636	337.38
368.862	345.38
369.089	351.38
369.315	342.38
369.541	325.38
369.767	318.38
369.993	333.38
370.219	316.38
370.445	324.38
370.672	333.38
370.898	325.38
371.124	329.38
371.35	325.38
371.576	344.38
371.802	315.38
372.028	366.38
372.254	338.38
372.48	327.38
372.706	338.38
372.932	349.38
373.158	338.38
373.384	337.38
373.61	347.38
373.835	338.38
374.061	325.38
374.287	338.38
374.513	335.38
374.739	343.38
374.965	358.38
375.191	355.38
375.416	362.38
375.642	326.38
375.868	343.38
376.094	346.38
376.319	329.38
376.545	335.38
376.771	331.38
376.997	335.38
377.222	335.38
377.448	327.38
377.674	324.38
377.899	338.38
378.125	344.38
378.35	326.38
378.576	315.38
378.802	334.38
379.027	323.38
379.253	318.38
379.478	343.38
379.704	325.38
379.929	326.38
380.155	322.38
380.38	341.38
380.606	321.38
380.831	335.38
381.057	332.38
381.282	335.38
381.507	355.38
381.733	333.38
381.958	338.38
382.184	350.38
382.409	335.38
382.634	353.38
382.86	353.38
383.085	347.38
383.31	342.38
383.535	343.38
383.761	339.38
383.986	342.38
384.211	351.38
384.436	365.38
384.662	366.38
384.887	360.38
385.112	366.38
385.337	365.38
385.562	360.38
385.787	384.38
386.013	377.38
386.238	372.38
386.463	386.38
386.688	392.38
386.913	365.38
387.138	367.38
387.363	358.38
387.588	338.38
387.813	345.38
388.038	369.38
388.263	365.38
388.488	366.38
388.713	378.38
388.938	393.38
389.163	383.38
389.387	378.38
389.612	349.38
389.837	354.38
390.062	384.38
390.287	357.38
390.512	374.38
390.736	369.38
390.961	370.38
391.186	385.38
391.411	385.38
391.636	394.38
391.86	389.38
392.085	400.38
392.31	397.38
392.534	376.38
392.759	388.38
392.984	383.38
393.208	377.38
393.433	378.38
393.658	380.38
393.882	374.38
394.107	383.38
394.331	361.38
394.556	382.38
394.78	400.38
395.005	371.38
395.229	367.38
395.454	393.38
395.678	393.38
395.903	405.38
396.127	417.38
396.352	409.38
396.576	399.38
396.801	398.38
397.025	418.38
397.249	398.38
397.474	418.38
397.698	387.38
397.922	405.38
398.147	401.38
398.371	424.38
398.595	419.38
398.82	429.38
399.044	462.38
399.268	486.38
399.492	491.38
399.717	570.38
399.941	568.38
400.165	547.38
400.389	515.38
400.613	461.38
400.837	444.38
401.062	440.38
401.286	430.38
401.51	443.38
401.734	421.38
401.958	433.38
402.182	457.38
402.406	426.38
402.63	450.38
402.854	449.38
403.078	441.38
403.302	429.38
403.526	462.38
403.75	457.38
403.974	462.38
404.198	463.38
404.422	464.38
404.645	477.38
404.869	466.38
405.093	476.38
405.317	500.38
405.541	534.38
405.765	491.38
405.988	460.38
406.212	485.38
406.436	494.38
406.66	516.38
406.883	488.38
407.107	503.38
407.331	558.38
407.555	547.38
407.778	567.38
408.002	524.38
408.226	500.38
408.449	471.38
408.673	490.38
408.896	486.38
409.12	530.38
409.344	501.38
409.567	459.38
409.791	447.38
410.014	474.38
410.238	443.38
410.461	453.38
410.685	442.38
410.908	475.38
411.132	469.38
411.355	492.38
411.578	457.38
411.802	468.38
412.025	434.38
412.249	434.38
412.472	467.38
412.695	488.38
412.919	494.38
413.142	428.38
413.365	418.38
413.589	435.38
413.812	427.38
414.035	413.38
414.258	426.38
414.482	447.38
414.705	433.38
414.928	435.38
415.151	429.38
415.374	439.38
415.597	427.38
415.821	422.38
416.044	433.38
416.267	410.38
416.49	411.38
416.713	428.38
416.936	427.38
417.159	422.38
417.382	429.38
417.605	447.38
417.828	424.38
418.051	428.38
418.274	428.38
418.497	415.38
418.72	411.38
418.943	417.38
419.166	435.38
419.389	461.38
419.611	443.38
419.834	441.38
420.057	452.38
420.28	451.38
420.503	449.38
420.726	441.38
420.948	455.38
421.171	459.38
421.394	484.38
421.617	462.38
421.839	434.38
422.062	439.38
422.285	449.38
422.507	492.38
422.73	501.38
422.953	490.38
423.175	467.38
423.398	446.38
423.621	460.38
423.843	474.38
424.066	482.38
424.288	448.38
424.511	476.38
424.733	506.38
424.956	517.38
425.178	506.38
425.401	518.38
425.623	522.38
425.846	463.38
426.068	453.38
426.291	446.38
426.513	435.38
426.735	457.38
426.958	484.38
427.18	529.38
427.402	601.38
427.625	638.38
427.847	550.38
428.069	497.38
428.292	475.38
428.514	425.38
428.736	403.38
428.958	430.38
429.181	404.38
429.403	389.38
429.625	415.38
429.847	437.38
430.069	452.38
430.292	458.38
430.514	427.38
430.736	400.38
430.958	425.38
431.18	391.38
431.402	401.38
431.624	412.38
431.846	406.38
432.068	400.38
432.29	401.38
432.512	400.38
432.734	395.38
432.956	409.38
433.178	431.38
433.4	407.38
433.622	428.38
433.844	382.38
434.066	389.38
434.287	412.38
434.509	418.38
434.731	423.38
434.953	432.38
435.175	463.38
435.397	441.38
435.618	455.38
435.84	454.38
436.062	489.38
436.284	549.38
436.505	473.38
436.727	456.38
436.949	421.38
437.17	410.38
437.392	416.38
437.614	417.38
437.835	438.38
438.057	477.38
438.278	533.38
438.5	552.38
438.721	564.38
438.943	553.38
439.165	460.38
439.386	423.38
439.608	465.38
439.829	462.38
440.05	449.38
440.272	463.38
440.493	442.38
440.715	452.38
440.936	431.38
441.158	417.38
441.379	413.38
441.6	435.38
441.822	461.38
442.043	482.38
442.264	538.38
442.486	540.38
442.707	479.38
442.928	457.38
443.149	464.38
443.371	472.38
443.592	475.38
443.813	549.38
444.034	581.38
444.255	502.38
444.476	477.38
444.698	488.38
444.919	492.38
445.14	632.38
445.361	537.38
445.582	494.38
445.803	526.38
446.024	568.38
446.245	524.38
446.466	524.38
446.687	454.38
446.908	439.38
447.129	424.38
447.35	417.38
447.571	393.38
447.792	397.38
448.013	411.38
448.234	422.38
448.455	454.38
448.675	516.38
448.896	585.38
449.117	511.38
449.338	475.38
449.559	540.38
449.779	598.38
450	507.38
450.221	439.38
450.442	393.38
450.662	421.38
450.883	416.38
451.104	417.38
451.324	396.38
451.545	371.38
451.766	378.38
451.986	379.38
452.207	376.38
452.428	364.38
452.648	369.38
452.869	358.38
453.089	383.38
453.31	378.38
453.53	380.38
453.751	362.38
453.971	358.38
454.192	376.38
454.412	368.38
454.633	361.38
454.853	375.38
455.073	371.38
455.294	405.38
455.514	419.38
455.734	395.38
455.955	379.38
456.175	338.38
456.395	353.38
456.616	349.38
456.836	351.38
457.056	354.38
457.276	341.38
457.497	341.38
457.717	351.38
457.937	365.38
458.157	364.38
458.377	371.38
458.598	387.38
458.818	433.38
459.038	467.38
459.258	470.38
459.478	409.38
459.698	406.38
459.918	417.38
460.138	410.38
460.358	428.38
460.578	448.38
460.798	434.38
461.018	418.38
461.238	422.38
461.458	419.38
461.678	437.38
461.898	434.38
462.118	421.38
462.338	447.38
462.558	456.38
462.777	458.38
462.997	475.38
463.217	501.38
463.437	489.38
463.657	464.38
463.876	458.38
464.096	455.38
464.316	471.38
464.536	465.38
464.755	485.38
464.975	478.38
465.195	481.38
465.414	480.38
465.634	466.38
465.854	425.38
466.073	401.38
466.293	405.38
466.512	397.38
466.732	382.38
466.951	396.38
467.171	364.38
467.391	396.38
467.61	401.38
467.829	395.38
468.049	401.38
468.268	379.38
468.488	382.38
468.707	377.38
468.927	365.38
469.146	362.38
469.365	373.38
469.585	375.38
469.804	386.38
470.023	403.38
470.243	387.38
470.462	411.38
470.681	419.38
470.901	386.38
471.12	411.38
471.339	403.38
471.558	410.38
471.777	365.38
471.997	377.38
472.216	381.38
472.435	410.38
472.654	395.38
472.873	385.38
473.092	382.38
473.311	391.38
473.53	388.38
473.749	398.38
473.968	422.38
474.187	462.38
474.406	456.38
474.625	415.38
474.844	398.38
475.063	396.38
475.282	391.38
475.501	389.38
475.72	398.38
475.939	383.38
476.158	376.38
476.377	395.38
476.596	393.38
476.814	394.38
477.033	398.38
477.252	391.38
477.471	399.38
477.69	414.38
477.908	423.38
478.127	414.38
478.346	411.38
478.564	440.38
478.783	460.38
479.002	461.38
479.22	458.38
479.439	439.38
479.658	454.38
479.876	459.38
480.095	465.38
480.313	506.38
480.532	497.38
480.751	478.38
480.969	490.38
481.188	513.38
481.406	518.38
481.624	509.38
481.843	457.38
482.061	453.38
482.28	444.38
482.498	434.38
482.717	443.38
482.935	444.38
483.153	454.38
483.372	434.38
483.59	451.38
483.808	437.38
484.027	447.38
484.245	436.38
484.463	411.38
484.681	458.38
484.9	461.38
485.118	461.38
485.336	452.38
485.554	445.38
485.772	468.38
485.99	464.38
486.209	463.38
486.427	465.38
486.645	467.38
486.863	470.38
487.081	477.38
487.299	473.38
487.517	459.38
487.735	460.38
487.953	453.38
488.171	485.38
488.389	464.38
488.607	464.38
488.825	485.38
489.043	477.38
489.261	486.38
489.479	461.38
489.696	481.38
489.914	493.38
490.132	478.38
490.35	477.38
490.568	491.38
490.786	497.38
491.003	513.38
491.221	532.38
491.439	519.38
491.657	518.38
491.874	552.38
492.092	536.38
492.31	565.38
492.527	539.38
492.745	538.38
492.963	565.38
493.18	556.38
493.398	543.38
493.615	549.38
493.833	558.38
494.05	549.38
494.268	530.38
494.485	545.38
494.703	577.38
494.92	525.38
495.138	557.38
495.355	559.38
495.573	546.38
495.79	549.38
496.008	554.38
496.225	534.38
496.442	565.38
496.66	547.38
496.877	554.38
497.094	563.38
497.312	588.38
497.529	574.38
497.746	607.38
497.963	570.38
498.181	603.38
498.398	633.38
498.615	654.38
498.832	654.38
499.049	692.38
499.267	710.38
499.484	755.38
499.701	794.38
499.918	855.38
500.135	912.38
500.352	992.38
500.569	1025.38
500.786	1001.38
501.003	950.38
501.22	897.38
501.437	835.38
501.654	777.38
501.871	737.38
502.088	694.38
