Data from 1969.PennyLincolnUp.Lamp.En5.5.200Scan.071719.P1._HRD10591_14-54-05-972.txt Node
Date: Thu Jul 18 14:54:05 EDT 2019
User: cochatt
Spectrometer: HR+D1059
Trigger mode: 1
Integration Time (sec): 1.000000E-1
Scans to average: 1
Electric dark correction enabled: true
Nonlinearity correction enabled: false
Boxcar width: 0
XAxis mode: Wavelengths
Number of Pixels in Spectrum: 2048
>>>>>Begin Spectral Data<<<<<
223.165	-21.38
223.4	-21.38
223.635	-21.38
223.869	-17.38
224.104	-11.38
224.338	-13.38
224.573	-6.38
224.808	-0.38
225.042	-2.38
225.277	-19.38
225.511	-3.38
225.746	-4.38
225.98	2.62
226.215	18.62
226.449	13.62
226.683	15.62
226.918	10.62
227.152	38.62
227.387	30.62
227.621	37.62
227.856	51.62
228.09	46.62
228.324	24.62
228.559	30.62
228.793	56.62
229.027	82.62
229.262	88.62
229.496	93.62
229.73	97.62
229.964	114.62
230.199	102.62
230.433	89.62
230.667	104.62
230.901	105.62
231.136	92.62
231.37	94.62
231.604	101.62
231.838	95.62
232.072	95.62
232.306	98.62
232.541	93.62
232.775	107.62
233.009	100.62
233.243	114.62
233.477	98.62
233.711	103.62
233.945	98.62
234.179	92.62
234.413	119.62
234.647	88.62
234.881	96.62
235.115	103.62
235.349	106.62
235.583	95.62
235.817	111.62
236.051	117.62
236.285	100.62
236.519	103.62
236.753	102.62
236.987	115.62
237.221	122.62
237.455	167.62
237.689	122.62
237.922	114.62
238.156	100.62
238.39	108.62
238.624	105.62
238.858	106.62
239.091	104.62
239.325	116.62
239.559	102.62
239.793	101.62
240.027	105.62
240.26	101.62
240.494	111.62
240.728	116.62
240.961	122.62
241.195	135.62
241.429	114.62
241.662	112.62
241.896	119.62
242.13	126.62
242.363	112.62
242.597	116.62
242.83	115.62
243.064	115.62
243.298	113.62
243.531	118.62
243.765	119.62
243.998	126.62
244.232	126.62
244.465	101.62
244.699	128.62
244.932	124.62
245.166	118.62
245.399	120.62
245.633	135.62
245.866	128.62
246.099	132.62
246.333	125.62
246.566	121.62
246.8	123.62
247.033	130.62
247.266	136.62
247.5	126.62
247.733	131.62
247.966	136.62
248.2	135.62
248.433	136.62
248.666	145.62
248.899	143.62
249.133	140.62
249.366	152.62
249.599	151.62
249.832	140.62
250.066	136.62
250.299	144.62
250.532	157.62
250.765	158.62
250.998	161.62
251.231	168.62
251.465	148.62
251.698	153.62
251.931	165.62
252.164	155.62
252.397	150.62
252.63	165.62
252.863	155.62
253.096	159.62
253.329	169.62
253.562	149.62
253.795	163.62
254.028	153.62
254.261	150.62
254.494	174.62
254.727	172.62
254.96	177.62
255.193	194.62
255.426	187.62
255.659	182.62
255.892	176.62
256.124	174.62
256.357	162.62
256.59	174.62
256.823	152.62
257.056	172.62
257.289	167.62
257.521	170.62
257.754	166.62
257.987	168.62
258.22	168.62
258.452	167.62
258.685	166.62
258.918	163.62
259.151	151.62
259.383	152.62
259.616	176.62
259.849	167.62
260.081	169.62
260.314	177.62
260.547	190.62
260.779	175.62
261.012	167.62
261.244	183.62
261.477	176.62
261.71	182.62
261.942	178.62
262.175	167.62
262.407	186.62
262.64	168.62
262.872	158.62
263.105	174.62
263.337	174.62
263.57	170.62
263.802	165.62
264.035	168.62
264.267	174.62
264.499	156.62
264.732	166.62
264.964	185.62
265.197	178.62
265.429	175.62
265.661	180.62
265.894	174.62
266.126	177.62
266.358	179.62
266.591	193.62
266.823	193.62
267.055	171.62
267.287	185.62
267.52	178.62
267.752	179.62
267.984	178.62
268.216	179.62
268.448	180.62
268.681	201.62
268.913	193.62
269.145	198.62
269.377	235.62
269.609	215.62
269.841	195.62
270.073	210.62
270.306	211.62
270.538	227.62
270.77	229.62
271.002	214.62
271.234	208.62
271.466	219.62
271.698	221.62
271.93	230.62
272.162	225.62
272.394	234.62
272.626	229.62
272.858	225.62
273.09	205.62
273.322	214.62
273.553	187.62
273.785	203.62
274.017	218.62
274.249	198.62
274.481	203.62
274.713	204.62
274.945	206.62
275.176	219.62
275.408	204.62
275.64	211.62
275.872	208.62
276.104	211.62
276.335	214.62
276.567	208.62
276.799	220.62
277.031	244.62
277.262	246.62
277.494	234.62
277.726	218.62
277.957	229.62
278.189	223.62
278.421	199.62
278.652	205.62
278.884	218.62
279.115	207.62
279.347	214.62
279.579	190.62
279.81	224.62
280.042	225.62
280.273	216.62
280.505	216.62
280.736	224.62
280.968	216.62
281.199	216.62
281.431	218.62
281.662	226.62
281.894	227.62
282.125	216.62
282.356	243.62
282.588	231.62
282.819	229.62
283.051	227.62
283.282	223.62
283.513	217.62
283.745	225.62
283.976	235.62
284.207	240.62
284.439	246.62
284.67	232.62
284.901	237.62
285.132	241.62
285.364	235.62
285.595	220.62
285.826	239.62
286.057	222.62
286.288	234.62
286.52	221.62
286.751	231.62
286.982	240.62
287.213	234.62
287.444	247.62
287.675	229.62
287.906	248.62
288.138	220.62
288.369	242.62
288.6	232.62
288.831	243.62
289.062	253.62
289.293	242.62
289.524	262.62
289.755	243.62
289.986	247.62
290.217	238.62
290.448	229.62
290.679	241.62
290.91	234.62
291.141	245.62
291.371	253.62
291.602	255.62
291.833	227.62
292.064	222.62
292.295	229.62
292.526	242.62
292.757	240.62
292.987	253.62
293.218	245.62
293.449	243.62
293.68	235.62
293.91	242.62
294.141	244.62
294.372	252.62
294.603	252.62
294.833	252.62
295.064	242.62
295.295	220.62
295.525	234.62
295.756	244.62
295.987	253.62
296.217	243.62
296.448	256.62
296.679	266.62
296.909	253.62
297.14	259.62
297.37	249.62
297.601	256.62
297.831	242.62
298.062	260.62
298.292	267.62
298.523	275.62
298.753	258.62
298.984	254.62
299.214	266.62
299.445	258.62
299.675	249.62
299.905	279.62
300.136	258.62
300.366	247.62
300.597	252.62
300.827	246.62
301.057	251.62
301.288	270.62
301.518	277.62
301.748	283.62
301.979	266.62
302.209	286.62
302.439	307.62
302.669	257.62
302.9	268.62
303.13	261.62
303.36	271.62
303.59	252.62
303.82	295.62
304.051	273.62
304.281	274.62
304.511	278.62
304.741	268.62
304.971	272.62
305.201	274.62
305.431	276.62
305.661	269.62
305.891	256.62
306.121	265.62
306.352	296.62
306.582	270.62
306.812	261.62
307.042	270.62
307.272	270.62
307.502	262.62
307.731	278.62
307.961	271.62
308.191	276.62
308.421	276.62
308.651	297.62
308.881	271.62
309.111	257.62
309.341	263.62
309.571	298.62
309.8	276.62
310.03	283.62
310.26	287.62
310.49	293.62
310.72	283.62
310.949	288.62
311.179	309.62
311.409	302.62
311.639	286.62
311.868	284.62
312.098	295.62
312.328	288.62
312.557	283.62
312.787	312.62
313.017	304.62
313.246	290.62
313.476	280.62
313.706	301.62
313.935	302.62
314.165	310.62
314.394	300.62
314.624	288.62
314.853	303.62
315.083	297.62
315.312	298.62
315.542	284.62
315.771	284.62
316.001	286.62
316.23	286.62
316.46	291.62
316.689	314.62
316.919	291.62
317.148	300.62
317.377	302.62
317.607	301.62
317.836	298.62
318.065	300.62
318.295	292.62
318.524	291.62
318.753	283.62
318.983	308.62
319.212	312.62
319.441	303.62
319.67	309.62
319.9	300.62
320.129	290.62
320.358	312.62
320.587	283.62
320.816	300.62
321.046	318.62
321.275	302.62
321.504	324.62
321.733	311.62
321.962	315.62
322.191	330.62
322.42	317.62
322.649	310.62
322.878	323.62
323.108	324.62
323.337	320.62
323.566	316.62
323.795	335.62
324.024	370.62
324.253	398.62
324.482	526.62
324.71	710.62
324.939	956.62
325.168	798.62
325.397	480.62
325.626	390.62
325.855	344.62
326.084	328.62
326.313	338.62
326.542	330.62
326.77	376.62
326.999	395.62
327.228	485.62
327.457	655.62
327.686	734.62
327.914	516.62
328.143	410.62
328.372	381.62
328.6	403.62
328.829	387.62
329.058	344.62
329.287	357.62
329.515	363.62
329.744	359.62
329.972	338.62
330.201	348.62
330.43	377.62
330.658	390.62
330.887	414.62
331.115	376.62
331.344	377.62
331.572	353.62
331.801	364.62
332.03	362.62
332.258	354.62
332.486	359.62
332.715	348.62
332.943	356.62
333.172	363.62
333.4	360.62
333.629	387.62
333.857	372.62
334.085	387.62
334.314	391.62
334.542	404.62
334.771	416.62
334.999	385.62
335.227	375.62
335.455	368.62
335.684	377.62
335.912	358.62
336.14	361.62
336.369	377.62
336.597	364.62
336.825	361.62
337.053	360.62
337.281	357.62
337.51	350.62
337.738	361.62
337.966	343.62
338.194	340.62
338.422	341.62
338.65	343.62
338.878	345.62
339.106	342.62
339.334	340.62
339.562	327.62
339.79	343.62
340.018	334.62
340.246	335.62
340.474	336.62
340.702	341.62
340.93	330.62
341.158	330.62
341.386	328.62
341.614	342.62
341.842	327.62
342.07	316.62
342.298	338.62
342.526	330.62
342.754	334.62
342.981	316.62
343.209	339.62
343.437	345.62
343.665	348.62
343.893	373.62
344.12	366.62
344.348	344.62
344.576	336.62
344.804	339.62
345.031	336.62
345.259	335.62
345.487	328.62
345.714	321.62
345.942	339.62
346.17	307.62
346.397	327.62
346.625	339.62
346.853	323.62
347.08	308.62
347.308	320.62
347.535	328.62
347.763	326.62
347.99	317.62
348.218	300.62
348.445	326.62
348.673	307.62
348.9	328.62
349.128	330.62
349.355	308.62
349.583	300.62
349.81	308.62
350.037	312.62
350.265	295.62
350.492	323.62
350.72	302.62
350.947	307.62
351.174	315.62
351.402	314.62
351.629	315.62
351.856	313.62
352.083	314.62
352.311	312.62
352.538	319.62
352.765	323.62
352.992	328.62
353.22	314.62
353.447	300.62
353.674	282.62
353.901	315.62
354.128	297.62
354.355	311.62
354.583	308.62
354.81	312.62
355.037	296.62
355.264	299.62
355.491	308.62
355.718	308.62
355.945	306.62
356.172	298.62
356.399	304.62
356.626	278.62
356.853	311.62
357.08	310.62
357.307	291.62
357.534	293.62
357.761	297.62
357.988	291.62
358.215	288.62
358.441	316.62
358.668	312.62
358.895	312.62
359.122	292.62
359.349	333.62
359.576	315.62
359.802	323.62
360.029	311.62
360.256	342.62
360.483	331.62
360.709	324.62
360.936	308.62
361.163	312.62
361.39	289.62
361.616	304.62
361.843	294.62
362.07	329.62
362.296	318.62
362.523	313.62
362.749	291.62
362.976	312.62
363.203	312.62
363.429	322.62
363.656	306.62
363.882	303.62
364.109	314.62
364.335	301.62
364.562	299.62
364.788	327.62
365.015	314.62
365.241	317.62
365.468	313.62
365.694	314.62
365.92	290.62
366.147	298.62
366.373	332.62
366.599	298.62
366.826	291.62
367.052	299.62
367.278	326.62
367.505	314.62
367.731	304.62
367.957	316.62
368.184	311.62
368.41	334.62
368.636	303.62
368.862	312.62
369.089	314.62
369.315	303.62
369.541	292.62
369.767	321.62
369.993	317.62
370.219	315.62
370.445	290.62
370.672	309.62
370.898	297.62
371.124	313.62
371.35	323.62
371.576	311.62
371.802	292.62
372.028	310.62
372.254	312.62
372.48	318.62
372.706	316.62
372.932	323.62
373.158	343.62
373.384	299.62
373.61	334.62
373.835	315.62
374.061	313.62
374.287	319.62
374.513	342.62
374.739	304.62
374.965	335.62
375.191	341.62
375.416	340.62
375.642	340.62
375.868	333.62
376.094	334.62
376.319	323.62
376.545	291.62
376.771	310.62
376.997	307.62
377.222	318.62
377.448	311.62
377.674	302.62
377.899	304.62
378.125	317.62
378.35	318.62
378.576	316.62
378.802	297.62
379.027	326.62
379.253	290.62
379.478	322.62
379.704	311.62
379.929	322.62
380.155	336.62
380.38	325.62
380.606	326.62
380.831	292.62
381.057	325.62
381.282	320.62
381.507	322.62
381.733	302.62
381.958	311.62
382.184	304.62
382.409	318.62
382.634	314.62
382.86	321.62
383.085	323.62
383.31	350.62
383.535	332.62
383.761	332.62
383.986	329.62
384.211	332.62
384.436	342.62
384.662	342.62
384.887	345.62
385.112	347.62
385.337	346.62
385.562	347.62
385.787	354.62
386.013	359.62
386.238	350.62
386.463	358.62
386.688	359.62
386.913	350.62
387.138	347.62
387.363	348.62
387.588	355.62
387.813	336.62
388.038	344.62
388.263	344.62
388.488	345.62
388.713	349.62
388.938	353.62
389.163	340.62
389.387	353.62
389.612	340.62
389.837	333.62
390.062	361.62
390.287	326.62
390.512	337.62
390.736	322.62
390.961	376.62
391.186	332.62
391.411	367.62
391.636	385.62
391.86	383.62
392.085	391.62
392.31	380.62
392.534	378.62
392.759	369.62
392.984	371.62
393.208	344.62
393.433	353.62
393.658	360.62
393.882	338.62
394.107	349.62
394.331	371.62
394.556	362.62
394.78	375.62
395.005	364.62
395.229	353.62
395.454	367.62
395.678	394.62
395.903	372.62
396.127	378.62
396.352	388.62
396.576	374.62
396.801	357.62
397.025	365.62
397.249	386.62
397.474	384.62
397.698	391.62
397.922	371.62
398.147	382.62
398.371	391.62
398.595	392.62
398.82	382.62
399.044	423.62
399.268	455.62
399.492	493.62
399.717	507.62
399.941	538.62
400.165	520.62
400.389	489.62
400.613	454.62
400.837	449.62
401.062	401.62
401.286	395.62
401.51	409.62
401.734	406.62
401.958	415.62
402.182	423.62
402.406	433.62
402.63	415.62
402.854	414.62
403.078	406.62
403.302	419.62
403.526	449.62
403.75	459.62
403.974	452.62
404.198	442.62
404.422	442.62
404.645	431.62
404.869	450.62
405.093	436.62
405.317	472.62
405.541	478.62
405.765	446.62
405.988	458.62
406.212	457.62
406.436	455.62
406.66	479.62
406.883	451.62
407.107	470.62
407.331	502.62
407.555	542.62
407.778	534.62
408.002	484.62
408.226	465.62
408.449	475.62
408.673	466.62
408.896	466.62
409.12	480.62
409.344	460.62
409.567	438.62
409.791	427.62
410.014	442.62
410.238	434.62
410.461	446.62
410.685	434.62
410.908	443.62
411.132	448.62
411.355	432.62
411.578	452.62
411.802	424.62
412.025	410.62
412.249	421.62
412.472	438.62
412.695	448.62
412.919	449.62
413.142	426.62
413.365	422.62
413.589	405.62
413.812	398.62
414.035	399.62
414.258	389.62
414.482	395.62
414.705	396.62
414.928	389.62
415.151	407.62
415.374	411.62
415.597	389.62
415.821	404.62
416.044	396.62
416.267	406.62
416.49	396.62
416.713	375.62
416.936	390.62
417.159	409.62
417.382	417.62
417.605	399.62
417.828	408.62
418.051	419.62
418.274	412.62
418.497	390.62
418.72	414.62
418.943	392.62
419.166	427.62
419.389	436.62
419.611	439.62
419.834	411.62
420.057	427.62
420.28	418.62
420.503	402.62
420.726	404.62
420.948	413.62
421.171	456.62
421.394	436.62
421.617	444.62
421.839	413.62
422.062	416.62
422.285	411.62
422.507	427.62
422.73	509.62
422.953	475.62
423.175	431.62
423.398	435.62
423.621	432.62
423.843	426.62
424.066	422.62
424.288	441.62
424.511	450.62
424.733	476.62
424.956	499.62
425.178	477.62
425.401	442.62
425.623	469.62
425.846	415.62
426.068	434.62
426.291	388.62
426.513	390.62
426.735	418.62
426.958	444.62
427.18	484.62
427.402	528.62
427.625	547.62
427.847	510.62
428.069	436.62
428.292	420.62
428.514	412.62
428.736	388.62
428.958	394.62
429.181	386.62
429.403	356.62
429.625	373.62
429.847	396.62
430.069	445.62
430.292	421.62
430.514	381.62
430.736	386.62
430.958	394.62
431.18	364.62
431.402	387.62
431.624	368.62
431.846	372.62
432.068	391.62
432.29	402.62
432.512	366.62
432.734	383.62
432.956	369.62
433.178	396.62
433.4	403.62
433.622	400.62
433.844	367.62
434.066	392.62
434.287	383.62
434.509	403.62
434.731	392.62
434.953	404.62
435.175	432.62
435.397	423.62
435.618	405.62
435.84	445.62
436.062	452.62
436.284	485.62
436.505	425.62
436.727	404.62
436.949	390.62
437.17	375.62
437.392	402.62
437.614	389.62
437.835	392.62
438.057	437.62
438.278	480.62
438.5	503.62
438.721	505.62
438.943	503.62
439.165	388.62
439.386	392.62
439.608	393.62
439.829	419.62
440.05	410.62
440.272	418.62
440.493	426.62
440.715	409.62
440.936	412.62
441.158	385.62
441.379	383.62
441.6	407.62
441.822	422.62
442.043	447.62
442.264	464.62
442.486	481.62
442.707	434.62
442.928	422.62
443.149	424.62
443.371	430.62
443.592	476.62
443.813	506.62
444.034	540.62
444.255	484.62
444.476	435.62
444.698	454.62
444.919	438.62
445.14	545.62
445.361	498.62
445.582	454.62
445.803	466.62
446.024	510.62
446.245	518.62
446.466	448.62
446.687	425.62
446.908	436.62
447.129	401.62
447.35	393.62
447.571	395.62
447.792	367.62
448.013	372.62
448.234	373.62
448.455	410.62
448.675	476.62
448.896	527.62
449.117	449.62
449.338	428.62
449.559	490.62
449.779	533.62
450	444.62
450.221	376.62
450.442	370.62
450.662	360.62
450.883	364.62
451.104	361.62
451.324	380.62
451.545	364.62
451.766	352.62
451.986	339.62
452.207	332.62
452.428	351.62
452.648	340.62
452.869	335.62
453.089	348.62
453.31	369.62
453.53	350.62
453.751	348.62
453.971	357.62
454.192	355.62
454.412	342.62
454.633	335.62
454.853	348.62
455.073	344.62
455.294	387.62
455.514	386.62
455.734	378.62
455.955	333.62
456.175	328.62
456.395	314.62
456.616	334.62
456.836	344.62
457.056	318.62
457.276	314.62
457.497	328.62
457.717	342.62
457.937	332.62
458.157	338.62
458.377	340.62
458.598	335.62
458.818	374.62
459.038	412.62
459.258	436.62
459.478	384.62
459.698	388.62
459.918	386.62
460.138	382.62
460.358	384.62
460.578	403.62
460.798	426.62
461.018	423.62
461.238	411.62
461.458	397.62
461.678	384.62
461.898	390.62
462.118	396.62
462.338	439.62
462.558	433.62
462.777	449.62
462.997	456.62
463.217	487.62
463.437	474.62
463.657	454.62
463.876	446.62
464.096	430.62
464.316	441.62
464.536	439.62
464.755	436.62
464.975	428.62
465.195	435.62
465.414	454.62
465.634	421.62
465.854	387.62
466.073	392.62
466.293	367.62
466.512	351.62
466.732	354.62
466.951	375.62
467.171	374.62
467.391	364.62
467.61	372.62
467.829	355.62
468.049	368.62
468.268	376.62
468.488	358.62
468.707	356.62
468.927	359.62
469.146	361.62
469.365	345.62
469.585	357.62
469.804	371.62
470.023	355.62
470.243	380.62
470.462	384.62
470.681	389.62
470.901	390.62
471.12	390.62
471.339	363.62
471.558	362.62
471.777	374.62
471.997	369.62
472.216	356.62
472.435	381.62
472.654	366.62
472.873	365.62
473.092	377.62
473.311	360.62
473.53	350.62
473.749	343.62
473.968	391.62
474.187	434.62
474.406	411.62
474.625	375.62
474.844	357.62
475.063	363.62
475.282	371.62
475.501	367.62
475.72	383.62
475.939	373.62
476.158	359.62
476.377	370.62
476.596	388.62
476.814	371.62
477.033	375.62
477.252	375.62
477.471	411.62
477.69	393.62
477.908	408.62
478.127	398.62
478.346	412.62
478.564	409.62
478.783	423.62
479.002	417.62
479.22	420.62
479.439	426.62
479.658	405.62
479.876	430.62
480.095	436.62
480.313	455.62
480.532	427.62
480.751	437.62
480.969	466.62
481.188	475.62
481.406	487.62
481.624	430.62
481.843	429.62
482.061	409.62
482.28	423.62
482.498	409.62
482.717	409.62
482.935	417.62
483.153	414.62
483.372	411.62
483.59	408.62
483.808	397.62
484.027	421.62
484.245	438.62
484.463	423.62
484.681	416.62
484.9	426.62
485.118	409.62
485.336	441.62
485.554	426.62
485.772	424.62
485.99	437.62
486.209	416.62
486.427	435.62
486.645	413.62
486.863	435.62
487.081	434.62
487.299	441.62
487.517	424.62
487.735	432.62
487.953	455.62
488.171	441.62
488.389	439.62
488.607	445.62
488.825	454.62
489.043	439.62
489.261	446.62
489.479	457.62
489.696	435.62
489.914	454.62
490.132	451.62
490.35	444.62
490.568	460.62
490.786	468.62
491.003	455.62
491.221	497.62
491.439	492.62
491.657	494.62
491.874	495.62
492.092	517.62
492.31	492.62
492.527	499.62
492.745	504.62
492.963	489.62
493.18	506.62
493.398	504.62
493.615	527.62
493.833	517.62
494.05	495.62
494.268	498.62
494.485	498.62
494.703	521.62
494.92	515.62
495.138	507.62
495.355	505.62
495.573	487.62
495.79	497.62
496.008	484.62
496.225	492.62
496.442	522.62
496.66	492.62
496.877	517.62
497.094	541.62
497.312	519.62
497.529	547.62
497.746	561.62
497.963	570.62
498.181	579.62
498.398	592.62
498.615	589.62
498.832	600.62
499.049	644.62
499.267	688.62
499.484	689.62
499.701	742.62
499.918	788.62
500.135	826.62
500.352	926.62
500.569	944.62
500.786	931.62
501.003	885.62
501.22	854.62
501.437	804.62
501.654	774.62
501.871	733.62
502.088	686.62
502.305	646.62
