Data from 1969.PennyLincolnUp.Lamp.En5.5.200Scan.071719.P1._HRD10591_14-54-33-972.txt Node
Date: Thu Jul 18 14:54:33 EDT 2019
User: cochatt
Spectrometer: HR+D1059
Trigger mode: 1
Integration Time (sec): 1.000000E-1
Scans to average: 1
Electric dark correction enabled: true
Nonlinearity correction enabled: false
Boxcar width: 0
XAxis mode: Wavelengths
Number of Pixels in Spectrum: 2048
>>>>>Begin Spectral Data<<<<<
223.165	-17.19
223.4	-17.19
223.635	-17.19
223.869	-21.19
224.104	-16.19
224.338	-14.19
224.573	-21.19
224.808	0.81
225.042	-8.19
225.277	-8.19
225.511	-18.19
225.746	-2.19
225.98	7.81
226.215	5.81
226.449	29.81
226.683	18.81
226.918	23.81
227.152	39.81
227.387	32.81
227.621	46.81
227.856	40.81
228.09	54.81
228.324	50.81
228.559	71.81
228.793	70.81
229.027	89.81
229.262	76.81
229.496	95.81
229.73	104.81
229.964	105.81
230.199	101.81
230.433	86.81
230.667	100.81
230.901	99.81
231.136	104.81
231.37	106.81
231.604	95.81
231.838	96.81
232.072	98.81
232.306	106.81
232.541	108.81
232.775	88.81
233.009	103.81
233.243	97.81
233.477	83.81
233.711	101.81
233.945	94.81
234.179	98.81
234.413	112.81
234.647	108.81
234.881	91.81
235.115	114.81
235.349	106.81
235.583	101.81
235.817	108.81
236.051	118.81
236.285	97.81
236.519	107.81
236.753	116.81
236.987	115.81
237.221	133.81
237.455	163.81
237.689	139.81
237.922	122.81
238.156	110.81
238.39	107.81
238.624	94.81
238.858	101.81
239.091	108.81
239.325	102.81
239.559	113.81
239.793	111.81
240.027	129.81
240.26	126.81
240.494	136.81
240.728	109.81
240.961	110.81
241.195	135.81
241.429	123.81
241.662	109.81
241.896	112.81
242.13	119.81
242.363	117.81
242.597	112.81
242.83	133.81
243.064	121.81
243.298	127.81
243.531	131.81
243.765	118.81
243.998	129.81
244.232	116.81
244.465	121.81
244.699	133.81
244.932	133.81
245.166	144.81
245.399	113.81
245.633	117.81
245.866	129.81
246.099	139.81
246.333	130.81
246.566	128.81
246.8	131.81
247.033	130.81
247.266	125.81
247.5	149.81
247.733	134.81
247.966	154.81
248.2	139.81
248.433	143.81
248.666	155.81
248.899	162.81
249.133	175.81
249.366	156.81
249.599	161.81
249.832	160.81
250.066	157.81
250.299	139.81
250.532	152.81
250.765	165.81
250.998	160.81
251.231	171.81
251.465	156.81
251.698	159.81
251.931	160.81
252.164	151.81
252.397	171.81
252.63	174.81
252.863	161.81
253.096	175.81
253.329	176.81
253.562	167.81
253.795	177.81
254.028	161.81
254.261	162.81
254.494	189.81
254.727	165.81
254.96	205.81
255.193	187.81
255.426	190.81
255.659	169.81
255.892	173.81
256.124	182.81
256.357	186.81
256.59	177.81
256.823	172.81
257.056	177.81
257.289	175.81
257.521	165.81
257.754	166.81
257.987	171.81
258.22	173.81
258.452	166.81
258.685	174.81
258.918	161.81
259.151	173.81
259.383	169.81
259.616	197.81
259.849	190.81
260.081	187.81
260.314	193.81
260.547	192.81
260.779	186.81
261.012	175.81
261.244	173.81
261.477	169.81
261.71	182.81
261.942	167.81
262.175	182.81
262.407	179.81
262.64	175.81
262.872	173.81
263.105	157.81
263.337	183.81
263.57	186.81
263.802	194.81
264.035	171.81
264.267	178.81
264.499	196.81
264.732	174.81
264.964	177.81
265.197	184.81
265.429	183.81
265.661	165.81
265.894	193.81
266.126	183.81
266.358	201.81
266.591	173.81
266.823	181.81
267.055	191.81
267.287	185.81
267.52	185.81
267.752	166.81
267.984	181.81
268.216	187.81
268.448	191.81
268.681	195.81
268.913	195.81
269.145	222.81
269.377	210.81
269.609	218.81
269.841	218.81
270.073	203.81
270.306	207.81
270.538	227.81
270.77	218.81
271.002	227.81
271.234	239.81
271.466	222.81
271.698	233.81
271.93	235.81
272.162	243.81
272.394	234.81
272.626	225.81
272.858	214.81
273.09	216.81
273.322	206.81
273.553	218.81
273.785	203.81
274.017	215.81
274.249	221.81
274.481	217.81
274.713	212.81
274.945	214.81
275.176	225.81
275.408	202.81
275.64	204.81
275.872	190.81
276.104	210.81
276.335	211.81
276.567	214.81
276.799	220.81
277.031	222.81
277.262	247.81
277.494	231.81
277.726	226.81
277.957	222.81
278.189	227.81
278.421	210.81
278.652	216.81
278.884	219.81
279.115	236.81
279.347	216.81
279.579	229.81
279.81	227.81
280.042	224.81
280.273	233.81
280.505	211.81
280.736	211.81
280.968	229.81
281.199	231.81
281.431	225.81
281.662	224.81
281.894	233.81
282.125	223.81
282.356	236.81
282.588	241.81
282.819	240.81
283.051	237.81
283.282	221.81
283.513	218.81
283.745	224.81
283.976	236.81
284.207	232.81
284.439	235.81
284.67	231.81
284.901	241.81
285.132	226.81
285.364	237.81
285.595	233.81
285.826	236.81
286.057	247.81
286.288	235.81
286.52	249.81
286.751	223.81
286.982	235.81
287.213	239.81
287.444	242.81
287.675	247.81
287.906	242.81
288.138	243.81
288.369	251.81
288.6	269.81
288.831	254.81
289.062	234.81
289.293	247.81
289.524	251.81
289.755	250.81
289.986	245.81
290.217	245.81
290.448	232.81
290.679	233.81
290.91	236.81
291.141	237.81
291.371	268.81
291.602	242.81
291.833	264.81
292.064	249.81
292.295	245.81
292.526	227.81
292.757	243.81
292.987	246.81
293.218	255.81
293.449	253.81
293.68	238.81
293.91	240.81
294.141	241.81
294.372	246.81
294.603	258.81
294.833	258.81
295.064	263.81
295.295	242.81
295.525	273.81
295.756	259.81
295.987	250.81
296.217	245.81
296.448	262.81
296.679	273.81
296.909	272.81
297.14	242.81
297.37	238.81
297.601	250.81
297.831	240.81
298.062	237.81
298.292	242.81
298.523	257.81
298.753	241.81
298.984	250.81
299.214	263.81
299.445	273.81
299.675	263.81
299.905	267.81
300.136	264.81
300.366	247.81
300.597	278.81
300.827	257.81
301.057	263.81
301.288	274.81
301.518	277.81
301.748	270.81
301.979	237.81
302.209	281.81
302.439	283.81
302.669	272.81
302.9	289.81
303.13	274.81
303.36	254.81
303.59	280.81
303.82	289.81
304.051	266.81
304.281	271.81
304.511	263.81
304.741	279.81
304.971	272.81
305.201	270.81
305.431	284.81
305.661	296.81
305.891	270.81
306.121	274.81
306.352	292.81
306.582	274.81
306.812	259.81
307.042	295.81
307.272	282.81
307.502	273.81
307.731	273.81
307.961	272.81
308.191	274.81
308.421	273.81
308.651	273.81
308.881	282.81
309.111	267.81
309.341	278.81
309.571	275.81
309.8	286.81
310.03	284.81
310.26	300.81
310.49	301.81
310.72	295.81
310.949	302.81
311.179	309.81
311.409	294.81
311.639	298.81
311.868	277.81
312.098	304.81
312.328	273.81
312.557	309.81
312.787	317.81
313.017	301.81
313.246	296.81
313.476	297.81
313.706	295.81
313.935	309.81
314.165	302.81
314.394	311.81
314.624	307.81
314.853	310.81
315.083	309.81
315.312	296.81
315.542	288.81
315.771	280.81
316.001	289.81
316.23	289.81
316.46	303.81
316.689	298.81
316.919	290.81
317.148	311.81
317.377	299.81
317.607	303.81
317.836	299.81
318.065	311.81
318.295	305.81
318.524	287.81
318.753	287.81
318.983	297.81
319.212	325.81
319.441	312.81
319.67	297.81
319.9	300.81
320.129	307.81
320.358	288.81
320.587	301.81
320.816	308.81
321.046	290.81
321.275	291.81
321.504	293.81
321.733	296.81
321.962	311.81
322.191	333.81
322.42	310.81
322.649	320.81
322.878	324.81
323.108	313.81
323.337	335.81
323.566	339.81
323.795	351.81
324.024	359.81
324.253	413.81
324.482	555.81
324.71	730.81
324.939	953.81
325.168	801.81
325.397	473.81
325.626	383.81
325.855	352.81
326.084	341.81
326.313	350.81
326.542	354.81
326.77	369.81
326.999	419.81
327.228	517.81
327.457	673.81
327.686	730.81
327.914	530.81
328.143	414.81
328.372	386.81
328.6	376.81
328.829	385.81
329.058	359.81
329.287	390.81
329.515	387.81
329.744	348.81
329.972	348.81
330.201	370.81
330.43	393.81
330.658	387.81
330.887	383.81
331.115	385.81
331.344	378.81
331.572	342.81
331.801	366.81
332.03	374.81
332.258	358.81
332.486	365.81
332.715	362.81
332.943	382.81
333.172	369.81
333.4	379.81
333.629	385.81
333.857	401.81
334.085	393.81
334.314	406.81
334.542	404.81
334.771	416.81
334.999	401.81
335.227	374.81
335.455	373.81
335.684	370.81
335.912	387.81
336.14	357.81
336.369	364.81
336.597	374.81
336.825	332.81
337.053	365.81
337.281	353.81
337.51	338.81
337.738	343.81
337.966	360.81
338.194	339.81
338.422	342.81
338.65	339.81
338.878	334.81
339.106	348.81
339.334	335.81
339.562	336.81
339.79	344.81
340.018	362.81
340.246	338.81
340.474	350.81
340.702	334.81
340.93	344.81
341.158	331.81
341.386	324.81
341.614	348.81
341.842	346.81
342.07	334.81
342.298	318.81
342.526	321.81
342.754	332.81
342.981	327.81
343.209	323.81
343.437	337.81
343.665	339.81
343.893	369.81
344.12	373.81
344.348	355.81
344.576	346.81
344.804	345.81
345.031	350.81
345.259	322.81
345.487	338.81
345.714	329.81
345.942	309.81
346.17	325.81
346.397	325.81
346.625	301.81
346.853	323.81
347.08	295.81
347.308	318.81
347.535	329.81
347.763	307.81
347.99	301.81
348.218	316.81
348.445	335.81
348.673	310.81
348.9	311.81
349.128	321.81
349.355	326.81
349.583	301.81
349.81	305.81
350.037	330.81
350.265	301.81
350.492	299.81
350.72	301.81
350.947	290.81
351.174	305.81
351.402	327.81
351.629	311.81
351.856	319.81
352.083	326.81
352.311	310.81
352.538	320.81
352.765	327.81
352.992	330.81
353.22	326.81
353.447	315.81
353.674	323.81
353.901	312.81
354.128	305.81
354.355	295.81
354.583	297.81
354.81	299.81
355.037	298.81
355.264	312.81
355.491	313.81
355.718	310.81
355.945	302.81
356.172	321.81
356.399	293.81
356.626	311.81
356.853	301.81
357.08	311.81
357.307	283.81
357.534	306.81
357.761	291.81
357.988	299.81
358.215	313.81
358.441	313.81
358.668	311.81
358.895	311.81
359.122	280.81
359.349	303.81
359.576	320.81
359.802	318.81
360.029	327.81
360.256	322.81
360.483	322.81
360.709	311.81
360.936	319.81
361.163	314.81
361.39	327.81
361.616	307.81
361.843	317.81
362.07	317.81
362.296	325.81
362.523	317.81
362.749	317.81
362.976	306.81
363.203	308.81
363.429	285.81
363.656	317.81
363.882	316.81
364.109	313.81
364.335	321.81
364.562	328.81
364.788	325.81
365.015	304.81
365.241	323.81
365.468	321.81
365.694	318.81
365.92	309.81
366.147	305.81
366.373	294.81
366.599	305.81
366.826	283.81
367.052	293.81
367.278	299.81
367.505	311.81
367.731	343.81
367.957	301.81
368.184	297.81
368.41	306.81
368.636	328.81
368.862	311.81
369.089	301.81
369.315	313.81
369.541	314.81
369.767	315.81
369.993	301.81
370.219	313.81
370.445	317.81
370.672	316.81
370.898	295.81
371.124	309.81
371.35	305.81
371.576	316.81
371.802	331.81
372.028	314.81
372.254	302.81
372.48	302.81
372.706	299.81
372.932	317.81
373.158	313.81
373.384	314.81
373.61	311.81
373.835	318.81
374.061	313.81
374.287	318.81
374.513	301.81
374.739	316.81
374.965	321.81
375.191	333.81
375.416	331.81
375.642	330.81
375.868	320.81
376.094	319.81
376.319	324.81
376.545	324.81
376.771	311.81
376.997	305.81
377.222	313.81
377.448	319.81
377.674	324.81
377.899	319.81
378.125	329.81
378.35	319.81
378.576	311.81
378.802	319.81
379.027	315.81
379.253	314.81
379.478	303.81
379.704	302.81
379.929	333.81
380.155	316.81
380.38	310.81
380.606	317.81
380.831	311.81
381.057	325.81
381.282	317.81
381.507	322.81
381.733	302.81
381.958	327.81
382.184	319.81
382.409	311.81
382.634	310.81
382.86	346.81
383.085	323.81
383.31	339.81
383.535	338.81
383.761	322.81
383.986	331.81
384.211	332.81
384.436	352.81
384.662	339.81
384.887	347.81
385.112	341.81
385.337	337.81
385.562	359.81
385.787	347.81
386.013	355.81
386.238	352.81
386.463	352.81
386.688	353.81
386.913	365.81
387.138	354.81
387.363	354.81
387.588	349.81
387.813	351.81
388.038	352.81
388.263	347.81
388.488	343.81
388.713	361.81
388.938	329.81
389.163	335.81
389.387	375.81
389.612	350.81
389.837	347.81
390.062	343.81
390.287	340.81
390.512	337.81
390.736	347.81
390.961	338.81
391.186	357.81
391.411	366.81
391.636	366.81
391.86	380.81
392.085	387.81
392.31	378.81
392.534	359.81
392.759	381.81
392.984	350.81
393.208	361.81
393.433	361.81
393.658	363.81
393.882	363.81
394.107	357.81
394.331	345.81
394.556	344.81
394.78	351.81
395.005	346.81
395.229	355.81
395.454	371.81
395.678	367.81
395.903	377.81
396.127	385.81
396.352	383.81
396.576	368.81
396.801	369.81
397.025	361.81
397.249	356.81
397.474	374.81
397.698	411.81
397.922	379.81
398.147	392.81
398.371	405.81
398.595	400.81
398.82	411.81
399.044	405.81
399.268	447.81
399.492	495.81
399.717	537.81
399.941	523.81
400.165	534.81
400.389	481.81
400.613	445.81
400.837	424.81
401.062	418.81
401.286	419.81
401.51	402.81
401.734	425.81
401.958	427.81
402.182	421.81
402.406	403.81
402.63	430.81
402.854	425.81
403.078	417.81
403.302	431.81
403.526	433.81
403.75	429.81
403.974	427.81
404.198	440.81
404.422	426.81
404.645	434.81
404.869	442.81
405.093	455.81
405.317	492.81
405.541	494.81
405.765	447.81
405.988	444.81
406.212	434.81
406.436	449.81
406.66	461.81
406.883	459.81
407.107	484.81
407.331	493.81
407.555	534.81
407.778	521.81
408.002	513.81
408.226	466.81
408.449	471.81
408.673	463.81
408.896	477.81
409.12	481.81
409.344	465.81
409.567	415.81
409.791	427.81
410.014	413.81
410.238	412.81
410.461	418.81
410.685	418.81
410.908	412.81
411.132	432.81
411.355	431.81
411.578	409.81
411.802	415.81
412.025	412.81
412.249	425.81
412.472	433.81
412.695	446.81
412.919	457.81
413.142	444.81
413.365	407.81
413.589	425.81
413.812	395.81
414.035	408.81
414.258	399.81
414.482	389.81
414.705	417.81
414.928	417.81
415.151	395.81
415.374	417.81
415.597	417.81
415.821	386.81
416.044	407.81
416.267	396.81
416.49	391.81
416.713	391.81
416.936	420.81
417.159	403.81
417.382	399.81
417.605	402.81
417.828	397.81
418.051	411.81
418.274	425.81
418.497	387.81
418.72	393.81
418.943	414.81
419.166	411.81
419.389	451.81
419.611	431.81
419.834	411.81
420.057	426.81
420.28	411.81
420.503	427.81
420.726	415.81
420.948	411.81
421.171	434.81
421.394	449.81
421.617	407.81
421.839	408.81
422.062	414.81
422.285	444.81
422.507	462.81
422.73	484.81
422.953	482.81
423.175	431.81
423.398	429.81
423.621	445.81
423.843	431.81
424.066	439.81
424.288	438.81
424.511	439.81
424.733	465.81
424.956	501.81
425.178	476.81
425.401	475.81
425.623	491.81
425.846	446.81
426.068	403.81
426.291	410.81
426.513	409.81
426.735	408.81
426.958	447.81
427.18	462.81
427.402	525.81
427.625	583.81
427.847	482.81
428.069	430.81
428.292	435.81
428.514	406.81
428.736	392.81
428.958	380.81
429.181	377.81
429.403	379.81
429.625	389.81
429.847	385.81
430.069	410.81
430.292	426.81
430.514	394.81
430.736	379.81
430.958	384.81
431.18	359.81
431.402	369.81
431.624	379.81
431.846	403.81
432.068	378.81
432.29	385.81
432.512	382.81
432.734	367.81
432.956	369.81
433.178	381.81
433.4	375.81
433.622	354.81
433.844	373.81
434.066	380.81
434.287	407.81
434.509	398.81
434.731	400.81
434.953	384.81
435.175	389.81
435.397	411.81
435.618	426.81
435.84	440.81
436.062	441.81
436.284	491.81
436.505	434.81
436.727	401.81
436.949	383.81
437.17	380.81
437.392	381.81
437.614	411.81
437.835	401.81
438.057	446.81
438.278	482.81
438.5	498.81
438.721	475.81
438.943	478.81
439.165	413.81
439.386	414.81
439.608	411.81
439.829	417.81
440.05	420.81
440.272	418.81
440.493	427.81
440.715	409.81
440.936	404.81
441.158	395.81
441.379	400.81
441.6	416.81
441.822	427.81
442.043	441.81
442.264	504.81
442.486	487.81
442.707	444.81
442.928	413.81
443.149	416.81
443.371	443.81
443.592	454.81
443.813	505.81
444.034	546.81
444.255	475.81
444.476	461.81
444.698	452.81
444.919	463.81
445.14	523.81
445.361	494.81
445.582	428.81
445.803	458.81
446.024	519.81
446.245	518.81
446.466	465.81
446.687	425.81
446.908	401.81
447.129	415.81
447.35	401.81
447.571	376.81
447.792	378.81
448.013	387.81
448.234	381.81
448.455	423.81
448.675	459.81
448.896	512.81
449.117	437.81
449.338	457.81
449.559	481.81
449.779	547.81
450	437.81
450.221	377.81
450.442	369.81
450.662	373.81
450.883	358.81
451.104	395.81
451.324	381.81
451.545	368.81
451.766	367.81
451.986	354.81
452.207	346.81
452.428	342.81
452.648	342.81
452.869	343.81
453.089	368.81
453.31	362.81
453.53	366.81
453.751	342.81
453.971	334.81
454.192	363.81
454.412	359.81
454.633	335.81
454.853	342.81
455.073	345.81
455.294	349.81
455.514	403.81
455.734	375.81
455.955	338.81
456.175	325.81
456.395	326.81
456.616	323.81
456.836	311.81
457.056	321.81
457.276	309.81
457.497	339.81
457.717	337.81
457.937	331.81
458.157	348.81
458.377	345.81
458.598	346.81
458.818	387.81
459.038	411.81
459.258	428.81
459.478	393.81
459.698	369.81
459.918	385.81
460.138	396.81
460.358	413.81
460.578	401.81
460.798	400.81
461.018	416.81
461.238	419.81
461.458	394.81
461.678	386.81
461.898	414.81
462.118	419.81
462.338	428.81
462.558	418.81
462.777	434.81
462.997	451.81
463.217	477.81
463.437	456.81
463.657	449.81
463.876	457.81
464.096	448.81
464.316	462.81
464.536	433.81
464.755	423.81
464.975	443.81
465.195	437.81
465.414	440.81
465.634	419.81
465.854	387.81
466.073	394.81
466.293	380.81
466.512	362.81
466.732	373.81
466.951	389.81
467.171	370.81
467.391	377.81
467.61	361.81
467.829	358.81
468.049	366.81
468.268	347.81
468.488	354.81
468.707	351.81
468.927	340.81
469.146	376.81
469.365	357.81
469.585	374.81
469.804	363.81
470.023	381.81
470.243	381.81
470.462	374.81
470.681	392.81
470.901	390.81
471.12	368.81
471.339	385.81
471.558	366.81
471.777	375.81
471.997	379.81
472.216	387.81
472.435	400.81
472.654	379.81
472.873	367.81
473.092	361.81
473.311	369.81
473.53	359.81
473.749	357.81
473.968	383.81
474.187	415.81
474.406	433.81
474.625	387.81
474.844	385.81
475.063	363.81
475.282	380.81
475.501	352.81
475.72	366.81
475.939	372.81
476.158	379.81
476.377	359.81
476.596	376.81
476.814	389.81
477.033	375.81
477.252	389.81
477.471	388.81
477.69	395.81
477.908	403.81
478.127	416.81
478.346	415.81
478.564	390.81
478.783	407.81
479.002	423.81
479.22	427.81
479.439	430.81
479.658	427.81
479.876	420.81
480.095	441.81
480.313	447.81
480.532	442.81
480.751	452.81
480.969	449.81
481.188	485.81
481.406	492.81
481.624	443.81
481.843	419.81
482.061	424.81
482.28	416.81
482.498	398.81
482.717	403.81
482.935	426.81
483.153	418.81
483.372	409.81
483.59	423.81
483.808	413.81
484.027	419.81
484.245	413.81
484.463	414.81
484.681	418.81
484.9	414.81
485.118	417.81
485.336	437.81
485.554	447.81
485.772	433.81
485.99	440.81
486.209	415.81
486.427	432.81
486.645	437.81
486.863	424.81
487.081	441.81
487.299	429.81
487.517	437.81
487.735	457.81
487.953	440.81
488.171	427.81
488.389	445.81
488.607	415.81
488.825	443.81
489.043	444.81
489.261	441.81
489.479	466.81
489.696	473.81
489.914	446.81
490.132	447.81
490.35	461.81
490.568	454.81
490.786	450.81
491.003	479.81
491.221	466.81
491.439	486.81
491.657	463.81
491.874	483.81
492.092	474.81
492.31	481.81
492.527	502.81
492.745	493.81
492.963	494.81
493.18	499.81
493.398	504.81
493.615	486.81
493.833	513.81
494.05	525.81
494.268	502.81
494.485	529.81
494.703	497.81
494.92	507.81
495.138	523.81
495.355	486.81
495.573	497.81
495.79	505.81
496.008	511.81
496.225	505.81
496.442	517.81
496.66	517.81
496.877	502.81
497.094	525.81
497.312	521.81
497.529	527.81
497.746	555.81
497.963	546.81
498.181	552.81
498.398	565.81
498.615	607.81
498.832	604.81
499.049	640.81
499.267	679.81
499.484	731.81
499.701	761.81
499.918	767.81
500.135	859.81
500.352	924.81
500.569	921.81
500.786	949.81
501.003	865.81
501.22	826.81
501.437	806.81
501.654	750.81
501.871	719.81
502.088	675.81
502.305	631.81
