Data from 1969.PennyLincolnUp.Lamp.En5.5.200Scan.071719.P1._HRD10591_14-57-03-973.txt Node
Date: Thu Jul 18 14:57:03 EDT 2019
User: cochatt
Spectrometer: HR+D1059
Trigger mode: 1
Integration Time (sec): 1.000000E-1
Scans to average: 1
Electric dark correction enabled: true
Nonlinearity correction enabled: false
Boxcar width: 0
XAxis mode: Wavelengths
Number of Pixels in Spectrum: 2048
>>>>>Begin Spectral Data<<<<<
223.165	-15.5
223.4	-15.5
223.635	-15.5
223.869	-7.5
224.104	-29.5
224.338	-11.5
224.573	-28.5
224.808	-5.5
225.042	6.5
225.277	-5.5
225.511	-6.5
225.746	16.5
225.98	1.5
226.215	7.5
226.449	5.5
226.683	18.5
226.918	26.5
227.152	27.5
227.387	23.5
227.621	38.5
227.856	54.5
228.09	45.5
228.324	55.5
228.559	51.5
228.793	55.5
229.027	71.5
229.262	87.5
229.496	111.5
229.73	121.5
229.964	124.5
230.199	105.5
230.433	100.5
230.667	124.5
230.901	102.5
231.136	94.5
231.37	97.5
231.604	103.5
231.838	92.5
232.072	98.5
232.306	107.5
232.541	108.5
232.775	92.5
233.009	99.5
233.243	115.5
233.477	95.5
233.711	105.5
233.945	105.5
234.179	101.5
234.413	118.5
234.647	85.5
234.881	116.5
235.115	107.5
235.349	116.5
235.583	123.5
235.817	110.5
236.051	119.5
236.285	102.5
236.519	106.5
236.753	118.5
236.987	124.5
237.221	146.5
237.455	181.5
237.689	149.5
237.922	135.5
238.156	127.5
238.39	106.5
238.624	125.5
238.858	115.5
239.091	115.5
239.325	96.5
239.559	117.5
239.793	103.5
240.027	123.5
240.26	141.5
240.494	131.5
240.728	148.5
240.961	116.5
241.195	124.5
241.429	120.5
241.662	124.5
241.896	119.5
242.13	115.5
242.363	133.5
242.597	120.5
242.83	110.5
243.064	116.5
243.298	119.5
243.531	130.5
243.765	132.5
243.998	137.5
244.232	134.5
244.465	135.5
244.699	123.5
244.932	127.5
245.166	133.5
245.399	134.5
245.633	136.5
245.866	141.5
246.099	138.5
246.333	139.5
246.566	136.5
246.8	128.5
247.033	148.5
247.266	138.5
247.5	143.5
247.733	135.5
247.966	166.5
248.2	145.5
248.433	153.5
248.666	172.5
248.899	163.5
249.133	183.5
249.366	177.5
249.599	178.5
249.832	158.5
250.066	163.5
250.299	156.5
250.532	170.5
250.765	167.5
250.998	177.5
251.231	189.5
251.465	180.5
251.698	162.5
251.931	179.5
252.164	174.5
252.397	166.5
252.63	178.5
252.863	187.5
253.096	185.5
253.329	188.5
253.562	194.5
253.795	178.5
254.028	188.5
254.261	199.5
254.494	194.5
254.727	224.5
254.96	236.5
255.193	214.5
255.426	204.5
255.659	193.5
255.892	184.5
256.124	203.5
256.357	198.5
256.59	200.5
256.823	182.5
257.056	172.5
257.289	167.5
257.521	176.5
257.754	179.5
257.987	173.5
258.22	181.5
258.452	181.5
258.685	178.5
258.918	177.5
259.151	183.5
259.383	194.5
259.616	181.5
259.849	189.5
260.081	189.5
260.314	216.5
260.547	222.5
260.779	204.5
261.012	201.5
261.244	190.5
261.477	193.5
261.71	204.5
261.942	189.5
262.175	197.5
262.407	197.5
262.64	187.5
262.872	185.5
263.105	178.5
263.337	199.5
263.57	172.5
263.802	179.5
264.035	178.5
264.267	185.5
264.499	193.5
264.732	173.5
264.964	182.5
265.197	169.5
265.429	181.5
265.661	190.5
265.894	192.5
266.126	183.5
266.358	177.5
266.591	199.5
266.823	189.5
267.055	186.5
267.287	203.5
267.52	181.5
267.752	199.5
267.984	200.5
268.216	198.5
268.448	215.5
268.681	195.5
268.913	216.5
269.145	221.5
269.377	244.5
269.609	227.5
269.841	223.5
270.073	243.5
270.306	244.5
270.538	258.5
270.77	274.5
271.002	254.5
271.234	245.5
271.466	251.5
271.698	262.5
271.93	269.5
272.162	271.5
272.394	279.5
272.626	242.5
272.858	235.5
273.09	235.5
273.322	232.5
273.553	242.5
273.785	238.5
274.017	241.5
274.249	225.5
274.481	244.5
274.713	232.5
274.945	223.5
275.176	240.5
275.408	236.5
275.64	246.5
275.872	232.5
276.104	235.5
276.335	248.5
276.567	228.5
276.799	246.5
277.031	271.5
277.262	279.5
277.494	260.5
277.726	251.5
277.957	254.5
278.189	253.5
278.421	235.5
278.652	255.5
278.884	235.5
279.115	243.5
279.347	238.5
279.579	237.5
279.81	241.5
280.042	216.5
280.273	225.5
280.505	231.5
280.736	229.5
280.968	234.5
281.199	246.5
281.431	230.5
281.662	261.5
281.894	234.5
282.125	228.5
282.356	253.5
282.588	268.5
282.819	266.5
283.051	259.5
283.282	247.5
283.513	247.5
283.745	249.5
283.976	265.5
284.207	249.5
284.439	256.5
284.67	251.5
284.901	262.5
285.132	260.5
285.364	235.5
285.595	261.5
285.826	268.5
286.057	263.5
286.288	262.5
286.52	247.5
286.751	255.5
286.982	257.5
287.213	261.5
287.444	264.5
287.675	263.5
287.906	283.5
288.138	291.5
288.369	267.5
288.6	279.5
288.831	280.5
289.062	267.5
289.293	257.5
289.524	257.5
289.755	276.5
289.986	248.5
290.217	262.5
290.448	252.5
290.679	267.5
290.91	249.5
291.141	254.5
291.371	272.5
291.602	255.5
291.833	262.5
292.064	243.5
292.295	269.5
292.526	272.5
292.757	275.5
292.987	259.5
293.218	244.5
293.449	289.5
293.68	267.5
293.91	267.5
294.141	295.5
294.372	252.5
294.603	262.5
294.833	269.5
295.064	257.5
295.295	249.5
295.525	267.5
295.756	266.5
295.987	268.5
296.217	266.5
296.448	289.5
296.679	274.5
296.909	267.5
297.14	257.5
297.37	270.5
297.601	271.5
297.831	270.5
298.062	271.5
298.292	281.5
298.523	278.5
298.753	289.5
298.984	282.5
299.214	296.5
299.445	291.5
299.675	272.5
299.905	266.5
300.136	281.5
300.366	283.5
300.597	294.5
300.827	287.5
301.057	289.5
301.288	297.5
301.518	315.5
301.748	293.5
301.979	301.5
302.209	299.5
302.439	319.5
302.669	308.5
302.9	307.5
303.13	303.5
303.36	295.5
303.59	297.5
303.82	294.5
304.051	295.5
304.281	290.5
304.511	296.5
304.741	284.5
304.971	307.5
305.201	299.5
305.431	270.5
305.661	303.5
305.891	307.5
306.121	307.5
306.352	298.5
306.582	307.5
306.812	296.5
307.042	301.5
307.272	277.5
307.502	291.5
307.731	299.5
307.961	292.5
308.191	302.5
308.421	298.5
308.651	308.5
308.881	295.5
309.111	300.5
309.341	296.5
309.571	318.5
309.8	319.5
310.03	323.5
310.26	317.5
310.49	315.5
310.72	313.5
310.949	325.5
311.179	338.5
311.409	335.5
311.639	324.5
311.868	324.5
312.098	325.5
312.328	335.5
312.557	333.5
312.787	344.5
313.017	328.5
313.246	336.5
313.476	330.5
313.706	321.5
313.935	328.5
314.165	345.5
314.394	335.5
314.624	322.5
314.853	337.5
315.083	334.5
315.312	322.5
315.542	322.5
315.771	330.5
316.001	306.5
316.23	334.5
316.46	318.5
316.689	322.5
316.919	327.5
317.148	350.5
317.377	336.5
317.607	337.5
317.836	315.5
318.065	334.5
318.295	327.5
318.524	315.5
318.753	320.5
318.983	326.5
319.212	311.5
319.441	320.5
319.67	340.5
319.9	314.5
320.129	335.5
320.358	345.5
320.587	339.5
320.816	332.5
321.046	323.5
321.275	338.5
321.504	358.5
321.733	336.5
321.962	340.5
322.191	356.5
322.42	345.5
322.649	353.5
322.878	362.5
323.108	366.5
323.337	394.5
323.566	394.5
323.795	387.5
324.024	441.5
324.253	477.5
324.482	694.5
324.71	945.5
324.939	1266.5
325.168	1061.5
325.397	606.5
325.626	465.5
325.855	418.5
326.084	398.5
326.313	384.5
326.542	405.5
326.77	431.5
326.999	477.5
327.228	620.5
327.457	876.5
327.686	960.5
327.914	682.5
328.143	511.5
328.372	479.5
328.6	439.5
328.829	450.5
329.058	439.5
329.287	451.5
329.515	435.5
329.744	401.5
329.972	415.5
330.201	392.5
330.43	454.5
330.658	468.5
330.887	479.5
331.115	485.5
331.344	440.5
331.572	403.5
331.801	417.5
332.03	405.5
332.258	410.5
332.486	398.5
332.715	399.5
332.943	409.5
333.172	418.5
333.4	433.5
333.629	445.5
333.857	445.5
334.085	449.5
334.314	462.5
334.542	493.5
334.771	469.5
334.999	428.5
335.227	425.5
335.455	420.5
335.684	392.5
335.912	394.5
336.14	388.5
336.369	395.5
336.597	380.5
336.825	377.5
337.053	385.5
337.281	397.5
337.51	380.5
337.738	368.5
337.966	387.5
338.194	395.5
338.422	373.5
338.65	379.5
338.878	381.5
339.106	355.5
339.334	375.5
339.562	388.5
339.79	366.5
340.018	364.5
340.246	372.5
340.474	374.5
340.702	381.5
340.93	378.5
341.158	358.5
341.386	386.5
341.614	369.5
341.842	356.5
342.07	365.5
342.298	372.5
342.526	362.5
342.754	355.5
342.981	349.5
343.209	332.5
343.437	361.5
343.665	397.5
343.893	395.5
344.12	379.5
344.348	373.5
344.576	363.5
344.804	367.5
345.031	385.5
345.259	389.5
345.487	372.5
345.714	359.5
345.942	365.5
346.17	350.5
346.397	348.5
346.625	362.5
346.853	360.5
347.08	345.5
347.308	334.5
347.535	355.5
347.763	349.5
347.99	359.5
348.218	372.5
348.445	363.5
348.673	374.5
348.9	335.5
349.128	349.5
349.355	354.5
349.583	344.5
349.81	341.5
350.037	343.5
350.265	340.5
350.492	335.5
350.72	340.5
350.947	357.5
351.174	343.5
351.402	364.5
351.629	331.5
351.856	360.5
352.083	369.5
352.311	357.5
352.538	334.5
352.765	367.5
352.992	338.5
353.22	337.5
353.447	341.5
353.674	346.5
353.901	321.5
354.128	335.5
354.355	328.5
354.583	318.5
354.81	330.5
355.037	339.5
355.264	344.5
355.491	323.5
355.718	318.5
355.945	335.5
356.172	338.5
356.399	323.5
356.626	342.5
356.853	335.5
357.08	330.5
357.307	333.5
357.534	335.5
357.761	324.5
357.988	327.5
358.215	353.5
358.441	327.5
358.668	334.5
358.895	335.5
359.122	347.5
359.349	340.5
359.576	349.5
359.802	380.5
360.029	365.5
360.256	371.5
360.483	357.5
360.709	348.5
360.936	350.5
361.163	346.5
361.39	348.5
361.616	349.5
361.843	338.5
362.07	345.5
362.296	343.5
362.523	340.5
362.749	353.5
362.976	324.5
363.203	329.5
363.429	353.5
363.656	332.5
363.882	338.5
364.109	321.5
364.335	347.5
364.562	334.5
364.788	307.5
365.015	341.5
365.241	339.5
365.468	346.5
365.694	345.5
365.92	342.5
366.147	326.5
366.373	323.5
366.599	324.5
366.826	318.5
367.052	318.5
367.278	335.5
367.505	330.5
367.731	333.5
367.957	333.5
368.184	318.5
368.41	339.5
368.636	315.5
368.862	343.5
369.089	328.5
369.315	340.5
369.541	338.5
369.767	334.5
369.993	339.5
370.219	329.5
370.445	344.5
370.672	338.5
370.898	342.5
371.124	324.5
371.35	350.5
371.576	343.5
371.802	318.5
372.028	329.5
372.254	359.5
372.48	345.5
372.706	347.5
372.932	357.5
373.158	363.5
373.384	353.5
373.61	336.5
373.835	344.5
374.061	340.5
374.287	339.5
374.513	350.5
374.739	325.5
374.965	355.5
375.191	359.5
375.416	358.5
375.642	342.5
375.868	346.5
376.094	335.5
376.319	330.5
376.545	330.5
376.771	320.5
376.997	341.5
377.222	312.5
377.448	333.5
377.674	314.5
377.899	325.5
378.125	331.5
378.35	330.5
378.576	331.5
378.802	338.5
379.027	339.5
379.253	345.5
379.478	309.5
379.704	324.5
379.929	330.5
380.155	345.5
380.38	350.5
380.606	347.5
380.831	323.5
381.057	344.5
381.282	326.5
381.507	337.5
381.733	337.5
381.958	339.5
382.184	361.5
382.409	336.5
382.634	335.5
382.86	351.5
383.085	362.5
383.31	331.5
383.535	345.5
383.761	371.5
383.986	360.5
384.211	366.5
384.436	377.5
384.662	359.5
384.887	385.5
385.112	381.5
385.337	383.5
385.562	389.5
385.787	391.5
386.013	395.5
386.238	355.5
386.463	381.5
386.688	365.5
386.913	387.5
387.138	381.5
387.363	395.5
387.588	375.5
387.813	387.5
388.038	364.5
388.263	365.5
388.488	389.5
388.713	374.5
388.938	385.5
389.163	368.5
389.387	369.5
389.612	365.5
389.837	380.5
390.062	358.5
390.287	368.5
390.512	359.5
390.736	367.5
390.961	395.5
391.186	371.5
391.411	375.5
391.636	386.5
391.86	400.5
392.085	399.5
392.31	402.5
392.534	405.5
392.759	387.5
392.984	385.5
393.208	372.5
393.433	390.5
393.658	378.5
393.882	369.5
394.107	374.5
394.331	391.5
394.556	392.5
394.78	382.5
395.005	376.5
395.229	386.5
395.454	401.5
395.678	406.5
395.903	386.5
396.127	410.5
396.352	414.5
396.576	395.5
396.801	394.5
397.025	400.5
397.249	384.5
397.474	410.5
397.698	401.5
397.922	412.5
398.147	429.5
398.371	422.5
398.595	425.5
398.82	429.5
399.044	452.5
399.268	482.5
399.492	524.5
399.717	566.5
399.941	565.5
400.165	574.5
400.389	535.5
400.613	480.5
400.837	486.5
401.062	455.5
401.286	420.5
401.51	450.5
401.734	421.5
401.958	441.5
402.182	432.5
402.406	463.5
402.63	461.5
402.854	458.5
403.078	454.5
403.302	473.5
403.526	457.5
403.75	467.5
403.974	478.5
404.198	471.5
404.422	477.5
404.645	475.5
404.869	492.5
405.093	486.5
405.317	515.5
405.541	533.5
405.765	495.5
405.988	492.5
406.212	482.5
406.436	506.5
406.66	508.5
406.883	505.5
407.107	519.5
407.331	557.5
407.555	575.5
407.778	609.5
408.002	553.5
408.226	485.5
408.449	504.5
408.673	505.5
408.896	519.5
409.12	533.5
409.344	519.5
409.567	461.5
409.791	470.5
410.014	464.5
410.238	469.5
410.461	476.5
410.685	454.5
410.908	473.5
411.132	455.5
411.355	513.5
411.578	478.5
411.802	477.5
412.025	457.5
412.249	461.5
412.472	502.5
412.695	498.5
412.919	494.5
413.142	475.5
413.365	467.5
413.589	448.5
413.812	445.5
414.035	448.5
414.258	413.5
414.482	428.5
414.705	424.5
414.928	429.5
415.151	440.5
415.374	446.5
415.597	424.5
415.821	419.5
416.044	438.5
416.267	430.5
416.49	446.5
416.713	425.5
416.936	422.5
417.159	438.5
417.382	425.5
417.605	437.5
417.828	427.5
418.051	431.5
418.274	441.5
418.497	422.5
418.72	438.5
418.943	438.5
419.166	457.5
419.389	457.5
419.611	476.5
419.834	452.5
420.057	464.5
420.28	429.5
420.503	451.5
420.726	443.5
420.948	461.5
421.171	471.5
421.394	491.5
421.617	433.5
421.839	433.5
422.062	442.5
422.285	461.5
422.507	473.5
422.73	527.5
422.953	518.5
423.175	489.5
423.398	444.5
423.621	480.5
423.843	491.5
424.066	481.5
424.288	474.5
424.511	490.5
424.733	500.5
424.956	556.5
425.178	526.5
425.401	556.5
425.623	542.5
425.846	485.5
426.068	476.5
426.291	449.5
426.513	442.5
426.735	439.5
426.958	486.5
427.18	523.5
427.402	593.5
427.625	627.5
427.847	555.5
428.069	508.5
428.292	482.5
428.514	452.5
428.736	434.5
428.958	425.5
429.181	410.5
429.403	414.5
429.625	431.5
429.847	435.5
430.069	489.5
430.292	471.5
430.514	436.5
430.736	405.5
430.958	411.5
431.18	406.5
431.402	397.5
431.624	414.5
431.846	404.5
432.068	411.5
432.29	413.5
432.512	404.5
432.734	407.5
432.956	413.5
433.178	410.5
433.4	435.5
433.622	419.5
433.844	412.5
434.066	389.5
434.287	404.5
434.509	418.5
434.731	434.5
434.953	458.5
435.175	468.5
435.397	451.5
435.618	459.5
435.84	455.5
436.062	532.5
436.284	561.5
436.505	482.5
436.727	454.5
436.949	428.5
437.17	422.5
437.392	417.5
437.614	433.5
437.835	442.5
438.057	486.5
438.278	543.5
438.5	561.5
438.721	602.5
438.943	569.5
439.165	489.5
439.386	437.5
439.608	451.5
439.829	451.5
440.05	458.5
440.272	487.5
440.493	475.5
440.715	435.5
440.936	430.5
441.158	440.5
441.379	438.5
441.6	446.5
441.822	449.5
442.043	487.5
442.264	541.5
442.486	566.5
442.707	492.5
442.928	469.5
443.149	478.5
443.371	488.5
443.592	508.5
443.813	566.5
444.034	597.5
444.255	526.5
444.476	487.5
444.698	491.5
444.919	490.5
445.14	579.5
445.361	508.5
445.582	477.5
445.803	538.5
446.024	595.5
446.245	571.5
446.466	526.5
446.687	463.5
446.908	448.5
447.129	403.5
447.35	435.5
447.571	411.5
447.792	425.5
448.013	414.5
448.234	423.5
448.455	462.5
448.675	540.5
448.896	589.5
449.117	514.5
449.338	460.5
449.559	556.5
449.779	608.5
450	510.5
450.221	421.5
450.442	419.5
450.662	406.5
450.883	433.5
451.104	394.5
451.324	402.5
451.545	390.5
451.766	399.5
451.986	393.5
452.207	360.5
452.428	367.5
452.648	381.5
452.869	390.5
453.089	363.5
453.31	367.5
453.53	372.5
453.751	380.5
453.971	385.5
454.192	399.5
454.412	386.5
454.633	375.5
454.853	379.5
455.073	382.5
455.294	401.5
455.514	427.5
455.734	426.5
455.955	397.5
456.175	357.5
456.395	357.5
456.616	363.5
456.836	353.5
457.056	342.5
457.276	351.5
457.497	354.5
457.717	374.5
457.937	375.5
458.157	375.5
458.377	363.5
458.598	397.5
458.818	430.5
459.038	443.5
459.258	482.5
459.478	432.5
459.698	416.5
459.918	436.5
460.138	426.5
460.358	425.5
460.578	442.5
460.798	431.5
461.018	443.5
461.238	435.5
461.458	444.5
461.678	421.5
461.898	416.5
462.118	433.5
462.338	448.5
462.558	478.5
462.777	466.5
462.997	490.5
463.217	507.5
463.437	515.5
463.657	485.5
463.876	487.5
464.096	486.5
464.316	474.5
464.536	460.5
464.755	486.5
464.975	465.5
465.195	475.5
465.414	511.5
465.634	459.5
465.854	435.5
466.073	429.5
466.293	416.5
466.512	395.5
466.732	396.5
466.951	397.5
467.171	418.5
467.391	405.5
467.61	398.5
467.829	394.5
468.049	408.5
468.268	405.5
468.488	383.5
468.707	385.5
468.927	384.5
469.146	389.5
469.365	393.5
469.585	385.5
469.804	389.5
470.023	397.5
470.243	400.5
470.462	414.5
470.681	411.5
470.901	439.5
471.12	401.5
471.339	402.5
471.558	410.5
471.777	401.5
471.997	396.5
472.216	403.5
472.435	420.5
472.654	404.5
472.873	410.5
473.092	381.5
473.311	396.5
473.53	382.5
473.749	392.5
473.968	421.5
474.187	465.5
474.406	473.5
474.625	414.5
474.844	383.5
475.063	394.5
475.282	406.5
475.501	409.5
475.72	392.5
475.939	398.5
476.158	413.5
476.377	417.5
476.596	406.5
476.814	426.5
477.033	405.5
477.252	413.5
477.471	429.5
477.69	426.5
477.908	423.5
478.127	447.5
478.346	448.5
478.564	434.5
478.783	456.5
479.002	431.5
479.22	455.5
479.439	466.5
479.658	489.5
479.876	480.5
480.095	504.5
480.313	501.5
480.532	488.5
480.751	474.5
480.969	491.5
481.188	526.5
481.406	546.5
481.624	475.5
481.843	451.5
482.061	460.5
482.28	468.5
482.498	469.5
482.717	465.5
482.935	455.5
483.153	450.5
483.372	434.5
483.59	449.5
483.808	450.5
484.027	442.5
484.245	435.5
484.463	453.5
484.681	473.5
484.9	488.5
485.118	457.5
485.336	462.5
485.554	485.5
485.772	449.5
485.99	461.5
486.209	487.5
486.427	469.5
486.645	479.5
486.863	492.5
487.081	477.5
487.299	468.5
487.517	467.5
487.735	477.5
487.953	484.5
488.171	489.5
488.389	493.5
488.607	490.5
488.825	472.5
489.043	470.5
489.261	471.5
489.479	478.5
489.696	483.5
489.914	475.5
490.132	501.5
490.35	493.5
490.568	510.5
490.786	505.5
491.003	515.5
491.221	536.5
491.439	538.5
491.657	549.5
491.874	580.5
492.092	557.5
492.31	548.5
492.527	563.5
492.745	566.5
492.963	572.5
493.18	591.5
493.398	552.5
493.615	567.5
493.833	577.5
494.05	586.5
494.268	585.5
494.485	578.5
494.703	560.5
494.92	557.5
495.138	565.5
495.355	553.5
495.573	579.5
495.79	579.5
496.008	562.5
496.225	549.5
496.442	571.5
496.66	596.5
496.877	582.5
497.094	579.5
497.312	599.5
497.529	587.5
497.746	603.5
497.963	606.5
498.181	658.5
498.398	633.5
498.615	657.5
498.832	670.5
499.049	679.5
499.267	726.5
499.484	767.5
499.701	814.5
499.918	878.5
500.135	934.5
500.352	988.5
500.569	990.5
500.786	1021.5
501.003	963.5
501.22	944.5
501.437	853.5
501.654	823.5
501.871	771.5
502.088	751.5
502.305	697.5
502.522	673.5
502.739	654.5
502.956	647.5
503.172	622.5
503.389	619.5
503.606	603.5
503.823	602.5
504.04	572.5
504.256	588.5
504.473	571.5
504.69	599.5
504.907	602.5
505.123	582.5
505.34	559.5
505.557	551.5
505.773	548.5
505.99	548.5
506.207	549.5
506.423	542.5
506.64	504.5
506.856	515.5
507.073	523.5
507.289	521.5
507.506	490.5
507.722	512.5
507.939	513.5
508.155	506.5
508.372	497.5
508.588	501.5
508.805	471.5
509.021	500.5
509.238	523.5
509.454	516.5
509.67	507.5
509.887	491.5
510.103	484.5
510.319	474.5
510.536	546.5
510.752	830.5
510.968	701.5
511.184	493.5
511.401	473.5
511.617	483.5
511.833	470.5
512.049	464.5
512.265	448.5
512.481	466.5
512.698	461.5
512.914	442.5
513.13	469.5
513.346	465.5
513.562	477.5
513.778	467.5
513.994	458.5
514.21	452.5
514.426	488.5
514.642	513.5
514.858	513.5
515.074	558.5
515.29	633.5
515.506	878.5
515.721	741.5
515.937	553.5
516.153	524.5
516.369	494.5
516.585	493.5
516.801	472.5
517.016	513.5
517.232	521.5
517.448	533.5
517.664	517.5
517.879	534.5
518.095	531.5
518.311	527.5
518.527	502.5
518.742	498.5
518.958	496.5
519.173	469.5
519.389	494.5
519.605	470.5
519.82	466.5
520.036	487.5
