Data from 1969.PennyLincolnUp.Lamp.En5.5.200Scan.071719.P1._HRD10591_14-55-58-972.txt Node
Date: Thu Jul 18 14:55:58 EDT 2019
User: cochatt
Spectrometer: HR+D1059
Trigger mode: 1
Integration Time (sec): 1.000000E-1
Scans to average: 1
Electric dark correction enabled: true
Nonlinearity correction enabled: false
Boxcar width: 0
XAxis mode: Wavelengths
Number of Pixels in Spectrum: 2048
>>>>>Begin Spectral Data<<<<<
223.165	-19.62
223.4	-19.62
223.635	-19.62
223.869	-17.62
224.104	-20.62
224.338	-25.62
224.573	-16.62
224.808	-13.62
225.042	-16.62
225.277	-1.62
225.511	0.38
225.746	2.38
225.98	7.38
226.215	22.38
226.449	11.38
226.683	21.38
226.918	34.38
227.152	32.38
227.387	36.38
227.621	33.38
227.856	43.38
228.09	53.38
228.324	36.38
228.559	50.38
228.793	54.38
229.027	89.38
229.262	94.38
229.496	98.38
229.73	98.38
229.964	122.38
230.199	112.38
230.433	115.38
230.667	105.38
230.901	103.38
231.136	93.38
231.37	103.38
231.604	104.38
231.838	115.38
232.072	123.38
232.306	103.38
232.541	102.38
232.775	104.38
233.009	96.38
233.243	98.38
233.477	102.38
233.711	101.38
233.945	118.38
234.179	122.38
234.413	107.38
234.647	106.38
234.881	101.38
235.115	104.38
235.349	121.38
235.583	107.38
235.817	107.38
236.051	120.38
236.285	100.38
236.519	111.38
236.753	118.38
236.987	124.38
237.221	148.38
237.455	169.38
237.689	154.38
237.922	125.38
238.156	121.38
238.39	128.38
238.624	103.38
238.858	99.38
239.091	104.38
239.325	107.38
239.559	113.38
239.793	120.38
240.027	128.38
240.26	128.38
240.494	131.38
240.728	162.38
240.961	158.38
241.195	126.38
241.429	132.38
241.662	114.38
241.896	134.38
242.13	124.38
242.363	130.38
242.597	127.38
242.83	134.38
243.064	142.38
243.298	131.38
243.531	132.38
243.765	125.38
243.998	131.38
244.232	117.38
244.465	124.38
244.699	127.38
244.932	130.38
245.166	126.38
245.399	137.38
245.633	131.38
245.866	133.38
246.099	130.38
246.333	144.38
246.566	142.38
246.8	142.38
247.033	141.38
247.266	132.38
247.5	139.38
247.733	152.38
247.966	148.38
248.2	145.38
248.433	141.38
248.666	141.38
248.899	167.38
249.133	176.38
249.366	168.38
249.599	178.38
249.832	159.38
250.066	161.38
250.299	163.38
250.532	173.38
250.765	164.38
250.998	194.38
251.231	207.38
251.465	184.38
251.698	173.38
251.931	170.38
252.164	180.38
252.397	181.38
252.63	180.38
252.863	185.38
253.096	185.38
253.329	181.38
253.562	200.38
253.795	178.38
254.028	183.38
254.261	178.38
254.494	197.38
254.727	208.38
254.96	228.38
255.193	223.38
255.426	205.38
255.659	194.38
255.892	194.38
256.124	190.38
256.357	203.38
256.59	186.38
256.823	180.38
257.056	178.38
257.289	196.38
257.521	188.38
257.754	198.38
257.987	208.38
258.22	190.38
258.452	181.38
258.685	191.38
258.918	186.38
259.151	210.38
259.383	194.38
259.616	194.38
259.849	214.38
260.081	213.38
260.314	206.38
260.547	217.38
260.779	202.38
261.012	206.38
261.244	170.38
261.477	192.38
261.71	189.38
261.942	198.38
262.175	197.38
262.407	186.38
262.64	192.38
262.872	182.38
263.105	198.38
263.337	180.38
263.57	184.38
263.802	194.38
264.035	203.38
264.267	201.38
264.499	189.38
264.732	199.38
264.964	201.38
265.197	199.38
265.429	201.38
265.661	190.38
265.894	195.38
266.126	180.38
266.358	185.38
266.591	195.38
266.823	204.38
267.055	205.38
267.287	205.38
267.52	212.38
267.752	204.38
267.984	199.38
268.216	212.38
268.448	213.38
268.681	207.38
268.913	221.38
269.145	221.38
269.377	243.38
269.609	244.38
269.841	236.38
270.073	235.38
270.306	248.38
270.538	262.38
270.77	254.38
271.002	242.38
271.234	249.38
271.466	246.38
271.698	251.38
271.93	264.38
272.162	283.38
272.394	278.38
272.626	275.38
272.858	226.38
273.09	230.38
273.322	223.38
273.553	230.38
273.785	246.38
274.017	211.38
274.249	234.38
274.481	218.38
274.713	248.38
274.945	218.38
275.176	227.38
275.408	230.38
275.64	226.38
275.872	226.38
276.104	256.38
276.335	230.38
276.567	237.38
276.799	253.38
277.031	268.38
277.262	274.38
277.494	278.38
277.726	236.38
277.957	266.38
278.189	254.38
278.421	244.38
278.652	230.38
278.884	258.38
279.115	222.38
279.347	244.38
279.579	232.38
279.81	235.38
280.042	246.38
280.273	238.38
280.505	249.38
280.736	233.38
280.968	243.38
281.199	228.38
281.431	234.38
281.662	260.38
281.894	242.38
282.125	247.38
282.356	254.38
282.588	274.38
282.819	271.38
283.051	256.38
283.282	235.38
283.513	241.38
283.745	246.38
283.976	254.38
284.207	274.38
284.439	250.38
284.67	246.38
284.901	222.38
285.132	256.38
285.364	251.38
285.595	248.38
285.826	263.38
286.057	264.38
286.288	263.38
286.52	282.38
286.751	246.38
286.982	250.38
287.213	258.38
287.444	254.38
287.675	252.38
287.906	262.38
288.138	261.38
288.369	276.38
288.6	262.38
288.831	274.38
289.062	262.38
289.293	255.38
289.524	276.38
289.755	271.38
289.986	276.38
290.217	264.38
290.448	270.38
290.679	256.38
290.91	288.38
291.141	254.38
291.371	252.38
291.602	267.38
291.833	274.38
292.064	242.38
292.295	257.38
292.526	277.38
292.757	278.38
292.987	268.38
293.218	270.38
293.449	275.38
293.68	261.38
293.91	262.38
294.141	266.38
294.372	266.38
294.603	268.38
294.833	278.38
295.064	251.38
295.295	296.38
295.525	258.38
295.756	291.38
295.987	309.38
296.217	285.38
296.448	296.38
296.679	293.38
296.909	266.38
297.14	256.38
297.37	293.38
297.601	283.38
297.831	272.38
298.062	276.38
298.292	282.38
298.523	266.38
298.753	287.38
298.984	281.38
299.214	287.38
299.445	290.38
299.675	302.38
299.905	300.38
300.136	299.38
300.366	293.38
300.597	274.38
300.827	298.38
301.057	312.38
301.288	308.38
301.518	306.38
301.748	295.38
301.979	309.38
302.209	317.38
302.439	298.38
302.669	306.38
302.9	292.38
303.13	306.38
303.36	288.38
303.59	299.38
303.82	307.38
304.051	295.38
304.281	302.38
304.511	293.38
304.741	302.38
304.971	307.38
305.201	300.38
305.431	294.38
305.661	296.38
305.891	286.38
306.121	284.38
306.352	288.38
306.582	296.38
306.812	287.38
307.042	292.38
307.272	300.38
307.502	299.38
307.731	313.38
307.961	308.38
308.191	308.38
308.421	292.38
308.651	311.38
308.881	304.38
309.111	320.38
309.341	317.38
309.571	309.38
309.8	313.38
310.03	319.38
310.26	342.38
310.49	330.38
310.72	348.38
310.949	334.38
311.179	346.38
311.409	330.38
311.639	325.38
311.868	340.38
312.098	329.38
312.328	333.38
312.557	344.38
312.787	334.38
313.017	333.38
313.246	325.38
313.476	326.38
313.706	325.38
313.935	334.38
314.165	326.38
314.394	339.38
314.624	343.38
314.853	336.38
315.083	335.38
315.312	348.38
315.542	322.38
315.771	342.38
316.001	309.38
316.23	326.38
316.46	319.38
316.689	322.38
316.919	339.38
317.148	342.38
317.377	354.38
317.607	330.38
317.836	331.38
318.065	338.38
318.295	339.38
318.524	327.38
318.753	322.38
318.983	334.38
319.212	348.38
319.441	343.38
319.67	339.38
319.9	316.38
320.129	343.38
320.358	326.38
320.587	332.38
320.816	323.38
321.046	334.38
321.275	348.38
321.504	343.38
321.733	357.38
321.962	341.38
322.191	344.38
322.42	341.38
322.649	356.38
322.878	371.38
323.108	375.38
323.337	375.38
323.566	375.38
323.795	424.38
324.024	426.38
324.253	497.38
324.482	657.38
324.71	929.38
324.939	1237.38
325.168	1008.38
325.397	572.38
325.626	458.38
325.855	395.38
326.084	387.38
326.313	394.38
326.542	389.38
326.77	416.38
326.999	468.38
327.228	617.38
327.457	815.38
327.686	939.38
327.914	664.38
328.143	490.38
328.372	449.38
328.6	450.38
328.829	459.38
329.058	442.38
329.287	443.38
329.515	441.38
329.744	406.38
329.972	425.38
330.201	418.38
330.43	440.38
330.658	445.38
330.887	474.38
331.115	468.38
331.344	420.38
331.572	389.38
331.801	414.38
332.03	377.38
332.258	406.38
332.486	384.38
332.715	394.38
332.943	419.38
333.172	421.38
333.4	420.38
333.629	424.38
333.857	450.38
334.085	444.38
334.314	456.38
334.542	440.38
334.771	478.38
334.999	437.38
335.227	428.38
335.455	416.38
335.684	422.38
335.912	393.38
336.14	393.38
336.369	393.38
336.597	395.38
336.825	412.38
337.053	395.38
337.281	373.38
337.51	399.38
337.738	385.38
337.966	365.38
338.194	376.38
338.422	382.38
338.65	383.38
338.878	390.38
339.106	378.38
339.334	373.38
339.562	365.38
339.79	375.38
340.018	400.38
340.246	380.38
340.474	379.38
340.702	376.38
340.93	375.38
341.158	347.38
341.386	374.38
341.614	380.38
341.842	370.38
342.07	368.38
342.298	354.38
342.526	362.38
342.754	373.38
342.981	367.38
343.209	384.38
343.437	386.38
343.665	381.38
343.893	405.38
344.12	385.38
344.348	398.38
344.576	371.38
344.804	381.38
345.031	367.38
345.259	398.38
345.487	372.38
345.714	358.38
345.942	359.38
346.17	358.38
346.397	360.38
346.625	351.38
346.853	341.38
347.08	355.38
347.308	364.38
347.535	360.38
347.763	360.38
347.99	352.38
348.218	344.38
348.445	371.38
348.673	351.38
348.9	350.38
349.128	334.38
349.355	364.38
349.583	340.38
349.81	347.38
350.037	340.38
350.265	314.38
350.492	341.38
350.72	344.38
350.947	330.38
351.174	345.38
351.402	366.38
351.629	351.38
351.856	347.38
352.083	347.38
352.311	357.38
352.538	382.38
352.765	370.38
352.992	337.38
353.22	349.38
353.447	336.38
353.674	335.38
353.901	348.38
354.128	351.38
354.355	346.38
354.583	339.38
354.81	361.38
355.037	343.38
355.264	342.38
355.491	331.38
355.718	341.38
355.945	332.38
356.172	326.38
356.399	334.38
356.626	340.38
356.853	333.38
357.08	321.38
357.307	348.38
357.534	334.38
357.761	316.38
357.988	346.38
358.215	336.38
358.441	316.38
358.668	343.38
358.895	342.38
359.122	331.38
359.349	327.38
359.576	325.38
359.802	363.38
360.029	357.38
360.256	378.38
360.483	374.38
360.709	356.38
360.936	357.38
361.163	351.38
361.39	350.38
361.616	346.38
361.843	352.38
362.07	350.38
362.296	359.38
362.523	354.38
362.749	345.38
362.976	348.38
363.203	342.38
363.429	341.38
363.656	335.38
363.882	336.38
364.109	324.38
364.335	339.38
364.562	340.38
364.788	347.38
365.015	342.38
365.241	323.38
365.468	330.38
365.694	329.38
365.92	333.38
366.147	335.38
366.373	328.38
366.599	319.38
366.826	326.38
367.052	350.38
367.278	327.38
367.505	327.38
367.731	334.38
367.957	329.38
368.184	338.38
368.41	346.38
368.636	356.38
368.862	333.38
369.089	357.38
369.315	331.38
369.541	336.38
369.767	328.38
369.993	327.38
370.219	329.38
370.445	325.38
370.672	334.38
370.898	333.38
371.124	356.38
371.35	348.38
371.576	347.38
371.802	345.38
372.028	370.38
372.254	349.38
372.48	339.38
372.706	340.38
372.932	353.38
373.158	360.38
373.384	362.38
373.61	364.38
373.835	357.38
374.061	337.38
374.287	343.38
374.513	358.38
374.739	367.38
374.965	355.38
375.191	362.38
375.416	376.38
375.642	348.38
375.868	347.38
376.094	346.38
376.319	358.38
376.545	343.38
376.771	336.38
376.997	324.38
377.222	329.38
377.448	346.38
377.674	341.38
377.899	361.38
378.125	344.38
378.35	336.38
378.576	351.38
378.802	330.38
379.027	324.38
379.253	331.38
379.478	330.38
379.704	333.38
379.929	330.38
380.155	350.38
380.38	331.38
380.606	344.38
380.831	347.38
381.057	355.38
381.282	336.38
381.507	364.38
381.733	352.38
381.958	349.38
382.184	355.38
382.409	358.38
382.634	350.38
382.86	358.38
383.085	357.38
383.31	345.38
383.535	379.38
383.761	357.38
383.986	382.38
384.211	354.38
384.436	377.38
384.662	360.38
384.887	378.38
385.112	378.38
385.337	367.38
385.562	385.38
385.787	364.38
386.013	382.38
386.238	391.38
386.463	367.38
386.688	384.38
386.913	373.38
387.138	383.38
387.363	399.38
387.588	383.38
387.813	350.38
388.038	394.38
388.263	398.38
388.488	388.38
388.713	386.38
388.938	367.38
389.163	368.38
389.387	376.38
389.612	375.38
389.837	403.38
390.062	376.38
390.287	382.38
390.512	395.38
390.736	384.38
390.961	358.38
391.186	389.38
391.411	391.38
391.636	390.38
391.86	406.38
392.085	394.38
392.31	412.38
392.534	398.38
392.759	388.38
392.984	398.38
393.208	382.38
393.433	393.38
393.658	380.38
393.882	397.38
394.107	390.38
394.331	402.38
394.556	380.38
394.78	378.38
395.005	389.38
395.229	404.38
395.454	419.38
395.678	420.38
395.903	412.38
396.127	419.38
396.352	408.38
396.576	392.38
396.801	417.38
397.025	396.38
397.249	404.38
397.474	423.38
397.698	410.38
397.922	420.38
398.147	447.38
398.371	429.38
398.595	425.38
398.82	443.38
399.044	461.38
399.268	515.38
399.492	526.38
399.717	575.38
399.941	587.38
400.165	539.38
400.389	512.38
400.613	480.38
400.837	470.38
401.062	451.38
401.286	446.38
401.51	453.38
401.734	440.38
401.958	451.38
402.182	456.38
402.406	458.38
402.63	464.38
402.854	461.38
403.078	472.38
403.302	474.38
403.526	477.38
403.75	513.38
403.974	500.38
404.198	488.38
404.422	491.38
404.645	480.38
404.869	503.38
405.093	509.38
405.317	518.38
405.541	537.38
405.765	518.38
405.988	491.38
406.212	493.38
406.436	505.38
406.66	529.38
406.883	493.38
407.107	519.38
407.331	543.38
407.555	598.38
407.778	610.38
408.002	550.38
408.226	520.38
408.449	502.38
408.673	520.38
408.896	517.38
409.12	544.38
409.344	518.38
409.567	479.38
409.791	472.38
410.014	463.38
410.238	475.38
410.461	484.38
410.685	471.38
410.908	461.38
411.132	496.38
411.355	494.38
411.578	487.38
411.802	470.38
412.025	457.38
412.249	463.38
412.472	491.38
412.695	499.38
412.919	489.38
413.142	483.38
413.365	461.38
413.589	451.38
413.812	422.38
414.035	446.38
414.258	449.38
414.482	447.38
414.705	448.38
414.928	416.38
415.151	433.38
415.374	428.38
415.597	436.38
415.821	438.38
416.044	429.38
416.267	453.38
416.49	448.38
416.713	439.38
416.936	429.38
417.159	446.38
417.382	456.38
417.605	443.38
417.828	447.38
418.051	447.38
418.274	448.38
418.497	434.38
418.72	448.38
418.943	455.38
419.166	456.38
419.389	472.38
419.611	487.38
419.834	469.38
420.057	457.38
420.28	466.38
420.503	447.38
420.726	452.38
420.948	466.38
421.171	469.38
421.394	469.38
421.617	475.38
421.839	457.38
422.062	434.38
422.285	468.38
422.507	491.38
422.73	539.38
422.953	506.38
423.175	464.38
423.398	465.38
423.621	471.38
423.843	498.38
424.066	488.38
424.288	467.38
424.511	471.38
424.733	528.38
424.956	562.38
425.178	534.38
425.401	556.38
425.623	547.38
425.846	480.38
426.068	463.38
426.291	468.38
426.513	458.38
426.735	452.38
426.958	478.38
427.18	551.38
427.402	608.38
427.625	655.38
427.847	566.38
428.069	498.38
428.292	468.38
428.514	451.38
428.736	430.38
428.958	446.38
429.181	434.38
429.403	424.38
429.625	421.38
429.847	456.38
430.069	493.38
430.292	475.38
430.514	428.38
430.736	404.38
430.958	426.38
431.18	394.38
431.402	412.38
431.624	387.38
431.846	407.38
432.068	412.38
432.29	406.38
432.512	401.38
432.734	420.38
432.956	418.38
433.178	419.38
433.4	443.38
433.622	417.38
433.844	425.38
434.066	383.38
434.287	406.38
434.509	423.38
434.731	434.38
434.953	440.38
435.175	433.38
435.397	448.38
435.618	479.38
435.84	474.38
436.062	523.38
436.284	556.38
436.505	458.38
436.727	448.38
436.949	441.38
437.17	430.38
437.392	423.38
437.614	418.38
437.835	422.38
438.057	502.38
438.278	536.38
438.5	566.38
438.721	575.38
438.943	574.38
439.165	454.38
439.386	453.38
439.608	460.38
439.829	452.38
440.05	476.38
440.272	474.38
440.493	486.38
440.715	434.38
440.936	436.38
441.158	440.38
441.379	455.38
441.6	441.38
441.822	487.38
442.043	479.38
442.264	536.38
442.486	554.38
442.707	496.38
442.928	480.38
443.149	471.38
443.371	507.38
443.592	522.38
443.813	604.38
444.034	599.38
444.255	542.38
444.476	494.38
444.698	500.38
444.919	520.38
445.14	640.38
445.361	555.38
445.582	488.38
445.803	540.38
446.024	559.38
446.245	577.38
446.466	532.38
446.687	466.38
446.908	449.38
447.129	426.38
447.35	414.38
447.571	447.38
447.792	407.38
448.013	409.38
448.234	438.38
448.455	449.38
448.675	521.38
448.896	584.38
449.117	502.38
449.338	512.38
449.559	558.38
449.779	598.38
450	511.38
450.221	441.38
450.442	426.38
450.662	410.38
450.883	407.38
451.104	421.38
451.324	412.38
451.545	400.38
451.766	388.38
451.986	355.38
452.207	374.38
452.428	362.38
452.648	377.38
452.869	396.38
453.089	406.38
453.31	404.38
453.53	380.38
453.751	370.38
453.971	394.38
454.192	367.38
454.412	378.38
454.633	370.38
454.853	383.38
455.073	374.38
455.294	409.38
455.514	418.38
455.734	396.38
455.955	377.38
456.175	370.38
456.395	363.38
456.616	355.38
456.836	346.38
457.056	370.38
457.276	360.38
457.497	378.38
457.717	362.38
457.937	371.38
458.157	376.38
458.377	382.38
458.598	399.38
458.818	429.38
459.038	478.38
459.258	487.38
459.478	423.38
459.698	426.38
459.918	408.38
460.138	417.38
460.358	438.38
460.578	454.38
460.798	436.38
461.018	452.38
461.238	450.38
461.458	443.38
461.678	444.38
461.898	444.38
462.118	462.38
462.338	458.38
462.558	462.38
462.777	494.38
462.997	506.38
463.217	502.38
463.437	508.38
463.657	504.38
463.876	462.38
464.096	473.38
464.316	490.38
464.536	488.38
464.755	488.38
464.975	484.38
465.195	464.38
465.414	520.38
465.634	469.38
465.854	421.38
466.073	411.38
466.293	414.38
466.512	403.38
466.732	415.38
466.951	405.38
467.171	383.38
467.391	406.38
467.61	423.38
467.829	424.38
468.049	415.38
468.268	391.38
468.488	388.38
468.707	414.38
468.927	392.38
469.146	379.38
469.365	380.38
469.585	392.38
469.804	404.38
470.023	413.38
470.243	432.38
470.462	428.38
470.681	408.38
470.901	420.38
471.12	413.38
471.339	405.38
471.558	421.38
471.777	407.38
471.997	422.38
472.216	397.38
472.435	436.38
472.654	415.38
472.873	399.38
473.092	393.38
473.311	388.38
473.53	388.38
473.749	401.38
473.968	410.38
474.187	480.38
474.406	489.38
474.625	420.38
474.844	388.38
475.063	405.38
475.282	389.38
475.501	409.38
475.72	419.38
475.939	423.38
476.158	410.38
476.377	417.38
476.596	391.38
476.814	425.38
477.033	412.38
477.252	408.38
477.471	419.38
477.69	438.38
477.908	443.38
478.127	440.38
478.346	459.38
478.564	454.38
478.783	426.38
479.002	448.38
479.22	458.38
479.439	490.38
479.658	473.38
479.876	475.38
480.095	494.38
480.313	513.38
480.532	492.38
480.751	509.38
480.969	492.38
481.188	540.38
481.406	557.38
481.624	476.38
481.843	484.38
482.061	474.38
482.28	452.38
482.498	450.38
482.717	458.38
482.935	460.38
483.153	455.38
483.372	454.38
483.59	479.38
483.808	465.38
484.027	448.38
484.245	448.38
484.463	455.38
484.681	468.38
484.9	463.38
485.118	485.38
485.336	469.38
485.554	467.38
485.772	459.38
485.99	473.38
486.209	484.38
486.427	471.38
486.645	483.38
486.863	493.38
487.081	486.38
487.299	486.38
487.517	460.38
487.735	482.38
487.953	494.38
488.171	475.38
488.389	477.38
488.607	491.38
488.825	464.38
489.043	498.38
489.261	512.38
489.479	485.38
489.696	498.38
489.914	492.38
490.132	505.38
490.35	531.38
490.568	484.38
490.786	522.38
491.003	525.38
491.221	520.38
491.439	569.38
491.657	544.38
491.874	549.38
492.092	537.38
492.31	558.38
492.527	568.38
492.745	569.38
492.963	592.38
493.18	576.38
493.398	567.38
493.615	575.38
493.833	573.38
494.05	598.38
494.268	580.38
494.485	556.38
494.703	576.38
494.92	575.38
495.138	587.38
495.355	599.38
495.573	555.38
495.79	550.38
496.008	587.38
496.225	567.38
496.442	566.38
496.66	586.38
496.877	593.38
497.094	600.38
497.312	588.38
497.529	599.38
497.746	611.38
497.963	618.38
498.181	641.38
498.398	666.38
498.615	668.38
498.832	679.38
499.049	708.38
499.267	754.38
499.484	762.38
499.701	838.38
499.918	888.38
500.135	931.38
500.352	992.38
500.569	1016.38
500.786	1012.38
501.003	985.38
501.22	912.38
501.437	914.38
501.654	821.38
501.871	811.38
502.088	738.38
