Data from 1969.PennyLincolnUp.Lamp.En5.5.200Scan.071719.P1._HRD10591_14-56-05-973.txt Node
Date: Thu Jul 18 14:56:05 EDT 2019
User: cochatt
Spectrometer: HR+D1059
Trigger mode: 1
Integration Time (sec): 1.000000E-1
Scans to average: 1
Electric dark correction enabled: true
Nonlinearity correction enabled: false
Boxcar width: 0
XAxis mode: Wavelengths
Number of Pixels in Spectrum: 2048
>>>>>Begin Spectral Data<<<<<
223.165	-14.5
223.4	-14.5
223.635	-14.5
223.869	-29.5
224.104	-28.5
224.338	-11.5
224.573	-24.5
224.808	-14.5
225.042	-4.5
225.277	-5.5
225.511	11.5
225.746	1.5
225.98	12.5
226.215	14.5
226.449	13.5
226.683	24.5
226.918	27.5
227.152	27.5
227.387	25.5
227.621	47.5
227.856	28.5
228.09	30.5
228.324	53.5
228.559	54.5
228.793	52.5
229.027	81.5
229.262	89.5
229.496	103.5
229.73	100.5
229.964	116.5
230.199	103.5
230.433	106.5
230.667	99.5
230.901	108.5
231.136	95.5
231.37	103.5
231.604	104.5
231.838	107.5
232.072	104.5
232.306	112.5
232.541	106.5
232.775	102.5
233.009	93.5
233.243	109.5
233.477	95.5
233.711	106.5
233.945	106.5
234.179	101.5
234.413	116.5
234.647	109.5
234.881	112.5
235.115	94.5
235.349	96.5
235.583	99.5
235.817	108.5
236.051	113.5
236.285	117.5
236.519	106.5
236.753	108.5
236.987	132.5
237.221	171.5
237.455	182.5
237.689	136.5
237.922	135.5
238.156	114.5
238.39	104.5
238.624	99.5
238.858	117.5
239.091	102.5
239.325	104.5
239.559	115.5
239.793	121.5
240.027	108.5
240.26	132.5
240.494	156.5
240.728	138.5
240.961	125.5
241.195	128.5
241.429	127.5
241.662	118.5
241.896	128.5
242.13	113.5
242.363	116.5
242.597	121.5
242.83	106.5
243.064	120.5
243.298	128.5
243.531	128.5
243.765	117.5
243.998	128.5
244.232	129.5
244.465	117.5
244.699	132.5
244.932	127.5
245.166	114.5
245.399	120.5
245.633	140.5
245.866	135.5
246.099	124.5
246.333	137.5
246.566	132.5
246.8	146.5
247.033	149.5
247.266	146.5
247.5	141.5
247.733	145.5
247.966	150.5
248.2	161.5
248.433	151.5
248.666	148.5
248.899	167.5
249.133	147.5
249.366	169.5
249.599	153.5
249.832	168.5
250.066	162.5
250.299	161.5
250.532	165.5
250.765	163.5
250.998	179.5
251.231	185.5
251.465	172.5
251.698	175.5
251.931	157.5
252.164	166.5
252.397	165.5
252.63	172.5
252.863	172.5
253.096	178.5
253.329	188.5
253.562	192.5
253.795	173.5
254.028	183.5
254.261	181.5
254.494	184.5
254.727	204.5
254.96	224.5
255.193	220.5
255.426	183.5
255.659	193.5
255.892	179.5
256.124	195.5
256.357	208.5
256.59	184.5
256.823	167.5
257.056	174.5
257.289	173.5
257.521	172.5
257.754	169.5
257.987	174.5
258.22	166.5
258.452	166.5
258.685	173.5
258.918	157.5
259.151	183.5
259.383	186.5
259.616	192.5
259.849	189.5
260.081	186.5
260.314	205.5
260.547	219.5
260.779	186.5
261.012	196.5
261.244	196.5
261.477	197.5
261.71	190.5
261.942	181.5
262.175	184.5
262.407	184.5
262.64	176.5
262.872	180.5
263.105	176.5
263.337	190.5
263.57	178.5
263.802	185.5
264.035	180.5
264.267	186.5
264.499	201.5
264.732	182.5
264.964	177.5
265.197	184.5
265.429	179.5
265.661	200.5
265.894	193.5
266.126	179.5
266.358	212.5
266.591	196.5
266.823	207.5
267.055	217.5
267.287	192.5
267.52	191.5
267.752	190.5
267.984	218.5
268.216	203.5
268.448	186.5
268.681	196.5
268.913	218.5
269.145	216.5
269.377	237.5
269.609	214.5
269.841	222.5
270.073	221.5
270.306	248.5
270.538	256.5
270.77	241.5
271.002	242.5
271.234	241.5
271.466	241.5
271.698	253.5
271.93	249.5
272.162	246.5
272.394	258.5
272.626	246.5
272.858	240.5
273.09	231.5
273.322	220.5
273.553	229.5
273.785	246.5
274.017	221.5
274.249	240.5
274.481	219.5
274.713	222.5
274.945	247.5
275.176	227.5
275.408	227.5
275.64	215.5
275.872	224.5
276.104	234.5
276.335	218.5
276.567	233.5
276.799	216.5
277.031	258.5
277.262	284.5
277.494	270.5
277.726	250.5
277.957	258.5
278.189	256.5
278.421	242.5
278.652	225.5
278.884	234.5
279.115	234.5
279.347	232.5
279.579	227.5
279.81	222.5
280.042	231.5
280.273	226.5
280.505	201.5
280.736	222.5
280.968	236.5
281.199	235.5
281.431	247.5
281.662	237.5
281.894	230.5
282.125	241.5
282.356	237.5
282.588	249.5
282.819	258.5
283.051	254.5
283.282	231.5
283.513	236.5
283.745	242.5
283.976	232.5
284.207	258.5
284.439	250.5
284.67	244.5
284.901	256.5
285.132	255.5
285.364	253.5
285.595	244.5
285.826	243.5
286.057	227.5
286.288	246.5
286.52	261.5
286.751	251.5
286.982	260.5
287.213	235.5
287.444	266.5
287.675	252.5
287.906	276.5
288.138	258.5
288.369	261.5
288.6	258.5
288.831	260.5
289.062	250.5
289.293	248.5
289.524	260.5
289.755	266.5
289.986	260.5
290.217	257.5
290.448	246.5
290.679	256.5
290.91	249.5
291.141	244.5
291.371	251.5
291.602	261.5
291.833	253.5
292.064	255.5
292.295	256.5
292.526	232.5
292.757	249.5
292.987	253.5
293.218	250.5
293.449	264.5
293.68	262.5
293.91	274.5
294.141	253.5
294.372	263.5
294.603	262.5
294.833	237.5
295.064	272.5
295.295	262.5
295.525	266.5
295.756	274.5
295.987	264.5
296.217	284.5
296.448	277.5
296.679	271.5
296.909	264.5
297.14	274.5
297.37	271.5
297.601	257.5
297.831	265.5
298.062	240.5
298.292	268.5
298.523	272.5
298.753	281.5
298.984	276.5
299.214	280.5
299.445	280.5
299.675	266.5
299.905	273.5
300.136	279.5
300.366	284.5
300.597	285.5
300.827	285.5
301.057	269.5
301.288	295.5
301.518	280.5
301.748	284.5
301.979	311.5
302.209	286.5
302.439	306.5
302.669	278.5
302.9	284.5
303.13	291.5
303.36	289.5
303.59	285.5
303.82	299.5
304.051	296.5
304.281	278.5
304.511	276.5
304.741	282.5
304.971	297.5
305.201	283.5
305.431	285.5
305.661	275.5
305.891	284.5
306.121	293.5
306.352	298.5
306.582	293.5
306.812	278.5
307.042	282.5
307.272	300.5
307.502	309.5
307.731	293.5
307.961	296.5
308.191	290.5
308.421	288.5
308.651	300.5
308.881	297.5
309.111	305.5
309.341	306.5
309.571	279.5
309.8	299.5
310.03	292.5
310.26	323.5
310.49	316.5
310.72	313.5
310.949	329.5
311.179	318.5
311.409	317.5
311.639	307.5
311.868	314.5
312.098	320.5
312.328	306.5
312.557	332.5
312.787	326.5
313.017	316.5
313.246	316.5
313.476	301.5
313.706	331.5
313.935	326.5
314.165	330.5
314.394	331.5
314.624	335.5
314.853	333.5
315.083	311.5
315.312	300.5
315.542	300.5
315.771	311.5
316.001	316.5
316.23	297.5
316.46	310.5
316.689	305.5
316.919	314.5
317.148	325.5
317.377	333.5
317.607	328.5
317.836	314.5
318.065	324.5
318.295	308.5
318.524	310.5
318.753	320.5
318.983	323.5
319.212	311.5
319.441	317.5
319.67	340.5
319.9	316.5
320.129	325.5
320.358	323.5
320.587	313.5
320.816	337.5
321.046	326.5
321.275	320.5
321.504	316.5
321.733	337.5
321.962	320.5
322.191	322.5
322.42	332.5
322.649	366.5
322.878	354.5
323.108	364.5
323.337	371.5
323.566	396.5
323.795	376.5
324.024	418.5
324.253	473.5
324.482	633.5
324.71	892.5
324.939	1138.5
325.168	976.5
325.397	529.5
325.626	446.5
325.855	395.5
326.084	395.5
326.313	386.5
326.542	386.5
326.77	410.5
326.999	470.5
327.228	589.5
327.457	768.5
327.686	884.5
327.914	614.5
328.143	487.5
328.372	435.5
328.6	433.5
328.829	409.5
329.058	441.5
329.287	414.5
329.515	401.5
329.744	396.5
329.972	393.5
330.201	395.5
330.43	422.5
330.658	412.5
330.887	437.5
331.115	445.5
331.344	392.5
331.572	393.5
331.801	397.5
332.03	406.5
332.258	406.5
332.486	395.5
332.715	394.5
332.943	394.5
333.172	398.5
333.4	419.5
333.629	406.5
333.857	437.5
334.085	414.5
334.314	432.5
334.542	443.5
334.771	457.5
334.999	441.5
335.227	402.5
335.455	394.5
335.684	397.5
335.912	380.5
336.14	361.5
336.369	374.5
336.597	374.5
336.825	387.5
337.053	377.5
337.281	373.5
337.51	365.5
337.738	376.5
337.966	355.5
338.194	373.5
338.422	360.5
338.65	367.5
338.878	373.5
339.106	346.5
339.334	368.5
339.562	370.5
339.79	362.5
340.018	348.5
340.246	327.5
340.474	355.5
340.702	372.5
340.93	352.5
341.158	370.5
341.386	344.5
341.614	351.5
341.842	362.5
342.07	362.5
342.298	350.5
342.526	350.5
342.754	338.5
342.981	356.5
343.209	340.5
343.437	352.5
343.665	372.5
343.893	388.5
344.12	386.5
344.348	379.5
344.576	384.5
344.804	374.5
345.031	358.5
345.259	373.5
345.487	372.5
345.714	368.5
345.942	351.5
346.17	340.5
346.397	338.5
346.625	336.5
346.853	324.5
347.08	334.5
347.308	357.5
347.535	346.5
347.763	363.5
347.99	331.5
348.218	333.5
348.445	342.5
348.673	333.5
348.9	343.5
349.128	335.5
349.355	338.5
349.583	337.5
349.81	324.5
350.037	317.5
350.265	333.5
350.492	334.5
350.72	343.5
350.947	338.5
351.174	332.5
351.402	334.5
351.629	329.5
351.856	336.5
352.083	334.5
352.311	350.5
352.538	332.5
352.765	338.5
352.992	340.5
353.22	335.5
353.447	315.5
353.674	329.5
353.901	328.5
354.128	320.5
354.355	333.5
354.583	315.5
354.81	323.5
355.037	318.5
355.264	334.5
355.491	328.5
355.718	332.5
355.945	317.5
356.172	328.5
356.399	311.5
356.626	325.5
356.853	337.5
357.08	309.5
357.307	343.5
357.534	316.5
357.761	301.5
357.988	327.5
358.215	320.5
358.441	322.5
358.668	325.5
358.895	334.5
359.122	325.5
359.349	317.5
359.576	331.5
359.802	342.5
360.029	381.5
360.256	362.5
360.483	363.5
360.709	336.5
360.936	320.5
361.163	313.5
361.39	340.5
361.616	323.5
361.843	344.5
362.07	330.5
362.296	320.5
362.523	340.5
362.749	330.5
362.976	333.5
363.203	331.5
363.429	319.5
363.656	316.5
363.882	320.5
364.109	331.5
364.335	329.5
364.562	339.5
364.788	313.5
365.015	333.5
365.241	326.5
365.468	336.5
365.694	329.5
365.92	323.5
366.147	322.5
366.373	334.5
366.599	326.5
366.826	328.5
367.052	345.5
367.278	328.5
367.505	306.5
367.731	336.5
367.957	326.5
368.184	319.5
368.41	339.5
368.636	325.5
368.862	325.5
369.089	334.5
369.315	350.5
369.541	314.5
369.767	315.5
369.993	309.5
370.219	317.5
370.445	323.5
370.672	324.5
370.898	331.5
371.124	330.5
371.35	317.5
371.576	339.5
371.802	329.5
372.028	318.5
372.254	324.5
372.48	348.5
372.706	322.5
372.932	330.5
373.158	340.5
373.384	338.5
373.61	340.5
373.835	335.5
374.061	347.5
374.287	340.5
374.513	330.5
374.739	354.5
374.965	335.5
375.191	345.5
375.416	357.5
375.642	353.5
375.868	345.5
376.094	312.5
376.319	322.5
376.545	338.5
376.771	355.5
376.997	326.5
377.222	325.5
377.448	339.5
377.674	338.5
377.899	313.5
378.125	338.5
378.35	324.5
378.576	329.5
378.802	344.5
379.027	314.5
379.253	310.5
379.478	327.5
379.704	326.5
379.929	321.5
380.155	346.5
380.38	334.5
380.606	325.5
380.831	348.5
381.057	306.5
381.282	333.5
381.507	320.5
381.733	342.5
381.958	341.5
382.184	331.5
382.409	343.5
382.634	326.5
382.86	354.5
383.085	348.5
383.31	353.5
383.535	342.5
383.761	345.5
383.986	344.5
384.211	361.5
384.436	366.5
384.662	352.5
384.887	371.5
385.112	388.5
385.337	367.5
385.562	372.5
385.787	350.5
386.013	372.5
386.238	372.5
386.463	376.5
386.688	375.5
386.913	355.5
387.138	354.5
387.363	362.5
387.588	353.5
387.813	370.5
388.038	374.5
388.263	364.5
388.488	372.5
388.713	356.5
388.938	373.5
389.163	364.5
389.387	378.5
389.612	363.5
389.837	366.5
390.062	349.5
390.287	380.5
390.512	378.5
390.736	326.5
390.961	366.5
391.186	357.5
391.411	384.5
391.636	377.5
391.86	402.5
392.085	399.5
392.31	388.5
392.534	388.5
392.759	382.5
392.984	381.5
393.208	391.5
393.433	365.5
393.658	386.5
393.882	372.5
394.107	365.5
394.331	386.5
394.556	365.5
394.78	400.5
395.005	392.5
395.229	372.5
395.454	381.5
395.678	388.5
395.903	392.5
396.127	405.5
396.352	377.5
396.576	380.5
396.801	377.5
397.025	372.5
397.249	402.5
397.474	404.5
397.698	404.5
397.922	417.5
398.147	432.5
398.371	409.5
398.595	419.5
398.82	420.5
399.044	440.5
399.268	466.5
399.492	504.5
399.717	547.5
399.941	567.5
400.165	525.5
400.389	515.5
400.613	492.5
400.837	448.5
401.062	453.5
401.286	433.5
401.51	418.5
401.734	423.5
401.958	424.5
402.182	450.5
402.406	462.5
402.63	438.5
402.854	449.5
403.078	446.5
403.302	460.5
403.526	437.5
403.75	445.5
403.974	467.5
404.198	461.5
404.422	472.5
404.645	458.5
404.869	473.5
405.093	515.5
405.317	514.5
405.541	508.5
405.765	481.5
405.988	461.5
406.212	474.5
406.436	499.5
406.66	509.5
406.883	489.5
407.107	490.5
407.331	544.5
407.555	591.5
407.778	562.5
408.002	539.5
408.226	478.5
408.449	499.5
408.673	485.5
408.896	502.5
409.12	514.5
409.344	473.5
409.567	473.5
409.791	445.5
410.014	470.5
410.238	464.5
410.461	441.5
410.685	459.5
410.908	467.5
411.132	484.5
411.355	485.5
411.578	473.5
411.802	464.5
412.025	444.5
412.249	438.5
412.472	473.5
412.695	500.5
412.919	476.5
413.142	452.5
413.365	435.5
413.589	426.5
413.812	433.5
414.035	434.5
414.258	434.5
414.482	420.5
414.705	435.5
414.928	450.5
415.151	417.5
415.374	451.5
415.597	433.5
415.821	421.5
416.044	433.5
416.267	398.5
416.49	424.5
416.713	411.5
416.936	437.5
417.159	422.5
417.382	423.5
417.605	410.5
417.828	454.5
418.051	434.5
418.274	440.5
418.497	415.5
418.72	445.5
418.943	405.5
419.166	443.5
419.389	468.5
419.611	457.5
419.834	451.5
420.057	468.5
420.28	445.5
420.503	440.5
420.726	432.5
420.948	434.5
421.171	486.5
421.394	448.5
421.617	429.5
421.839	432.5
422.062	438.5
422.285	478.5
422.507	464.5
422.73	508.5
422.953	515.5
423.175	467.5
423.398	444.5
423.621	461.5
423.843	485.5
424.066	475.5
424.288	480.5
424.511	483.5
424.733	510.5
424.956	543.5
425.178	540.5
425.401	528.5
425.623	513.5
425.846	451.5
426.068	466.5
426.291	440.5
426.513	443.5
426.735	443.5
426.958	457.5
427.18	479.5
427.402	595.5
427.625	619.5
427.847	538.5
428.069	491.5
428.292	471.5
428.514	454.5
428.736	409.5
428.958	420.5
429.181	398.5
429.403	424.5
429.625	423.5
429.847	427.5
430.069	455.5
430.292	438.5
430.514	413.5
430.736	409.5
430.958	399.5
431.18	420.5
431.402	399.5
431.624	386.5
431.846	389.5
432.068	372.5
432.29	388.5
432.512	409.5
432.734	404.5
432.956	397.5
433.178	401.5
433.4	415.5
433.622	405.5
433.844	419.5
434.066	401.5
434.287	392.5
434.509	410.5
434.731	429.5
434.953	435.5
435.175	434.5
435.397	462.5
435.618	437.5
435.84	458.5
436.062	501.5
436.284	529.5
436.505	476.5
436.727	428.5
436.949	408.5
437.17	410.5
437.392	397.5
437.614	428.5
437.835	438.5
438.057	501.5
438.278	538.5
438.5	559.5
438.721	567.5
438.943	578.5
439.165	442.5
439.386	438.5
439.608	450.5
439.829	434.5
440.05	448.5
440.272	477.5
440.493	434.5
440.715	432.5
440.936	436.5
441.158	434.5
441.379	423.5
441.6	435.5
441.822	453.5
442.043	472.5
442.264	523.5
442.486	540.5
442.707	476.5
442.928	452.5
443.149	439.5
443.371	466.5
443.592	506.5
443.813	542.5
444.034	562.5
444.255	517.5
444.476	477.5
444.698	467.5
444.919	488.5
445.14	619.5
445.361	548.5
445.582	490.5
445.803	510.5
446.024	549.5
446.245	549.5
446.466	517.5
446.687	469.5
446.908	446.5
447.129	423.5
447.35	394.5
447.571	418.5
447.792	421.5
448.013	394.5
448.234	393.5
448.455	438.5
448.675	510.5
448.896	553.5
449.117	489.5
449.338	468.5
449.559	535.5
449.779	580.5
450	491.5
450.221	430.5
450.442	412.5
450.662	373.5
450.883	393.5
451.104	405.5
451.324	391.5
451.545	377.5
451.766	377.5
451.986	350.5
452.207	383.5
452.428	357.5
452.648	364.5
452.869	370.5
453.089	380.5
453.31	375.5
453.53	357.5
453.751	373.5
453.971	373.5
454.192	370.5
454.412	355.5
454.633	355.5
454.853	371.5
455.073	341.5
455.294	382.5
455.514	422.5
455.734	397.5
455.955	372.5
456.175	364.5
456.395	341.5
456.616	357.5
456.836	361.5
457.056	339.5
457.276	342.5
457.497	356.5
457.717	356.5
457.937	357.5
458.157	360.5
458.377	346.5
458.598	377.5
458.818	405.5
459.038	463.5
459.258	467.5
459.478	411.5
459.698	409.5
459.918	411.5
460.138	406.5
460.358	427.5
460.578	428.5
460.798	440.5
461.018	428.5
461.238	422.5
461.458	417.5
461.678	424.5
461.898	425.5
462.118	432.5
462.338	451.5
462.558	461.5
462.777	460.5
462.997	477.5
463.217	517.5
463.437	502.5
463.657	480.5
463.876	463.5
464.096	485.5
464.316	463.5
464.536	456.5
464.755	480.5
464.975	468.5
465.195	451.5
465.414	490.5
465.634	472.5
465.854	427.5
466.073	436.5
466.293	399.5
466.512	402.5
466.732	397.5
466.951	381.5
467.171	365.5
467.391	405.5
467.61	380.5
467.829	402.5
468.049	387.5
468.268	395.5
468.488	403.5
468.707	385.5
468.927	385.5
469.146	364.5
469.365	374.5
469.585	386.5
469.804	370.5
470.023	379.5
470.243	414.5
470.462	401.5
470.681	406.5
470.901	388.5
471.12	373.5
471.339	378.5
471.558	369.5
471.777	391.5
471.997	373.5
472.216	387.5
472.435	395.5
472.654	397.5
472.873	389.5
473.092	383.5
473.311	379.5
473.53	374.5
473.749	387.5
473.968	398.5
474.187	461.5
474.406	493.5
474.625	391.5
474.844	386.5
475.063	372.5
475.282	380.5
475.501	390.5
475.72	404.5
475.939	389.5
476.158	394.5
476.377	377.5
476.596	384.5
476.814	393.5
477.033	406.5
477.252	403.5
477.471	414.5
477.69	420.5
477.908	410.5
478.127	434.5
478.346	421.5
478.564	433.5
478.783	438.5
479.002	462.5
479.22	442.5
479.439	449.5
479.658	442.5
479.876	460.5
480.095	488.5
480.313	497.5
480.532	481.5
480.751	480.5
480.969	501.5
481.188	536.5
481.406	544.5
481.624	471.5
481.843	452.5
482.061	450.5
482.28	443.5
482.498	438.5
482.717	443.5
482.935	428.5
483.153	441.5
483.372	428.5
483.59	448.5
483.808	436.5
484.027	439.5
484.245	450.5
484.463	438.5
484.681	437.5
484.9	448.5
485.118	453.5
485.336	457.5
485.554	450.5
485.772	458.5
485.99	442.5
486.209	474.5
486.427	469.5
486.645	456.5
486.863	486.5
487.081	487.5
487.299	465.5
487.517	491.5
487.735	459.5
487.953	479.5
488.171	481.5
488.389	467.5
488.607	468.5
488.825	472.5
489.043	478.5
489.261	462.5
489.479	462.5
489.696	481.5
489.914	486.5
490.132	487.5
490.35	485.5
490.568	493.5
490.786	487.5
491.003	493.5
491.221	536.5
491.439	525.5
491.657	531.5
491.874	542.5
492.092	536.5
492.31	536.5
492.527	558.5
492.745	560.5
492.963	552.5
493.18	538.5
493.398	555.5
493.615	577.5
493.833	546.5
494.05	563.5
494.268	555.5
494.485	536.5
494.703	555.5
494.92	552.5
495.138	562.5
495.355	544.5
495.573	556.5
495.79	554.5
496.008	560.5
496.225	562.5
496.442	541.5
496.66	564.5
496.877	564.5
497.094	561.5
497.312	586.5
497.529	582.5
497.746	579.5
497.963	582.5
498.181	631.5
498.398	629.5
498.615	633.5
498.832	669.5
499.049	674.5
499.267	707.5
499.484	737.5
499.701	792.5
499.918	830.5
500.135	903.5
500.352	935.5
500.569	982.5
500.786	982.5
501.003	927.5
501.22	896.5
501.437	850.5
501.654	776.5
501.871	793.5
502.088	741.5
502.305	684.5
502.522	638.5
502.739	644.5
502.956	619.5
503.172	597.5
503.389	578.5
503.606	561.5
503.823	588.5
504.04	590.5
504.256	562.5
504.473	568.5
504.69	576.5
504.907	563.5
505.123	534.5
505.34	538.5
505.557	528.5
505.773	534.5
505.99	545.5
506.207	530.5
506.423	515.5
506.64	504.5
506.856	484.5
507.073	515.5
507.289	470.5
507.506	474.5
507.722	491.5
507.939	492.5
508.155	477.5
508.372	480.5
508.588	491.5
508.805	485.5
509.021	469.5
509.238	490.5
509.454	497.5
509.67	490.5
509.887	478.5
510.103	453.5
510.319	479.5
510.536	506.5
510.752	764.5
510.968	655.5
511.184	480.5
511.401	460.5
511.617	455.5
511.833	443.5
512.049	455.5
512.265	459.5
512.481	465.5
512.698	422.5
512.914	459.5
513.13	438.5
513.346	451.5
513.562	451.5
513.778	461.5
513.994	448.5
514.21	464.5
514.426	472.5
514.642	492.5
514.858	470.5
515.074	524.5
515.29	584.5
515.506	791.5
515.721	690.5
515.937	512.5
516.153	492.5
516.369	483.5
516.585	476.5
516.801	480.5
517.016	496.5
517.232	466.5
517.448	519.5
517.664	510.5
517.879	532.5
518.095	502.5
518.311	518.5
518.527	529.5
518.742	502.5
518.958	481.5
519.173	490.5
519.389	460.5
519.605	466.5
519.82	469.5
520.036	477.5
