Data from 1969.PennyLincolnUp.Lamp.En5.5.200Scan.071719.P1._HRD10591_14-55-11-972.txt Node
Date: Thu Jul 18 14:55:11 EDT 2019
User: cochatt
Spectrometer: HR+D1059
Trigger mode: 1
Integration Time (sec): 1.000000E-1
Scans to average: 1
Electric dark correction enabled: true
Nonlinearity correction enabled: false
Boxcar width: 0
XAxis mode: Wavelengths
Number of Pixels in Spectrum: 2048
>>>>>Begin Spectral Data<<<<<
223.165	-9.5
223.4	-9.5
223.635	-9.5
223.869	1.5
224.104	-18.5
224.338	-10.5
224.573	-18.5
224.808	-0.5
225.042	-8.5
225.277	-13.5
225.511	2.5
225.746	-3.5
225.98	10.5
226.215	8.5
226.449	23.5
226.683	-1.5
226.918	13.5
227.152	24.5
227.387	28.5
227.621	34.5
227.856	40.5
228.09	45.5
228.324	55.5
228.559	58.5
228.793	59.5
229.027	86.5
229.262	94.5
229.496	95.5
229.73	108.5
229.964	118.5
230.199	111.5
230.433	102.5
230.667	114.5
230.901	117.5
231.136	121.5
231.37	112.5
231.604	94.5
231.838	100.5
232.072	102.5
232.306	111.5
232.541	118.5
232.775	127.5
233.009	108.5
233.243	107.5
233.477	118.5
233.711	116.5
233.945	103.5
234.179	118.5
234.413	121.5
234.647	103.5
234.881	109.5
235.115	103.5
235.349	115.5
235.583	102.5
235.817	98.5
236.051	119.5
236.285	115.5
236.519	117.5
236.753	117.5
236.987	130.5
237.221	139.5
237.455	146.5
237.689	141.5
237.922	114.5
238.156	111.5
238.39	108.5
238.624	118.5
238.858	116.5
239.091	100.5
239.325	110.5
239.559	120.5
239.793	138.5
240.027	110.5
240.26	112.5
240.494	139.5
240.728	125.5
240.961	130.5
241.195	138.5
241.429	134.5
241.662	115.5
241.896	119.5
242.13	104.5
242.363	118.5
242.597	126.5
242.83	123.5
243.064	120.5
243.298	139.5
243.531	119.5
243.765	122.5
243.998	140.5
244.232	135.5
244.465	112.5
244.699	128.5
244.932	125.5
245.166	117.5
245.399	121.5
245.633	153.5
245.866	131.5
246.099	118.5
246.333	127.5
246.566	144.5
246.8	132.5
247.033	126.5
247.266	140.5
247.5	136.5
247.733	152.5
247.966	153.5
248.2	140.5
248.433	158.5
248.666	157.5
248.899	172.5
249.133	146.5
249.366	170.5
249.599	171.5
249.832	168.5
250.066	167.5
250.299	174.5
250.532	168.5
250.765	164.5
250.998	179.5
251.231	176.5
251.465	182.5
251.698	173.5
251.931	183.5
252.164	172.5
252.397	188.5
252.63	174.5
252.863	162.5
253.096	174.5
253.329	164.5
253.562	200.5
253.795	175.5
254.028	185.5
254.261	171.5
254.494	194.5
254.727	214.5
254.96	202.5
255.193	210.5
255.426	180.5
255.659	185.5
255.892	187.5
256.124	194.5
256.357	196.5
256.59	191.5
256.823	171.5
257.056	173.5
257.289	183.5
257.521	174.5
257.754	179.5
257.987	198.5
258.22	192.5
258.452	186.5
258.685	184.5
258.918	172.5
259.151	187.5
259.383	178.5
259.616	186.5
259.849	177.5
260.081	183.5
260.314	207.5
260.547	202.5
260.779	188.5
261.012	199.5
261.244	211.5
261.477	187.5
261.71	179.5
261.942	177.5
262.175	186.5
262.407	181.5
262.64	186.5
262.872	181.5
263.105	192.5
263.337	201.5
263.57	198.5
263.802	191.5
264.035	200.5
264.267	200.5
264.499	189.5
264.732	181.5
264.964	203.5
265.197	189.5
265.429	182.5
265.661	207.5
265.894	198.5
266.126	191.5
266.358	200.5
266.591	201.5
266.823	209.5
267.055	214.5
267.287	208.5
267.52	191.5
267.752	214.5
267.984	211.5
268.216	206.5
268.448	210.5
268.681	201.5
268.913	210.5
269.145	222.5
269.377	220.5
269.609	223.5
269.841	216.5
270.073	230.5
270.306	220.5
270.538	246.5
270.77	260.5
271.002	248.5
271.234	250.5
271.466	242.5
271.698	238.5
271.93	256.5
272.162	254.5
272.394	244.5
272.626	232.5
272.858	244.5
273.09	227.5
273.322	232.5
273.553	212.5
273.785	219.5
274.017	219.5
274.249	221.5
274.481	217.5
274.713	248.5
274.945	224.5
275.176	234.5
275.408	223.5
275.64	227.5
275.872	232.5
276.104	214.5
276.335	216.5
276.567	242.5
276.799	223.5
277.031	254.5
277.262	265.5
277.494	261.5
277.726	239.5
277.957	251.5
278.189	220.5
278.421	232.5
278.652	239.5
278.884	233.5
279.115	239.5
279.347	232.5
279.579	236.5
279.81	239.5
280.042	223.5
280.273	245.5
280.505	244.5
280.736	222.5
280.968	224.5
281.199	241.5
281.431	244.5
281.662	221.5
281.894	242.5
282.125	231.5
282.356	258.5
282.588	255.5
282.819	259.5
283.051	246.5
283.282	230.5
283.513	238.5
283.745	238.5
283.976	238.5
284.207	222.5
284.439	227.5
284.67	240.5
284.901	259.5
285.132	251.5
285.364	248.5
285.595	247.5
285.826	247.5
286.057	262.5
286.288	244.5
286.52	264.5
286.751	238.5
286.982	244.5
287.213	230.5
287.444	243.5
287.675	268.5
287.906	258.5
288.138	261.5
288.369	272.5
288.6	249.5
288.831	250.5
289.062	262.5
289.293	266.5
289.524	255.5
289.755	253.5
289.986	244.5
290.217	254.5
290.448	263.5
290.679	288.5
290.91	267.5
291.141	263.5
291.371	272.5
291.602	264.5
291.833	278.5
292.064	259.5
292.295	266.5
292.526	252.5
292.757	264.5
292.987	246.5
293.218	250.5
293.449	266.5
293.68	277.5
293.91	259.5
294.141	262.5
294.372	283.5
294.603	268.5
294.833	288.5
295.064	264.5
295.295	264.5
295.525	260.5
295.756	264.5
295.987	270.5
296.217	252.5
296.448	277.5
296.679	269.5
296.909	272.5
297.14	268.5
297.37	293.5
297.601	279.5
297.831	272.5
298.062	280.5
298.292	277.5
298.523	274.5
298.753	296.5
298.984	279.5
299.214	285.5
299.445	273.5
299.675	275.5
299.905	280.5
300.136	287.5
300.366	279.5
300.597	285.5
300.827	290.5
301.057	307.5
301.288	285.5
301.518	307.5
301.748	301.5
301.979	293.5
302.209	301.5
302.439	294.5
302.669	313.5
302.9	299.5
303.13	270.5
303.36	295.5
303.59	290.5
303.82	287.5
304.051	312.5
304.281	295.5
304.511	299.5
304.741	293.5
304.971	297.5
305.201	296.5
305.431	278.5
305.661	292.5
305.891	283.5
306.121	302.5
306.352	286.5
306.582	292.5
306.812	282.5
307.042	304.5
307.272	290.5
307.502	304.5
307.731	295.5
307.961	294.5
308.191	287.5
308.421	291.5
308.651	286.5
308.881	297.5
309.111	325.5
309.341	311.5
309.571	297.5
309.8	301.5
310.03	299.5
310.26	310.5
310.49	313.5
310.72	316.5
310.949	331.5
311.179	308.5
311.409	307.5
311.639	313.5
311.868	331.5
312.098	320.5
312.328	302.5
312.557	321.5
312.787	318.5
313.017	333.5
313.246	331.5
313.476	308.5
313.706	309.5
313.935	326.5
314.165	324.5
314.394	346.5
314.624	329.5
314.853	328.5
315.083	310.5
315.312	309.5
315.542	320.5
315.771	308.5
316.001	313.5
316.23	316.5
316.46	310.5
316.689	329.5
316.919	329.5
317.148	337.5
317.377	309.5
317.607	318.5
317.836	317.5
318.065	339.5
318.295	336.5
318.524	329.5
318.753	343.5
318.983	335.5
319.212	298.5
319.441	316.5
319.67	336.5
319.9	318.5
320.129	324.5
320.358	323.5
320.587	320.5
320.816	343.5
321.046	339.5
321.275	327.5
321.504	342.5
321.733	308.5
321.962	333.5
322.191	350.5
322.42	339.5
322.649	353.5
322.878	353.5
323.108	367.5
323.337	380.5
323.566	368.5
323.795	371.5
324.024	422.5
324.253	454.5
324.482	588.5
324.71	838.5
324.939	1086.5
325.168	940.5
325.397	555.5
325.626	420.5
325.855	404.5
326.084	366.5
326.313	382.5
326.542	381.5
326.77	391.5
326.999	475.5
327.228	574.5
327.457	785.5
327.686	851.5
327.914	621.5
328.143	476.5
328.372	410.5
328.6	411.5
328.829	408.5
329.058	424.5
329.287	427.5
329.515	408.5
329.744	388.5
329.972	392.5
330.201	397.5
330.43	437.5
330.658	452.5
330.887	426.5
331.115	434.5
331.344	401.5
331.572	378.5
331.801	376.5
332.03	393.5
332.258	374.5
332.486	390.5
332.715	405.5
332.943	397.5
333.172	392.5
333.4	408.5
333.629	408.5
333.857	422.5
334.085	434.5
334.314	444.5
334.542	447.5
334.771	455.5
334.999	429.5
335.227	416.5
335.455	403.5
335.684	394.5
335.912	394.5
336.14	388.5
336.369	378.5
336.597	382.5
336.825	378.5
337.053	367.5
337.281	382.5
337.51	377.5
337.738	386.5
337.966	387.5
338.194	379.5
338.422	375.5
338.65	352.5
338.878	360.5
339.106	367.5
339.334	352.5
339.562	367.5
339.79	350.5
340.018	365.5
340.246	362.5
340.474	352.5
340.702	355.5
340.93	341.5
341.158	348.5
341.386	350.5
341.614	358.5
341.842	362.5
342.07	380.5
342.298	354.5
342.526	354.5
342.754	340.5
342.981	377.5
343.209	353.5
343.437	361.5
343.665	373.5
343.893	394.5
344.12	394.5
344.348	367.5
344.576	378.5
344.804	378.5
345.031	371.5
345.259	365.5
345.487	351.5
345.714	366.5
345.942	361.5
346.17	354.5
346.397	346.5
346.625	319.5
346.853	349.5
347.08	332.5
347.308	347.5
347.535	358.5
347.763	350.5
347.99	344.5
348.218	354.5
348.445	339.5
348.673	347.5
348.9	333.5
349.128	337.5
349.355	333.5
349.583	341.5
349.81	331.5
350.037	334.5
350.265	321.5
350.492	346.5
350.72	348.5
350.947	337.5
351.174	334.5
351.402	330.5
351.629	336.5
351.856	346.5
352.083	335.5
352.311	348.5
352.538	349.5
352.765	350.5
352.992	349.5
353.22	348.5
353.447	347.5
353.674	334.5
353.901	335.5
354.128	330.5
354.355	333.5
354.583	311.5
354.81	320.5
355.037	334.5
355.264	337.5
355.491	323.5
355.718	312.5
355.945	324.5
356.172	303.5
356.399	319.5
356.626	325.5
356.853	318.5
357.08	326.5
357.307	339.5
357.534	333.5
357.761	311.5
357.988	317.5
358.215	322.5
358.441	322.5
358.668	330.5
358.895	318.5
359.122	328.5
359.349	335.5
359.576	335.5
359.802	345.5
360.029	353.5
360.256	361.5
360.483	378.5
360.709	339.5
360.936	350.5
361.163	342.5
361.39	341.5
361.616	306.5
361.843	322.5
362.07	320.5
362.296	339.5
362.523	336.5
362.749	329.5
362.976	327.5
363.203	335.5
363.429	324.5
363.656	318.5
363.882	332.5
364.109	338.5
364.335	333.5
364.562	327.5
364.788	322.5
365.015	325.5
365.241	328.5
365.468	314.5
365.694	331.5
365.92	321.5
366.147	339.5
366.373	338.5
366.599	328.5
366.826	317.5
367.052	324.5
367.278	326.5
367.505	333.5
367.731	331.5
367.957	332.5
368.184	321.5
368.41	339.5
368.636	322.5
368.862	334.5
369.089	323.5
369.315	327.5
369.541	331.5
369.767	334.5
369.993	327.5
370.219	336.5
370.445	327.5
370.672	335.5
370.898	325.5
371.124	340.5
371.35	323.5
371.576	341.5
371.802	320.5
372.028	323.5
372.254	343.5
372.48	351.5
372.706	354.5
372.932	344.5
373.158	361.5
373.384	347.5
373.61	351.5
373.835	353.5
374.061	334.5
374.287	344.5
374.513	342.5
374.739	345.5
374.965	358.5
375.191	382.5
375.416	345.5
375.642	352.5
375.868	356.5
376.094	339.5
376.319	323.5
376.545	339.5
376.771	342.5
376.997	330.5
377.222	329.5
377.448	336.5
377.674	331.5
377.899	331.5
378.125	338.5
378.35	320.5
378.576	322.5
378.802	320.5
379.027	343.5
379.253	331.5
379.478	340.5
379.704	344.5
379.929	330.5
380.155	339.5
380.38	330.5
380.606	347.5
380.831	328.5
381.057	357.5
381.282	356.5
381.507	336.5
381.733	332.5
381.958	346.5
382.184	364.5
382.409	351.5
382.634	348.5
382.86	341.5
383.085	347.5
383.31	349.5
383.535	351.5
383.761	319.5
383.986	364.5
384.211	341.5
384.436	370.5
384.662	357.5
384.887	388.5
385.112	381.5
385.337	383.5
385.562	380.5
385.787	394.5
386.013	382.5
386.238	397.5
386.463	382.5
386.688	358.5
386.913	346.5
387.138	359.5
387.363	380.5
387.588	375.5
387.813	358.5
388.038	365.5
388.263	359.5
388.488	371.5
388.713	372.5
388.938	366.5
389.163	364.5
389.387	360.5
389.612	361.5
389.837	354.5
390.062	367.5
390.287	362.5
390.512	379.5
390.736	372.5
390.961	366.5
391.186	362.5
391.411	385.5
391.636	398.5
391.86	388.5
392.085	400.5
392.31	417.5
392.534	383.5
392.759	383.5
392.984	394.5
393.208	378.5
393.433	380.5
393.658	367.5
393.882	372.5
394.107	374.5
394.331	382.5
394.556	385.5
394.78	366.5
395.005	397.5
395.229	386.5
395.454	399.5
395.678	407.5
395.903	400.5
396.127	407.5
396.352	410.5
396.576	400.5
396.801	402.5
397.025	396.5
397.249	389.5
397.474	383.5
397.698	413.5
397.922	413.5
398.147	411.5
398.371	418.5
398.595	439.5
398.82	440.5
399.044	456.5
399.268	484.5
399.492	508.5
399.717	539.5
399.941	575.5
400.165	543.5
400.389	526.5
400.613	485.5
400.837	470.5
401.062	428.5
401.286	445.5
401.51	427.5
401.734	447.5
401.958	447.5
402.182	440.5
402.406	459.5
402.63	463.5
402.854	454.5
403.078	459.5
403.302	455.5
403.526	488.5
403.75	493.5
403.974	466.5
404.198	459.5
404.422	464.5
404.645	468.5
404.869	474.5
405.093	476.5
405.317	517.5
405.541	534.5
405.765	500.5
405.988	487.5
406.212	473.5
406.436	476.5
406.66	511.5
406.883	481.5
407.107	514.5
407.331	540.5
407.555	556.5
407.778	560.5
408.002	532.5
408.226	536.5
408.449	508.5
408.673	489.5
408.896	504.5
409.12	515.5
409.344	489.5
409.567	468.5
409.791	492.5
410.014	440.5
410.238	462.5
410.461	448.5
410.685	451.5
410.908	468.5
411.132	455.5
411.355	492.5
411.578	473.5
411.802	440.5
412.025	471.5
412.249	443.5
412.472	456.5
412.695	486.5
412.919	467.5
413.142	454.5
413.365	447.5
413.589	461.5
413.812	427.5
414.035	442.5
414.258	407.5
414.482	424.5
414.705	442.5
414.928	446.5
415.151	429.5
415.374	419.5
415.597	417.5
415.821	395.5
416.044	410.5
416.267	425.5
416.49	412.5
416.713	426.5
416.936	427.5
417.159	445.5
417.382	432.5
417.605	430.5
417.828	443.5
418.051	439.5
418.274	447.5
418.497	441.5
418.72	435.5
418.943	428.5
419.166	454.5
419.389	477.5
419.611	482.5
419.834	453.5
420.057	456.5
420.28	423.5
420.503	426.5
420.726	430.5
420.948	454.5
421.171	471.5
421.394	472.5
421.617	456.5
421.839	447.5
422.062	449.5
422.285	429.5
422.507	493.5
422.73	515.5
422.953	499.5
423.175	474.5
423.398	470.5
423.621	464.5
423.843	459.5
424.066	477.5
424.288	460.5
424.511	492.5
424.733	520.5
424.956	511.5
425.178	507.5
425.401	506.5
425.623	517.5
425.846	483.5
426.068	447.5
426.291	422.5
426.513	463.5
426.735	450.5
426.958	477.5
427.18	529.5
427.402	566.5
427.625	609.5
427.847	543.5
428.069	488.5
428.292	458.5
428.514	424.5
428.736	417.5
428.958	414.5
429.181	388.5
429.403	386.5
429.625	437.5
429.847	427.5
430.069	459.5
430.292	450.5
430.514	435.5
430.736	408.5
430.958	410.5
431.18	392.5
431.402	416.5
431.624	386.5
431.846	401.5
432.068	389.5
432.29	411.5
432.512	410.5
432.734	416.5
432.956	407.5
433.178	404.5
433.4	407.5
433.622	387.5
433.844	419.5
434.066	412.5
434.287	423.5
434.509	436.5
434.731	422.5
434.953	416.5
435.175	439.5
435.397	475.5
435.618	443.5
435.84	460.5
436.062	488.5
436.284	539.5
436.505	482.5
436.727	446.5
436.949	414.5
437.17	406.5
437.392	419.5
437.614	414.5
437.835	418.5
438.057	484.5
438.278	515.5
438.5	511.5
438.721	563.5
438.943	551.5
439.165	453.5
439.386	432.5
439.608	443.5
439.829	429.5
440.05	456.5
440.272	465.5
440.493	459.5
440.715	438.5
440.936	474.5
441.158	435.5
441.379	438.5
441.6	445.5
441.822	461.5
442.043	486.5
442.264	508.5
442.486	510.5
442.707	466.5
442.928	473.5
443.149	463.5
443.371	492.5
443.592	505.5
443.813	538.5
444.034	548.5
444.255	511.5
444.476	505.5
444.698	485.5
444.919	488.5
445.14	593.5
445.361	534.5
445.582	501.5
445.803	514.5
446.024	559.5
446.245	535.5
446.466	499.5
446.687	442.5
446.908	438.5
447.129	429.5
447.35	404.5
447.571	421.5
447.792	405.5
448.013	411.5
448.234	424.5
448.455	443.5
448.675	532.5
448.896	541.5
449.117	470.5
449.338	487.5
449.559	541.5
449.779	559.5
450	480.5
450.221	431.5
450.442	411.5
450.662	391.5
450.883	391.5
451.104	401.5
451.324	390.5
451.545	403.5
451.766	391.5
451.986	380.5
452.207	355.5
452.428	361.5
452.648	355.5
452.869	380.5
453.089	388.5
453.31	388.5
453.53	382.5
453.751	365.5
453.971	370.5
454.192	374.5
454.412	364.5
454.633	380.5
454.853	367.5
455.073	367.5
455.294	374.5
455.514	408.5
455.734	402.5
455.955	348.5
456.175	372.5
456.395	369.5
456.616	328.5
456.836	349.5
457.056	361.5
457.276	343.5
457.497	348.5
457.717	352.5
457.937	365.5
458.157	349.5
458.377	359.5
458.598	387.5
458.818	416.5
459.038	450.5
459.258	471.5
459.478	422.5
459.698	407.5
459.918	398.5
460.138	437.5
460.358	430.5
460.578	440.5
460.798	446.5
461.018	441.5
461.238	427.5
461.458	431.5
461.678	432.5
461.898	454.5
462.118	433.5
462.338	455.5
462.558	459.5
462.777	474.5
462.997	504.5
463.217	517.5
463.437	527.5
463.657	473.5
463.876	483.5
464.096	482.5
464.316	466.5
464.536	466.5
464.755	482.5
464.975	434.5
465.195	471.5
465.414	506.5
465.634	446.5
465.854	413.5
466.073	397.5
466.293	379.5
466.512	407.5
466.732	387.5
466.951	380.5
467.171	404.5
467.391	387.5
467.61	377.5
467.829	391.5
468.049	411.5
468.268	400.5
468.488	373.5
468.707	386.5
468.927	378.5
469.146	374.5
469.365	368.5
469.585	374.5
469.804	395.5
470.023	404.5
470.243	404.5
470.462	403.5
470.681	414.5
470.901	410.5
471.12	414.5
471.339	422.5
471.558	406.5
471.777	387.5
471.997	394.5
472.216	394.5
472.435	423.5
472.654	385.5
472.873	381.5
473.092	383.5
473.311	378.5
473.53	383.5
473.749	400.5
473.968	415.5
474.187	456.5
474.406	450.5
474.625	407.5
474.844	370.5
475.063	368.5
475.282	370.5
475.501	387.5
475.72	389.5
475.939	387.5
476.158	382.5
476.377	394.5
476.596	381.5
476.814	394.5
477.033	416.5
477.252	374.5
477.471	388.5
477.69	439.5
477.908	430.5
478.127	431.5
478.346	423.5
478.564	434.5
478.783	462.5
479.002	432.5
479.22	472.5
479.439	478.5
479.658	453.5
479.876	451.5
480.095	481.5
480.313	495.5
480.532	491.5
480.751	481.5
480.969	476.5
481.188	525.5
481.406	549.5
481.624	465.5
481.843	475.5
482.061	470.5
482.28	448.5
482.498	432.5
482.717	460.5
482.935	443.5
483.153	435.5
483.372	410.5
483.59	416.5
483.808	426.5
484.027	422.5
484.245	447.5
484.463	453.5
484.681	445.5
484.9	448.5
485.118	480.5
485.336	441.5
485.554	434.5
485.772	455.5
485.99	443.5
486.209	457.5
486.427	458.5
486.645	475.5
486.863	476.5
487.081	467.5
487.299	462.5
487.517	463.5
487.735	461.5
487.953	466.5
488.171	474.5
488.389	496.5
488.607	467.5
488.825	462.5
489.043	476.5
489.261	470.5
489.479	464.5
489.696	468.5
489.914	489.5
490.132	491.5
490.35	498.5
490.568	482.5
490.786	511.5
491.003	469.5
491.221	516.5
491.439	523.5
491.657	519.5
491.874	552.5
492.092	534.5
492.31	545.5
492.527	542.5
492.745	543.5
492.963	547.5
493.18	539.5
493.398	565.5
493.615	565.5
493.833	570.5
494.05	555.5
494.268	555.5
494.485	568.5
494.703	548.5
494.92	547.5
495.138	542.5
495.355	540.5
495.573	549.5
495.79	554.5
496.008	573.5
496.225	559.5
496.442	551.5
496.66	573.5
496.877	553.5
497.094	545.5
497.312	583.5
497.529	580.5
497.746	588.5
497.963	595.5
498.181	610.5
498.398	629.5
498.615	614.5
498.832	667.5
499.049	684.5
499.267	723.5
499.484	771.5
499.701	812.5
499.918	847.5
500.135	906.5
500.352	974.5
500.569	1006.5
500.786	1011.5
501.003	955.5
501.22	904.5
501.437	845.5
501.654	805.5
501.871	770.5
502.088	726.5
502.305	711.5
502.522	649.5
502.739	635.5
502.956	619.5
503.172	607.5
503.389	598.5
503.606	599.5
503.823	579.5
504.04	565.5
504.256	581.5
504.473	575.5
504.69	572.5
504.907	584.5
505.123	548.5
505.34	546.5
505.557	556.5
505.773	528.5
505.99	519.5
506.207	512.5
506.423	515.5
506.64	513.5
506.856	518.5
507.073	504.5
507.289	491.5
507.506	480.5
507.722	517.5
507.939	512.5
508.155	509.5
508.372	479.5
508.588	470.5
508.805	475.5
509.021	474.5
509.238	495.5
509.454	501.5
509.67	475.5
509.887	477.5
510.103	478.5
510.319	468.5
510.536	522.5
510.752	751.5
510.968	634.5
511.184	479.5
511.401	442.5
511.617	470.5
511.833	440.5
512.049	459.5
512.265	455.5
512.481	448.5
512.698	477.5
512.914	476.5
513.13	442.5
513.346	422.5
513.562	452.5
513.778	457.5
513.994	450.5
514.21	448.5
514.426	490.5
514.642	484.5
514.858	482.5
515.074	503.5
515.29	571.5
515.506	774.5
515.721	673.5
515.937	514.5
516.153	476.5
516.369	481.5
516.585	485.5
516.801	496.5
517.016	500.5
517.232	489.5
517.448	524.5
517.664	535.5
517.879	521.5
518.095	495.5
518.311	518.5
518.527	527.5
518.742	488.5
518.958	481.5
519.173	476.5
519.389	466.5
519.605	448.5
519.82	441.5
520.036	463.5
