Data from 1969.PennyLincolnUp.Lamp.En5.5.200Scan.071719.P1._HRD10591_14-56-28-973.txt Node
Date: Thu Jul 18 14:56:28 EDT 2019
User: cochatt
Spectrometer: HR+D1059
Trigger mode: 1
Integration Time (sec): 1.000000E-1
Scans to average: 1
Electric dark correction enabled: true
Nonlinearity correction enabled: false
Boxcar width: 0
XAxis mode: Wavelengths
Number of Pixels in Spectrum: 2048
>>>>>Begin Spectral Data<<<<<
223.165	-12.62
223.4	-12.62
223.635	-12.62
223.869	-17.62
224.104	-28.62
224.338	-17.62
224.573	-15.62
224.808	-8.62
225.042	-5.62
225.277	-12.62
225.511	-0.62
225.746	5.38
225.98	10.38
226.215	11.38
226.449	16.38
226.683	32.38
226.918	21.38
227.152	22.38
227.387	25.38
227.621	23.38
227.856	31.38
228.09	41.38
228.324	53.38
228.559	46.38
228.793	64.38
229.027	81.38
229.262	91.38
229.496	108.38
229.73	114.38
229.964	110.38
230.199	89.38
230.433	94.38
230.667	102.38
230.901	96.38
231.136	101.38
231.37	96.38
231.604	100.38
231.838	107.38
232.072	94.38
232.306	102.38
232.541	103.38
232.775	107.38
233.009	103.38
233.243	94.38
233.477	114.38
233.711	92.38
233.945	95.38
234.179	99.38
234.413	107.38
234.647	104.38
234.881	105.38
235.115	82.38
235.349	97.38
235.583	111.38
235.817	124.38
236.051	106.38
236.285	98.38
236.519	94.38
236.753	105.38
236.987	129.38
237.221	139.38
237.455	170.38
237.689	144.38
237.922	119.38
238.156	113.38
238.39	106.38
238.624	120.38
238.858	112.38
239.091	128.38
239.325	127.38
239.559	98.38
239.793	110.38
240.027	126.38
240.26	129.38
240.494	127.38
240.728	118.38
240.961	118.38
241.195	124.38
241.429	115.38
241.662	122.38
241.896	107.38
242.13	126.38
242.363	125.38
242.597	121.38
242.83	118.38
243.064	115.38
243.298	117.38
243.531	119.38
243.765	115.38
243.998	125.38
244.232	128.38
244.465	136.38
244.699	123.38
244.932	129.38
245.166	116.38
245.399	127.38
245.633	138.38
245.866	105.38
246.099	138.38
246.333	120.38
246.566	116.38
246.8	134.38
247.033	136.38
247.266	135.38
247.5	129.38
247.733	139.38
247.966	165.38
248.2	148.38
248.433	146.38
248.666	141.38
248.899	148.38
249.133	159.38
249.366	167.38
249.599	155.38
249.832	149.38
250.066	152.38
250.299	147.38
250.532	167.38
250.765	180.38
250.998	170.38
251.231	182.38
251.465	171.38
251.698	160.38
251.931	179.38
252.164	170.38
252.397	151.38
252.63	160.38
252.863	174.38
253.096	175.38
253.329	185.38
253.562	191.38
253.795	175.38
254.028	198.38
254.261	193.38
254.494	192.38
254.727	210.38
254.96	229.38
255.193	205.38
255.426	188.38
255.659	163.38
255.892	179.38
256.124	187.38
256.357	187.38
256.59	185.38
256.823	183.38
257.056	166.38
257.289	178.38
257.521	185.38
257.754	167.38
257.987	163.38
258.22	180.38
258.452	169.38
258.685	167.38
258.918	186.38
259.151	178.38
259.383	184.38
259.616	188.38
259.849	184.38
260.081	185.38
260.314	203.38
260.547	206.38
260.779	203.38
261.012	202.38
261.244	194.38
261.477	199.38
261.71	191.38
261.942	202.38
262.175	196.38
262.407	216.38
262.64	192.38
262.872	163.38
263.105	171.38
263.337	181.38
263.57	177.38
263.802	172.38
264.035	191.38
264.267	171.38
264.499	178.38
264.732	169.38
264.964	166.38
265.197	178.38
265.429	163.38
265.661	169.38
265.894	192.38
266.126	201.38
266.358	172.38
266.591	184.38
266.823	207.38
267.055	182.38
267.287	192.38
267.52	175.38
267.752	182.38
267.984	183.38
268.216	206.38
268.448	213.38
268.681	203.38
268.913	233.38
269.145	232.38
269.377	218.38
269.609	224.38
269.841	222.38
270.073	213.38
270.306	234.38
270.538	263.38
270.77	266.38
271.002	247.38
271.234	222.38
271.466	249.38
271.698	264.38
271.93	250.38
272.162	259.38
272.394	256.38
272.626	234.38
272.858	227.38
273.09	226.38
273.322	225.38
273.553	221.38
273.785	216.38
274.017	232.38
274.249	226.38
274.481	219.38
274.713	219.38
274.945	229.38
275.176	222.38
275.408	221.38
275.64	223.38
275.872	232.38
276.104	226.38
276.335	226.38
276.567	245.38
276.799	232.38
277.031	254.38
277.262	268.38
277.494	269.38
277.726	253.38
277.957	265.38
278.189	226.38
278.421	220.38
278.652	226.38
278.884	240.38
279.115	239.38
279.347	230.38
279.579	225.38
279.81	217.38
280.042	219.38
280.273	243.38
280.505	229.38
280.736	238.38
280.968	230.38
281.199	248.38
281.431	241.38
281.662	232.38
281.894	217.38
282.125	238.38
282.356	246.38
282.588	263.38
282.819	243.38
283.051	255.38
283.282	243.38
283.513	236.38
283.745	228.38
283.976	245.38
284.207	237.38
284.439	243.38
284.67	241.38
284.901	237.38
285.132	228.38
285.364	244.38
285.595	252.38
285.826	253.38
286.057	234.38
286.288	243.38
286.52	254.38
286.751	256.38
286.982	258.38
287.213	258.38
287.444	254.38
287.675	256.38
287.906	271.38
288.138	286.38
288.369	262.38
288.6	263.38
288.831	278.38
289.062	270.38
289.293	272.38
289.524	257.38
289.755	238.38
289.986	247.38
290.217	225.38
290.448	261.38
290.679	243.38
290.91	267.38
291.141	247.38
291.371	256.38
291.602	242.38
291.833	257.38
292.064	261.38
292.295	249.38
292.526	256.38
292.757	264.38
292.987	264.38
293.218	265.38
293.449	262.38
293.68	272.38
293.91	286.38
294.141	244.38
294.372	251.38
294.603	240.38
294.833	235.38
295.064	260.38
295.295	264.38
295.525	258.38
295.756	257.38
295.987	259.38
296.217	281.38
296.448	292.38
296.679	258.38
296.909	257.38
297.14	278.38
297.37	281.38
297.601	266.38
297.831	246.38
298.062	247.38
298.292	272.38
298.523	278.38
298.753	291.38
298.984	283.38
299.214	263.38
299.445	270.38
299.675	256.38
299.905	294.38
300.136	282.38
300.366	280.38
300.597	298.38
300.827	285.38
301.057	286.38
301.288	299.38
301.518	293.38
301.748	295.38
301.979	308.38
302.209	287.38
302.439	300.38
302.669	288.38
302.9	288.38
303.13	285.38
303.36	281.38
303.59	294.38
303.82	292.38
304.051	306.38
304.281	282.38
304.511	289.38
304.741	282.38
304.971	290.38
305.201	278.38
305.431	290.38
305.661	292.38
305.891	299.38
306.121	283.38
306.352	298.38
306.582	291.38
306.812	299.38
307.042	308.38
307.272	290.38
307.502	284.38
307.731	290.38
307.961	284.38
308.191	294.38
308.421	289.38
308.651	283.38
308.881	298.38
309.111	283.38
309.341	319.38
309.571	294.38
309.8	297.38
310.03	306.38
310.26	314.38
310.49	306.38
310.72	315.38
310.949	331.38
311.179	328.38
311.409	330.38
311.639	309.38
311.868	317.38
312.098	311.38
312.328	333.38
312.557	311.38
312.787	342.38
313.017	327.38
313.246	331.38
313.476	303.38
313.706	321.38
313.935	331.38
314.165	338.38
314.394	331.38
314.624	331.38
314.853	315.38
315.083	328.38
315.312	316.38
315.542	313.38
315.771	328.38
316.001	296.38
316.23	322.38
316.46	329.38
316.689	319.38
316.919	311.38
317.148	322.38
317.377	313.38
317.607	343.38
317.836	321.38
318.065	345.38
318.295	330.38
318.524	310.38
318.753	322.38
318.983	304.38
319.212	307.38
319.441	323.38
319.67	336.38
319.9	328.38
320.129	318.38
320.358	318.38
320.587	320.38
320.816	320.38
321.046	336.38
321.275	343.38
321.504	325.38
321.733	314.38
321.962	336.38
322.191	345.38
322.42	349.38
322.649	349.38
322.878	354.38
323.108	363.38
323.337	378.38
323.566	378.38
323.795	410.38
324.024	418.38
324.253	462.38
324.482	627.38
324.71	916.38
324.939	1212.38
325.168	1020.38
325.397	577.38
325.626	438.38
325.855	396.38
326.084	379.38
326.313	383.38
326.542	391.38
326.77	418.38
326.999	474.38
327.228	596.38
327.457	816.38
327.686	923.38
327.914	632.38
328.143	458.38
328.372	449.38
328.6	436.38
328.829	438.38
329.058	432.38
329.287	448.38
329.515	397.38
329.744	386.38
329.972	408.38
330.201	404.38
330.43	444.38
330.658	447.38
330.887	452.38
331.115	424.38
331.344	414.38
331.572	404.38
331.801	400.38
332.03	383.38
332.258	391.38
332.486	391.38
332.715	389.38
332.943	403.38
333.172	420.38
333.4	404.38
333.629	400.38
333.857	421.38
334.085	408.38
334.314	426.38
334.542	448.38
334.771	447.38
334.999	441.38
335.227	434.38
335.455	395.38
335.684	396.38
335.912	396.38
336.14	407.38
336.369	387.38
336.597	386.38
336.825	404.38
337.053	410.38
337.281	374.38
337.51	380.38
337.738	358.38
337.966	378.38
338.194	359.38
338.422	366.38
338.65	383.38
338.878	374.38
339.106	370.38
339.334	366.38
339.562	356.38
339.79	340.38
340.018	342.38
340.246	336.38
340.474	354.38
340.702	356.38
340.93	339.38
341.158	352.38
341.386	359.38
341.614	379.38
341.842	368.38
342.07	350.38
342.298	335.38
342.526	363.38
342.754	339.38
342.981	348.38
343.209	369.38
343.437	358.38
343.665	382.38
343.893	386.38
344.12	379.38
344.348	389.38
344.576	389.38
344.804	386.38
345.031	371.38
345.259	363.38
345.487	366.38
345.714	350.38
345.942	342.38
346.17	344.38
346.397	345.38
346.625	336.38
346.853	359.38
347.08	348.38
347.308	344.38
347.535	342.38
347.763	359.38
347.99	359.38
348.218	366.38
348.445	359.38
348.673	370.38
348.9	357.38
349.128	342.38
349.355	328.38
349.583	350.38
349.81	332.38
350.037	331.38
350.265	347.38
350.492	345.38
350.72	334.38
350.947	343.38
351.174	345.38
351.402	349.38
351.629	339.38
351.856	336.38
352.083	342.38
352.311	334.38
352.538	372.38
352.765	322.38
352.992	348.38
353.22	354.38
353.447	318.38
353.674	324.38
353.901	304.38
354.128	340.38
354.355	342.38
354.583	328.38
354.81	336.38
355.037	321.38
355.264	328.38
355.491	330.38
355.718	318.38
355.945	290.38
356.172	330.38
356.399	324.38
356.626	331.38
356.853	344.38
357.08	320.38
357.307	339.38
357.534	308.38
357.761	305.38
357.988	323.38
358.215	329.38
358.441	328.38
358.668	319.38
358.895	332.38
359.122	311.38
359.349	341.38
359.576	337.38
359.802	354.38
360.029	370.38
360.256	380.38
360.483	345.38
360.709	347.38
360.936	337.38
361.163	359.38
361.39	363.38
361.616	341.38
361.843	351.38
362.07	336.38
362.296	332.38
362.523	337.38
362.749	338.38
362.976	335.38
363.203	345.38
363.429	325.38
363.656	318.38
363.882	313.38
364.109	321.38
364.335	314.38
364.562	324.38
364.788	331.38
365.015	324.38
365.241	331.38
365.468	347.38
365.694	339.38
365.92	349.38
366.147	351.38
366.373	332.38
366.599	328.38
366.826	322.38
367.052	311.38
367.278	338.38
367.505	311.38
367.731	330.38
367.957	317.38
368.184	350.38
368.41	349.38
368.636	350.38
368.862	340.38
369.089	329.38
369.315	327.38
369.541	332.38
369.767	340.38
369.993	324.38
370.219	327.38
370.445	347.38
370.672	338.38
370.898	331.38
371.124	330.38
371.35	315.38
371.576	332.38
371.802	320.38
372.028	339.38
372.254	334.38
372.48	339.38
372.706	335.38
372.932	316.38
373.158	340.38
373.384	340.38
373.61	329.38
373.835	350.38
374.061	339.38
374.287	352.38
374.513	315.38
374.739	345.38
374.965	357.38
375.191	336.38
375.416	339.38
375.642	332.38
375.868	342.38
376.094	342.38
376.319	329.38
376.545	337.38
376.771	335.38
376.997	353.38
377.222	312.38
377.448	354.38
377.674	338.38
377.899	349.38
378.125	326.38
378.35	339.38
378.576	318.38
378.802	318.38
379.027	360.38
379.253	354.38
379.478	326.38
379.704	325.38
379.929	339.38
380.155	325.38
380.38	336.38
380.606	318.38
380.831	330.38
381.057	332.38
381.282	335.38
381.507	339.38
381.733	343.38
381.958	330.38
382.184	353.38
382.409	349.38
382.634	347.38
382.86	336.38
383.085	331.38
383.31	347.38
383.535	336.38
383.761	338.38
383.986	359.38
384.211	373.38
384.436	356.38
384.662	352.38
384.887	356.38
385.112	373.38
385.337	362.38
385.562	374.38
385.787	362.38
386.013	396.38
386.238	378.38
386.463	372.38
386.688	375.38
386.913	372.38
387.138	368.38
387.363	380.38
387.588	373.38
387.813	361.38
388.038	350.38
388.263	355.38
388.488	377.38
388.713	352.38
388.938	372.38
389.163	360.38
389.387	366.38
389.612	369.38
389.837	351.38
390.062	354.38
390.287	378.38
390.512	368.38
390.736	368.38
390.961	371.38
391.186	383.38
391.411	388.38
391.636	366.38
391.86	380.38
392.085	395.38
392.31	389.38
392.534	379.38
392.759	396.38
392.984	366.38
393.208	370.38
393.433	355.38
393.658	384.38
393.882	361.38
394.107	364.38
394.331	378.38
394.556	370.38
394.78	364.38
395.005	387.38
395.229	386.38
395.454	411.38
395.678	397.38
395.903	406.38
396.127	396.38
396.352	416.38
396.576	395.38
396.801	390.38
397.025	396.38
397.249	390.38
397.474	393.38
397.698	405.38
397.922	415.38
398.147	389.38
398.371	387.38
398.595	426.38
398.82	427.38
399.044	466.38
399.268	464.38
399.492	547.38
399.717	574.38
399.941	548.38
400.165	554.38
400.389	550.38
400.613	494.38
400.837	441.38
401.062	448.38
401.286	458.38
401.51	453.38
401.734	419.38
401.958	447.38
402.182	448.38
402.406	440.38
402.63	431.38
402.854	456.38
403.078	463.38
403.302	439.38
403.526	454.38
403.75	452.38
403.974	479.38
404.198	458.38
404.422	479.38
404.645	466.38
404.869	456.38
405.093	498.38
405.317	529.38
405.541	532.38
405.765	488.38
405.988	461.38
406.212	494.38
406.436	488.38
406.66	511.38
406.883	472.38
407.107	501.38
407.331	537.38
407.555	591.38
407.778	575.38
408.002	520.38
408.226	505.38
408.449	506.38
408.673	479.38
408.896	503.38
409.12	523.38
409.344	503.38
409.567	441.38
409.791	441.38
410.014	456.38
410.238	455.38
410.461	431.38
410.685	444.38
410.908	474.38
411.132	478.38
411.355	499.38
411.578	478.38
411.802	442.38
412.025	456.38
412.249	448.38
412.472	480.38
412.695	491.38
412.919	463.38
413.142	454.38
413.365	438.38
413.589	434.38
413.812	419.38
414.035	406.38
414.258	423.38
414.482	430.38
414.705	443.38
414.928	406.38
415.151	430.38
415.374	430.38
415.597	435.38
415.821	425.38
416.044	428.38
416.267	414.38
416.49	423.38
416.713	409.38
416.936	440.38
417.159	446.38
417.382	424.38
417.605	425.38
417.828	439.38
418.051	436.38
418.274	428.38
418.497	458.38
418.72	430.38
418.943	416.38
419.166	450.38
419.389	471.38
419.611	486.38
419.834	457.38
420.057	468.38
420.28	454.38
420.503	425.38
420.726	437.38
420.948	452.38
421.171	463.38
421.394	473.38
421.617	444.38
421.839	431.38
422.062	426.38
422.285	445.38
422.507	475.38
422.73	513.38
422.953	504.38
423.175	458.38
423.398	449.38
423.621	471.38
423.843	490.38
424.066	476.38
424.288	478.38
424.511	472.38
424.733	506.38
424.956	536.38
425.178	529.38
425.401	520.38
425.623	529.38
425.846	482.38
426.068	461.38
426.291	450.38
426.513	416.38
426.735	446.38
426.958	478.38
427.18	520.38
427.402	610.38
427.625	642.38
427.847	570.38
428.069	503.38
428.292	461.38
428.514	425.38
428.736	410.38
428.958	416.38
429.181	415.38
429.403	392.38
429.625	410.38
429.847	458.38
430.069	478.38
430.292	466.38
430.514	420.38
430.736	421.38
430.958	412.38
431.18	400.38
431.402	408.38
431.624	396.38
431.846	422.38
432.068	403.38
432.29	403.38
432.512	385.38
432.734	409.38
432.956	406.38
433.178	411.38
433.4	393.38
433.622	402.38
433.844	396.38
434.066	392.38
434.287	408.38
434.509	408.38
434.731	413.38
434.953	415.38
435.175	431.38
435.397	452.38
435.618	460.38
435.84	465.38
436.062	524.38
436.284	536.38
436.505	470.38
436.727	435.38
436.949	446.38
437.17	389.38
437.392	416.38
437.614	431.38
437.835	427.38
438.057	470.38
438.278	544.38
438.5	567.38
438.721	574.38
438.943	563.38
439.165	450.38
439.386	452.38
439.608	450.38
439.829	446.38
440.05	457.38
440.272	490.38
440.493	439.38
440.715	438.38
440.936	427.38
441.158	436.38
441.379	430.38
441.6	447.38
441.822	465.38
442.043	485.38
442.264	527.38
442.486	556.38
442.707	472.38
442.928	466.38
443.149	466.38
443.371	502.38
443.592	517.38
443.813	565.38
444.034	598.38
444.255	507.38
444.476	495.38
444.698	494.38
444.919	506.38
445.14	552.38
445.361	512.38
445.582	497.38
445.803	516.38
446.024	541.38
446.245	568.38
446.466	518.38
446.687	455.38
446.908	430.38
447.129	415.38
447.35	405.38
447.571	408.38
447.792	407.38
448.013	429.38
448.234	410.38
448.455	470.38
448.675	530.38
448.896	565.38
449.117	488.38
449.338	461.38
449.559	539.38
449.779	576.38
450	475.38
450.221	427.38
450.442	410.38
450.662	390.38
450.883	394.38
451.104	400.38
451.324	390.38
451.545	381.38
451.766	390.38
451.986	380.38
452.207	359.38
452.428	358.38
452.648	373.38
452.869	374.38
453.089	383.38
453.31	387.38
453.53	359.38
453.751	359.38
453.971	371.38
454.192	376.38
454.412	364.38
454.633	382.38
454.853	374.38
455.073	359.38
455.294	382.38
455.514	424.38
455.734	396.38
455.955	375.38
456.175	347.38
456.395	359.38
456.616	348.38
456.836	338.38
457.056	347.38
457.276	343.38
457.497	340.38
457.717	362.38
457.937	368.38
458.157	354.38
458.377	386.38
458.598	383.38
458.818	415.38
459.038	468.38
459.258	468.38
459.478	415.38
459.698	399.38
459.918	395.38
460.138	415.38
460.358	425.38
460.578	434.38
460.798	420.38
461.018	439.38
461.238	430.38
461.458	421.38
461.678	404.38
461.898	440.38
462.118	432.38
462.338	463.38
462.558	443.38
462.777	466.38
462.997	486.38
463.217	497.38
463.437	494.38
463.657	470.38
463.876	469.38
464.096	480.38
464.316	476.38
464.536	480.38
464.755	456.38
464.975	460.38
465.195	471.38
465.414	504.38
465.634	447.38
465.854	415.38
466.073	392.38
466.293	394.38
466.512	392.38
466.732	387.38
466.951	397.38
467.171	379.38
467.391	379.38
467.61	391.38
467.829	406.38
468.049	401.38
468.268	382.38
468.488	382.38
468.707	361.38
468.927	389.38
469.146	392.38
469.365	375.38
469.585	395.38
469.804	409.38
470.023	399.38
470.243	390.38
470.462	412.38
470.681	432.38
470.901	423.38
471.12	394.38
471.339	415.38
471.558	388.38
471.777	395.38
471.997	396.38
472.216	395.38
472.435	407.38
472.654	385.38
472.873	368.38
473.092	380.38
473.311	367.38
473.53	376.38
473.749	375.38
473.968	408.38
474.187	470.38
474.406	466.38
474.625	425.38
474.844	418.38
475.063	396.38
475.282	387.38
475.501	376.38
475.72	391.38
475.939	400.38
476.158	399.38
476.377	363.38
476.596	396.38
476.814	409.38
477.033	396.38
477.252	388.38
477.471	408.38
477.69	425.38
477.908	418.38
478.127	434.38
478.346	427.38
478.564	434.38
478.783	447.38
479.002	462.38
479.22	443.38
479.439	459.38
479.658	476.38
479.876	458.38
480.095	472.38
480.313	490.38
480.532	501.38
480.751	516.38
480.969	488.38
481.188	511.38
481.406	550.38
481.624	473.38
481.843	464.38
482.061	465.38
482.28	443.38
482.498	436.38
482.717	426.38
482.935	437.38
483.153	430.38
483.372	439.38
483.59	458.38
483.808	423.38
484.027	439.38
484.245	451.38
484.463	447.38
484.681	444.38
484.9	445.38
485.118	452.38
485.336	454.38
485.554	452.38
485.772	481.38
485.99	454.38
486.209	450.38
486.427	459.38
486.645	471.38
486.863	490.38
487.081	469.38
487.299	507.38
487.517	456.38
487.735	456.38
487.953	466.38
488.171	452.38
488.389	473.38
488.607	461.38
488.825	481.38
489.043	476.38
489.261	475.38
489.479	488.38
489.696	478.38
489.914	477.38
490.132	490.38
490.35	473.38
490.568	508.38
490.786	517.38
491.003	511.38
491.221	538.38
491.439	529.38
491.657	525.38
491.874	554.38
492.092	553.38
492.31	569.38
492.527	540.38
492.745	584.38
492.963	566.38
493.18	555.38
493.398	560.38
493.615	553.38
493.833	571.38
494.05	574.38
494.268	577.38
494.485	562.38
494.703	550.38
494.92	536.38
495.138	553.38
495.355	564.38
495.573	578.38
495.79	568.38
496.008	568.38
496.225	536.38
496.442	532.38
496.66	549.38
496.877	558.38
497.094	553.38
497.312	562.38
497.529	581.38
497.746	586.38
497.963	599.38
498.181	641.38
498.398	622.38
498.615	638.38
498.832	648.38
499.049	688.38
499.267	730.38
499.484	755.38
499.701	799.38
499.918	837.38
500.135	910.38
500.352	950.38
500.569	969.38
500.786	1000.38
501.003	957.38
501.22	888.38
501.437	830.38
501.654	803.38
501.871	753.38
502.088	745.38
