Data from 1969.PennyLincolnUp.Lamp.En5.5.200Scan.071719.P1._HRD10591_14-54-34-972.txt Node
Date: Thu Jul 18 14:54:34 EDT 2019
User: cochatt
Spectrometer: HR+D1059
Trigger mode: 1
Integration Time (sec): 1.000000E-1
Scans to average: 1
Electric dark correction enabled: true
Nonlinearity correction enabled: false
Boxcar width: 0
XAxis mode: Wavelengths
Number of Pixels in Spectrum: 2048
>>>>>Begin Spectral Data<<<<<
223.165	-24.06
223.4	-24.06
223.635	-24.06
223.869	-18.06
224.104	-24.06
224.338	-11.06
224.573	-24.06
224.808	-19.06
225.042	-2.06
225.277	0.94
225.511	0.94
225.746	-5.06
225.98	19.94
226.215	24.94
226.449	10.94
226.683	21.94
226.918	20.94
227.152	26.94
227.387	28.94
227.621	35.94
227.856	42.94
228.09	41.94
228.324	43.94
228.559	66.94
228.793	50.94
229.027	84.94
229.262	88.94
229.496	95.94
229.73	94.94
229.964	107.94
230.199	93.94
230.433	96.94
230.667	85.94
230.901	86.94
231.136	94.94
231.37	97.94
231.604	98.94
231.838	105.94
232.072	105.94
232.306	107.94
232.541	106.94
232.775	101.94
233.009	108.94
233.243	109.94
233.477	112.94
233.711	108.94
233.945	113.94
234.179	116.94
234.413	107.94
234.647	108.94
234.881	104.94
235.115	109.94
235.349	96.94
235.583	104.94
235.817	110.94
236.051	90.94
236.285	114.94
236.519	117.94
236.753	121.94
236.987	130.94
237.221	136.94
237.455	156.94
237.689	133.94
237.922	115.94
238.156	117.94
238.39	101.94
238.624	104.94
238.858	107.94
239.091	106.94
239.325	121.94
239.559	107.94
239.793	104.94
240.027	100.94
240.26	101.94
240.494	126.94
240.728	125.94
240.961	130.94
241.195	118.94
241.429	118.94
241.662	120.94
241.896	116.94
242.13	106.94
242.363	118.94
242.597	132.94
242.83	132.94
243.064	136.94
243.298	113.94
243.531	121.94
243.765	118.94
243.998	120.94
244.232	93.94
244.465	113.94
244.699	134.94
244.932	122.94
245.166	125.94
245.399	122.94
245.633	113.94
245.866	130.94
246.099	127.94
246.333	125.94
246.566	131.94
246.8	118.94
247.033	126.94
247.266	133.94
247.5	138.94
247.733	147.94
247.966	130.94
248.2	143.94
248.433	141.94
248.666	140.94
248.899	134.94
249.133	143.94
249.366	140.94
249.599	165.94
249.832	147.94
250.066	134.94
250.299	160.94
250.532	143.94
250.765	158.94
250.998	182.94
251.231	178.94
251.465	162.94
251.698	165.94
251.931	149.94
252.164	155.94
252.397	165.94
252.63	162.94
252.863	179.94
253.096	176.94
253.329	169.94
253.562	176.94
253.795	176.94
254.028	176.94
254.261	156.94
254.494	166.94
254.727	192.94
254.96	202.94
255.193	202.94
255.426	182.94
255.659	164.94
255.892	181.94
256.124	158.94
256.357	181.94
256.59	198.94
256.823	171.94
257.056	178.94
257.289	184.94
257.521	188.94
257.754	186.94
257.987	171.94
258.22	176.94
258.452	161.94
258.685	160.94
258.918	178.94
259.151	154.94
259.383	174.94
259.616	183.94
259.849	182.94
260.081	195.94
260.314	187.94
260.547	204.94
260.779	188.94
261.012	177.94
261.244	181.94
261.477	184.94
261.71	163.94
261.942	176.94
262.175	181.94
262.407	184.94
262.64	185.94
262.872	193.94
263.105	190.94
263.337	174.94
263.57	166.94
263.802	186.94
264.035	165.94
264.267	174.94
264.499	179.94
264.732	180.94
264.964	187.94
265.197	193.94
265.429	175.94
265.661	169.94
265.894	191.94
266.126	194.94
266.358	193.94
266.591	190.94
266.823	170.94
267.055	180.94
267.287	194.94
267.52	178.94
267.752	186.94
267.984	186.94
268.216	190.94
268.448	186.94
268.681	195.94
268.913	210.94
269.145	202.94
269.377	200.94
269.609	202.94
269.841	216.94
270.073	201.94
270.306	224.94
270.538	228.94
270.77	243.94
271.002	209.94
271.234	226.94
271.466	229.94
271.698	224.94
271.93	236.94
272.162	225.94
272.394	237.94
272.626	229.94
272.858	224.94
273.09	212.94
273.322	222.94
273.553	214.94
273.785	214.94
274.017	218.94
274.249	215.94
274.481	221.94
274.713	205.94
274.945	213.94
275.176	216.94
275.408	213.94
275.64	205.94
275.872	212.94
276.104	223.94
276.335	202.94
276.567	218.94
276.799	219.94
277.031	241.94
277.262	242.94
277.494	250.94
277.726	226.94
277.957	230.94
278.189	235.94
278.421	220.94
278.652	213.94
278.884	220.94
279.115	206.94
279.347	222.94
279.579	221.94
279.81	230.94
280.042	224.94
280.273	207.94
280.505	230.94
280.736	229.94
280.968	213.94
281.199	216.94
281.431	215.94
281.662	229.94
281.894	229.94
282.125	224.94
282.356	227.94
282.588	239.94
282.819	235.94
283.051	226.94
283.282	220.94
283.513	222.94
283.745	245.94
283.976	237.94
284.207	226.94
284.439	242.94
284.67	234.94
284.901	221.94
285.132	241.94
285.364	225.94
285.595	233.94
285.826	245.94
286.057	242.94
286.288	230.94
286.52	232.94
286.751	235.94
286.982	232.94
287.213	225.94
287.444	239.94
287.675	243.94
287.906	244.94
288.138	238.94
288.369	251.94
288.6	261.94
288.831	264.94
289.062	241.94
289.293	226.94
289.524	251.94
289.755	254.94
289.986	256.94
290.217	250.94
290.448	238.94
290.679	237.94
290.91	241.94
291.141	249.94
291.371	274.94
291.602	259.94
291.833	271.94
292.064	244.94
292.295	246.94
292.526	251.94
292.757	226.94
292.987	238.94
293.218	252.94
293.449	264.94
293.68	244.94
293.91	249.94
294.141	238.94
294.372	244.94
294.603	256.94
294.833	256.94
295.064	246.94
295.295	259.94
295.525	257.94
295.756	277.94
295.987	264.94
296.217	265.94
296.448	283.94
296.679	260.94
296.909	259.94
297.14	255.94
297.37	246.94
297.601	254.94
297.831	262.94
298.062	250.94
298.292	263.94
298.523	277.94
298.753	275.94
298.984	266.94
299.214	276.94
299.445	256.94
299.675	250.94
299.905	287.94
300.136	262.94
300.366	252.94
300.597	276.94
300.827	285.94
301.057	280.94
301.288	295.94
301.518	273.94
301.748	265.94
301.979	277.94
302.209	280.94
302.439	282.94
302.669	262.94
302.9	288.94
303.13	267.94
303.36	274.94
303.59	281.94
303.82	282.94
304.051	287.94
304.281	276.94
304.511	274.94
304.741	265.94
304.971	291.94
305.201	269.94
305.431	272.94
305.661	268.94
305.891	281.94
306.121	275.94
306.352	276.94
306.582	279.94
306.812	297.94
307.042	277.94
307.272	276.94
307.502	280.94
307.731	288.94
307.961	266.94
308.191	296.94
308.421	273.94
308.651	286.94
308.881	289.94
309.111	284.94
309.341	269.94
309.571	295.94
309.8	290.94
310.03	303.94
310.26	288.94
310.49	295.94
310.72	296.94
310.949	305.94
311.179	307.94
311.409	304.94
311.639	297.94
311.868	310.94
312.098	284.94
312.328	281.94
312.557	292.94
312.787	309.94
313.017	324.94
313.246	306.94
313.476	308.94
313.706	291.94
313.935	308.94
314.165	336.94
314.394	296.94
314.624	293.94
314.853	305.94
315.083	313.94
315.312	299.94
315.542	300.94
315.771	301.94
316.001	326.94
316.23	300.94
316.46	309.94
316.689	304.94
316.919	307.94
317.148	312.94
317.377	316.94
317.607	298.94
317.836	298.94
318.065	298.94
318.295	297.94
318.524	306.94
318.753	304.94
318.983	307.94
319.212	299.94
319.441	302.94
319.67	302.94
319.9	300.94
320.129	312.94
320.358	310.94
320.587	309.94
320.816	317.94
321.046	307.94
321.275	299.94
321.504	312.94
321.733	300.94
321.962	300.94
322.191	310.94
322.42	313.94
322.649	325.94
322.878	339.94
323.108	325.94
323.337	345.94
323.566	332.94
323.795	351.94
324.024	379.94
324.253	421.94
324.482	558.94
324.71	762.94
324.939	972.94
325.168	843.94
325.397	477.94
325.626	404.94
325.855	344.94
326.084	363.94
326.313	370.94
326.542	341.94
326.77	378.94
326.999	396.94
327.228	511.94
327.457	720.94
327.686	767.94
327.914	537.94
328.143	419.94
328.372	368.94
328.6	380.94
328.829	387.94
329.058	388.94
329.287	393.94
329.515	374.94
329.744	358.94
329.972	367.94
330.201	362.94
330.43	388.94
330.658	401.94
330.887	411.94
331.115	404.94
331.344	362.94
331.572	374.94
331.801	364.94
332.03	370.94
332.258	372.94
332.486	360.94
332.715	345.94
332.943	370.94
333.172	368.94
333.4	391.94
333.629	392.94
333.857	414.94
334.085	423.94
334.314	418.94
334.542	406.94
334.771	416.94
334.999	415.94
335.227	406.94
335.455	368.94
335.684	360.94
335.912	356.94
336.14	363.94
336.369	360.94
336.597	371.94
336.825	351.94
337.053	383.94
337.281	344.94
337.51	361.94
337.738	360.94
337.966	362.94
338.194	340.94
338.422	366.94
338.65	341.94
338.878	334.94
339.106	342.94
339.334	342.94
339.562	339.94
339.79	332.94
340.018	322.94
340.246	311.94
340.474	347.94
340.702	343.94
340.93	327.94
341.158	325.94
341.386	335.94
341.614	346.94
341.842	338.94
342.07	346.94
342.298	321.94
342.526	339.94
342.754	319.94
342.981	336.94
343.209	330.94
343.437	344.94
343.665	371.94
343.893	357.94
344.12	395.94
344.348	371.94
344.576	355.94
344.804	363.94
345.031	357.94
345.259	344.94
345.487	347.94
345.714	314.94
345.942	329.94
346.17	334.94
346.397	316.94
346.625	352.94
346.853	324.94
347.08	336.94
347.308	325.94
347.535	327.94
347.763	338.94
347.99	322.94
348.218	319.94
348.445	325.94
348.673	324.94
348.9	325.94
349.128	324.94
349.355	318.94
349.583	316.94
349.81	301.94
350.037	323.94
350.265	313.94
350.492	317.94
350.72	315.94
350.947	320.94
351.174	301.94
351.402	322.94
351.629	342.94
351.856	307.94
352.083	314.94
352.311	320.94
352.538	319.94
352.765	309.94
352.992	324.94
353.22	318.94
353.447	316.94
353.674	310.94
353.901	311.94
354.128	301.94
354.355	306.94
354.583	313.94
354.81	305.94
355.037	301.94
355.264	311.94
355.491	305.94
355.718	317.94
355.945	330.94
356.172	322.94
356.399	297.94
356.626	302.94
356.853	300.94
357.08	324.94
357.307	317.94
357.534	299.94
357.761	320.94
357.988	327.94
358.215	312.94
358.441	315.94
358.668	325.94
358.895	316.94
359.122	307.94
359.349	301.94
359.576	323.94
359.802	323.94
360.029	339.94
360.256	331.94
360.483	329.94
360.709	322.94
360.936	313.94
361.163	310.94
361.39	311.94
361.616	318.94
361.843	322.94
362.07	317.94
362.296	315.94
362.523	316.94
362.749	320.94
362.976	315.94
363.203	298.94
363.429	318.94
363.656	315.94
363.882	301.94
364.109	312.94
364.335	304.94
364.562	312.94
364.788	303.94
365.015	313.94
365.241	314.94
365.468	332.94
365.694	317.94
365.92	308.94
366.147	284.94
366.373	324.94
366.599	314.94
366.826	309.94
367.052	301.94
367.278	306.94
367.505	325.94
367.731	304.94
367.957	311.94
368.184	304.94
368.41	323.94
368.636	321.94
368.862	318.94
369.089	325.94
369.315	313.94
369.541	312.94
369.767	327.94
369.993	309.94
370.219	291.94
370.445	308.94
370.672	325.94
370.898	298.94
371.124	305.94
371.35	311.94
371.576	330.94
371.802	329.94
372.028	312.94
372.254	339.94
372.48	327.94
372.706	322.94
372.932	316.94
373.158	327.94
373.384	311.94
373.61	317.94
373.835	332.94
374.061	312.94
374.287	309.94
374.513	318.94
374.739	337.94
374.965	350.94
375.191	341.94
375.416	336.94
375.642	332.94
375.868	309.94
376.094	337.94
376.319	319.94
376.545	310.94
376.771	312.94
376.997	316.94
377.222	313.94
377.448	330.94
377.674	318.94
377.899	316.94
378.125	317.94
378.35	296.94
378.576	314.94
378.802	306.94
379.027	293.94
379.253	322.94
379.478	328.94
379.704	304.94
379.929	304.94
380.155	331.94
380.38	319.94
380.606	288.94
380.831	322.94
381.057	306.94
381.282	313.94
381.507	326.94
381.733	312.94
381.958	324.94
382.184	305.94
382.409	316.94
382.634	352.94
382.86	325.94
383.085	328.94
383.31	340.94
383.535	326.94
383.761	346.94
383.986	328.94
384.211	352.94
384.436	333.94
384.662	365.94
384.887	348.94
385.112	340.94
385.337	342.94
385.562	339.94
385.787	350.94
386.013	366.94
386.238	379.94
386.463	353.94
386.688	344.94
386.913	355.94
387.138	344.94
387.363	353.94
387.588	337.94
387.813	341.94
388.038	334.94
388.263	331.94
388.488	356.94
388.713	334.94
388.938	347.94
389.163	361.94
389.387	328.94
389.612	342.94
389.837	353.94
390.062	361.94
390.287	357.94
390.512	345.94
390.736	357.94
390.961	366.94
391.186	357.94
391.411	363.94
391.636	376.94
391.86	378.94
392.085	374.94
392.31	387.94
392.534	356.94
392.759	373.94
392.984	357.94
393.208	374.94
393.433	371.94
393.658	376.94
393.882	377.94
394.107	361.94
394.331	364.94
394.556	376.94
394.78	352.94
395.005	351.94
395.229	365.94
395.454	401.94
395.678	373.94
395.903	378.94
396.127	399.94
396.352	365.94
396.576	376.94
396.801	381.94
397.025	366.94
397.249	371.94
397.474	384.94
397.698	382.94
397.922	386.94
398.147	418.94
398.371	388.94
398.595	403.94
398.82	417.94
399.044	430.94
399.268	446.94
399.492	489.94
399.717	536.94
399.941	524.94
400.165	537.94
400.389	497.94
400.613	450.94
400.837	433.94
401.062	404.94
401.286	412.94
401.51	419.94
401.734	410.94
401.958	408.94
402.182	412.94
402.406	434.94
402.63	437.94
402.854	438.94
403.078	411.94
403.302	420.94
403.526	442.94
403.75	446.94
403.974	450.94
404.198	462.94
404.422	441.94
404.645	444.94
404.869	450.94
405.093	466.94
405.317	491.94
405.541	495.94
405.765	467.94
405.988	440.94
406.212	449.94
406.436	488.94
406.66	479.94
406.883	474.94
407.107	491.94
407.331	510.94
407.555	546.94
407.778	530.94
408.002	514.94
408.226	474.94
408.449	501.94
408.673	476.94
408.896	469.94
409.12	483.94
409.344	473.94
409.567	434.94
409.791	424.94
410.014	428.94
410.238	426.94
410.461	429.94
410.685	429.94
410.908	434.94
411.132	436.94
411.355	451.94
411.578	446.94
411.802	408.94
412.025	418.94
412.249	432.94
412.472	454.94
412.695	463.94
412.919	440.94
413.142	422.94
413.365	413.94
413.589	404.94
413.812	419.94
414.035	411.94
414.258	428.94
414.482	405.94
414.705	394.94
414.928	410.94
415.151	409.94
415.374	415.94
415.597	427.94
415.821	415.94
416.044	404.94
416.267	412.94
416.49	399.94
416.713	417.94
416.936	406.94
417.159	392.94
417.382	393.94
417.605	400.94
417.828	411.94
418.051	422.94
418.274	418.94
418.497	391.94
418.72	421.94
418.943	412.94
419.166	422.94
419.389	434.94
419.611	425.94
419.834	402.94
420.057	419.94
420.28	418.94
420.503	429.94
420.726	407.94
420.948	425.94
421.171	424.94
421.394	465.94
421.617	424.94
421.839	408.94
422.062	426.94
422.285	432.94
422.507	446.94
422.73	468.94
422.953	469.94
423.175	437.94
423.398	417.94
423.621	424.94
423.843	441.94
424.066	446.94
424.288	450.94
424.511	441.94
424.733	474.94
424.956	486.94
425.178	475.94
425.401	483.94
425.623	468.94
425.846	450.94
426.068	423.94
426.291	416.94
426.513	426.94
426.735	420.94
426.958	444.94
427.18	477.94
427.402	532.94
427.625	574.94
427.847	490.94
428.069	467.94
428.292	421.94
428.514	388.94
428.736	410.94
428.958	388.94
429.181	387.94
429.403	392.94
429.625	394.94
429.847	407.94
430.069	424.94
430.292	428.94
430.514	374.94
430.736	408.94
430.958	422.94
431.18	389.94
431.402	387.94
431.624	365.94
431.846	374.94
432.068	396.94
432.29	401.94
432.512	380.94
432.734	376.94
432.956	391.94
433.178	377.94
433.4	379.94
433.622	378.94
433.844	399.94
434.066	385.94
434.287	384.94
434.509	393.94
434.731	404.94
434.953	414.94
435.175	411.94
435.397	424.94
435.618	418.94
435.84	440.94
436.062	464.94
436.284	496.94
436.505	417.94
436.727	412.94
436.949	381.94
437.17	395.94
437.392	405.94
437.614	405.94
437.835	419.94
438.057	444.94
438.278	488.94
438.5	507.94
438.721	541.94
438.943	509.94
439.165	433.94
439.386	425.94
439.608	409.94
439.829	430.94
440.05	414.94
440.272	427.94
440.493	405.94
440.715	398.94
440.936	417.94
441.158	399.94
441.379	396.94
441.6	417.94
441.822	445.94
442.043	436.94
442.264	489.94
442.486	512.94
442.707	416.94
442.928	431.94
443.149	439.94
443.371	452.94
443.592	473.94
443.813	528.94
444.034	532.94
444.255	484.94
444.476	454.94
444.698	455.94
444.919	469.94
445.14	536.94
445.361	497.94
445.582	442.94
445.803	469.94
446.024	509.94
446.245	530.94
446.466	467.94
446.687	432.94
446.908	407.94
447.129	393.94
447.35	391.94
447.571	390.94
447.792	395.94
448.013	381.94
448.234	400.94
448.455	407.94
448.675	482.94
448.896	514.94
449.117	478.94
449.338	442.94
449.559	496.94
449.779	530.94
450	445.94
450.221	407.94
450.442	352.94
450.662	376.94
450.883	380.94
451.104	390.94
451.324	392.94
451.545	350.94
451.766	350.94
451.986	332.94
452.207	344.94
452.428	354.94
452.648	347.94
452.869	362.94
453.089	352.94
453.31	370.94
453.53	346.94
453.751	361.94
453.971	348.94
454.192	361.94
454.412	361.94
454.633	355.94
454.853	370.94
455.073	332.94
455.294	375.94
455.514	404.94
455.734	374.94
455.955	354.94
456.175	341.94
456.395	339.94
456.616	337.94
456.836	327.94
457.056	336.94
457.276	329.94
457.497	347.94
457.717	334.94
457.937	347.94
458.157	347.94
458.377	346.94
458.598	362.94
458.818	383.94
459.038	442.94
459.258	433.94
459.478	395.94
459.698	390.94
459.918	391.94
460.138	419.94
460.358	419.94
460.578	405.94
460.798	402.94
461.018	427.94
461.238	410.94
461.458	419.94
461.678	396.94
461.898	405.94
462.118	419.94
462.338	436.94
462.558	448.94
462.777	433.94
462.997	457.94
463.217	489.94
463.437	487.94
463.657	454.94
463.876	445.94
464.096	422.94
464.316	417.94
464.536	438.94
464.755	449.94
464.975	450.94
465.195	451.94
465.414	479.94
465.634	417.94
465.854	411.94
466.073	405.94
466.293	368.94
466.512	360.94
466.732	372.94
466.951	356.94
467.171	390.94
467.391	383.94
467.61	387.94
467.829	385.94
468.049	383.94
468.268	372.94
468.488	356.94
468.707	352.94
468.927	360.94
469.146	359.94
469.365	365.94
469.585	359.94
469.804	373.94
470.023	390.94
470.243	374.94
470.462	376.94
470.681	380.94
470.901	380.94
471.12	372.94
471.339	403.94
471.558	375.94
471.777	380.94
471.997	378.94
472.216	377.94
472.435	384.94
472.654	370.94
472.873	362.94
473.092	363.94
473.311	357.94
473.53	365.94
473.749	374.94
473.968	382.94
474.187	436.94
474.406	445.94
474.625	398.94
474.844	359.94
475.063	368.94
475.282	365.94
475.501	368.94
475.72	360.94
475.939	365.94
476.158	372.94
476.377	363.94
476.596	392.94
476.814	395.94
477.033	381.94
477.252	405.94
477.471	387.94
477.69	405.94
477.908	388.94
478.127	404.94
478.346	423.94
478.564	422.94
478.783	416.94
479.002	428.94
479.22	425.94
479.439	437.94
479.658	434.94
479.876	443.94
480.095	438.94
480.313	475.94
480.532	466.94
480.751	452.94
480.969	461.94
481.188	479.94
481.406	481.94
481.624	441.94
481.843	429.94
482.061	429.94
482.28	431.94
482.498	418.94
482.717	411.94
482.935	411.94
483.153	406.94
483.372	408.94
483.59	407.94
483.808	411.94
484.027	432.94
484.245	420.94
484.463	416.94
484.681	418.94
484.9	417.94
485.118	438.94
485.336	421.94
485.554	419.94
485.772	427.94
485.99	435.94
486.209	433.94
486.427	448.94
486.645	430.94
486.863	441.94
487.081	443.94
487.299	457.94
487.517	443.94
487.735	440.94
487.953	453.94
488.171	481.94
488.389	450.94
488.607	430.94
488.825	465.94
489.043	445.94
489.261	436.94
489.479	443.94
489.696	425.94
489.914	459.94
490.132	466.94
490.35	471.94
490.568	477.94
490.786	472.94
491.003	461.94
491.221	482.94
491.439	479.94
491.657	490.94
491.874	493.94
492.092	520.94
492.31	511.94
492.527	515.94
492.745	505.94
492.963	521.94
493.18	532.94
493.398	505.94
493.615	531.94
493.833	522.94
494.05	529.94
494.268	511.94
494.485	516.94
494.703	487.94
494.92	499.94
495.138	525.94
495.355	514.94
495.573	520.94
495.79	533.94
496.008	516.94
496.225	539.94
496.442	550.94
496.66	527.94
496.877	500.94
497.094	521.94
497.312	550.94
497.529	532.94
497.746	544.94
497.963	554.94
498.181	570.94
498.398	589.94
498.615	628.94
498.832	630.94
499.049	645.94
499.267	676.94
499.484	749.94
499.701	754.94
499.918	816.94
500.135	849.94
500.352	900.94
500.569	928.94
500.786	926.94
501.003	889.94
501.22	864.94
501.437	796.94
501.654	761.94
501.871	700.94
502.088	709.94
