Data from 1969.PennyLincolnUp.Lamp.En5.5.200Scan.071719.P1._HRD10591_14-54-13-971.txt Node
Date: Thu Jul 18 14:54:13 EDT 2019
User: cochatt
Spectrometer: HR+D1059
Trigger mode: 1
Integration Time (sec): 1.000000E-1
Scans to average: 1
Electric dark correction enabled: true
Nonlinearity correction enabled: false
Boxcar width: 0
XAxis mode: Wavelengths
Number of Pixels in Spectrum: 2048
>>>>>Begin Spectral Data<<<<<
223.165	-15.56
223.4	-15.56
223.635	-15.56
223.869	-15.56
224.104	-16.56
224.338	-26.56
224.573	-19.56
224.808	-8.56
225.042	-19.56
225.277	-8.56
225.511	-4.56
225.746	-6.56
225.98	11.44
226.215	21.44
226.449	17.44
226.683	17.44
226.918	36.44
227.152	37.44
227.387	32.44
227.621	37.44
227.856	48.44
228.09	47.44
228.324	28.44
228.559	40.44
228.793	49.44
229.027	84.44
229.262	85.44
229.496	104.44
229.73	96.44
229.964	112.44
230.199	105.44
230.433	91.44
230.667	85.44
230.901	91.44
231.136	86.44
231.37	95.44
231.604	93.44
231.838	99.44
232.072	92.44
232.306	112.44
232.541	104.44
232.775	104.44
233.009	104.44
233.243	101.44
233.477	113.44
233.711	87.44
233.945	99.44
234.179	103.44
234.413	110.44
234.647	116.44
234.881	111.44
235.115	118.44
235.349	108.44
235.583	111.44
235.817	127.44
236.051	118.44
236.285	101.44
236.519	119.44
236.753	110.44
236.987	114.44
237.221	139.44
237.455	145.44
237.689	137.44
237.922	107.44
238.156	110.44
238.39	102.44
238.624	111.44
238.858	108.44
239.091	111.44
239.325	109.44
239.559	121.44
239.793	125.44
240.027	112.44
240.26	125.44
240.494	121.44
240.728	101.44
240.961	129.44
241.195	118.44
241.429	119.44
241.662	112.44
241.896	117.44
242.13	119.44
242.363	119.44
242.597	116.44
242.83	117.44
243.064	111.44
243.298	115.44
243.531	117.44
243.765	121.44
243.998	130.44
244.232	116.44
244.465	118.44
244.699	112.44
244.932	131.44
245.166	137.44
245.399	118.44
245.633	126.44
245.866	130.44
246.099	127.44
246.333	144.44
246.566	135.44
246.8	135.44
247.033	132.44
247.266	142.44
247.5	145.44
247.733	148.44
247.966	137.44
248.2	145.44
248.433	118.44
248.666	135.44
248.899	158.44
249.133	157.44
249.366	166.44
249.599	149.44
249.832	150.44
250.066	145.44
250.299	155.44
250.532	163.44
250.765	151.44
250.998	175.44
251.231	164.44
251.465	143.44
251.698	157.44
251.931	153.44
252.164	156.44
252.397	159.44
252.63	171.44
252.863	156.44
253.096	186.44
253.329	174.44
253.562	158.44
253.795	174.44
254.028	173.44
254.261	191.44
254.494	170.44
254.727	185.44
254.96	204.44
255.193	191.44
255.426	186.44
255.659	173.44
255.892	179.44
256.124	174.44
256.357	171.44
256.59	172.44
256.823	166.44
257.056	170.44
257.289	191.44
257.521	169.44
257.754	181.44
257.987	175.44
258.22	173.44
258.452	172.44
258.685	174.44
258.918	161.44
259.151	173.44
259.383	187.44
259.616	188.44
259.849	182.44
260.081	181.44
260.314	203.44
260.547	176.44
260.779	189.44
261.012	177.44
261.244	189.44
261.477	180.44
261.71	179.44
261.942	184.44
262.175	178.44
262.407	182.44
262.64	175.44
262.872	181.44
263.105	177.44
263.337	173.44
263.57	176.44
263.802	178.44
264.035	167.44
264.267	180.44
264.499	175.44
264.732	190.44
264.964	176.44
265.197	165.44
265.429	167.44
265.661	169.44
265.894	184.44
266.126	181.44
266.358	183.44
266.591	185.44
266.823	201.44
267.055	190.44
267.287	173.44
267.52	179.44
267.752	174.44
267.984	175.44
268.216	180.44
268.448	187.44
268.681	195.44
268.913	195.44
269.145	212.44
269.377	221.44
269.609	222.44
269.841	215.44
270.073	222.44
270.306	223.44
270.538	240.44
270.77	236.44
271.002	227.44
271.234	234.44
271.466	227.44
271.698	241.44
271.93	230.44
272.162	237.44
272.394	238.44
272.626	219.44
272.858	211.44
273.09	232.44
273.322	215.44
273.553	223.44
273.785	204.44
274.017	211.44
274.249	208.44
274.481	207.44
274.713	210.44
274.945	201.44
275.176	204.44
275.408	224.44
275.64	220.44
275.872	236.44
276.104	212.44
276.335	218.44
276.567	230.44
276.799	234.44
277.031	226.44
277.262	249.44
277.494	236.44
277.726	259.44
277.957	237.44
278.189	246.44
278.421	211.44
278.652	219.44
278.884	228.44
279.115	237.44
279.347	217.44
279.579	212.44
279.81	221.44
280.042	227.44
280.273	220.44
280.505	245.44
280.736	236.44
280.968	228.44
281.199	219.44
281.431	231.44
281.662	220.44
281.894	231.44
282.125	224.44
282.356	239.44
282.588	247.44
282.819	243.44
283.051	233.44
283.282	226.44
283.513	238.44
283.745	236.44
283.976	238.44
284.207	205.44
284.439	238.44
284.67	245.44
284.901	238.44
285.132	238.44
285.364	243.44
285.595	257.44
285.826	236.44
286.057	224.44
286.288	232.44
286.52	235.44
286.751	232.44
286.982	244.44
287.213	254.44
287.444	241.44
287.675	256.44
287.906	259.44
288.138	271.44
288.369	253.44
288.6	251.44
288.831	248.44
289.062	251.44
289.293	249.44
289.524	242.44
289.755	245.44
289.986	251.44
290.217	246.44
290.448	240.44
290.679	247.44
290.91	236.44
291.141	236.44
291.371	256.44
291.602	261.44
291.833	255.44
292.064	267.44
292.295	265.44
292.526	251.44
292.757	248.44
292.987	243.44
293.218	231.44
293.449	249.44
293.68	237.44
293.91	228.44
294.141	245.44
294.372	241.44
294.603	243.44
294.833	267.44
295.064	247.44
295.295	259.44
295.525	255.44
295.756	251.44
295.987	265.44
296.217	262.44
296.448	279.44
296.679	250.44
296.909	246.44
297.14	243.44
297.37	275.44
297.601	247.44
297.831	262.44
298.062	269.44
298.292	256.44
298.523	266.44
298.753	248.44
298.984	267.44
299.214	261.44
299.445	267.44
299.675	253.44
299.905	252.44
300.136	261.44
300.366	262.44
300.597	267.44
300.827	278.44
301.057	277.44
301.288	289.44
301.518	270.44
301.748	281.44
301.979	279.44
302.209	281.44
302.439	283.44
302.669	275.44
302.9	276.44
303.13	268.44
303.36	297.44
303.59	283.44
303.82	279.44
304.051	288.44
304.281	273.44
304.511	281.44
304.741	271.44
304.971	290.44
305.201	301.44
305.431	273.44
305.661	278.44
305.891	293.44
306.121	264.44
306.352	280.44
306.582	286.44
306.812	278.44
307.042	276.44
307.272	299.44
307.502	282.44
307.731	276.44
307.961	280.44
308.191	291.44
308.421	261.44
308.651	293.44
308.881	283.44
309.111	256.44
309.341	284.44
309.571	284.44
309.8	296.44
310.03	270.44
310.26	281.44
310.49	308.44
310.72	296.44
310.949	309.44
311.179	309.44
311.409	278.44
311.639	298.44
311.868	296.44
312.098	309.44
312.328	289.44
312.557	283.44
312.787	320.44
313.017	310.44
313.246	296.44
313.476	284.44
313.706	296.44
313.935	316.44
314.165	327.44
314.394	325.44
314.624	330.44
314.853	323.44
315.083	314.44
315.312	304.44
315.542	292.44
315.771	305.44
316.001	291.44
316.23	296.44
316.46	308.44
316.689	301.44
316.919	303.44
317.148	311.44
317.377	296.44
317.607	311.44
317.836	312.44
318.065	321.44
318.295	294.44
318.524	304.44
318.753	289.44
318.983	303.44
319.212	312.44
319.441	299.44
319.67	287.44
319.9	318.44
320.129	307.44
320.358	288.44
320.587	304.44
320.816	326.44
321.046	322.44
321.275	312.44
321.504	326.44
321.733	320.44
321.962	295.44
322.191	327.44
322.42	346.44
322.649	343.44
322.878	330.44
323.108	340.44
323.337	343.44
323.566	332.44
323.795	351.44
324.024	379.44
324.253	416.44
324.482	531.44
324.71	741.44
324.939	982.44
325.168	804.44
325.397	479.44
325.626	373.44
325.855	383.44
326.084	361.44
326.313	353.44
326.542	359.44
326.77	366.44
326.999	412.44
327.228	488.44
327.457	662.44
327.686	729.44
327.914	517.44
328.143	409.44
328.372	390.44
328.6	399.44
328.829	381.44
329.058	385.44
329.287	391.44
329.515	368.44
329.744	361.44
329.972	367.44
330.201	386.44
330.43	377.44
330.658	399.44
330.887	397.44
331.115	405.44
331.344	378.44
331.572	352.44
331.801	376.44
332.03	375.44
332.258	376.44
332.486	381.44
332.715	344.44
332.943	387.44
333.172	401.44
333.4	376.44
333.629	396.44
333.857	397.44
334.085	421.44
334.314	387.44
334.542	401.44
334.771	429.44
334.999	396.44
335.227	408.44
335.455	393.44
335.684	375.44
335.912	374.44
336.14	367.44
336.369	360.44
336.597	371.44
336.825	376.44
337.053	364.44
337.281	341.44
337.51	352.44
337.738	358.44
337.966	368.44
338.194	344.44
338.422	360.44
338.65	344.44
338.878	367.44
339.106	350.44
339.334	344.44
339.562	344.44
339.79	349.44
340.018	338.44
340.246	357.44
340.474	342.44
340.702	341.44
340.93	362.44
341.158	332.44
341.386	336.44
341.614	329.44
341.842	328.44
342.07	320.44
342.298	330.44
342.526	331.44
342.754	332.44
342.981	347.44
343.209	331.44
343.437	345.44
343.665	355.44
343.893	359.44
344.12	362.44
344.348	359.44
344.576	359.44
344.804	343.44
345.031	349.44
345.259	344.44
345.487	348.44
345.714	331.44
345.942	329.44
346.17	336.44
346.397	321.44
346.625	314.44
346.853	328.44
347.08	329.44
347.308	341.44
347.535	336.44
347.763	318.44
347.99	313.44
348.218	319.44
348.445	323.44
348.673	326.44
348.9	319.44
349.128	321.44
349.355	334.44
349.583	326.44
349.81	323.44
350.037	312.44
350.265	322.44
350.492	319.44
350.72	341.44
350.947	321.44
351.174	303.44
351.402	321.44
351.629	333.44
351.856	338.44
352.083	321.44
352.311	306.44
352.538	318.44
352.765	309.44
352.992	326.44
353.22	334.44
353.447	320.44
353.674	326.44
353.901	312.44
354.128	313.44
354.355	316.44
354.583	312.44
354.81	311.44
355.037	321.44
355.264	312.44
355.491	311.44
355.718	288.44
355.945	321.44
356.172	315.44
356.399	304.44
356.626	302.44
356.853	318.44
357.08	324.44
357.307	331.44
357.534	325.44
357.761	304.44
357.988	309.44
358.215	316.44
358.441	315.44
358.668	327.44
358.895	332.44
359.122	314.44
359.349	319.44
359.576	319.44
359.802	319.44
360.029	320.44
360.256	328.44
360.483	320.44
360.709	320.44
360.936	335.44
361.163	326.44
361.39	291.44
361.616	336.44
361.843	297.44
362.07	327.44
362.296	304.44
362.523	324.44
362.749	319.44
362.976	333.44
363.203	325.44
363.429	324.44
363.656	307.44
363.882	329.44
364.109	319.44
364.335	323.44
364.562	309.44
364.788	343.44
365.015	327.44
365.241	308.44
365.468	298.44
365.694	291.44
365.92	330.44
366.147	310.44
366.373	320.44
366.599	296.44
366.826	322.44
367.052	298.44
367.278	332.44
367.505	332.44
367.731	328.44
367.957	302.44
368.184	305.44
368.41	333.44
368.636	337.44
368.862	327.44
369.089	343.44
369.315	316.44
369.541	317.44
369.767	319.44
369.993	338.44
370.219	313.44
370.445	309.44
370.672	333.44
370.898	315.44
371.124	323.44
371.35	321.44
371.576	329.44
371.802	322.44
372.028	320.44
372.254	303.44
372.48	327.44
372.706	333.44
372.932	335.44
373.158	344.44
373.384	331.44
373.61	340.44
373.835	335.44
374.061	324.44
374.287	334.44
374.513	334.44
374.739	344.44
374.965	355.44
375.191	350.44
375.416	354.44
375.642	335.44
375.868	336.44
376.094	328.44
376.319	315.44
376.545	343.44
376.771	323.44
376.997	330.44
377.222	334.44
377.448	325.44
377.674	325.44
377.899	321.44
378.125	333.44
378.35	310.44
378.576	298.44
378.802	326.44
379.027	331.44
379.253	321.44
379.478	322.44
379.704	326.44
379.929	339.44
380.155	298.44
380.38	324.44
380.606	325.44
380.831	309.44
381.057	336.44
381.282	325.44
381.507	315.44
381.733	327.44
381.958	323.44
382.184	327.44
382.409	315.44
382.634	333.44
382.86	361.44
383.085	322.44
383.31	332.44
383.535	328.44
383.761	324.44
383.986	328.44
384.211	347.44
384.436	345.44
384.662	357.44
384.887	344.44
385.112	359.44
385.337	367.44
385.562	368.44
385.787	351.44
386.013	347.44
386.238	353.44
386.463	360.44
386.688	355.44
386.913	335.44
387.138	358.44
387.363	363.44
387.588	352.44
387.813	365.44
388.038	343.44
388.263	351.44
388.488	355.44
388.713	355.44
388.938	353.44
389.163	360.44
389.387	368.44
389.612	349.44
389.837	345.44
390.062	357.44
390.287	363.44
390.512	363.44
390.736	359.44
390.961	375.44
391.186	386.44
391.411	355.44
391.636	364.44
391.86	360.44
392.085	388.44
392.31	376.44
392.534	361.44
392.759	371.44
392.984	383.44
393.208	372.44
393.433	376.44
393.658	365.44
393.882	363.44
394.107	366.44
394.331	377.44
394.556	379.44
394.78	385.44
395.005	369.44
395.229	379.44
395.454	377.44
395.678	390.44
395.903	388.44
396.127	385.44
396.352	396.44
396.576	372.44
396.801	387.44
397.025	384.44
397.249	391.44
397.474	386.44
397.698	378.44
397.922	405.44
398.147	413.44
398.371	404.44
398.595	399.44
398.82	412.44
399.044	439.44
399.268	467.44
399.492	524.44
399.717	524.44
399.941	534.44
400.165	514.44
400.389	528.44
400.613	451.44
400.837	437.44
401.062	445.44
401.286	415.44
401.51	393.44
401.734	427.44
401.958	421.44
402.182	433.44
402.406	440.44
402.63	430.44
402.854	436.44
403.078	439.44
403.302	446.44
403.526	449.44
403.75	467.44
403.974	458.44
404.198	455.44
404.422	438.44
404.645	444.44
404.869	451.44
405.093	480.44
405.317	486.44
405.541	503.44
405.765	461.44
405.988	447.44
406.212	451.44
406.436	488.44
406.66	485.44
406.883	455.44
407.107	499.44
407.331	516.44
407.555	541.44
407.778	542.44
408.002	509.44
408.226	502.44
408.449	477.44
408.673	467.44
408.896	460.44
409.12	473.44
409.344	474.44
409.567	455.44
409.791	431.44
410.014	440.44
410.238	456.44
410.461	413.44
410.685	449.44
410.908	437.44
411.132	433.44
411.355	447.44
411.578	448.44
411.802	415.44
412.025	425.44
412.249	441.44
412.472	445.44
412.695	470.44
412.919	449.44
413.142	425.44
413.365	415.44
413.589	416.44
413.812	416.44
414.035	428.44
414.258	409.44
414.482	410.44
414.705	396.44
414.928	421.44
415.151	396.44
415.374	412.44
415.597	411.44
415.821	404.44
416.044	405.44
416.267	402.44
416.49	404.44
416.713	421.44
416.936	405.44
417.159	389.44
417.382	404.44
417.605	400.44
417.828	397.44
418.051	415.44
418.274	421.44
418.497	421.44
418.72	429.44
418.943	420.44
419.166	437.44
419.389	447.44
419.611	458.44
419.834	425.44
420.057	439.44
420.28	417.44
420.503	407.44
420.726	406.44
420.948	436.44
421.171	447.44
421.394	447.44
421.617	420.44
421.839	423.44
422.062	426.44
422.285	416.44
422.507	432.44
422.73	480.44
422.953	485.44
423.175	457.44
423.398	436.44
423.621	429.44
423.843	444.44
424.066	446.44
424.288	453.44
424.511	437.44
424.733	467.44
424.956	511.44
425.178	501.44
425.401	496.44
425.623	479.44
425.846	454.44
426.068	433.44
426.291	416.44
426.513	423.44
426.735	415.44
426.958	448.44
427.18	476.44
427.402	556.44
427.625	560.44
427.847	483.44
428.069	452.44
428.292	402.44
428.514	397.44
428.736	378.44
428.958	380.44
429.181	398.44
429.403	421.44
429.625	386.44
429.847	399.44
430.069	439.44
430.292	436.44
430.514	402.44
430.736	387.44
430.958	399.44
431.18	373.44
431.402	384.44
431.624	380.44
431.846	377.44
432.068	389.44
432.29	412.44
432.512	395.44
432.734	380.44
432.956	372.44
433.178	388.44
433.4	387.44
433.622	399.44
433.844	388.44
434.066	391.44
434.287	388.44
434.509	391.44
434.731	429.44
434.953	422.44
435.175	421.44
435.397	424.44
435.618	403.44
435.84	432.44
436.062	453.44
436.284	506.44
436.505	437.44
436.727	419.44
436.949	393.44
437.17	394.44
437.392	379.44
437.614	408.44
437.835	402.44
438.057	447.44
438.278	503.44
438.5	509.44
438.721	536.44
438.943	515.44
439.165	415.44
439.386	405.44
439.608	410.44
439.829	419.44
440.05	407.44
440.272	428.44
440.493	423.44
440.715	395.44
440.936	396.44
441.158	399.44
441.379	407.44
441.6	414.44
441.822	418.44
442.043	461.44
442.264	492.44
442.486	511.44
442.707	461.44
442.928	431.44
443.149	414.44
443.371	460.44
443.592	464.44
443.813	524.44
444.034	540.44
444.255	484.44
444.476	462.44
444.698	464.44
444.919	457.44
445.14	591.44
445.361	503.44
445.582	457.44
445.803	486.44
446.024	513.44
446.245	517.44
446.466	484.44
446.687	431.44
446.908	415.44
447.129	388.44
447.35	394.44
447.571	390.44
447.792	393.44
448.013	400.44
448.234	407.44
448.455	432.44
448.675	460.44
448.896	503.44
449.117	446.44
449.338	421.44
449.559	484.44
449.779	526.44
450	433.44
450.221	407.44
450.442	388.44
450.662	358.44
450.883	366.44
451.104	363.44
451.324	364.44
451.545	371.44
451.766	343.44
451.986	355.44
452.207	352.44
452.428	331.44
452.648	358.44
452.869	363.44
453.089	359.44
453.31	354.44
453.53	364.44
453.751	357.44
453.971	353.44
454.192	353.44
454.412	373.44
454.633	363.44
454.853	345.44
455.073	348.44
455.294	361.44
455.514	389.44
455.734	389.44
455.955	360.44
456.175	339.44
456.395	342.44
456.616	348.44
456.836	365.44
457.056	330.44
457.276	317.44
457.497	344.44
457.717	343.44
457.937	332.44
458.157	326.44
458.377	346.44
458.598	352.44
458.818	392.44
459.038	413.44
459.258	424.44
459.478	413.44
459.698	385.44
459.918	399.44
460.138	412.44
460.358	399.44
460.578	393.44
460.798	404.44
461.018	411.44
461.238	424.44
461.458	420.44
461.678	422.44
461.898	408.44
462.118	416.44
462.338	428.44
462.558	435.44
462.777	482.44
462.997	476.44
463.217	465.44
463.437	503.44
463.657	470.44
463.876	451.44
464.096	464.44
464.316	449.44
464.536	456.44
464.755	461.44
464.975	447.44
465.195	443.44
465.414	431.44
465.634	417.44
465.854	416.44
466.073	396.44
466.293	390.44
466.512	362.44
466.732	372.44
466.951	385.44
467.171	394.44
467.391	368.44
467.61	380.44
467.829	379.44
468.049	342.44
468.268	374.44
468.488	344.44
468.707	356.44
468.927	355.44
469.146	363.44
469.365	362.44
469.585	366.44
469.804	388.44
470.023	385.44
470.243	392.44
470.462	383.44
470.681	389.44
470.901	365.44
471.12	389.44
471.339	377.44
471.558	378.44
471.777	368.44
471.997	359.44
472.216	369.44
472.435	372.44
472.654	369.44
472.873	365.44
473.092	366.44
473.311	352.44
473.53	360.44
473.749	356.44
473.968	390.44
474.187	431.44
474.406	419.44
474.625	384.44
474.844	370.44
475.063	375.44
475.282	362.44
475.501	365.44
475.72	373.44
475.939	395.44
476.158	368.44
476.377	391.44
476.596	360.44
476.814	379.44
477.033	385.44
477.252	387.44
477.471	388.44
477.69	402.44
477.908	412.44
478.127	436.44
478.346	413.44
478.564	431.44
478.783	428.44
479.002	445.44
479.22	427.44
479.439	445.44
479.658	445.44
479.876	455.44
480.095	454.44
480.313	480.44
480.532	451.44
480.751	464.44
480.969	457.44
481.188	471.44
481.406	496.44
481.624	446.44
481.843	426.44
482.061	422.44
482.28	436.44
482.498	424.44
482.717	401.44
482.935	408.44
483.153	407.44
483.372	406.44
483.59	414.44
483.808	425.44
484.027	423.44
484.245	450.44
484.463	441.44
484.681	446.44
484.9	425.44
485.118	417.44
485.336	435.44
485.554	421.44
485.772	435.44
485.99	427.44
486.209	460.44
486.427	423.44
486.645	439.44
486.863	440.44
487.081	429.44
487.299	440.44
487.517	439.44
487.735	438.44
487.953	439.44
488.171	448.44
488.389	437.44
488.607	451.44
488.825	404.44
489.043	446.44
489.261	475.44
489.479	456.44
489.696	462.44
489.914	457.44
490.132	480.44
490.35	472.44
490.568	473.44
490.786	486.44
491.003	453.44
491.221	483.44
491.439	487.44
491.657	488.44
491.874	494.44
492.092	541.44
492.31	503.44
492.527	514.44
492.745	504.44
492.963	502.44
493.18	483.44
493.398	494.44
493.615	527.44
493.833	514.44
494.05	530.44
494.268	504.44
494.485	493.44
494.703	519.44
494.92	517.44
495.138	528.44
495.355	524.44
495.573	544.44
495.79	517.44
496.008	518.44
496.225	536.44
496.442	515.44
496.66	510.44
496.877	536.44
497.094	545.44
497.312	535.44
497.529	533.44
497.746	556.44
497.963	548.44
498.181	555.44
498.398	584.44
498.615	599.44
498.832	653.44
499.049	657.44
499.267	688.44
499.484	719.44
499.701	771.44
499.918	813.44
500.135	886.44
500.352	935.44
500.569	933.44
500.786	950.44
501.003	911.44
501.22	853.44
501.437	813.44
501.654	740.44
501.871	717.44
502.088	688.44
