Data from 1969.PennyLincolnUp.Lamp.En5.5.200Scan.071719.P1._HRD10591_14-54-19-972.txt Node
Date: Thu Jul 18 14:54:19 EDT 2019
User: cochatt
Spectrometer: HR+D1059
Trigger mode: 1
Integration Time (sec): 1.000000E-1
Scans to average: 1
Electric dark correction enabled: true
Nonlinearity correction enabled: false
Boxcar width: 0
XAxis mode: Wavelengths
Number of Pixels in Spectrum: 2048
>>>>>Begin Spectral Data<<<<<
223.165	-6.94
223.4	-6.94
223.635	-6.94
223.869	-13.94
224.104	-22.94
224.338	0.06
224.573	-18.94
224.808	-7.94
225.042	-20.94
225.277	-21.94
225.511	-7.94
225.746	4.06
225.98	5.06
226.215	27.06
226.449	12.06
226.683	13.06
226.918	28.06
227.152	32.06
227.387	27.06
227.621	43.06
227.856	37.06
228.09	45.06
228.324	51.06
228.559	55.06
228.793	52.06
229.027	69.06
229.262	83.06
229.496	96.06
229.73	103.06
229.964	116.06
230.199	106.06
230.433	99.06
230.667	83.06
230.901	90.06
231.136	71.06
231.37	97.06
231.604	107.06
231.838	102.06
232.072	103.06
232.306	95.06
232.541	106.06
232.775	106.06
233.009	111.06
233.243	95.06
233.477	97.06
233.711	124.06
233.945	108.06
234.179	114.06
234.413	99.06
234.647	114.06
234.881	99.06
235.115	115.06
235.349	101.06
235.583	103.06
235.817	100.06
236.051	122.06
236.285	115.06
236.519	111.06
236.753	116.06
236.987	122.06
237.221	134.06
237.455	141.06
237.689	140.06
237.922	115.06
238.156	120.06
238.39	102.06
238.624	114.06
238.858	100.06
239.091	113.06
239.325	111.06
239.559	122.06
239.793	127.06
240.027	111.06
240.26	116.06
240.494	126.06
240.728	125.06
240.961	120.06
241.195	116.06
241.429	106.06
241.662	116.06
241.896	100.06
242.13	112.06
242.363	108.06
242.597	121.06
242.83	118.06
243.064	123.06
243.298	115.06
243.531	117.06
243.765	125.06
243.998	124.06
244.232	130.06
244.465	126.06
244.699	125.06
244.932	117.06
245.166	125.06
245.399	127.06
245.633	133.06
245.866	128.06
246.099	159.06
246.333	132.06
246.566	140.06
246.8	129.06
247.033	128.06
247.266	126.06
247.5	110.06
247.733	128.06
247.966	131.06
248.2	128.06
248.433	141.06
248.666	162.06
248.899	145.06
249.133	142.06
249.366	146.06
249.599	168.06
249.832	143.06
250.066	153.06
250.299	142.06
250.532	138.06
250.765	157.06
250.998	169.06
251.231	182.06
251.465	182.06
251.698	166.06
251.931	164.06
252.164	159.06
252.397	153.06
252.63	167.06
252.863	178.06
253.096	168.06
253.329	178.06
253.562	175.06
253.795	185.06
254.028	182.06
254.261	173.06
254.494	176.06
254.727	183.06
254.96	204.06
255.193	186.06
255.426	182.06
255.659	190.06
255.892	188.06
256.124	171.06
256.357	192.06
256.59	199.06
256.823	184.06
257.056	171.06
257.289	175.06
257.521	172.06
257.754	170.06
257.987	171.06
258.22	169.06
258.452	170.06
258.685	184.06
258.918	182.06
259.151	180.06
259.383	193.06
259.616	182.06
259.849	179.06
260.081	168.06
260.314	198.06
260.547	203.06
260.779	187.06
261.012	184.06
261.244	182.06
261.477	189.06
261.71	164.06
261.942	193.06
262.175	192.06
262.407	180.06
262.64	188.06
262.872	173.06
263.105	186.06
263.337	187.06
263.57	181.06
263.802	183.06
264.035	186.06
264.267	178.06
264.499	157.06
264.732	182.06
264.964	184.06
265.197	167.06
265.429	182.06
265.661	173.06
265.894	198.06
266.126	196.06
266.358	194.06
266.591	194.06
266.823	212.06
267.055	196.06
267.287	190.06
267.52	204.06
267.752	196.06
267.984	201.06
268.216	200.06
268.448	198.06
268.681	202.06
268.913	195.06
269.145	220.06
269.377	228.06
269.609	221.06
269.841	220.06
270.073	217.06
270.306	232.06
270.538	233.06
270.77	246.06
271.002	247.06
271.234	222.06
271.466	232.06
271.698	250.06
271.93	250.06
272.162	238.06
272.394	250.06
272.626	236.06
272.858	212.06
273.09	237.06
273.322	216.06
273.553	227.06
273.785	215.06
274.017	206.06
274.249	212.06
274.481	207.06
274.713	236.06
274.945	217.06
275.176	209.06
275.408	208.06
275.64	224.06
275.872	226.06
276.104	219.06
276.335	229.06
276.567	223.06
276.799	211.06
277.031	267.06
277.262	254.06
277.494	278.06
277.726	237.06
277.957	256.06
278.189	208.06
278.421	230.06
278.652	216.06
278.884	237.06
279.115	224.06
279.347	209.06
279.579	217.06
279.81	226.06
280.042	230.06
280.273	231.06
280.505	239.06
280.736	223.06
280.968	231.06
281.199	236.06
281.431	233.06
281.662	245.06
281.894	226.06
282.125	230.06
282.356	237.06
282.588	242.06
282.819	271.06
283.051	230.06
283.282	233.06
283.513	232.06
283.745	230.06
283.976	217.06
284.207	218.06
284.439	239.06
284.67	244.06
284.901	230.06
285.132	242.06
285.364	236.06
285.595	255.06
285.826	254.06
286.057	232.06
286.288	250.06
286.52	247.06
286.751	237.06
286.982	235.06
287.213	242.06
287.444	244.06
287.675	242.06
287.906	252.06
288.138	261.06
288.369	244.06
288.6	244.06
288.831	270.06
289.062	268.06
289.293	265.06
289.524	242.06
289.755	230.06
289.986	271.06
290.217	257.06
290.448	277.06
290.679	250.06
290.91	259.06
291.141	233.06
291.371	269.06
291.602	247.06
291.833	235.06
292.064	254.06
292.295	251.06
292.526	243.06
292.757	252.06
292.987	267.06
293.218	250.06
293.449	248.06
293.68	268.06
293.91	265.06
294.141	268.06
294.372	238.06
294.603	263.06
294.833	255.06
295.064	271.06
295.295	262.06
295.525	264.06
295.756	278.06
295.987	266.06
296.217	270.06
296.448	281.06
296.679	254.06
296.909	249.06
297.14	248.06
297.37	235.06
297.601	251.06
297.831	264.06
298.062	261.06
298.292	278.06
298.523	276.06
298.753	278.06
298.984	273.06
299.214	283.06
299.445	251.06
299.675	274.06
299.905	265.06
300.136	276.06
300.366	264.06
300.597	265.06
300.827	269.06
301.057	292.06
301.288	272.06
301.518	283.06
301.748	290.06
301.979	278.06
302.209	282.06
302.439	291.06
302.669	295.06
302.9	280.06
303.13	267.06
303.36	276.06
303.59	282.06
303.82	276.06
304.051	273.06
304.281	271.06
304.511	266.06
304.741	269.06
304.971	297.06
305.201	272.06
305.431	289.06
305.661	300.06
305.891	278.06
306.121	293.06
306.352	270.06
306.582	281.06
306.812	285.06
307.042	270.06
307.272	294.06
307.502	297.06
307.731	276.06
307.961	286.06
308.191	264.06
308.421	291.06
308.651	276.06
308.881	279.06
309.111	282.06
309.341	290.06
309.571	314.06
309.8	309.06
310.03	293.06
310.26	293.06
310.49	314.06
310.72	311.06
310.949	296.06
311.179	295.06
311.409	293.06
311.639	310.06
311.868	306.06
312.098	293.06
312.328	302.06
312.557	303.06
312.787	335.06
313.017	300.06
313.246	309.06
313.476	299.06
313.706	318.06
313.935	314.06
314.165	322.06
314.394	318.06
314.624	328.06
314.853	322.06
315.083	291.06
315.312	304.06
315.542	311.06
315.771	300.06
316.001	293.06
316.23	323.06
316.46	289.06
316.689	323.06
316.919	296.06
317.148	316.06
317.377	331.06
317.607	326.06
317.836	296.06
318.065	308.06
318.295	320.06
318.524	317.06
318.753	293.06
318.983	318.06
319.212	308.06
319.441	307.06
319.67	296.06
319.9	318.06
320.129	310.06
320.358	310.06
320.587	321.06
320.816	317.06
321.046	325.06
321.275	315.06
321.504	310.06
321.733	318.06
321.962	343.06
322.191	318.06
322.42	325.06
322.649	330.06
322.878	340.06
323.108	356.06
323.337	327.06
323.566	346.06
323.795	370.06
324.024	392.06
324.253	437.06
324.482	574.06
324.71	808.06
324.939	1045.06
325.168	871.06
325.397	514.06
325.626	399.06
325.855	360.06
326.084	348.06
326.313	361.06
326.542	374.06
326.77	392.06
326.999	421.06
327.228	520.06
327.457	718.06
327.686	790.06
327.914	559.06
328.143	446.06
328.372	418.06
328.6	393.06
328.829	387.06
329.058	388.06
329.287	403.06
329.515	400.06
329.744	377.06
329.972	383.06
330.201	372.06
330.43	408.06
330.658	414.06
330.887	443.06
331.115	398.06
331.344	384.06
331.572	389.06
331.801	401.06
332.03	372.06
332.258	369.06
332.486	376.06
332.715	383.06
332.943	388.06
333.172	386.06
333.4	401.06
333.629	388.06
333.857	404.06
334.085	397.06
334.314	431.06
334.542	435.06
334.771	455.06
334.999	415.06
335.227	403.06
335.455	383.06
335.684	364.06
335.912	372.06
336.14	364.06
336.369	382.06
336.597	376.06
336.825	384.06
337.053	389.06
337.281	379.06
337.51	363.06
337.738	365.06
337.966	375.06
338.194	369.06
338.422	362.06
338.65	361.06
338.878	354.06
339.106	366.06
339.334	372.06
339.562	362.06
339.79	370.06
340.018	350.06
340.246	367.06
340.474	357.06
340.702	342.06
340.93	344.06
341.158	375.06
341.386	347.06
341.614	340.06
341.842	345.06
342.07	329.06
342.298	339.06
342.526	316.06
342.754	340.06
342.981	337.06
343.209	351.06
343.437	351.06
343.665	359.06
343.893	377.06
344.12	392.06
344.348	362.06
344.576	370.06
344.804	359.06
345.031	339.06
345.259	372.06
345.487	352.06
345.714	333.06
345.942	326.06
346.17	350.06
346.397	341.06
346.625	345.06
346.853	327.06
347.08	315.06
347.308	328.06
347.535	356.06
347.763	349.06
347.99	346.06
348.218	337.06
348.445	314.06
348.673	341.06
348.9	339.06
349.128	348.06
349.355	341.06
349.583	331.06
349.81	332.06
350.037	330.06
350.265	318.06
350.492	324.06
350.72	327.06
350.947	327.06
351.174	325.06
351.402	331.06
351.629	331.06
351.856	339.06
352.083	334.06
352.311	320.06
352.538	337.06
352.765	333.06
352.992	322.06
353.22	330.06
353.447	328.06
353.674	306.06
353.901	351.06
354.128	312.06
354.355	298.06
354.583	319.06
354.81	303.06
355.037	329.06
355.264	308.06
355.491	307.06
355.718	310.06
355.945	316.06
356.172	315.06
356.399	315.06
356.626	340.06
356.853	301.06
357.08	311.06
357.307	310.06
357.534	309.06
357.761	318.06
357.988	320.06
358.215	318.06
358.441	324.06
358.668	324.06
358.895	296.06
359.122	318.06
359.349	348.06
359.576	346.06
359.802	346.06
360.029	340.06
360.256	350.06
360.483	332.06
360.709	317.06
360.936	325.06
361.163	330.06
361.39	334.06
361.616	319.06
361.843	335.06
362.07	327.06
362.296	326.06
362.523	340.06
362.749	309.06
362.976	310.06
363.203	331.06
363.429	319.06
363.656	319.06
363.882	316.06
364.109	319.06
364.335	314.06
364.562	308.06
364.788	307.06
365.015	317.06
365.241	334.06
365.468	314.06
365.694	318.06
365.92	324.06
366.147	314.06
366.373	320.06
366.599	322.06
366.826	316.06
367.052	332.06
367.278	324.06
367.505	316.06
367.731	314.06
367.957	303.06
368.184	331.06
368.41	328.06
368.636	320.06
368.862	334.06
369.089	315.06
369.315	331.06
369.541	326.06
369.767	331.06
369.993	330.06
370.219	331.06
370.445	341.06
370.672	317.06
370.898	328.06
371.124	328.06
371.35	328.06
371.576	320.06
371.802	310.06
372.028	335.06
372.254	343.06
372.48	330.06
372.706	327.06
372.932	326.06
373.158	338.06
373.384	340.06
373.61	333.06
373.835	346.06
374.061	322.06
374.287	332.06
374.513	327.06
374.739	343.06
374.965	339.06
375.191	344.06
375.416	335.06
375.642	343.06
375.868	341.06
376.094	335.06
376.319	342.06
376.545	340.06
376.771	315.06
376.997	346.06
377.222	335.06
377.448	314.06
377.674	341.06
377.899	336.06
378.125	329.06
378.35	314.06
378.576	330.06
378.802	316.06
379.027	317.06
379.253	332.06
379.478	330.06
379.704	328.06
379.929	326.06
380.155	321.06
380.38	307.06
380.606	340.06
380.831	331.06
381.057	346.06
381.282	315.06
381.507	317.06
381.733	326.06
381.958	329.06
382.184	336.06
382.409	336.06
382.634	365.06
382.86	330.06
383.085	339.06
383.31	359.06
383.535	341.06
383.761	361.06
383.986	341.06
384.211	339.06
384.436	363.06
384.662	370.06
384.887	373.06
385.112	358.06
385.337	358.06
385.562	360.06
385.787	349.06
386.013	397.06
386.238	355.06
386.463	366.06
386.688	366.06
386.913	349.06
387.138	358.06
387.363	375.06
387.588	349.06
387.813	365.06
388.038	365.06
388.263	363.06
388.488	357.06
388.713	359.06
388.938	367.06
389.163	355.06
389.387	370.06
389.612	364.06
389.837	354.06
390.062	348.06
390.287	372.06
390.512	358.06
390.736	349.06
390.961	363.06
391.186	359.06
391.411	372.06
391.636	404.06
391.86	384.06
392.085	403.06
392.31	414.06
392.534	386.06
392.759	396.06
392.984	380.06
393.208	387.06
393.433	374.06
393.658	382.06
393.882	371.06
394.107	391.06
394.331	394.06
394.556	383.06
394.78	375.06
395.005	374.06
395.229	374.06
395.454	394.06
395.678	391.06
395.903	376.06
396.127	402.06
396.352	402.06
396.576	385.06
396.801	388.06
397.025	387.06
397.249	388.06
397.474	404.06
397.698	381.06
397.922	405.06
398.147	391.06
398.371	391.06
398.595	416.06
398.82	437.06
399.044	444.06
399.268	471.06
399.492	507.06
399.717	541.06
399.941	556.06
400.165	529.06
400.389	511.06
400.613	454.06
400.837	438.06
401.062	428.06
401.286	433.06
401.51	405.06
401.734	434.06
401.958	443.06
402.182	427.06
402.406	451.06
402.63	430.06
402.854	444.06
403.078	447.06
403.302	460.06
403.526	460.06
403.75	467.06
403.974	458.06
404.198	431.06
404.422	462.06
404.645	477.06
404.869	463.06
405.093	480.06
405.317	502.06
405.541	510.06
405.765	463.06
405.988	464.06
406.212	468.06
406.436	472.06
406.66	499.06
406.883	452.06
407.107	480.06
407.331	539.06
407.555	564.06
407.778	549.06
408.002	520.06
408.226	495.06
408.449	494.06
408.673	468.06
408.896	500.06
409.12	512.06
409.344	478.06
409.567	450.06
409.791	443.06
410.014	426.06
410.238	455.06
410.461	446.06
410.685	432.06
410.908	446.06
411.132	461.06
411.355	495.06
411.578	478.06
411.802	437.06
412.025	446.06
412.249	462.06
412.472	472.06
412.695	499.06
412.919	481.06
413.142	425.06
413.365	443.06
413.589	442.06
413.812	406.06
414.035	421.06
414.258	441.06
414.482	410.06
414.705	415.06
414.928	423.06
415.151	427.06
415.374	414.06
415.597	428.06
415.821	414.06
416.044	415.06
416.267	421.06
416.49	415.06
416.713	411.06
416.936	409.06
417.159	415.06
417.382	416.06
417.605	423.06
417.828	438.06
418.051	431.06
418.274	445.06
418.497	420.06
418.72	431.06
418.943	414.06
419.166	420.06
419.389	452.06
419.611	463.06
419.834	440.06
420.057	450.06
420.28	453.06
420.503	427.06
420.726	435.06
420.948	445.06
421.171	456.06
421.394	485.06
421.617	448.06
421.839	444.06
422.062	443.06
422.285	435.06
422.507	479.06
422.73	498.06
422.953	482.06
423.175	439.06
423.398	439.06
423.621	463.06
423.843	479.06
424.066	454.06
424.288	444.06
424.511	461.06
424.733	491.06
424.956	532.06
425.178	504.06
425.401	498.06
425.623	508.06
425.846	443.06
426.068	443.06
426.291	441.06
426.513	430.06
426.735	415.06
426.958	478.06
427.18	492.06
427.402	550.06
427.625	575.06
427.847	511.06
428.069	476.06
428.292	442.06
428.514	404.06
428.736	419.06
428.958	399.06
429.181	394.06
429.403	401.06
429.625	405.06
429.847	423.06
430.069	441.06
430.292	449.06
430.514	416.06
430.736	410.06
430.958	394.06
431.18	387.06
431.402	391.06
431.624	383.06
431.846	387.06
432.068	398.06
432.29	390.06
432.512	411.06
432.734	416.06
432.956	398.06
433.178	416.06
433.4	393.06
433.622	391.06
433.844	405.06
434.066	389.06
434.287	404.06
434.509	404.06
434.731	428.06
434.953	415.06
435.175	448.06
435.397	448.06
435.618	437.06
435.84	459.06
436.062	480.06
436.284	506.06
436.505	463.06
436.727	442.06
436.949	426.06
437.17	398.06
437.392	403.06
437.614	402.06
437.835	437.06
438.057	486.06
438.278	506.06
438.5	527.06
438.721	550.06
438.943	531.06
439.165	448.06
439.386	428.06
439.608	446.06
439.829	428.06
440.05	431.06
440.272	458.06
440.493	420.06
440.715	418.06
440.936	421.06
441.158	425.06
441.379	424.06
441.6	431.06
441.822	454.06
442.043	470.06
442.264	509.06
442.486	497.06
442.707	454.06
442.928	459.06
443.149	443.06
443.371	467.06
443.592	482.06
443.813	540.06
444.034	554.06
444.255	515.06
444.476	460.06
444.698	484.06
444.919	480.06
445.14	595.06
445.361	520.06
445.582	478.06
445.803	476.06
446.024	543.06
446.245	525.06
446.466	502.06
446.687	445.06
446.908	432.06
447.129	410.06
447.35	401.06
447.571	381.06
447.792	381.06
448.013	411.06
448.234	413.06
448.455	430.06
448.675	502.06
448.896	536.06
449.117	487.06
449.338	465.06
449.559	510.06
449.779	562.06
450	470.06
450.221	402.06
450.442	406.06
450.662	384.06
450.883	382.06
451.104	394.06
451.324	389.06
451.545	394.06
451.766	366.06
451.986	350.06
452.207	370.06
452.428	364.06
452.648	363.06
452.869	361.06
453.089	368.06
453.31	378.06
453.53	386.06
453.751	355.06
453.971	359.06
454.192	359.06
454.412	363.06
454.633	361.06
454.853	374.06
455.073	360.06
455.294	376.06
455.514	398.06
455.734	399.06
455.955	374.06
456.175	367.06
456.395	324.06
456.616	350.06
456.836	348.06
457.056	337.06
457.276	338.06
457.497	347.06
457.717	350.06
457.937	352.06
458.157	364.06
458.377	344.06
458.598	378.06
458.818	411.06
459.038	419.06
459.258	460.06
459.478	408.06
459.698	373.06
459.918	401.06
460.138	407.06
460.358	409.06
460.578	410.06
460.798	412.06
461.018	419.06
461.238	434.06
461.458	434.06
461.678	421.06
461.898	435.06
462.118	412.06
462.338	452.06
462.558	450.06
462.777	452.06
462.997	477.06
463.217	492.06
463.437	508.06
463.657	479.06
463.876	456.06
464.096	474.06
464.316	462.06
464.536	483.06
464.755	466.06
464.975	473.06
465.195	478.06
465.414	464.06
465.634	424.06
465.854	398.06
466.073	408.06
466.293	398.06
466.512	382.06
466.732	384.06
466.951	381.06
467.171	374.06
467.391	386.06
467.61	378.06
467.829	382.06
468.049	381.06
468.268	378.06
468.488	386.06
468.707	380.06
468.927	374.06
469.146	388.06
469.365	391.06
469.585	381.06
469.804	384.06
470.023	397.06
470.243	382.06
470.462	398.06
470.681	395.06
470.901	396.06
471.12	402.06
471.339	372.06
471.558	398.06
471.777	385.06
471.997	379.06
472.216	378.06
472.435	392.06
472.654	399.06
472.873	380.06
473.092	376.06
473.311	376.06
473.53	370.06
473.749	390.06
473.968	420.06
474.187	446.06
474.406	457.06
474.625	398.06
474.844	387.06
475.063	380.06
475.282	378.06
475.501	379.06
475.72	395.06
475.939	392.06
476.158	404.06
476.377	404.06
476.596	401.06
476.814	404.06
477.033	404.06
477.252	403.06
477.471	409.06
477.69	422.06
477.908	398.06
478.127	422.06
478.346	417.06
478.564	456.06
478.783	446.06
479.002	443.06
479.22	445.06
479.439	432.06
479.658	451.06
479.876	457.06
480.095	448.06
480.313	469.06
480.532	464.06
480.751	494.06
480.969	479.06
481.188	508.06
481.406	520.06
481.624	445.06
481.843	437.06
482.061	448.06
482.28	446.06
482.498	440.06
482.717	455.06
482.935	419.06
483.153	447.06
483.372	444.06
483.59	431.06
483.808	434.06
484.027	444.06
484.245	453.06
484.463	436.06
484.681	438.06
484.9	442.06
485.118	470.06
485.336	440.06
485.554	465.06
485.772	442.06
485.99	423.06
486.209	443.06
486.427	462.06
486.645	434.06
486.863	467.06
487.081	442.06
487.299	465.06
487.517	470.06
487.735	458.06
487.953	441.06
488.171	466.06
488.389	474.06
488.607	440.06
488.825	458.06
489.043	454.06
489.261	483.06
489.479	485.06
489.696	479.06
489.914	458.06
490.132	463.06
490.35	465.06
490.568	491.06
490.786	480.06
491.003	486.06
491.221	513.06
491.439	519.06
491.657	522.06
491.874	516.06
492.092	534.06
492.31	531.06
492.527	542.06
492.745	527.06
492.963	510.06
493.18	518.06
493.398	523.06
493.615	526.06
493.833	527.06
494.05	533.06
494.268	555.06
494.485	516.06
494.703	544.06
494.92	539.06
495.138	547.06
495.355	507.06
495.573	532.06
495.79	533.06
496.008	540.06
496.225	519.06
496.442	533.06
496.66	534.06
496.877	544.06
497.094	555.06
497.312	562.06
497.529	564.06
497.746	572.06
497.963	576.06
498.181	598.06
498.398	616.06
498.615	645.06
498.832	635.06
499.049	671.06
499.267	679.06
499.484	714.06
499.701	751.06
499.918	834.06
500.135	906.06
500.352	980.06
500.569	991.06
500.786	939.06
501.003	916.06
501.22	874.06
501.437	826.06
501.654	774.06
501.871	743.06
502.088	699.06
502.305	666.06
