Data from 1969.PennyLincolnUp.Lamp.En5.5.200Scan.071719.P1._HRD10591_14-55-15-972.txt Node
Date: Thu Jul 18 14:55:15 EDT 2019
User: cochatt
Spectrometer: HR+D1059
Trigger mode: 1
Integration Time (sec): 1.000000E-1
Scans to average: 1
Electric dark correction enabled: true
Nonlinearity correction enabled: false
Boxcar width: 0
XAxis mode: Wavelengths
Number of Pixels in Spectrum: 2048
>>>>>Begin Spectral Data<<<<<
223.165	-8.94
223.4	-8.94
223.635	-8.94
223.869	-17.94
224.104	-17.94
224.338	-18.94
224.573	-10.94
224.808	-13.94
225.042	0.06
225.277	-9.94
225.511	3.06
225.746	-0.94
225.98	4.06
226.215	10.06
226.449	14.06
226.683	17.06
226.918	28.06
227.152	23.06
227.387	37.06
227.621	43.06
227.856	53.06
228.09	47.06
228.324	57.06
228.559	51.06
228.793	82.06
229.027	89.06
229.262	85.06
229.496	106.06
229.73	89.06
229.964	118.06
230.199	106.06
230.433	106.06
230.667	85.06
230.901	116.06
231.136	107.06
231.37	112.06
231.604	91.06
231.838	101.06
232.072	95.06
232.306	100.06
232.541	117.06
232.775	115.06
233.009	116.06
233.243	106.06
233.477	113.06
233.711	113.06
233.945	108.06
234.179	117.06
234.413	100.06
234.647	101.06
234.881	111.06
235.115	107.06
235.349	89.06
235.583	104.06
235.817	111.06
236.051	107.06
236.285	117.06
236.519	125.06
236.753	115.06
236.987	124.06
237.221	146.06
237.455	167.06
237.689	130.06
237.922	117.06
238.156	113.06
238.39	113.06
238.624	120.06
238.858	118.06
239.091	107.06
239.325	121.06
239.559	124.06
239.793	111.06
240.027	127.06
240.26	131.06
240.494	131.06
240.728	132.06
240.961	131.06
241.195	136.06
241.429	119.06
241.662	123.06
241.896	129.06
242.13	132.06
242.363	123.06
242.597	122.06
242.83	117.06
243.064	135.06
243.298	123.06
243.531	132.06
243.765	135.06
243.998	123.06
244.232	124.06
244.465	143.06
244.699	138.06
244.932	137.06
245.166	136.06
245.399	137.06
245.633	136.06
245.866	144.06
246.099	147.06
246.333	146.06
246.566	143.06
246.8	140.06
247.033	153.06
247.266	151.06
247.5	152.06
247.733	144.06
247.966	152.06
248.2	153.06
248.433	149.06
248.666	140.06
248.899	159.06
249.133	165.06
249.366	156.06
249.599	161.06
249.832	156.06
250.066	167.06
250.299	166.06
250.532	159.06
250.765	167.06
250.998	175.06
251.231	181.06
251.465	173.06
251.698	170.06
251.931	168.06
252.164	172.06
252.397	163.06
252.63	157.06
252.863	188.06
253.096	188.06
253.329	196.06
253.562	180.06
253.795	176.06
254.028	179.06
254.261	179.06
254.494	211.06
254.727	207.06
254.96	212.06
255.193	219.06
255.426	205.06
255.659	207.06
255.892	187.06
256.124	172.06
256.357	193.06
256.59	195.06
256.823	180.06
257.056	183.06
257.289	182.06
257.521	183.06
257.754	170.06
257.987	187.06
258.22	189.06
258.452	172.06
258.685	163.06
258.918	180.06
259.151	180.06
259.383	195.06
259.616	174.06
259.849	181.06
260.081	193.06
260.314	202.06
260.547	208.06
260.779	215.06
261.012	209.06
261.244	185.06
261.477	188.06
261.71	188.06
261.942	200.06
262.175	182.06
262.407	167.06
262.64	189.06
262.872	181.06
263.105	201.06
263.337	192.06
263.57	168.06
263.802	183.06
264.035	199.06
264.267	168.06
264.499	196.06
264.732	188.06
264.964	181.06
265.197	198.06
265.429	188.06
265.661	177.06
265.894	181.06
266.126	192.06
266.358	188.06
266.591	176.06
266.823	190.06
267.055	206.06
267.287	213.06
267.52	215.06
267.752	199.06
267.984	211.06
268.216	187.06
268.448	214.06
268.681	201.06
268.913	202.06
269.145	227.06
269.377	235.06
269.609	224.06
269.841	214.06
270.073	232.06
270.306	235.06
270.538	261.06
270.77	271.06
271.002	263.06
271.234	233.06
271.466	246.06
271.698	245.06
271.93	255.06
272.162	276.06
272.394	271.06
272.626	267.06
272.858	230.06
273.09	232.06
273.322	226.06
273.553	214.06
273.785	228.06
274.017	225.06
274.249	226.06
274.481	235.06
274.713	245.06
274.945	227.06
275.176	227.06
275.408	236.06
275.64	228.06
275.872	233.06
276.104	214.06
276.335	232.06
276.567	229.06
276.799	248.06
277.031	268.06
277.262	269.06
277.494	264.06
277.726	256.06
277.957	251.06
278.189	229.06
278.421	248.06
278.652	238.06
278.884	230.06
279.115	229.06
279.347	251.06
279.579	249.06
279.81	225.06
280.042	222.06
280.273	248.06
280.505	234.06
280.736	222.06
280.968	244.06
281.199	249.06
281.431	245.06
281.662	224.06
281.894	229.06
282.125	246.06
282.356	244.06
282.588	245.06
282.819	260.06
283.051	248.06
283.282	233.06
283.513	240.06
283.745	257.06
283.976	243.06
284.207	252.06
284.439	256.06
284.67	254.06
284.901	247.06
285.132	241.06
285.364	249.06
285.595	247.06
285.826	258.06
286.057	267.06
286.288	261.06
286.52	246.06
286.751	240.06
286.982	254.06
287.213	250.06
287.444	267.06
287.675	257.06
287.906	279.06
288.138	286.06
288.369	274.06
288.6	262.06
288.831	249.06
289.062	267.06
289.293	249.06
289.524	280.06
289.755	268.06
289.986	264.06
290.217	264.06
290.448	264.06
290.679	244.06
290.91	263.06
291.141	238.06
291.371	260.06
291.602	266.06
291.833	263.06
292.064	253.06
292.295	262.06
292.526	271.06
292.757	268.06
292.987	255.06
293.218	251.06
293.449	251.06
293.68	280.06
293.91	263.06
294.141	272.06
294.372	266.06
294.603	282.06
294.833	255.06
295.064	263.06
295.295	264.06
295.525	262.06
295.756	275.06
295.987	288.06
296.217	282.06
296.448	281.06
296.679	283.06
296.909	264.06
297.14	269.06
297.37	256.06
297.601	260.06
297.831	280.06
298.062	275.06
298.292	279.06
298.523	291.06
298.753	282.06
298.984	278.06
299.214	278.06
299.445	292.06
299.675	269.06
299.905	271.06
300.136	280.06
300.366	304.06
300.597	298.06
300.827	302.06
301.057	286.06
301.288	313.06
301.518	297.06
301.748	297.06
301.979	299.06
302.209	310.06
302.439	315.06
302.669	301.06
302.9	290.06
303.13	286.06
303.36	294.06
303.59	303.06
303.82	318.06
304.051	310.06
304.281	287.06
304.511	291.06
304.741	309.06
304.971	295.06
305.201	307.06
305.431	300.06
305.661	274.06
305.891	291.06
306.121	309.06
306.352	282.06
306.582	311.06
306.812	284.06
307.042	293.06
307.272	305.06
307.502	297.06
307.731	288.06
307.961	285.06
308.191	302.06
308.421	305.06
308.651	297.06
308.881	318.06
309.111	316.06
309.341	278.06
309.571	311.06
309.8	304.06
310.03	313.06
310.26	319.06
310.49	317.06
310.72	308.06
310.949	320.06
311.179	330.06
311.409	323.06
311.639	331.06
311.868	318.06
312.098	322.06
312.328	322.06
312.557	336.06
312.787	347.06
313.017	347.06
313.246	323.06
313.476	317.06
313.706	301.06
313.935	335.06
314.165	336.06
314.394	324.06
314.624	324.06
314.853	333.06
315.083	323.06
315.312	329.06
315.542	334.06
315.771	301.06
316.001	323.06
316.23	327.06
316.46	315.06
316.689	326.06
316.919	311.06
317.148	325.06
317.377	322.06
317.607	314.06
317.836	320.06
318.065	330.06
318.295	325.06
318.524	309.06
318.753	320.06
318.983	311.06
319.212	321.06
319.441	319.06
319.67	338.06
319.9	320.06
320.129	313.06
320.358	341.06
320.587	319.06
320.816	333.06
321.046	326.06
321.275	325.06
321.504	345.06
321.733	322.06
321.962	331.06
322.191	336.06
322.42	356.06
322.649	347.06
322.878	361.06
323.108	341.06
323.337	378.06
323.566	385.06
323.795	412.06
324.024	433.06
324.253	468.06
324.482	645.06
324.71	898.06
324.939	1176.06
325.168	1005.06
325.397	574.06
325.626	446.06
325.855	411.06
326.084	371.06
326.313	391.06
326.542	395.06
326.77	431.06
326.999	495.06
327.228	600.06
327.457	796.06
327.686	927.06
327.914	629.06
328.143	457.06
328.372	468.06
328.6	443.06
328.829	425.06
329.058	427.06
329.287	431.06
329.515	421.06
329.744	418.06
329.972	426.06
330.201	416.06
330.43	451.06
330.658	450.06
330.887	451.06
331.115	457.06
331.344	425.06
331.572	380.06
331.801	402.06
332.03	408.06
332.258	409.06
332.486	392.06
332.715	393.06
332.943	397.06
333.172	405.06
333.4	403.06
333.629	433.06
333.857	440.06
334.085	428.06
334.314	439.06
334.542	442.06
334.771	470.06
334.999	444.06
335.227	417.06
335.455	403.06
335.684	412.06
335.912	386.06
336.14	388.06
336.369	402.06
336.597	407.06
336.825	394.06
337.053	377.06
337.281	379.06
337.51	388.06
337.738	396.06
337.966	381.06
338.194	378.06
338.422	381.06
338.65	381.06
338.878	371.06
339.106	367.06
339.334	364.06
339.562	376.06
339.79	363.06
340.018	377.06
340.246	371.06
340.474	358.06
340.702	385.06
340.93	376.06
341.158	371.06
341.386	362.06
341.614	345.06
341.842	346.06
342.07	344.06
342.298	371.06
342.526	363.06
342.754	348.06
342.981	364.06
343.209	373.06
343.437	365.06
343.665	377.06
343.893	407.06
344.12	413.06
344.348	396.06
344.576	365.06
344.804	376.06
345.031	361.06
345.259	381.06
345.487	368.06
345.714	360.06
345.942	351.06
346.17	338.06
346.397	332.06
346.625	344.06
346.853	357.06
347.08	333.06
347.308	361.06
347.535	353.06
347.763	349.06
347.99	346.06
348.218	353.06
348.445	351.06
348.673	360.06
348.9	353.06
349.128	350.06
349.355	320.06
349.583	327.06
349.81	334.06
350.037	332.06
350.265	334.06
350.492	341.06
350.72	333.06
350.947	338.06
351.174	344.06
351.402	338.06
351.629	343.06
351.856	347.06
352.083	342.06
352.311	360.06
352.538	333.06
352.765	358.06
352.992	364.06
353.22	338.06
353.447	341.06
353.674	333.06
353.901	336.06
354.128	345.06
354.355	313.06
354.583	332.06
354.81	343.06
355.037	337.06
355.264	333.06
355.491	344.06
355.718	327.06
355.945	315.06
356.172	335.06
356.399	322.06
356.626	344.06
356.853	339.06
357.08	342.06
357.307	333.06
357.534	305.06
357.761	330.06
357.988	347.06
358.215	340.06
358.441	329.06
358.668	322.06
358.895	333.06
359.122	347.06
359.349	339.06
359.576	349.06
359.802	360.06
360.029	362.06
360.256	375.06
360.483	377.06
360.709	337.06
360.936	334.06
361.163	336.06
361.39	346.06
361.616	341.06
361.843	341.06
362.07	330.06
362.296	339.06
362.523	347.06
362.749	325.06
362.976	327.06
363.203	358.06
363.429	321.06
363.656	342.06
363.882	330.06
364.109	336.06
364.335	319.06
364.562	347.06
364.788	320.06
365.015	324.06
365.241	323.06
365.468	323.06
365.694	346.06
365.92	339.06
366.147	332.06
366.373	319.06
366.599	327.06
366.826	329.06
367.052	318.06
367.278	327.06
367.505	331.06
367.731	334.06
367.957	327.06
368.184	327.06
368.41	326.06
368.636	354.06
368.862	335.06
369.089	348.06
369.315	356.06
369.541	337.06
369.767	325.06
369.993	336.06
370.219	335.06
370.445	330.06
370.672	330.06
370.898	317.06
371.124	345.06
371.35	355.06
371.576	343.06
371.802	347.06
372.028	336.06
372.254	348.06
372.48	335.06
372.706	352.06
372.932	360.06
373.158	345.06
373.384	342.06
373.61	355.06
373.835	335.06
374.061	343.06
374.287	339.06
374.513	338.06
374.739	345.06
374.965	357.06
375.191	383.06
375.416	351.06
375.642	347.06
375.868	342.06
376.094	347.06
376.319	319.06
376.545	314.06
376.771	336.06
376.997	331.06
377.222	349.06
377.448	349.06
377.674	341.06
377.899	335.06
378.125	336.06
378.35	349.06
378.576	343.06
378.802	349.06
379.027	333.06
379.253	317.06
379.478	325.06
379.704	319.06
379.929	336.06
380.155	323.06
380.38	343.06
380.606	336.06
380.831	336.06
381.057	329.06
381.282	315.06
381.507	334.06
381.733	348.06
381.958	359.06
382.184	338.06
382.409	353.06
382.634	356.06
382.86	326.06
383.085	364.06
383.31	334.06
383.535	340.06
383.761	351.06
383.986	341.06
384.211	364.06
384.436	368.06
384.662	383.06
384.887	375.06
385.112	376.06
385.337	387.06
385.562	379.06
385.787	383.06
386.013	388.06
386.238	385.06
386.463	363.06
386.688	364.06
386.913	383.06
387.138	382.06
387.363	377.06
387.588	372.06
387.813	347.06
388.038	369.06
388.263	381.06
388.488	387.06
388.713	361.06
388.938	360.06
389.163	379.06
389.387	383.06
389.612	367.06
389.837	362.06
390.062	368.06
390.287	367.06
390.512	350.06
390.736	342.06
390.961	380.06
391.186	377.06
391.411	371.06
391.636	391.06
391.86	384.06
392.085	395.06
392.31	391.06
392.534	395.06
392.759	399.06
392.984	379.06
393.208	385.06
393.433	379.06
393.658	367.06
393.882	369.06
394.107	372.06
394.331	388.06
394.556	386.06
394.78	381.06
395.005	393.06
395.229	386.06
395.454	393.06
395.678	405.06
395.903	381.06
396.127	399.06
396.352	402.06
396.576	393.06
396.801	387.06
397.025	387.06
397.249	387.06
397.474	412.06
397.698	411.06
397.922	415.06
398.147	427.06
398.371	411.06
398.595	436.06
398.82	435.06
399.044	474.06
399.268	465.06
399.492	523.06
399.717	558.06
399.941	576.06
400.165	549.06
400.389	515.06
400.613	491.06
400.837	464.06
401.062	452.06
401.286	464.06
401.51	421.06
401.734	414.06
401.958	443.06
402.182	445.06
402.406	454.06
402.63	464.06
402.854	467.06
403.078	456.06
403.302	464.06
403.526	472.06
403.75	453.06
403.974	475.06
404.198	477.06
404.422	482.06
404.645	486.06
404.869	472.06
405.093	483.06
405.317	510.06
405.541	528.06
405.765	516.06
405.988	498.06
406.212	475.06
406.436	496.06
406.66	497.06
406.883	494.06
407.107	513.06
407.331	537.06
407.555	591.06
407.778	589.06
408.002	531.06
408.226	492.06
408.449	496.06
408.673	496.06
408.896	524.06
409.12	507.06
409.344	490.06
409.567	455.06
409.791	455.06
410.014	458.06
410.238	468.06
410.461	454.06
410.685	449.06
410.908	457.06
411.132	485.06
411.355	485.06
411.578	491.06
411.802	444.06
412.025	466.06
412.249	473.06
412.472	472.06
412.695	502.06
412.919	478.06
413.142	465.06
413.365	456.06
413.589	427.06
413.812	437.06
414.035	435.06
414.258	419.06
414.482	451.06
414.705	457.06
414.928	444.06
415.151	446.06
415.374	444.06
415.597	405.06
415.821	438.06
416.044	440.06
416.267	421.06
416.49	437.06
416.713	449.06
416.936	443.06
417.159	453.06
417.382	440.06
417.605	432.06
417.828	439.06
418.051	445.06
418.274	418.06
418.497	440.06
418.72	439.06
418.943	443.06
419.166	459.06
419.389	488.06
419.611	470.06
419.834	470.06
420.057	454.06
420.28	449.06
420.503	452.06
420.726	469.06
420.948	459.06
421.171	494.06
421.394	488.06
421.617	457.06
421.839	428.06
422.062	445.06
422.285	465.06
422.507	461.06
422.73	501.06
422.953	519.06
423.175	476.06
423.398	458.06
423.621	462.06
423.843	466.06
424.066	457.06
424.288	460.06
424.511	466.06
424.733	494.06
424.956	547.06
425.178	542.06
425.401	507.06
425.623	522.06
425.846	484.06
426.068	451.06
426.291	429.06
426.513	439.06
426.735	456.06
426.958	478.06
427.18	533.06
427.402	588.06
427.625	639.06
427.847	559.06
428.069	494.06
428.292	465.06
428.514	433.06
428.736	419.06
428.958	412.06
429.181	439.06
429.403	407.06
429.625	429.06
429.847	411.06
430.069	465.06
430.292	471.06
430.514	417.06
430.736	409.06
430.958	413.06
431.18	415.06
431.402	405.06
431.624	401.06
431.846	401.06
432.068	404.06
432.29	396.06
432.512	408.06
432.734	420.06
432.956	391.06
433.178	412.06
433.4	409.06
433.622	395.06
433.844	412.06
434.066	388.06
434.287	399.06
434.509	429.06
434.731	439.06
434.953	424.06
435.175	439.06
435.397	464.06
435.618	456.06
435.84	500.06
436.062	519.06
436.284	538.06
436.505	470.06
436.727	447.06
436.949	441.06
437.17	417.06
437.392	419.06
437.614	432.06
437.835	430.06
438.057	488.06
438.278	543.06
438.5	519.06
438.721	601.06
438.943	563.06
439.165	465.06
439.386	443.06
439.608	453.06
439.829	439.06
440.05	461.06
440.272	515.06
440.493	450.06
440.715	446.06
440.936	448.06
441.158	439.06
441.379	430.06
441.6	459.06
441.822	465.06
442.043	495.06
442.264	527.06
442.486	565.06
442.707	494.06
442.928	456.06
443.149	472.06
443.371	476.06
443.592	511.06
443.813	555.06
444.034	593.06
444.255	535.06
444.476	494.06
444.698	513.06
444.919	489.06
445.14	583.06
445.361	537.06
445.582	504.06
445.803	491.06
446.024	549.06
446.245	572.06
446.466	527.06
446.687	478.06
446.908	445.06
447.129	417.06
447.35	421.06
447.571	398.06
447.792	411.06
448.013	409.06
448.234	432.06
448.455	445.06
448.675	506.06
448.896	569.06
449.117	465.06
449.338	484.06
449.559	539.06
449.779	583.06
450	468.06
450.221	437.06
450.442	408.06
450.662	401.06
450.883	399.06
451.104	387.06
451.324	383.06
451.545	393.06
451.766	375.06
451.986	377.06
452.207	376.06
452.428	382.06
452.648	359.06
452.869	374.06
453.089	387.06
453.31	392.06
453.53	394.06
453.751	398.06
453.971	388.06
454.192	390.06
454.412	378.06
454.633	371.06
454.853	349.06
455.073	380.06
455.294	375.06
455.514	420.06
455.734	390.06
455.955	371.06
456.175	354.06
456.395	356.06
456.616	367.06
456.836	347.06
457.056	359.06
457.276	355.06
457.497	351.06
457.717	347.06
457.937	362.06
458.157	364.06
458.377	375.06
458.598	395.06
458.818	417.06
459.038	470.06
459.258	473.06
459.478	419.06
459.698	415.06
459.918	429.06
460.138	427.06
460.358	444.06
460.578	435.06
460.798	431.06
461.018	461.06
461.238	452.06
461.458	427.06
461.678	416.06
461.898	439.06
462.118	443.06
462.338	455.06
462.558	463.06
462.777	463.06
462.997	510.06
463.217	489.06
463.437	502.06
463.657	487.06
463.876	488.06
464.096	458.06
464.316	485.06
464.536	492.06
464.755	492.06
464.975	471.06
465.195	476.06
465.414	522.06
465.634	449.06
465.854	429.06
466.073	395.06
466.293	427.06
466.512	413.06
466.732	413.06
466.951	385.06
467.171	399.06
467.391	385.06
467.61	417.06
467.829	404.06
468.049	393.06
468.268	384.06
468.488	405.06
468.707	391.06
468.927	391.06
469.146	384.06
469.365	378.06
469.585	375.06
469.804	413.06
470.023	393.06
470.243	390.06
470.462	408.06
470.681	400.06
470.901	422.06
471.12	413.06
471.339	428.06
471.558	425.06
471.777	402.06
471.997	414.06
472.216	391.06
472.435	417.06
472.654	398.06
472.873	391.06
473.092	379.06
473.311	375.06
473.53	371.06
473.749	385.06
473.968	408.06
474.187	475.06
474.406	468.06
474.625	408.06
474.844	391.06
475.063	376.06
475.282	394.06
475.501	391.06
475.72	383.06
475.939	399.06
476.158	390.06
476.377	415.06
476.596	407.06
476.814	408.06
477.033	409.06
477.252	402.06
477.471	426.06
477.69	431.06
477.908	433.06
478.127	444.06
478.346	432.06
478.564	458.06
478.783	449.06
479.002	451.06
479.22	456.06
479.439	484.06
479.658	475.06
479.876	472.06
480.095	473.06
480.313	493.06
480.532	513.06
480.751	504.06
480.969	515.06
481.188	517.06
481.406	542.06
481.624	516.06
481.843	462.06
482.061	447.06
482.28	454.06
482.498	456.06
482.717	443.06
482.935	452.06
483.153	437.06
483.372	461.06
483.59	457.06
483.808	448.06
484.027	456.06
484.245	455.06
484.463	455.06
484.681	471.06
484.9	486.06
485.118	459.06
485.336	471.06
485.554	474.06
485.772	481.06
485.99	457.06
486.209	485.06
486.427	462.06
486.645	479.06
486.863	482.06
487.081	478.06
487.299	471.06
487.517	475.06
487.735	469.06
487.953	464.06
488.171	487.06
488.389	474.06
488.607	473.06
488.825	476.06
489.043	492.06
489.261	486.06
489.479	478.06
489.696	486.06
489.914	479.06
490.132	474.06
490.35	482.06
490.568	519.06
490.786	518.06
491.003	507.06
491.221	533.06
491.439	544.06
491.657	552.06
491.874	536.06
492.092	543.06
492.31	564.06
492.527	552.06
492.745	571.06
492.963	533.06
493.18	566.06
493.398	581.06
493.615	562.06
493.833	558.06
494.05	548.06
494.268	563.06
494.485	587.06
494.703	555.06
494.92	558.06
495.138	569.06
495.355	567.06
495.573	554.06
495.79	567.06
496.008	544.06
496.225	560.06
496.442	557.06
496.66	549.06
496.877	564.06
497.094	552.06
497.312	583.06
497.529	592.06
497.746	585.06
497.963	592.06
498.181	623.06
498.398	630.06
498.615	643.06
498.832	675.06
499.049	711.06
499.267	708.06
499.484	767.06
499.701	777.06
499.918	831.06
500.135	901.06
500.352	984.06
500.569	1004.06
500.786	976.06
501.003	956.06
501.22	918.06
501.437	857.06
501.654	785.06
501.871	760.06
502.088	737.06
