Data from 1969.PennyLincolnUp.Lamp.En5.5.200Scan.071719.P1._HRD10591_14-56-14-972.txt Node
Date: Thu Jul 18 14:56:14 EDT 2019
User: cochatt
Spectrometer: HR+D1059
Trigger mode: 1
Integration Time (sec): 1.000000E-1
Scans to average: 1
Electric dark correction enabled: true
Nonlinearity correction enabled: false
Boxcar width: 0
XAxis mode: Wavelengths
Number of Pixels in Spectrum: 2048
>>>>>Begin Spectral Data<<<<<
223.165	-16.56
223.4	-16.56
223.635	-16.56
223.869	-22.56
224.104	-8.56
224.338	-5.56
224.573	-12.56
224.808	-16.56
225.042	-15.56
225.277	-12.56
225.511	-8.56
225.746	-3.56
225.98	15.44
226.215	16.44
226.449	14.44
226.683	22.44
226.918	30.44
227.152	23.44
227.387	37.44
227.621	52.44
227.856	40.44
228.09	51.44
228.324	45.44
228.559	55.44
228.793	73.44
229.027	77.44
229.262	99.44
229.496	103.44
229.73	109.44
229.964	110.44
230.199	103.44
230.433	87.44
230.667	92.44
230.901	91.44
231.136	106.44
231.37	97.44
231.604	94.44
231.838	113.44
232.072	102.44
232.306	107.44
232.541	100.44
232.775	97.44
233.009	89.44
233.243	101.44
233.477	112.44
233.711	106.44
233.945	112.44
234.179	114.44
234.413	97.44
234.647	115.44
234.881	115.44
235.115	129.44
235.349	103.44
235.583	107.44
235.817	102.44
236.051	118.44
236.285	112.44
236.519	100.44
236.753	126.44
236.987	129.44
237.221	151.44
237.455	183.44
237.689	145.44
237.922	121.44
238.156	120.44
238.39	125.44
238.624	121.44
238.858	115.44
239.091	108.44
239.325	116.44
239.559	118.44
239.793	103.44
240.027	120.44
240.26	128.44
240.494	129.44
240.728	140.44
240.961	121.44
241.195	128.44
241.429	124.44
241.662	137.44
241.896	118.44
242.13	129.44
242.363	135.44
242.597	123.44
242.83	115.44
243.064	119.44
243.298	128.44
243.531	122.44
243.765	136.44
243.998	139.44
244.232	126.44
244.465	129.44
244.699	128.44
244.932	125.44
245.166	140.44
245.399	139.44
245.633	132.44
245.866	128.44
246.099	128.44
246.333	131.44
246.566	139.44
246.8	139.44
247.033	143.44
247.266	140.44
247.5	142.44
247.733	157.44
247.966	143.44
248.2	149.44
248.433	145.44
248.666	151.44
248.899	149.44
249.133	167.44
249.366	167.44
249.599	159.44
249.832	157.44
250.066	172.44
250.299	151.44
250.532	167.44
250.765	180.44
250.998	200.44
251.231	179.44
251.465	183.44
251.698	165.44
251.931	161.44
252.164	178.44
252.397	167.44
252.63	172.44
252.863	185.44
253.096	176.44
253.329	193.44
253.562	192.44
253.795	168.44
254.028	179.44
254.261	185.44
254.494	185.44
254.727	219.44
254.96	219.44
255.193	213.44
255.426	207.44
255.659	183.44
255.892	200.44
256.124	186.44
256.357	203.44
256.59	187.44
256.823	193.44
257.056	175.44
257.289	189.44
257.521	175.44
257.754	179.44
257.987	170.44
258.22	189.44
258.452	182.44
258.685	176.44
258.918	177.44
259.151	179.44
259.383	191.44
259.616	195.44
259.849	181.44
260.081	201.44
260.314	198.44
260.547	200.44
260.779	197.44
261.012	200.44
261.244	198.44
261.477	187.44
261.71	191.44
261.942	191.44
262.175	203.44
262.407	191.44
262.64	175.44
262.872	177.44
263.105	179.44
263.337	191.44
263.57	169.44
263.802	176.44
264.035	195.44
264.267	191.44
264.499	188.44
264.732	203.44
264.964	179.44
265.197	204.44
265.429	192.44
265.661	184.44
265.894	181.44
266.126	191.44
266.358	187.44
266.591	201.44
266.823	195.44
267.055	199.44
267.287	196.44
267.52	195.44
267.752	208.44
267.984	195.44
268.216	191.44
268.448	221.44
268.681	216.44
268.913	211.44
269.145	220.44
269.377	221.44
269.609	221.44
269.841	223.44
270.073	251.44
270.306	236.44
270.538	266.44
270.77	265.44
271.002	248.44
271.234	227.44
271.466	251.44
271.698	247.44
271.93	265.44
272.162	253.44
272.394	251.44
272.626	255.44
272.858	224.44
273.09	235.44
273.322	211.44
273.553	226.44
273.785	220.44
274.017	240.44
274.249	244.44
274.481	217.44
274.713	219.44
274.945	223.44
275.176	234.44
275.408	214.44
275.64	228.44
275.872	224.44
276.104	227.44
276.335	226.44
276.567	227.44
276.799	238.44
277.031	250.44
277.262	272.44
277.494	257.44
277.726	228.44
277.957	240.44
278.189	213.44
278.421	242.44
278.652	230.44
278.884	249.44
279.115	217.44
279.347	236.44
279.579	237.44
279.81	227.44
280.042	221.44
280.273	222.44
280.505	237.44
280.736	231.44
280.968	225.44
281.199	222.44
281.431	242.44
281.662	235.44
281.894	226.44
282.125	245.44
282.356	252.44
282.588	245.44
282.819	252.44
283.051	244.44
283.282	233.44
283.513	235.44
283.745	247.44
283.976	251.44
284.207	248.44
284.439	252.44
284.67	254.44
284.901	250.44
285.132	238.44
285.364	238.44
285.595	243.44
285.826	255.44
286.057	253.44
286.288	238.44
286.52	243.44
286.751	239.44
286.982	249.44
287.213	252.44
287.444	260.44
287.675	263.44
287.906	241.44
288.138	257.44
288.369	281.44
288.6	246.44
288.831	263.44
289.062	252.44
289.293	289.44
289.524	277.44
289.755	247.44
289.986	253.44
290.217	254.44
290.448	247.44
290.679	249.44
290.91	244.44
291.141	263.44
291.371	278.44
291.602	254.44
291.833	275.44
292.064	235.44
292.295	236.44
292.526	256.44
292.757	248.44
292.987	265.44
293.218	261.44
293.449	256.44
293.68	267.44
293.91	251.44
294.141	256.44
294.372	262.44
294.603	266.44
294.833	273.44
295.064	270.44
295.295	255.44
295.525	260.44
295.756	281.44
295.987	269.44
296.217	289.44
296.448	279.44
296.679	281.44
296.909	284.44
297.14	267.44
297.37	265.44
297.601	271.44
297.831	267.44
298.062	284.44
298.292	263.44
298.523	284.44
298.753	291.44
298.984	279.44
299.214	284.44
299.445	281.44
299.675	278.44
299.905	291.44
300.136	285.44
300.366	272.44
300.597	291.44
300.827	289.44
301.057	299.44
301.288	301.44
301.518	290.44
301.748	270.44
301.979	280.44
302.209	311.44
302.439	312.44
302.669	287.44
302.9	292.44
303.13	281.44
303.36	291.44
303.59	294.44
303.82	308.44
304.051	303.44
304.281	311.44
304.511	292.44
304.741	302.44
304.971	312.44
305.201	287.44
305.431	288.44
305.661	272.44
305.891	288.44
306.121	284.44
306.352	286.44
306.582	308.44
306.812	273.44
307.042	292.44
307.272	298.44
307.502	287.44
307.731	307.44
307.961	292.44
308.191	292.44
308.421	286.44
308.651	301.44
308.881	283.44
309.111	296.44
309.341	301.44
309.571	303.44
309.8	280.44
310.03	325.44
310.26	315.44
310.49	302.44
310.72	341.44
310.949	333.44
311.179	328.44
311.409	315.44
311.639	319.44
311.868	304.44
312.098	321.44
312.328	332.44
312.557	317.44
312.787	336.44
313.017	316.44
313.246	317.44
313.476	294.44
313.706	317.44
313.935	321.44
314.165	331.44
314.394	337.44
314.624	331.44
314.853	321.44
315.083	309.44
315.312	333.44
315.542	338.44
315.771	331.44
316.001	302.44
316.23	309.44
316.46	323.44
316.689	341.44
316.919	331.44
317.148	332.44
317.377	325.44
317.607	317.44
317.836	331.44
318.065	314.44
318.295	318.44
318.524	316.44
318.753	309.44
318.983	304.44
319.212	307.44
319.441	315.44
319.67	331.44
319.9	336.44
320.129	314.44
320.358	324.44
320.587	332.44
320.816	337.44
321.046	322.44
321.275	327.44
321.504	320.44
321.733	334.44
321.962	338.44
322.191	337.44
322.42	339.44
322.649	359.44
322.878	347.44
323.108	367.44
323.337	374.44
323.566	392.44
323.795	396.44
324.024	436.44
324.253	477.44
324.482	632.44
324.71	922.44
324.939	1191.44
325.168	1023.44
325.397	543.44
325.626	417.44
325.855	416.44
326.084	375.44
326.313	376.44
326.542	379.44
326.77	406.44
326.999	463.44
327.228	595.44
327.457	811.44
327.686	936.44
327.914	630.44
328.143	472.44
328.372	460.44
328.6	414.44
328.829	407.44
329.058	443.44
329.287	429.44
329.515	413.44
329.744	377.44
329.972	391.44
330.201	405.44
330.43	436.44
330.658	475.44
330.887	438.44
331.115	431.44
331.344	411.44
331.572	394.44
331.801	393.44
332.03	401.44
332.258	404.44
332.486	391.44
332.715	387.44
332.943	382.44
333.172	408.44
333.4	407.44
333.629	423.44
333.857	407.44
334.085	430.44
334.314	416.44
334.542	445.44
334.771	441.44
334.999	423.44
335.227	405.44
335.455	411.44
335.684	372.44
335.912	391.44
336.14	372.44
336.369	364.44
336.597	383.44
336.825	399.44
337.053	392.44
337.281	381.44
337.51	366.44
337.738	379.44
337.966	375.44
338.194	387.44
338.422	369.44
338.65	379.44
338.878	358.44
339.106	371.44
339.334	355.44
339.562	364.44
339.79	347.44
340.018	344.44
340.246	351.44
340.474	373.44
340.702	375.44
340.93	371.44
341.158	365.44
341.386	350.44
341.614	350.44
341.842	349.44
342.07	376.44
342.298	364.44
342.526	338.44
342.754	350.44
342.981	346.44
343.209	341.44
343.437	366.44
343.665	356.44
343.893	399.44
344.12	395.44
344.348	389.44
344.576	385.44
344.804	369.44
345.031	372.44
345.259	371.44
345.487	365.44
345.714	349.44
345.942	365.44
346.17	358.44
346.397	343.44
346.625	329.44
346.853	345.44
347.08	338.44
347.308	358.44
347.535	337.44
347.763	340.44
347.99	350.44
348.218	353.44
348.445	347.44
348.673	338.44
348.9	350.44
349.128	318.44
349.355	340.44
349.583	321.44
349.81	331.44
350.037	334.44
350.265	334.44
350.492	331.44
350.72	339.44
350.947	328.44
351.174	331.44
351.402	343.44
351.629	343.44
351.856	359.44
352.083	348.44
352.311	353.44
352.538	355.44
352.765	361.44
352.992	352.44
353.22	336.44
353.447	346.44
353.674	336.44
353.901	320.44
354.128	337.44
354.355	332.44
354.583	340.44
354.81	335.44
355.037	321.44
355.264	342.44
355.491	331.44
355.718	319.44
355.945	333.44
356.172	345.44
356.399	335.44
356.626	320.44
356.853	329.44
357.08	331.44
357.307	322.44
357.534	327.44
357.761	341.44
357.988	318.44
358.215	307.44
358.441	321.44
358.668	310.44
358.895	324.44
359.122	322.44
359.349	323.44
359.576	345.44
359.802	349.44
360.029	353.44
360.256	345.44
360.483	358.44
360.709	343.44
360.936	337.44
361.163	341.44
361.39	351.44
361.616	344.44
361.843	347.44
362.07	330.44
362.296	336.44
362.523	335.44
362.749	323.44
362.976	327.44
363.203	313.44
363.429	308.44
363.656	309.44
363.882	327.44
364.109	328.44
364.335	333.44
364.562	320.44
364.788	343.44
365.015	334.44
365.241	311.44
365.468	333.44
365.694	316.44
365.92	343.44
366.147	333.44
366.373	328.44
366.599	319.44
366.826	321.44
367.052	328.44
367.278	332.44
367.505	326.44
367.731	322.44
367.957	344.44
368.184	329.44
368.41	331.44
368.636	337.44
368.862	334.44
369.089	335.44
369.315	334.44
369.541	314.44
369.767	328.44
369.993	316.44
370.219	333.44
370.445	334.44
370.672	320.44
370.898	350.44
371.124	333.44
371.35	332.44
371.576	329.44
371.802	333.44
372.028	341.44
372.254	323.44
372.48	327.44
372.706	343.44
372.932	360.44
373.158	343.44
373.384	334.44
373.61	323.44
373.835	346.44
374.061	333.44
374.287	332.44
374.513	341.44
374.739	329.44
374.965	337.44
375.191	349.44
375.416	353.44
375.642	337.44
375.868	331.44
376.094	344.44
376.319	323.44
376.545	326.44
376.771	326.44
376.997	331.44
377.222	343.44
377.448	346.44
377.674	326.44
377.899	333.44
378.125	315.44
378.35	336.44
378.576	325.44
378.802	334.44
379.027	334.44
379.253	343.44
379.478	330.44
379.704	327.44
379.929	320.44
380.155	327.44
380.38	347.44
380.606	319.44
380.831	320.44
381.057	340.44
381.282	329.44
381.507	362.44
381.733	343.44
381.958	321.44
382.184	347.44
382.409	340.44
382.634	338.44
382.86	327.44
383.085	333.44
383.31	346.44
383.535	337.44
383.761	345.44
383.986	355.44
384.211	368.44
384.436	373.44
384.662	349.44
384.887	366.44
385.112	368.44
385.337	385.44
385.562	363.44
385.787	361.44
386.013	365.44
386.238	372.44
386.463	361.44
386.688	356.44
386.913	365.44
387.138	357.44
387.363	362.44
387.588	378.44
387.813	391.44
388.038	349.44
388.263	366.44
388.488	375.44
388.713	359.44
388.938	368.44
389.163	379.44
389.387	387.44
389.612	363.44
389.837	361.44
390.062	350.44
390.287	361.44
390.512	363.44
390.736	365.44
390.961	360.44
391.186	369.44
391.411	375.44
391.636	364.44
391.86	381.44
392.085	399.44
392.31	403.44
392.534	396.44
392.759	385.44
392.984	369.44
393.208	385.44
393.433	370.44
393.658	363.44
393.882	360.44
394.107	364.44
394.331	379.44
394.556	381.44
394.78	377.44
395.005	402.44
395.229	391.44
395.454	400.44
395.678	381.44
395.903	407.44
396.127	423.44
396.352	391.44
396.576	386.44
396.801	373.44
397.025	383.44
397.249	387.44
397.474	405.44
397.698	400.44
397.922	410.44
398.147	416.44
398.371	394.44
398.595	422.44
398.82	424.44
399.044	453.44
399.268	477.44
399.492	529.44
399.717	546.44
399.941	553.44
400.165	556.44
400.389	516.44
400.613	474.44
400.837	449.44
401.062	437.44
401.286	425.44
401.51	428.44
401.734	417.44
401.958	429.44
402.182	439.44
402.406	444.44
402.63	467.44
402.854	428.44
403.078	443.44
403.302	469.44
403.526	462.44
403.75	487.44
403.974	457.44
404.198	450.44
404.422	463.44
404.645	476.44
404.869	467.44
405.093	489.44
405.317	520.44
405.541	527.44
405.765	496.44
405.988	473.44
406.212	450.44
406.436	501.44
406.66	527.44
406.883	485.44
407.107	521.44
407.331	529.44
407.555	552.44
407.778	575.44
408.002	559.44
408.226	499.44
408.449	505.44
408.673	486.44
408.896	504.44
409.12	513.44
409.344	473.44
409.567	469.44
409.791	459.44
410.014	447.44
410.238	439.44
410.461	451.44
410.685	449.44
410.908	449.44
411.132	463.44
411.355	481.44
411.578	451.44
411.802	462.44
412.025	446.44
412.249	460.44
412.472	475.44
412.695	488.44
412.919	458.44
413.142	446.44
413.365	452.44
413.589	427.44
413.812	445.44
414.035	427.44
414.258	429.44
414.482	435.44
414.705	439.44
414.928	407.44
415.151	444.44
415.374	413.44
415.597	422.44
415.821	430.44
416.044	440.44
416.267	429.44
416.49	430.44
416.713	421.44
416.936	434.44
417.159	427.44
417.382	424.44
417.605	427.44
417.828	428.44
418.051	447.44
418.274	453.44
418.497	428.44
418.72	419.44
418.943	423.44
419.166	447.44
419.389	499.44
419.611	478.44
419.834	436.44
420.057	443.44
420.28	469.44
420.503	443.44
420.726	442.44
420.948	459.44
421.171	457.44
421.394	483.44
421.617	449.44
421.839	434.44
422.062	430.44
422.285	451.44
422.507	473.44
422.73	481.44
422.953	505.44
423.175	446.44
423.398	486.44
423.621	448.44
423.843	452.44
424.066	480.44
424.288	477.44
424.511	439.44
424.733	499.44
424.956	555.44
425.178	519.44
425.401	528.44
425.623	549.44
425.846	475.44
426.068	464.44
426.291	449.44
426.513	442.44
426.735	456.44
426.958	445.44
427.18	520.44
427.402	573.44
427.625	624.44
427.847	545.44
428.069	487.44
428.292	447.44
428.514	443.44
428.736	441.44
428.958	421.44
429.181	391.44
429.403	409.44
429.625	423.44
429.847	442.44
430.069	478.44
430.292	448.44
430.514	424.44
430.736	397.44
430.958	413.44
431.18	403.44
431.402	400.44
431.624	388.44
431.846	397.44
432.068	413.44
432.29	404.44
432.512	401.44
432.734	421.44
432.956	400.44
433.178	401.44
433.4	400.44
433.622	408.44
433.844	397.44
434.066	401.44
434.287	408.44
434.509	436.44
434.731	423.44
434.953	431.44
435.175	428.44
435.397	463.44
435.618	451.44
435.84	479.44
436.062	523.44
436.284	559.44
436.505	470.44
436.727	449.44
436.949	417.44
437.17	416.44
437.392	402.44
437.614	420.44
437.835	412.44
438.057	488.44
438.278	541.44
438.5	544.44
438.721	576.44
438.943	553.44
439.165	462.44
439.386	450.44
439.608	446.44
439.829	438.44
440.05	445.44
440.272	465.44
440.493	454.44
440.715	441.44
440.936	419.44
441.158	407.44
441.379	428.44
441.6	443.44
441.822	455.44
442.043	485.44
442.264	529.44
442.486	540.44
442.707	467.44
442.928	461.44
443.149	470.44
443.371	481.44
443.592	530.44
443.813	571.44
444.034	597.44
444.255	484.44
444.476	494.44
444.698	494.44
444.919	500.44
445.14	592.44
445.361	538.44
445.582	505.44
445.803	523.44
446.024	570.44
446.245	563.44
446.466	523.44
446.687	467.44
446.908	427.44
447.129	412.44
447.35	405.44
447.571	403.44
447.792	397.44
448.013	404.44
448.234	408.44
448.455	445.44
448.675	509.44
448.896	579.44
449.117	477.44
449.338	457.44
449.559	519.44
449.779	568.44
450	484.44
450.221	431.44
450.442	415.44
450.662	387.44
450.883	390.44
451.104	399.44
451.324	408.44
451.545	382.44
451.766	381.44
451.986	364.44
452.207	391.44
452.428	379.44
452.648	381.44
452.869	383.44
453.089	390.44
453.31	361.44
453.53	381.44
453.751	383.44
453.971	377.44
454.192	352.44
454.412	373.44
454.633	372.44
454.853	368.44
455.073	360.44
455.294	372.44
455.514	420.44
455.734	400.44
455.955	376.44
456.175	377.44
456.395	347.44
456.616	351.44
456.836	345.44
457.056	340.44
457.276	347.44
457.497	337.44
457.717	341.44
457.937	349.44
458.157	367.44
458.377	377.44
458.598	360.44
458.818	402.44
459.038	465.44
459.258	457.44
459.478	417.44
459.698	404.44
459.918	421.44
460.138	409.44
460.358	424.44
460.578	441.44
460.798	419.44
461.018	435.44
461.238	429.44
461.458	412.44
461.678	396.44
461.898	421.44
462.118	407.44
462.338	439.44
462.558	448.44
462.777	464.44
462.997	495.44
463.217	525.44
463.437	493.44
463.657	460.44
463.876	463.44
464.096	472.44
464.316	482.44
464.536	467.44
464.755	466.44
464.975	474.44
465.195	472.44
465.414	498.44
465.634	457.44
465.854	421.44
466.073	405.44
466.293	397.44
466.512	399.44
466.732	378.44
466.951	376.44
467.171	381.44
467.391	394.44
467.61	385.44
467.829	385.44
468.049	396.44
468.268	389.44
468.488	393.44
468.707	392.44
468.927	373.44
469.146	357.44
469.365	396.44
469.585	383.44
469.804	389.44
470.023	403.44
470.243	394.44
470.462	393.44
470.681	421.44
470.901	404.44
471.12	385.44
471.339	394.44
471.558	397.44
471.777	399.44
471.997	385.44
472.216	393.44
472.435	424.44
472.654	399.44
472.873	384.44
473.092	389.44
473.311	387.44
473.53	391.44
473.749	388.44
473.968	403.44
474.187	456.44
474.406	457.44
474.625	411.44
474.844	401.44
475.063	365.44
475.282	377.44
475.501	381.44
475.72	397.44
475.939	395.44
476.158	396.44
476.377	376.44
476.596	400.44
476.814	395.44
477.033	409.44
477.252	414.44
477.471	407.44
477.69	437.44
477.908	408.44
478.127	423.44
478.346	446.44
478.564	435.44
478.783	445.44
479.002	440.44
479.22	455.44
479.439	447.44
479.658	462.44
479.876	479.44
480.095	484.44
480.313	495.44
480.532	476.44
480.751	488.44
480.969	479.44
481.188	520.44
481.406	525.44
481.624	501.44
481.843	453.44
482.061	435.44
482.28	441.44
482.498	441.44
482.717	442.44
482.935	430.44
483.153	428.44
483.372	442.44
483.59	431.44
483.808	451.44
484.027	450.44
484.245	429.44
484.463	470.44
484.681	459.44
484.9	461.44
485.118	450.44
485.336	455.44
485.554	463.44
485.772	462.44
485.99	459.44
486.209	464.44
486.427	468.44
486.645	493.44
486.863	456.44
487.081	470.44
487.299	474.44
487.517	478.44
487.735	445.44
487.953	443.44
488.171	481.44
488.389	463.44
488.607	466.44
488.825	464.44
489.043	439.44
489.261	491.44
489.479	497.44
489.696	473.44
489.914	478.44
490.132	476.44
490.35	472.44
490.568	518.44
490.786	495.44
491.003	505.44
491.221	523.44
491.439	533.44
491.657	529.44
491.874	526.44
492.092	532.44
492.31	539.44
492.527	559.44
492.745	529.44
492.963	516.44
493.18	541.44
493.398	566.44
493.615	556.44
493.833	581.44
494.05	573.44
494.268	571.44
494.485	546.44
494.703	552.44
494.92	556.44
495.138	548.44
495.355	551.44
495.573	569.44
495.79	580.44
496.008	563.44
496.225	559.44
496.442	551.44
496.66	563.44
496.877	558.44
497.094	557.44
497.312	565.44
497.529	593.44
497.746	575.44
497.963	578.44
498.181	611.44
498.398	619.44
498.615	653.44
498.832	664.44
499.049	673.44
499.267	713.44
499.484	747.44
499.701	809.44
499.918	845.44
500.135	877.44
500.352	958.44
500.569	1007.44
500.786	991.44
501.003	967.44
501.22	921.44
501.437	840.44
501.654	794.44
501.871	759.44
502.088	717.44
