Data from 1969.PennyLincolnUp.Lamp.En5.5.200Scan.071719.P1._HRD10591_14-55-23-973.txt Node
Date: Thu Jul 18 14:55:23 EDT 2019
User: cochatt
Spectrometer: HR+D1059
Trigger mode: 1
Integration Time (sec): 1.000000E-1
Scans to average: 1
Electric dark correction enabled: true
Nonlinearity correction enabled: false
Boxcar width: 0
XAxis mode: Wavelengths
Number of Pixels in Spectrum: 2048
>>>>>Begin Spectral Data<<<<<
223.165	-0.38
223.4	-0.38
223.635	-0.38
223.869	-15.38
224.104	-9.38
224.338	-29.38
224.573	-12.38
224.808	-7.38
225.042	-2.38
225.277	-9.38
225.511	-0.38
225.746	-2.38
225.98	-3.38
226.215	10.62
226.449	11.62
226.683	17.62
226.918	26.62
227.152	25.62
227.387	33.62
227.621	33.62
227.856	47.62
228.09	56.62
228.324	51.62
228.559	49.62
228.793	55.62
229.027	85.62
229.262	79.62
229.496	102.62
229.73	112.62
229.964	126.62
230.199	99.62
230.433	106.62
230.667	98.62
230.901	97.62
231.136	87.62
231.37	101.62
231.604	104.62
231.838	99.62
232.072	110.62
232.306	111.62
232.541	116.62
232.775	108.62
233.009	116.62
233.243	111.62
233.477	100.62
233.711	118.62
233.945	97.62
234.179	106.62
234.413	107.62
234.647	98.62
234.881	115.62
235.115	104.62
235.349	109.62
235.583	115.62
235.817	95.62
236.051	117.62
236.285	119.62
236.519	126.62
236.753	107.62
236.987	126.62
237.221	147.62
237.455	182.62
237.689	155.62
237.922	131.62
238.156	114.62
238.39	103.62
238.624	99.62
238.858	115.62
239.091	118.62
239.325	123.62
239.559	117.62
239.793	132.62
240.027	119.62
240.26	135.62
240.494	128.62
240.728	108.62
240.961	131.62
241.195	136.62
241.429	119.62
241.662	126.62
241.896	122.62
242.13	109.62
242.363	113.62
242.597	130.62
242.83	122.62
243.064	136.62
243.298	119.62
243.531	113.62
243.765	129.62
243.998	119.62
244.232	128.62
244.465	124.62
244.699	128.62
244.932	138.62
245.166	135.62
245.399	125.62
245.633	145.62
245.866	135.62
246.099	126.62
246.333	141.62
246.566	135.62
246.8	148.62
247.033	141.62
247.266	135.62
247.5	149.62
247.733	160.62
247.966	152.62
248.2	137.62
248.433	147.62
248.666	142.62
248.899	155.62
249.133	151.62
249.366	161.62
249.599	161.62
249.832	155.62
250.066	159.62
250.299	155.62
250.532	168.62
250.765	178.62
250.998	196.62
251.231	195.62
251.465	182.62
251.698	180.62
251.931	172.62
252.164	160.62
252.397	179.62
252.63	198.62
252.863	166.62
253.096	175.62
253.329	200.62
253.562	192.62
253.795	171.62
254.028	187.62
254.261	193.62
254.494	193.62
254.727	199.62
254.96	240.62
255.193	210.62
255.426	203.62
255.659	196.62
255.892	191.62
256.124	200.62
256.357	189.62
256.59	186.62
256.823	191.62
257.056	175.62
257.289	180.62
257.521	190.62
257.754	188.62
257.987	180.62
258.22	171.62
258.452	176.62
258.685	165.62
258.918	182.62
259.151	176.62
259.383	178.62
259.616	193.62
259.849	190.62
260.081	194.62
260.314	212.62
260.547	227.62
260.779	191.62
261.012	181.62
261.244	168.62
261.477	179.62
261.71	205.62
261.942	206.62
262.175	198.62
262.407	192.62
262.64	201.62
262.872	201.62
263.105	189.62
263.337	187.62
263.57	188.62
263.802	188.62
264.035	171.62
264.267	187.62
264.499	192.62
264.732	191.62
264.964	185.62
265.197	189.62
265.429	190.62
265.661	183.62
265.894	182.62
266.126	198.62
266.358	196.62
266.591	189.62
266.823	191.62
267.055	188.62
267.287	213.62
267.52	196.62
267.752	204.62
267.984	196.62
268.216	205.62
268.448	191.62
268.681	199.62
268.913	209.62
269.145	220.62
269.377	223.62
269.609	228.62
269.841	230.62
270.073	225.62
270.306	260.62
270.538	261.62
270.77	260.62
271.002	256.62
271.234	240.62
271.466	238.62
271.698	246.62
271.93	269.62
272.162	265.62
272.394	251.62
272.626	261.62
272.858	239.62
273.09	233.62
273.322	231.62
273.553	227.62
273.785	233.62
274.017	213.62
274.249	220.62
274.481	212.62
274.713	213.62
274.945	234.62
275.176	245.62
275.408	223.62
275.64	232.62
275.872	225.62
276.104	223.62
276.335	221.62
276.567	214.62
276.799	234.62
277.031	255.62
277.262	250.62
277.494	273.62
277.726	273.62
277.957	249.62
278.189	251.62
278.421	237.62
278.652	234.62
278.884	244.62
279.115	251.62
279.347	241.62
279.579	228.62
279.81	238.62
280.042	224.62
280.273	247.62
280.505	259.62
280.736	253.62
280.968	250.62
281.199	250.62
281.431	237.62
281.662	225.62
281.894	229.62
282.125	241.62
282.356	259.62
282.588	272.62
282.819	257.62
283.051	244.62
283.282	241.62
283.513	249.62
283.745	263.62
283.976	257.62
284.207	260.62
284.439	247.62
284.67	248.62
284.901	248.62
285.132	250.62
285.364	245.62
285.595	243.62
285.826	268.62
286.057	257.62
286.288	260.62
286.52	260.62
286.751	253.62
286.982	256.62
287.213	260.62
287.444	249.62
287.675	253.62
287.906	281.62
288.138	281.62
288.369	272.62
288.6	285.62
288.831	252.62
289.062	259.62
289.293	255.62
289.524	245.62
289.755	261.62
289.986	256.62
290.217	262.62
290.448	252.62
290.679	260.62
290.91	268.62
291.141	268.62
291.371	267.62
291.602	270.62
291.833	271.62
292.064	287.62
292.295	263.62
292.526	246.62
292.757	269.62
292.987	265.62
293.218	253.62
293.449	273.62
293.68	246.62
293.91	266.62
294.141	273.62
294.372	247.62
294.603	269.62
294.833	261.62
295.064	272.62
295.295	253.62
295.525	267.62
295.756	277.62
295.987	268.62
296.217	279.62
296.448	290.62
296.679	262.62
296.909	279.62
297.14	297.62
297.37	277.62
297.601	277.62
297.831	281.62
298.062	281.62
298.292	286.62
298.523	279.62
298.753	280.62
298.984	290.62
299.214	280.62
299.445	280.62
299.675	281.62
299.905	284.62
300.136	285.62
300.366	280.62
300.597	292.62
300.827	301.62
301.057	279.62
301.288	288.62
301.518	299.62
301.748	286.62
301.979	279.62
302.209	300.62
302.439	296.62
302.669	283.62
302.9	291.62
303.13	290.62
303.36	289.62
303.59	291.62
303.82	322.62
304.051	318.62
304.281	296.62
304.511	293.62
304.741	275.62
304.971	278.62
305.201	295.62
305.431	303.62
305.661	286.62
305.891	272.62
306.121	309.62
306.352	292.62
306.582	300.62
306.812	297.62
307.042	280.62
307.272	296.62
307.502	297.62
307.731	293.62
307.961	289.62
308.191	311.62
308.421	305.62
308.651	303.62
308.881	288.62
309.111	292.62
309.341	295.62
309.571	284.62
309.8	305.62
310.03	305.62
310.26	309.62
310.49	311.62
310.72	344.62
310.949	315.62
311.179	321.62
311.409	323.62
311.639	313.62
311.868	316.62
312.098	315.62
312.328	299.62
312.557	350.62
312.787	353.62
313.017	349.62
313.246	324.62
313.476	330.62
313.706	313.62
313.935	320.62
314.165	329.62
314.394	344.62
314.624	337.62
314.853	341.62
315.083	335.62
315.312	331.62
315.542	326.62
315.771	327.62
316.001	316.62
316.23	327.62
316.46	308.62
316.689	342.62
316.919	320.62
317.148	331.62
317.377	329.62
317.607	346.62
317.836	333.62
318.065	348.62
318.295	329.62
318.524	315.62
318.753	318.62
318.983	309.62
319.212	331.62
319.441	320.62
319.67	330.62
319.9	323.62
320.129	341.62
320.358	341.62
320.587	333.62
320.816	336.62
321.046	337.62
321.275	339.62
321.504	316.62
321.733	321.62
321.962	346.62
322.191	352.62
322.42	336.62
322.649	358.62
322.878	362.62
323.108	353.62
323.337	372.62
323.566	374.62
323.795	375.62
324.024	416.62
324.253	460.62
324.482	633.62
324.71	887.62
324.939	1192.62
325.168	989.62
325.397	575.62
325.626	424.62
325.855	409.62
326.084	391.62
326.313	386.62
326.542	380.62
326.77	420.62
326.999	471.62
327.228	592.62
327.457	819.62
327.686	891.62
327.914	603.62
328.143	471.62
328.372	453.62
328.6	421.62
328.829	437.62
329.058	414.62
329.287	437.62
329.515	408.62
329.744	403.62
329.972	415.62
330.201	420.62
330.43	437.62
330.658	441.62
330.887	461.62
331.115	458.62
331.344	405.62
331.572	402.62
331.801	397.62
332.03	406.62
332.258	408.62
332.486	386.62
332.715	384.62
332.943	394.62
333.172	407.62
333.4	421.62
333.629	419.62
333.857	427.62
334.085	432.62
334.314	444.62
334.542	444.62
334.771	464.62
334.999	456.62
335.227	426.62
335.455	395.62
335.684	407.62
335.912	400.62
336.14	397.62
336.369	390.62
336.597	399.62
336.825	399.62
337.053	394.62
337.281	381.62
337.51	397.62
337.738	399.62
337.966	377.62
338.194	389.62
338.422	400.62
338.65	371.62
338.878	364.62
339.106	377.62
339.334	359.62
339.562	353.62
339.79	381.62
340.018	347.62
340.246	369.62
340.474	375.62
340.702	356.62
340.93	370.62
341.158	352.62
341.386	366.62
341.614	358.62
341.842	362.62
342.07	350.62
342.298	371.62
342.526	347.62
342.754	347.62
342.981	364.62
343.209	354.62
343.437	384.62
343.665	375.62
343.893	383.62
344.12	400.62
344.348	393.62
344.576	379.62
344.804	374.62
345.031	384.62
345.259	385.62
345.487	373.62
345.714	372.62
345.942	366.62
346.17	368.62
346.397	359.62
346.625	366.62
346.853	354.62
347.08	349.62
347.308	358.62
347.535	355.62
347.763	343.62
347.99	329.62
348.218	351.62
348.445	351.62
348.673	357.62
348.9	329.62
349.128	353.62
349.355	342.62
349.583	341.62
349.81	338.62
350.037	330.62
350.265	323.62
350.492	335.62
350.72	341.62
350.947	339.62
351.174	352.62
351.402	343.62
351.629	347.62
351.856	356.62
352.083	356.62
352.311	345.62
352.538	359.62
352.765	368.62
352.992	333.62
353.22	351.62
353.447	356.62
353.674	359.62
353.901	327.62
354.128	341.62
354.355	321.62
354.583	338.62
354.81	327.62
355.037	352.62
355.264	333.62
355.491	344.62
355.718	328.62
355.945	331.62
356.172	346.62
356.399	331.62
356.626	330.62
356.853	308.62
357.08	325.62
357.307	319.62
357.534	323.62
357.761	337.62
357.988	343.62
358.215	332.62
358.441	310.62
358.668	310.62
358.895	330.62
359.122	343.62
359.349	341.62
359.576	344.62
359.802	357.62
360.029	376.62
360.256	364.62
360.483	389.62
360.709	359.62
360.936	350.62
361.163	342.62
361.39	354.62
361.616	324.62
361.843	345.62
362.07	346.62
362.296	357.62
362.523	339.62
362.749	331.62
362.976	334.62
363.203	323.62
363.429	320.62
363.656	357.62
363.882	331.62
364.109	340.62
364.335	338.62
364.562	328.62
364.788	345.62
365.015	344.62
365.241	319.62
365.468	348.62
365.694	345.62
365.92	332.62
366.147	343.62
366.373	331.62
366.599	314.62
366.826	312.62
367.052	336.62
367.278	339.62
367.505	332.62
367.731	330.62
367.957	325.62
368.184	329.62
368.41	326.62
368.636	330.62
368.862	335.62
369.089	329.62
369.315	339.62
369.541	335.62
369.767	349.62
369.993	337.62
370.219	334.62
370.445	326.62
370.672	318.62
370.898	340.62
371.124	321.62
371.35	346.62
371.576	346.62
371.802	350.62
372.028	324.62
372.254	328.62
372.48	348.62
372.706	340.62
372.932	327.62
373.158	337.62
373.384	333.62
373.61	348.62
373.835	341.62
374.061	356.62
374.287	361.62
374.513	343.62
374.739	375.62
374.965	355.62
375.191	347.62
375.416	354.62
375.642	344.62
375.868	345.62
376.094	349.62
376.319	348.62
376.545	339.62
376.771	350.62
376.997	343.62
377.222	330.62
377.448	334.62
377.674	326.62
377.899	335.62
378.125	319.62
378.35	333.62
378.576	339.62
378.802	347.62
379.027	340.62
379.253	349.62
379.478	333.62
379.704	338.62
379.929	337.62
380.155	319.62
380.38	310.62
380.606	350.62
380.831	347.62
381.057	339.62
381.282	332.62
381.507	339.62
381.733	357.62
381.958	347.62
382.184	331.62
382.409	344.62
382.634	336.62
382.86	329.62
383.085	358.62
383.31	351.62
383.535	365.62
383.761	379.62
383.986	355.62
384.211	362.62
384.436	358.62
384.662	377.62
384.887	357.62
385.112	373.62
385.337	389.62
385.562	387.62
385.787	347.62
386.013	387.62
386.238	393.62
386.463	378.62
386.688	374.62
386.913	372.62
387.138	377.62
387.363	367.62
387.588	371.62
387.813	377.62
388.038	393.62
388.263	369.62
388.488	383.62
388.713	375.62
388.938	375.62
389.163	367.62
389.387	387.62
389.612	377.62
389.837	372.62
390.062	367.62
390.287	375.62
390.512	364.62
390.736	375.62
390.961	382.62
391.186	387.62
391.411	389.62
391.636	383.62
391.86	415.62
392.085	392.62
392.31	402.62
392.534	385.62
392.759	420.62
392.984	391.62
393.208	379.62
393.433	385.62
393.658	388.62
393.882	380.62
394.107	379.62
394.331	379.62
394.556	373.62
394.78	402.62
395.005	393.62
395.229	387.62
395.454	403.62
395.678	404.62
395.903	380.62
396.127	401.62
396.352	410.62
396.576	390.62
396.801	406.62
397.025	389.62
397.249	395.62
397.474	389.62
397.698	399.62
397.922	401.62
398.147	425.62
398.371	446.62
398.595	436.62
398.82	421.62
399.044	461.62
399.268	487.62
399.492	551.62
399.717	567.62
399.941	561.62
400.165	520.62
400.389	541.62
400.613	477.62
400.837	457.62
401.062	441.62
401.286	438.62
401.51	455.62
401.734	447.62
401.958	458.62
402.182	427.62
402.406	455.62
402.63	455.62
402.854	471.62
403.078	458.62
403.302	474.62
403.526	488.62
403.75	483.62
403.974	475.62
404.198	469.62
404.422	488.62
404.645	488.62
404.869	469.62
405.093	487.62
405.317	508.62
405.541	540.62
405.765	492.62
405.988	478.62
406.212	479.62
406.436	500.62
406.66	507.62
406.883	492.62
407.107	531.62
407.331	573.62
407.555	586.62
407.778	591.62
408.002	540.62
408.226	519.62
408.449	486.62
408.673	492.62
408.896	527.62
409.12	523.62
409.344	491.62
409.567	457.62
409.791	472.62
410.014	453.62
410.238	449.62
410.461	474.62
410.685	427.62
410.908	474.62
411.132	469.62
411.355	479.62
411.578	477.62
411.802	460.62
412.025	437.62
412.249	457.62
412.472	474.62
412.695	489.62
412.919	475.62
413.142	471.62
413.365	462.62
413.589	453.62
413.812	433.62
414.035	435.62
414.258	445.62
414.482	434.62
414.705	436.62
414.928	443.62
415.151	432.62
415.374	454.62
415.597	419.62
415.821	425.62
416.044	425.62
416.267	439.62
416.49	415.62
416.713	442.62
416.936	429.62
417.159	425.62
417.382	435.62
417.605	421.62
417.828	425.62
418.051	437.62
418.274	442.62
418.497	424.62
418.72	453.62
418.943	438.62
419.166	463.62
419.389	499.62
419.611	477.62
419.834	454.62
420.057	462.62
420.28	461.62
420.503	446.62
420.726	429.62
420.948	436.62
421.171	485.62
421.394	477.62
421.617	481.62
421.839	431.62
422.062	439.62
422.285	463.62
422.507	480.62
422.73	519.62
422.953	513.62
423.175	469.62
423.398	469.62
423.621	459.62
423.843	507.62
424.066	475.62
424.288	479.62
424.511	497.62
424.733	506.62
424.956	549.62
425.178	511.62
425.401	513.62
425.623	529.62
425.846	481.62
426.068	448.62
426.291	473.62
426.513	447.62
426.735	438.62
426.958	452.62
427.18	507.62
427.402	621.62
427.625	636.62
427.847	567.62
428.069	503.62
428.292	458.62
428.514	413.62
428.736	421.62
428.958	429.62
429.181	417.62
429.403	417.62
429.625	427.62
429.847	441.62
430.069	475.62
430.292	462.62
430.514	437.62
430.736	424.62
430.958	428.62
431.18	403.62
431.402	413.62
431.624	383.62
431.846	385.62
432.068	405.62
432.29	425.62
432.512	397.62
432.734	417.62
432.956	427.62
433.178	413.62
433.4	413.62
433.622	402.62
433.844	415.62
434.066	413.62
434.287	399.62
434.509	413.62
434.731	448.62
434.953	438.62
435.175	449.62
435.397	464.62
435.618	444.62
435.84	472.62
436.062	506.62
436.284	549.62
436.505	474.62
436.727	465.62
436.949	437.62
437.17	428.62
437.392	401.62
437.614	420.62
437.835	441.62
438.057	487.62
438.278	535.62
438.5	522.62
438.721	575.62
438.943	563.62
439.165	460.62
439.386	448.62
439.608	438.62
439.829	448.62
440.05	440.62
440.272	476.62
440.493	455.62
440.715	426.62
440.936	440.62
441.158	437.62
441.379	441.62
441.6	444.62
441.822	483.62
442.043	469.62
442.264	505.62
442.486	532.62
442.707	499.62
442.928	470.62
443.149	465.62
443.371	485.62
443.592	500.62
443.813	558.62
444.034	597.62
444.255	503.62
444.476	473.62
444.698	503.62
444.919	496.62
445.14	592.62
445.361	539.62
445.582	507.62
445.803	533.62
446.024	579.62
446.245	587.62
446.466	527.62
446.687	449.62
446.908	426.62
447.129	435.62
447.35	430.62
447.571	399.62
447.792	416.62
448.013	405.62
448.234	407.62
448.455	442.62
448.675	504.62
448.896	561.62
449.117	505.62
449.338	483.62
449.559	561.62
449.779	609.62
450	490.62
450.221	427.62
450.442	410.62
450.662	372.62
450.883	378.62
451.104	399.62
451.324	398.62
451.545	378.62
451.766	392.62
451.986	383.62
452.207	382.62
452.428	381.62
452.648	370.62
452.869	382.62
453.089	373.62
453.31	367.62
453.53	385.62
453.751	370.62
453.971	375.62
454.192	392.62
454.412	383.62
454.633	381.62
454.853	387.62
455.073	391.62
455.294	392.62
455.514	413.62
455.734	403.62
455.955	350.62
456.175	357.62
456.395	362.62
456.616	341.62
456.836	366.62
457.056	339.62
457.276	339.62
457.497	355.62
457.717	358.62
457.937	349.62
458.157	359.62
458.377	376.62
458.598	395.62
458.818	401.62
459.038	457.62
459.258	473.62
459.478	428.62
459.698	423.62
459.918	408.62
460.138	422.62
460.358	447.62
460.578	452.62
460.798	451.62
461.018	429.62
461.238	417.62
461.458	430.62
461.678	404.62
461.898	429.62
462.118	441.62
462.338	450.62
462.558	451.62
462.777	470.62
462.997	491.62
463.217	517.62
463.437	502.62
463.657	477.62
463.876	451.62
464.096	477.62
464.316	469.62
464.536	476.62
464.755	472.62
464.975	483.62
465.195	479.62
465.414	504.62
465.634	462.62
465.854	435.62
466.073	427.62
466.293	411.62
466.512	381.62
466.732	389.62
466.951	396.62
467.171	383.62
467.391	392.62
467.61	409.62
467.829	384.62
468.049	384.62
468.268	424.62
468.488	374.62
468.707	379.62
468.927	383.62
469.146	399.62
469.365	382.62
469.585	405.62
469.804	401.62
470.023	412.62
470.243	407.62
470.462	411.62
470.681	407.62
470.901	424.62
471.12	416.62
471.339	422.62
471.558	412.62
471.777	399.62
471.997	388.62
472.216	405.62
472.435	416.62
472.654	421.62
472.873	394.62
473.092	383.62
473.311	387.62
473.53	376.62
473.749	395.62
473.968	415.62
474.187	472.62
474.406	485.62
474.625	428.62
474.844	397.62
475.063	380.62
475.282	392.62
475.501	391.62
475.72	406.62
475.939	404.62
476.158	416.62
476.377	407.62
476.596	387.62
476.814	405.62
477.033	411.62
477.252	403.62
477.471	419.62
477.69	425.62
477.908	421.62
478.127	438.62
478.346	449.62
478.564	440.62
478.783	453.62
479.002	460.62
479.22	457.62
479.439	457.62
479.658	475.62
479.876	475.62
480.095	483.62
480.313	508.62
480.532	491.62
480.751	494.62
480.969	495.62
481.188	535.62
481.406	557.62
481.624	484.62
481.843	479.62
482.061	444.62
482.28	445.62
482.498	438.62
482.717	447.62
482.935	440.62
483.153	421.62
483.372	432.62
483.59	442.62
483.808	436.62
484.027	442.62
484.245	468.62
484.463	470.62
484.681	469.62
484.9	477.62
485.118	451.62
485.336	455.62
485.554	450.62
485.772	484.62
485.99	474.62
486.209	473.62
486.427	467.62
486.645	462.62
486.863	476.62
487.081	457.62
487.299	473.62
487.517	488.62
487.735	478.62
487.953	473.62
488.171	460.62
488.389	471.62
488.607	471.62
488.825	495.62
489.043	484.62
489.261	468.62
489.479	483.62
489.696	479.62
489.914	493.62
490.132	515.62
490.35	507.62
490.568	505.62
490.786	507.62
491.003	529.62
491.221	530.62
491.439	528.62
491.657	517.62
491.874	539.62
492.092	556.62
492.31	549.62
492.527	566.62
492.745	574.62
492.963	569.62
493.18	573.62
493.398	567.62
493.615	571.62
493.833	582.62
494.05	579.62
494.268	556.62
494.485	567.62
494.703	565.62
494.92	575.62
495.138	572.62
495.355	557.62
495.573	579.62
495.79	552.62
496.008	552.62
496.225	556.62
496.442	570.62
496.66	587.62
496.877	552.62
497.094	568.62
497.312	602.62
497.529	592.62
497.746	591.62
497.963	601.62
498.181	640.62
498.398	627.62
498.615	643.62
498.832	666.62
499.049	688.62
499.267	726.62
499.484	791.62
499.701	795.62
499.918	862.62
500.135	920.62
500.352	982.62
500.569	1021.62
500.786	986.62
501.003	978.62
501.22	920.62
501.437	836.62
501.654	812.62
501.871	781.62
502.088	748.62
