Data from 1969.PennyLincolnUp.Lamp.En5.5.200Scan.071719.P1._HRD10591_14-56-27-973.txt Node
Date: Thu Jul 18 14:56:27 EDT 2019
User: cochatt
Spectrometer: HR+D1059
Trigger mode: 1
Integration Time (sec): 1.000000E-1
Scans to average: 1
Electric dark correction enabled: true
Nonlinearity correction enabled: false
Boxcar width: 0
XAxis mode: Wavelengths
Number of Pixels in Spectrum: 2048
>>>>>Begin Spectral Data<<<<<
223.165	-8.69
223.4	-8.69
223.635	-8.69
223.869	-21.69
224.104	-20.69
224.338	-11.69
224.573	-16.69
224.808	-4.69
225.042	-24.69
225.277	-4.69
225.511	-4.69
225.746	14.31
225.98	4.31
226.215	3.31
226.449	16.31
226.683	24.31
226.918	26.31
227.152	29.31
227.387	26.31
227.621	34.31
227.856	40.31
228.09	47.31
228.324	51.31
228.559	60.31
228.793	69.31
229.027	82.31
229.262	86.31
229.496	98.31
229.73	108.31
229.964	113.31
230.199	99.31
230.433	92.31
230.667	103.31
230.901	103.31
231.136	102.31
231.37	94.31
231.604	96.31
231.838	109.31
232.072	100.31
232.306	119.31
232.541	110.31
232.775	109.31
233.009	106.31
233.243	109.31
233.477	113.31
233.711	116.31
233.945	96.31
234.179	104.31
234.413	108.31
234.647	123.31
234.881	96.31
235.115	121.31
235.349	120.31
235.583	109.31
235.817	118.31
236.051	122.31
236.285	109.31
236.519	116.31
236.753	123.31
236.987	125.31
237.221	138.31
237.455	149.31
237.689	153.31
237.922	116.31
238.156	122.31
238.39	111.31
238.624	112.31
238.858	101.31
239.091	109.31
239.325	117.31
239.559	115.31
239.793	118.31
240.027	130.31
240.26	122.31
240.494	139.31
240.728	138.31
240.961	121.31
241.195	119.31
241.429	143.31
241.662	112.31
241.896	110.31
242.13	110.31
242.363	124.31
242.597	140.31
242.83	141.31
243.064	119.31
243.298	132.31
243.531	130.31
243.765	110.31
243.998	126.31
244.232	115.31
244.465	136.31
244.699	124.31
244.932	120.31
245.166	129.31
245.399	129.31
245.633	134.31
245.866	121.31
246.099	137.31
246.333	117.31
246.566	110.31
246.8	131.31
247.033	148.31
247.266	143.31
247.5	139.31
247.733	152.31
247.966	154.31
248.2	142.31
248.433	148.31
248.666	153.31
248.899	153.31
249.133	167.31
249.366	176.31
249.599	176.31
249.832	161.31
250.066	166.31
250.299	149.31
250.532	167.31
250.765	179.31
250.998	179.31
251.231	203.31
251.465	194.31
251.698	181.31
251.931	189.31
252.164	166.31
252.397	169.31
252.63	183.31
252.863	168.31
253.096	168.31
253.329	192.31
253.562	170.31
253.795	165.31
254.028	176.31
254.261	188.31
254.494	196.31
254.727	204.31
254.96	234.31
255.193	219.31
255.426	213.31
255.659	184.31
255.892	202.31
256.124	197.31
256.357	203.31
256.59	178.31
256.823	178.31
257.056	188.31
257.289	176.31
257.521	185.31
257.754	174.31
257.987	181.31
258.22	180.31
258.452	180.31
258.685	186.31
258.918	182.31
259.151	177.31
259.383	172.31
259.616	180.31
259.849	192.31
260.081	198.31
260.314	210.31
260.547	214.31
260.779	201.31
261.012	197.31
261.244	196.31
261.477	185.31
261.71	196.31
261.942	196.31
262.175	188.31
262.407	193.31
262.64	195.31
262.872	197.31
263.105	181.31
263.337	195.31
263.57	193.31
263.802	184.31
264.035	182.31
264.267	195.31
264.499	173.31
264.732	187.31
264.964	174.31
265.197	180.31
265.429	184.31
265.661	192.31
265.894	166.31
266.126	179.31
266.358	194.31
266.591	201.31
266.823	205.31
267.055	204.31
267.287	215.31
267.52	232.31
267.752	187.31
267.984	198.31
268.216	199.31
268.448	203.31
268.681	206.31
268.913	205.31
269.145	229.31
269.377	243.31
269.609	221.31
269.841	231.31
270.073	235.31
270.306	233.31
270.538	288.31
270.77	261.31
271.002	248.31
271.234	238.31
271.466	248.31
271.698	248.31
271.93	273.31
272.162	246.31
272.394	274.31
272.626	248.31
272.858	250.31
273.09	236.31
273.322	224.31
273.553	244.31
273.785	220.31
274.017	226.31
274.249	229.31
274.481	229.31
274.713	220.31
274.945	241.31
275.176	240.31
275.408	236.31
275.64	220.31
275.872	223.31
276.104	236.31
276.335	230.31
276.567	248.31
276.799	233.31
277.031	262.31
277.262	281.31
277.494	277.31
277.726	259.31
277.957	281.31
278.189	258.31
278.421	238.31
278.652	248.31
278.884	241.31
279.115	229.31
279.347	233.31
279.579	229.31
279.81	231.31
280.042	242.31
280.273	218.31
280.505	246.31
280.736	238.31
280.968	231.31
281.199	233.31
281.431	236.31
281.662	235.31
281.894	238.31
282.125	251.31
282.356	253.31
282.588	262.31
282.819	262.31
283.051	252.31
283.282	226.31
283.513	230.31
283.745	256.31
283.976	248.31
284.207	262.31
284.439	234.31
284.67	256.31
284.901	232.31
285.132	256.31
285.364	236.31
285.595	241.31
285.826	251.31
286.057	215.31
286.288	250.31
286.52	248.31
286.751	240.31
286.982	247.31
287.213	266.31
287.444	250.31
287.675	253.31
287.906	260.31
288.138	260.31
288.369	267.31
288.6	285.31
288.831	257.31
289.062	285.31
289.293	280.31
289.524	268.31
289.755	257.31
289.986	258.31
290.217	264.31
290.448	258.31
290.679	248.31
290.91	274.31
291.141	256.31
291.371	270.31
291.602	259.31
291.833	278.31
292.064	262.31
292.295	251.31
292.526	256.31
292.757	272.31
292.987	260.31
293.218	279.31
293.449	273.31
293.68	286.31
293.91	277.31
294.141	260.31
294.372	261.31
294.603	270.31
294.833	265.31
295.064	265.31
295.295	261.31
295.525	265.31
295.756	267.31
295.987	279.31
296.217	287.31
296.448	302.31
296.679	275.31
296.909	256.31
297.14	272.31
297.37	269.31
297.601	258.31
297.831	267.31
298.062	290.31
298.292	284.31
298.523	281.31
298.753	293.31
298.984	285.31
299.214	289.31
299.445	286.31
299.675	286.31
299.905	281.31
300.136	289.31
300.366	272.31
300.597	293.31
300.827	294.31
301.057	292.31
301.288	311.31
301.518	301.31
301.748	307.31
301.979	304.31
302.209	304.31
302.439	293.31
302.669	287.31
302.9	298.31
303.13	306.31
303.36	290.31
303.59	289.31
303.82	301.31
304.051	290.31
304.281	280.31
304.511	278.31
304.741	300.31
304.971	289.31
305.201	304.31
305.431	299.31
305.661	281.31
305.891	297.31
306.121	298.31
306.352	302.31
306.582	288.31
306.812	320.31
307.042	313.31
307.272	304.31
307.502	315.31
307.731	299.31
307.961	300.31
308.191	288.31
308.421	300.31
308.651	293.31
308.881	299.31
309.111	289.31
309.341	294.31
309.571	316.31
309.8	315.31
310.03	309.31
310.26	320.31
310.49	325.31
310.72	337.31
310.949	347.31
311.179	342.31
311.409	332.31
311.639	326.31
311.868	323.31
312.098	341.31
312.328	339.31
312.557	341.31
312.787	330.31
313.017	328.31
313.246	332.31
313.476	328.31
313.706	340.31
313.935	336.31
314.165	343.31
314.394	340.31
314.624	324.31
314.853	341.31
315.083	344.31
315.312	343.31
315.542	340.31
315.771	350.31
316.001	317.31
316.23	339.31
316.46	337.31
316.689	337.31
316.919	326.31
317.148	349.31
317.377	324.31
317.607	322.31
317.836	333.31
318.065	317.31
318.295	300.31
318.524	334.31
318.753	309.31
318.983	332.31
319.212	332.31
319.441	328.31
319.67	319.31
319.9	308.31
320.129	317.31
320.358	332.31
320.587	334.31
320.816	321.31
321.046	343.31
321.275	353.31
321.504	321.31
321.733	337.31
321.962	346.31
322.191	336.31
322.42	371.31
322.649	356.31
322.878	384.31
323.108	362.31
323.337	380.31
323.566	393.31
323.795	405.31
324.024	424.31
324.253	490.31
324.482	649.31
324.71	900.31
324.939	1264.31
325.168	1000.31
325.397	582.31
325.626	445.31
325.855	404.31
326.084	385.31
326.313	396.31
326.542	396.31
326.77	432.31
326.999	492.31
327.228	602.31
327.457	831.31
327.686	928.31
327.914	651.31
328.143	510.31
328.372	443.31
328.6	444.31
328.829	437.31
329.058	430.31
329.287	445.31
329.515	439.31
329.744	406.31
329.972	400.31
330.201	410.31
330.43	446.31
330.658	461.31
330.887	460.31
331.115	433.31
331.344	418.31
331.572	411.31
331.801	398.31
332.03	407.31
332.258	412.31
332.486	398.31
332.715	394.31
332.943	418.31
333.172	400.31
333.4	421.31
333.629	436.31
333.857	435.31
334.085	440.31
334.314	435.31
334.542	493.31
334.771	483.31
334.999	403.31
335.227	421.31
335.455	419.31
335.684	406.31
335.912	377.31
336.14	387.31
336.369	401.31
336.597	397.31
336.825	408.31
337.053	399.31
337.281	388.31
337.51	376.31
337.738	399.31
337.966	382.31
338.194	377.31
338.422	365.31
338.65	375.31
338.878	384.31
339.106	353.31
339.334	362.31
339.562	361.31
339.79	355.31
340.018	359.31
340.246	363.31
340.474	369.31
340.702	365.31
340.93	357.31
341.158	355.31
341.386	376.31
341.614	348.31
341.842	341.31
342.07	356.31
342.298	354.31
342.526	355.31
342.754	347.31
342.981	339.31
343.209	357.31
343.437	348.31
343.665	378.31
343.893	384.31
344.12	390.31
344.348	394.31
344.576	395.31
344.804	376.31
345.031	361.31
345.259	382.31
345.487	372.31
345.714	355.31
345.942	362.31
346.17	365.31
346.397	348.31
346.625	364.31
346.853	350.31
347.08	342.31
347.308	331.31
347.535	353.31
347.763	341.31
347.99	367.31
348.218	352.31
348.445	359.31
348.673	349.31
348.9	334.31
349.128	368.31
349.355	336.31
349.583	347.31
349.81	345.31
350.037	354.31
350.265	338.31
350.492	329.31
350.72	325.31
350.947	338.31
351.174	349.31
351.402	344.31
351.629	347.31
351.856	353.31
352.083	346.31
352.311	358.31
352.538	356.31
352.765	352.31
352.992	345.31
353.22	348.31
353.447	339.31
353.674	338.31
353.901	342.31
354.128	343.31
354.355	327.31
354.583	324.31
354.81	314.31
355.037	326.31
355.264	343.31
355.491	335.31
355.718	337.31
355.945	311.31
356.172	335.31
356.399	340.31
356.626	320.31
356.853	330.31
357.08	332.31
357.307	333.31
357.534	322.31
357.761	327.31
357.988	340.31
358.215	332.31
358.441	321.31
358.668	331.31
358.895	351.31
359.122	340.31
359.349	341.31
359.576	354.31
359.802	355.31
360.029	355.31
360.256	371.31
360.483	345.31
360.709	333.31
360.936	353.31
361.163	343.31
361.39	347.31
361.616	342.31
361.843	331.31
362.07	339.31
362.296	348.31
362.523	333.31
362.749	359.31
362.976	338.31
363.203	338.31
363.429	338.31
363.656	333.31
363.882	337.31
364.109	351.31
364.335	348.31
364.562	341.31
364.788	329.31
365.015	337.31
365.241	332.31
365.468	342.31
365.694	337.31
365.92	336.31
366.147	331.31
366.373	332.31
366.599	340.31
366.826	333.31
367.052	325.31
367.278	337.31
367.505	343.31
367.731	329.31
367.957	323.31
368.184	334.31
368.41	333.31
368.636	336.31
368.862	338.31
369.089	341.31
369.315	327.31
369.541	344.31
369.767	332.31
369.993	331.31
370.219	339.31
370.445	336.31
370.672	338.31
370.898	340.31
371.124	354.31
371.35	332.31
371.576	347.31
371.802	347.31
372.028	345.31
372.254	339.31
372.48	341.31
372.706	350.31
372.932	349.31
373.158	364.31
373.384	344.31
373.61	343.31
373.835	356.31
374.061	331.31
374.287	364.31
374.513	341.31
374.739	354.31
374.965	361.31
375.191	349.31
375.416	356.31
375.642	353.31
375.868	350.31
376.094	337.31
376.319	357.31
376.545	345.31
376.771	330.31
376.997	351.31
377.222	329.31
377.448	332.31
377.674	340.31
377.899	346.31
378.125	338.31
378.35	347.31
378.576	340.31
378.802	346.31
379.027	325.31
379.253	345.31
379.478	327.31
379.704	333.31
379.929	338.31
380.155	334.31
380.38	350.31
380.606	345.31
380.831	309.31
381.057	346.31
381.282	339.31
381.507	333.31
381.733	363.31
381.958	344.31
382.184	340.31
382.409	342.31
382.634	346.31
382.86	354.31
383.085	354.31
383.31	357.31
383.535	357.31
383.761	361.31
383.986	357.31
384.211	355.31
384.436	341.31
384.662	370.31
384.887	371.31
385.112	387.31
385.337	371.31
385.562	382.31
385.787	381.31
386.013	388.31
386.238	391.31
386.463	383.31
386.688	388.31
386.913	373.31
387.138	369.31
387.363	377.31
387.588	367.31
387.813	389.31
388.038	386.31
388.263	391.31
388.488	390.31
388.713	368.31
388.938	377.31
389.163	357.31
389.387	398.31
389.612	359.31
389.837	372.31
390.062	374.31
390.287	384.31
390.512	389.31
390.736	357.31
390.961	382.31
391.186	382.31
391.411	379.31
391.636	398.31
391.86	404.31
392.085	410.31
392.31	393.31
392.534	396.31
392.759	413.31
392.984	374.31
393.208	399.31
393.433	375.31
393.658	380.31
393.882	397.31
394.107	389.31
394.331	392.31
394.556	386.31
394.78	374.31
395.005	397.31
395.229	403.31
395.454	395.31
395.678	405.31
395.903	420.31
396.127	400.31
396.352	393.31
396.576	392.31
396.801	377.31
397.025	386.31
397.249	388.31
397.474	389.31
397.698	417.31
397.922	399.31
398.147	422.31
398.371	418.31
398.595	429.31
398.82	440.31
399.044	448.31
399.268	483.31
399.492	527.31
399.717	560.31
399.941	578.31
400.165	545.31
400.389	534.31
400.613	465.31
400.837	455.31
401.062	468.31
401.286	445.31
401.51	467.31
401.734	435.31
401.958	457.31
402.182	457.31
402.406	451.31
402.63	465.31
402.854	452.31
403.078	475.31
403.302	490.31
403.526	483.31
403.75	500.31
403.974	479.31
404.198	471.31
404.422	483.31
404.645	458.31
404.869	474.31
405.093	485.31
405.317	520.31
405.541	534.31
405.765	494.31
405.988	490.31
406.212	483.31
406.436	518.31
406.66	488.31
406.883	507.31
407.107	520.31
407.331	555.31
407.555	594.31
407.778	570.31
408.002	540.31
408.226	513.31
408.449	514.31
408.673	489.31
408.896	522.31
409.12	547.31
409.344	481.31
409.567	472.31
409.791	468.31
410.014	469.31
410.238	461.31
410.461	457.31
410.685	460.31
410.908	493.31
411.132	470.31
411.355	503.31
411.578	448.31
411.802	461.31
412.025	464.31
412.249	464.31
412.472	480.31
412.695	498.31
412.919	478.31
413.142	452.31
413.365	453.31
413.589	424.31
413.812	449.31
414.035	454.31
414.258	454.31
414.482	425.31
414.705	437.31
414.928	436.31
415.151	408.31
415.374	421.31
415.597	430.31
415.821	434.31
416.044	420.31
416.267	440.31
416.49	425.31
416.713	402.31
416.936	434.31
417.159	435.31
417.382	446.31
417.605	436.31
417.828	444.31
418.051	456.31
418.274	428.31
418.497	440.31
418.72	438.31
418.943	453.31
419.166	454.31
419.389	470.31
419.611	468.31
419.834	475.31
420.057	450.31
420.28	448.31
420.503	445.31
420.726	452.31
420.948	439.31
421.171	456.31
421.394	475.31
421.617	448.31
421.839	444.31
422.062	452.31
422.285	460.31
422.507	498.31
422.73	525.31
422.953	504.31
423.175	472.31
423.398	471.31
423.621	459.31
423.843	485.31
424.066	477.31
424.288	460.31
424.511	477.31
424.733	496.31
424.956	557.31
425.178	547.31
425.401	544.31
425.623	545.31
425.846	482.31
426.068	470.31
426.291	448.31
426.513	451.31
426.735	457.31
426.958	467.31
427.18	523.31
427.402	585.31
427.625	625.31
427.847	589.31
428.069	503.31
428.292	467.31
428.514	465.31
428.736	406.31
428.958	404.31
429.181	425.31
429.403	395.31
429.625	416.31
429.847	430.31
430.069	474.31
430.292	464.31
430.514	411.31
430.736	416.31
430.958	412.31
431.18	406.31
431.402	407.31
431.624	411.31
431.846	393.31
432.068	410.31
432.29	415.31
432.512	394.31
432.734	408.31
432.956	397.31
433.178	425.31
433.4	419.31
433.622	394.31
433.844	408.31
434.066	393.31
434.287	420.31
434.509	408.31
434.731	414.31
434.953	434.31
435.175	428.31
435.397	490.31
435.618	455.31
435.84	452.31
436.062	523.31
436.284	543.31
436.505	475.31
436.727	444.31
436.949	433.31
437.17	435.31
437.392	409.31
437.614	434.31
437.835	450.31
438.057	509.31
438.278	541.31
438.5	568.31
438.721	603.31
438.943	575.31
439.165	465.31
439.386	454.31
439.608	454.31
439.829	435.31
440.05	459.31
440.272	481.31
440.493	466.31
440.715	454.31
440.936	433.31
441.158	453.31
441.379	462.31
441.6	453.31
441.822	481.31
442.043	485.31
442.264	539.31
442.486	567.31
442.707	491.31
442.928	480.31
443.149	474.31
443.371	502.31
443.592	506.31
443.813	564.31
444.034	595.31
444.255	534.31
444.476	501.31
444.698	488.31
444.919	504.31
445.14	564.31
445.361	529.31
445.582	493.31
445.803	535.31
446.024	569.31
446.245	565.31
446.466	531.31
446.687	492.31
446.908	436.31
447.129	413.31
447.35	399.31
447.571	406.31
447.792	412.31
448.013	437.31
448.234	443.31
448.455	456.31
448.675	526.31
448.896	578.31
449.117	517.31
449.338	490.31
449.559	562.31
449.779	589.31
450	476.31
450.221	434.31
450.442	407.31
450.662	419.31
450.883	412.31
451.104	415.31
451.324	417.31
451.545	386.31
451.766	393.31
451.986	395.31
452.207	374.31
452.428	363.31
452.648	382.31
452.869	380.31
453.089	381.31
453.31	387.31
453.53	389.31
453.751	380.31
453.971	382.31
454.192	383.31
454.412	370.31
454.633	360.31
454.853	361.31
455.073	381.31
455.294	378.31
455.514	437.31
455.734	411.31
455.955	387.31
456.175	361.31
456.395	369.31
456.616	354.31
456.836	374.31
457.056	357.31
457.276	348.31
457.497	358.31
457.717	357.31
457.937	379.31
458.157	383.31
458.377	374.31
458.598	398.31
458.818	417.31
459.038	476.31
459.258	477.31
459.478	442.31
459.698	417.31
459.918	410.31
460.138	417.31
460.358	425.31
460.578	438.31
460.798	429.31
461.018	440.31
461.238	434.31
461.458	437.31
461.678	436.31
461.898	448.31
462.118	446.31
462.338	477.31
462.558	458.31
462.777	482.31
462.997	499.31
463.217	532.31
463.437	515.31
463.657	500.31
463.876	466.31
464.096	468.31
464.316	476.31
464.536	500.31
464.755	456.31
464.975	456.31
465.195	484.31
465.414	508.31
465.634	469.31
465.854	425.31
466.073	422.31
466.293	419.31
466.512	397.31
466.732	398.31
466.951	382.31
467.171	387.31
467.391	396.31
467.61	406.31
467.829	400.31
468.049	407.31
468.268	402.31
468.488	395.31
468.707	375.31
468.927	375.31
469.146	401.31
469.365	403.31
469.585	386.31
469.804	395.31
470.023	389.31
470.243	417.31
470.462	414.31
470.681	416.31
470.901	420.31
471.12	408.31
471.339	400.31
471.558	405.31
471.777	397.31
471.997	369.31
472.216	387.31
472.435	424.31
472.654	429.31
472.873	393.31
473.092	409.31
473.311	369.31
473.53	398.31
473.749	392.31
473.968	413.31
474.187	486.31
474.406	490.31
474.625	416.31
474.844	388.31
475.063	395.31
475.282	389.31
475.501	380.31
475.72	415.31
475.939	388.31
476.158	393.31
476.377	387.31
476.596	400.31
476.814	409.31
477.033	406.31
477.252	422.31
477.471	419.31
477.69	424.31
477.908	424.31
478.127	428.31
478.346	447.31
478.564	460.31
478.783	463.31
479.002	452.31
479.22	440.31
479.439	462.31
479.658	473.31
479.876	479.31
480.095	481.31
480.313	509.31
480.532	491.31
480.751	509.31
480.969	492.31
481.188	530.31
481.406	523.31
481.624	490.31
481.843	457.31
482.061	481.31
482.28	444.31
482.498	464.31
482.717	470.31
482.935	457.31
483.153	441.31
483.372	459.31
483.59	444.31
483.808	457.31
484.027	456.31
484.245	431.31
484.463	459.31
484.681	464.31
484.9	457.31
485.118	452.31
485.336	474.31
485.554	470.31
485.772	468.31
485.99	447.31
486.209	445.31
486.427	486.31
486.645	477.31
486.863	464.31
487.081	486.31
487.299	471.31
487.517	463.31
487.735	491.31
487.953	489.31
488.171	475.31
488.389	477.31
488.607	494.31
488.825	472.31
489.043	468.31
489.261	471.31
489.479	487.31
489.696	504.31
489.914	505.31
490.132	498.31
490.35	510.31
490.568	482.31
490.786	518.31
491.003	522.31
491.221	536.31
491.439	528.31
491.657	563.31
491.874	538.31
492.092	539.31
492.31	553.31
492.527	563.31
492.745	558.31
492.963	564.31
493.18	580.31
493.398	564.31
493.615	565.31
493.833	553.31
494.05	552.31
494.268	554.31
494.485	556.31
494.703	584.31
494.92	553.31
495.138	575.31
495.355	568.31
495.573	573.31
495.79	564.31
496.008	559.31
496.225	569.31
496.442	578.31
496.66	574.31
496.877	574.31
497.094	582.31
497.312	589.31
497.529	598.31
497.746	625.31
497.963	621.31
498.181	614.31
498.398	640.31
498.615	646.31
498.832	712.31
499.049	700.31
499.267	766.31
499.484	747.31
499.701	818.31
499.918	860.31
500.135	936.31
500.352	968.31
500.569	1000.31
500.786	998.31
501.003	965.31
501.22	905.31
501.437	843.31
501.654	824.31
501.871	806.31
502.088	755.31
