Data from 1969.PennyLincolnUp.Lamp.En5.5.200Scan.071719.P1._HRD10591_14-56-04-976.txt Node
Date: Thu Jul 18 14:56:04 EDT 2019
User: cochatt
Spectrometer: HR+D1059
Trigger mode: 1
Integration Time (sec): 1.000000E-1
Scans to average: 1
Electric dark correction enabled: true
Nonlinearity correction enabled: false
Boxcar width: 0
XAxis mode: Wavelengths
Number of Pixels in Spectrum: 2048
>>>>>Begin Spectral Data<<<<<
223.165	-15.94
223.4	-15.94
223.635	-15.94
223.869	-28.94
224.104	-12.94
224.338	-15.94
224.573	-18.94
224.808	-14.94
225.042	-18.94
225.277	-5.94
225.511	-1.94
225.746	9.06
225.98	12.06
226.215	16.06
226.449	21.06
226.683	31.06
226.918	30.06
227.152	15.06
227.387	29.06
227.621	32.06
227.856	35.06
228.09	47.06
228.324	65.06
228.559	59.06
228.793	68.06
229.027	93.06
229.262	94.06
229.496	102.06
229.73	109.06
229.964	121.06
230.199	113.06
230.433	100.06
230.667	94.06
230.901	108.06
231.136	96.06
231.37	84.06
231.604	104.06
231.838	84.06
232.072	99.06
232.306	102.06
232.541	96.06
232.775	114.06
233.009	106.06
233.243	102.06
233.477	91.06
233.711	96.06
233.945	104.06
234.179	109.06
234.413	102.06
234.647	106.06
234.881	99.06
235.115	112.06
235.349	110.06
235.583	109.06
235.817	114.06
236.051	112.06
236.285	125.06
236.519	112.06
236.753	116.06
236.987	115.06
237.221	153.06
237.455	171.06
237.689	156.06
237.922	122.06
238.156	132.06
238.39	100.06
238.624	101.06
238.858	112.06
239.091	102.06
239.325	110.06
239.559	116.06
239.793	108.06
240.027	111.06
240.26	115.06
240.494	139.06
240.728	132.06
240.961	142.06
241.195	129.06
241.429	116.06
241.662	113.06
241.896	115.06
242.13	114.06
242.363	117.06
242.597	122.06
242.83	118.06
243.064	122.06
243.298	115.06
243.531	121.06
243.765	121.06
243.998	134.06
244.232	136.06
244.465	114.06
244.699	142.06
244.932	119.06
245.166	125.06
245.399	135.06
245.633	131.06
245.866	133.06
246.099	119.06
246.333	132.06
246.566	130.06
246.8	124.06
247.033	122.06
247.266	135.06
247.5	142.06
247.733	140.06
247.966	146.06
248.2	146.06
248.433	142.06
248.666	140.06
248.899	149.06
249.133	147.06
249.366	156.06
249.599	160.06
249.832	152.06
250.066	156.06
250.299	145.06
250.532	162.06
250.765	165.06
250.998	186.06
251.231	189.06
251.465	162.06
251.698	171.06
251.931	156.06
252.164	179.06
252.397	168.06
252.63	176.06
252.863	178.06
253.096	166.06
253.329	172.06
253.562	193.06
253.795	176.06
254.028	168.06
254.261	171.06
254.494	194.06
254.727	214.06
254.96	227.06
255.193	209.06
255.426	192.06
255.659	171.06
255.892	191.06
256.124	197.06
256.357	191.06
256.59	204.06
256.823	181.06
257.056	184.06
257.289	161.06
257.521	164.06
257.754	179.06
257.987	178.06
258.22	178.06
258.452	160.06
258.685	181.06
258.918	176.06
259.151	187.06
259.383	181.06
259.616	196.06
259.849	183.06
260.081	220.06
260.314	204.06
260.547	213.06
260.779	213.06
261.012	197.06
261.244	172.06
261.477	194.06
261.71	188.06
261.942	193.06
262.175	210.06
262.407	191.06
262.64	200.06
262.872	204.06
263.105	185.06
263.337	201.06
263.57	174.06
263.802	180.06
264.035	185.06
264.267	185.06
264.499	160.06
264.732	169.06
264.964	181.06
265.197	206.06
265.429	182.06
265.661	192.06
265.894	195.06
266.126	195.06
266.358	202.06
266.591	196.06
266.823	189.06
267.055	208.06
267.287	208.06
267.52	202.06
267.752	200.06
267.984	195.06
268.216	189.06
268.448	209.06
268.681	209.06
268.913	206.06
269.145	224.06
269.377	236.06
269.609	237.06
269.841	227.06
270.073	225.06
270.306	253.06
270.538	269.06
270.77	257.06
271.002	246.06
271.234	240.06
271.466	223.06
271.698	253.06
271.93	268.06
272.162	272.06
272.394	252.06
272.626	243.06
272.858	240.06
273.09	240.06
273.322	249.06
273.553	215.06
273.785	223.06
274.017	221.06
274.249	234.06
274.481	213.06
274.713	210.06
274.945	244.06
275.176	219.06
275.408	243.06
275.64	243.06
275.872	217.06
276.104	242.06
276.335	237.06
276.567	237.06
276.799	236.06
277.031	255.06
277.262	273.06
277.494	277.06
277.726	245.06
277.957	254.06
278.189	244.06
278.421	248.06
278.652	227.06
278.884	213.06
279.115	224.06
279.347	234.06
279.579	238.06
279.81	229.06
280.042	226.06
280.273	233.06
280.505	228.06
280.736	218.06
280.968	225.06
281.199	233.06
281.431	228.06
281.662	232.06
281.894	243.06
282.125	247.06
282.356	260.06
282.588	261.06
282.819	240.06
283.051	235.06
283.282	244.06
283.513	254.06
283.745	235.06
283.976	245.06
284.207	260.06
284.439	263.06
284.67	266.06
284.901	246.06
285.132	244.06
285.364	269.06
285.595	258.06
285.826	256.06
286.057	236.06
286.288	264.06
286.52	256.06
286.751	242.06
286.982	265.06
287.213	244.06
287.444	264.06
287.675	259.06
287.906	253.06
288.138	269.06
288.369	263.06
288.6	279.06
288.831	269.06
289.062	254.06
289.293	275.06
289.524	255.06
289.755	257.06
289.986	268.06
290.217	272.06
290.448	241.06
290.679	259.06
290.91	276.06
291.141	246.06
291.371	247.06
291.602	244.06
291.833	251.06
292.064	258.06
292.295	260.06
292.526	254.06
292.757	263.06
292.987	249.06
293.218	255.06
293.449	274.06
293.68	256.06
293.91	262.06
294.141	263.06
294.372	255.06
294.603	266.06
294.833	252.06
295.064	257.06
295.295	263.06
295.525	265.06
295.756	262.06
295.987	273.06
296.217	276.06
296.448	308.06
296.679	251.06
296.909	282.06
297.14	263.06
297.37	273.06
297.601	260.06
297.831	278.06
298.062	277.06
298.292	271.06
298.523	288.06
298.753	270.06
298.984	271.06
299.214	282.06
299.445	282.06
299.675	267.06
299.905	280.06
300.136	291.06
300.366	299.06
300.597	270.06
300.827	281.06
301.057	284.06
301.288	306.06
301.518	295.06
301.748	306.06
301.979	298.06
302.209	303.06
302.439	291.06
302.669	279.06
302.9	307.06
303.13	300.06
303.36	306.06
303.59	301.06
303.82	302.06
304.051	297.06
304.281	278.06
304.511	293.06
304.741	313.06
304.971	286.06
305.201	285.06
305.431	296.06
305.661	291.06
305.891	288.06
306.121	301.06
306.352	285.06
306.582	296.06
306.812	297.06
307.042	285.06
307.272	294.06
307.502	301.06
307.731	277.06
307.961	312.06
308.191	293.06
308.421	290.06
308.651	305.06
308.881	308.06
309.111	281.06
309.341	307.06
309.571	294.06
309.8	308.06
310.03	310.06
310.26	311.06
310.49	301.06
310.72	310.06
310.949	336.06
311.179	322.06
311.409	325.06
311.639	322.06
311.868	320.06
312.098	330.06
312.328	342.06
312.557	334.06
312.787	331.06
313.017	329.06
313.246	334.06
313.476	332.06
313.706	333.06
313.935	319.06
314.165	316.06
314.394	326.06
314.624	325.06
314.853	345.06
315.083	325.06
315.312	328.06
315.542	351.06
315.771	320.06
316.001	324.06
316.23	325.06
316.46	322.06
316.689	314.06
316.919	314.06
317.148	312.06
317.377	329.06
317.607	302.06
317.836	333.06
318.065	324.06
318.295	321.06
318.524	326.06
318.753	321.06
318.983	321.06
319.212	320.06
319.441	326.06
319.67	327.06
319.9	329.06
320.129	320.06
320.358	321.06
320.587	318.06
320.816	331.06
321.046	346.06
321.275	344.06
321.504	319.06
321.733	341.06
321.962	343.06
322.191	343.06
322.42	363.06
322.649	362.06
322.878	341.06
323.108	378.06
323.337	382.06
323.566	369.06
323.795	394.06
324.024	418.06
324.253	477.06
324.482	606.06
324.71	910.06
324.939	1174.06
325.168	995.06
325.397	567.06
325.626	440.06
325.855	391.06
326.084	381.06
326.313	385.06
326.542	377.06
326.77	395.06
326.999	458.06
327.228	569.06
327.457	836.06
327.686	880.06
327.914	636.06
328.143	477.06
328.372	444.06
328.6	432.06
328.829	417.06
329.058	445.06
329.287	444.06
329.515	408.06
329.744	410.06
329.972	388.06
330.201	409.06
330.43	429.06
330.658	458.06
330.887	470.06
331.115	453.06
331.344	397.06
331.572	410.06
331.801	400.06
332.03	407.06
332.258	414.06
332.486	380.06
332.715	400.06
332.943	380.06
333.172	400.06
333.4	410.06
333.629	433.06
333.857	429.06
334.085	432.06
334.314	452.06
334.542	475.06
334.771	469.06
334.999	446.06
335.227	406.06
335.455	388.06
335.684	396.06
335.912	404.06
336.14	377.06
336.369	388.06
336.597	390.06
336.825	402.06
337.053	391.06
337.281	381.06
337.51	387.06
337.738	395.06
337.966	360.06
338.194	380.06
338.422	364.06
338.65	376.06
338.878	391.06
339.106	355.06
339.334	369.06
339.562	372.06
339.79	353.06
340.018	343.06
340.246	344.06
340.474	353.06
340.702	366.06
340.93	353.06
341.158	341.06
341.386	356.06
341.614	375.06
341.842	370.06
342.07	377.06
342.298	359.06
342.526	364.06
342.754	356.06
342.981	352.06
343.209	338.06
343.437	359.06
343.665	377.06
343.893	370.06
344.12	392.06
344.348	385.06
344.576	364.06
344.804	361.06
345.031	355.06
345.259	375.06
345.487	359.06
345.714	368.06
345.942	344.06
346.17	340.06
346.397	354.06
346.625	338.06
346.853	358.06
347.08	344.06
347.308	357.06
347.535	348.06
347.763	361.06
347.99	358.06
348.218	348.06
348.445	352.06
348.673	332.06
348.9	322.06
349.128	337.06
349.355	332.06
349.583	335.06
349.81	335.06
350.037	332.06
350.265	332.06
350.492	342.06
350.72	322.06
350.947	323.06
351.174	344.06
351.402	349.06
351.629	336.06
351.856	346.06
352.083	347.06
352.311	368.06
352.538	354.06
352.765	328.06
352.992	351.06
353.22	348.06
353.447	339.06
353.674	345.06
353.901	326.06
354.128	334.06
354.355	330.06
354.583	302.06
354.81	333.06
355.037	339.06
355.264	347.06
355.491	332.06
355.718	305.06
355.945	336.06
356.172	331.06
356.399	328.06
356.626	341.06
356.853	334.06
357.08	334.06
357.307	330.06
357.534	339.06
357.761	316.06
357.988	306.06
358.215	332.06
358.441	340.06
358.668	314.06
358.895	339.06
359.122	342.06
359.349	321.06
359.576	330.06
359.802	338.06
360.029	358.06
360.256	372.06
360.483	363.06
360.709	343.06
360.936	353.06
361.163	346.06
361.39	323.06
361.616	325.06
361.843	340.06
362.07	336.06
362.296	345.06
362.523	343.06
362.749	329.06
362.976	326.06
363.203	335.06
363.429	327.06
363.656	331.06
363.882	318.06
364.109	333.06
364.335	335.06
364.562	333.06
364.788	340.06
365.015	329.06
365.241	326.06
365.468	333.06
365.694	328.06
365.92	333.06
366.147	333.06
366.373	316.06
366.599	328.06
366.826	310.06
367.052	322.06
367.278	333.06
367.505	320.06
367.731	345.06
367.957	321.06
368.184	319.06
368.41	337.06
368.636	352.06
368.862	353.06
369.089	345.06
369.315	328.06
369.541	308.06
369.767	348.06
369.993	336.06
370.219	334.06
370.445	335.06
370.672	345.06
370.898	313.06
371.124	339.06
371.35	352.06
371.576	341.06
371.802	341.06
372.028	340.06
372.254	348.06
372.48	350.06
372.706	334.06
372.932	335.06
373.158	339.06
373.384	328.06
373.61	331.06
373.835	338.06
374.061	341.06
374.287	344.06
374.513	339.06
374.739	345.06
374.965	351.06
375.191	340.06
375.416	374.06
375.642	338.06
375.868	362.06
376.094	340.06
376.319	324.06
376.545	317.06
376.771	345.06
376.997	347.06
377.222	337.06
377.448	321.06
377.674	358.06
377.899	325.06
378.125	317.06
378.35	332.06
378.576	348.06
378.802	332.06
379.027	327.06
379.253	329.06
379.478	328.06
379.704	339.06
379.929	328.06
380.155	345.06
380.38	334.06
380.606	334.06
380.831	344.06
381.057	327.06
381.282	338.06
381.507	336.06
381.733	345.06
381.958	360.06
382.184	344.06
382.409	343.06
382.634	352.06
382.86	342.06
383.085	347.06
383.31	347.06
383.535	343.06
383.761	353.06
383.986	354.06
384.211	380.06
384.436	370.06
384.662	366.06
384.887	376.06
385.112	381.06
385.337	379.06
385.562	365.06
385.787	370.06
386.013	383.06
386.238	399.06
386.463	393.06
386.688	377.06
386.913	347.06
387.138	355.06
387.363	361.06
387.588	388.06
387.813	364.06
388.038	375.06
388.263	381.06
388.488	357.06
388.713	357.06
388.938	390.06
389.163	385.06
389.387	377.06
389.612	357.06
389.837	376.06
390.062	378.06
390.287	358.06
390.512	379.06
390.736	372.06
390.961	372.06
391.186	372.06
391.411	389.06
391.636	385.06
391.86	419.06
392.085	400.06
392.31	410.06
392.534	385.06
392.759	400.06
392.984	387.06
393.208	396.06
393.433	386.06
393.658	364.06
393.882	370.06
394.107	386.06
394.331	362.06
394.556	396.06
394.78	388.06
395.005	390.06
395.229	387.06
395.454	404.06
395.678	406.06
395.903	393.06
396.127	430.06
396.352	403.06
396.576	384.06
396.801	371.06
397.025	389.06
397.249	393.06
397.474	414.06
397.698	402.06
397.922	424.06
398.147	412.06
398.371	426.06
398.595	433.06
398.82	421.06
399.044	478.06
399.268	492.06
399.492	548.06
399.717	585.06
399.941	550.06
400.165	539.06
400.389	513.06
400.613	478.06
400.837	450.06
401.062	460.06
401.286	453.06
401.51	438.06
401.734	443.06
401.958	439.06
402.182	443.06
402.406	446.06
402.63	469.06
402.854	452.06
403.078	462.06
403.302	464.06
403.526	468.06
403.75	470.06
403.974	457.06
404.198	473.06
404.422	476.06
404.645	493.06
404.869	482.06
405.093	500.06
405.317	487.06
405.541	518.06
405.765	482.06
405.988	452.06
406.212	475.06
406.436	494.06
406.66	503.06
406.883	496.06
407.107	505.06
407.331	549.06
407.555	584.06
407.778	575.06
408.002	542.06
408.226	518.06
408.449	520.06
408.673	470.06
408.896	500.06
409.12	538.06
409.344	525.06
409.567	443.06
409.791	460.06
410.014	467.06
410.238	450.06
410.461	458.06
410.685	446.06
410.908	473.06
411.132	470.06
411.355	500.06
411.578	482.06
411.802	458.06
412.025	475.06
412.249	468.06
412.472	460.06
412.695	485.06
412.919	475.06
413.142	460.06
413.365	442.06
413.589	425.06
413.812	445.06
414.035	443.06
414.258	438.06
414.482	449.06
414.705	424.06
414.928	449.06
415.151	444.06
415.374	426.06
415.597	440.06
415.821	418.06
416.044	422.06
416.267	440.06
416.49	435.06
416.713	422.06
416.936	418.06
417.159	406.06
417.382	440.06
417.605	426.06
417.828	446.06
418.051	461.06
418.274	446.06
418.497	445.06
418.72	442.06
418.943	417.06
419.166	466.06
419.389	469.06
419.611	457.06
419.834	484.06
420.057	474.06
420.28	456.06
420.503	451.06
420.726	448.06
420.948	456.06
421.171	474.06
421.394	502.06
421.617	442.06
421.839	445.06
422.062	451.06
422.285	458.06
422.507	496.06
422.73	519.06
422.953	507.06
423.175	469.06
423.398	485.06
423.621	476.06
423.843	514.06
424.066	476.06
424.288	481.06
424.511	487.06
424.733	517.06
424.956	538.06
425.178	556.06
425.401	527.06
425.623	550.06
425.846	501.06
426.068	452.06
426.291	442.06
426.513	438.06
426.735	455.06
426.958	460.06
427.18	527.06
427.402	598.06
427.625	633.06
427.847	577.06
428.069	479.06
428.292	458.06
428.514	454.06
428.736	430.06
428.958	427.06
429.181	405.06
429.403	422.06
429.625	404.06
429.847	429.06
430.069	473.06
430.292	450.06
430.514	430.06
430.736	422.06
430.958	431.06
431.18	404.06
431.402	393.06
431.624	409.06
431.846	418.06
432.068	395.06
432.29	402.06
432.512	403.06
432.734	406.06
432.956	409.06
433.178	414.06
433.4	421.06
433.622	413.06
433.844	399.06
434.066	414.06
434.287	403.06
434.509	433.06
434.731	434.06
434.953	435.06
435.175	452.06
435.397	466.06
435.618	465.06
435.84	465.06
436.062	517.06
436.284	541.06
436.505	481.06
436.727	449.06
436.949	410.06
437.17	409.06
437.392	391.06
437.614	428.06
437.835	427.06
438.057	481.06
438.278	566.06
438.5	528.06
438.721	589.06
438.943	553.06
439.165	468.06
439.386	429.06
439.608	436.06
439.829	450.06
440.05	464.06
440.272	462.06
440.493	444.06
440.715	440.06
440.936	436.06
441.158	437.06
441.379	451.06
441.6	444.06
441.822	469.06
442.043	489.06
442.264	530.06
442.486	554.06
442.707	496.06
442.928	473.06
443.149	483.06
443.371	470.06
443.592	480.06
443.813	582.06
444.034	608.06
444.255	521.06
444.476	515.06
444.698	492.06
444.919	497.06
445.14	625.06
445.361	536.06
445.582	489.06
445.803	534.06
446.024	571.06
446.245	575.06
446.466	512.06
446.687	442.06
446.908	434.06
447.129	409.06
447.35	449.06
447.571	423.06
447.792	398.06
448.013	417.06
448.234	426.06
448.455	456.06
448.675	506.06
448.896	570.06
449.117	487.06
449.338	479.06
449.559	537.06
449.779	599.06
450	482.06
450.221	422.06
450.442	424.06
450.662	398.06
450.883	407.06
451.104	416.06
451.324	417.06
451.545	408.06
451.766	390.06
451.986	378.06
452.207	363.06
452.428	394.06
452.648	375.06
452.869	379.06
453.089	407.06
453.31	386.06
453.53	388.06
453.751	358.06
453.971	383.06
454.192	392.06
454.412	380.06
454.633	362.06
454.853	361.06
455.073	375.06
455.294	380.06
455.514	411.06
455.734	418.06
455.955	374.06
456.175	348.06
456.395	356.06
456.616	343.06
456.836	354.06
457.056	347.06
457.276	371.06
457.497	350.06
457.717	360.06
457.937	345.06
458.157	372.06
458.377	374.06
458.598	386.06
458.818	426.06
459.038	445.06
459.258	483.06
459.478	429.06
459.698	413.06
459.918	409.06
460.138	433.06
460.358	442.06
460.578	434.06
460.798	420.06
461.018	448.06
461.238	446.06
461.458	425.06
461.678	439.06
461.898	432.06
462.118	440.06
462.338	467.06
462.558	446.06
462.777	484.06
462.997	471.06
463.217	525.06
463.437	535.06
463.657	500.06
463.876	483.06
464.096	474.06
464.316	470.06
464.536	480.06
464.755	498.06
464.975	475.06
465.195	499.06
465.414	512.06
465.634	471.06
465.854	419.06
466.073	382.06
466.293	410.06
466.512	398.06
466.732	394.06
466.951	392.06
467.171	390.06
467.391	392.06
467.61	386.06
467.829	392.06
468.049	408.06
468.268	413.06
468.488	403.06
468.707	388.06
468.927	382.06
469.146	377.06
469.365	391.06
469.585	390.06
469.804	405.06
470.023	402.06
470.243	406.06
470.462	395.06
470.681	434.06
470.901	391.06
471.12	400.06
471.339	404.06
471.558	382.06
471.777	411.06
471.997	385.06
472.216	422.06
472.435	426.06
472.654	412.06
472.873	388.06
473.092	388.06
473.311	385.06
473.53	380.06
473.749	392.06
473.968	413.06
474.187	461.06
474.406	479.06
474.625	412.06
474.844	400.06
475.063	393.06
475.282	382.06
475.501	385.06
475.72	394.06
475.939	392.06
476.158	409.06
476.377	380.06
476.596	408.06
476.814	425.06
477.033	408.06
477.252	420.06
477.471	417.06
477.69	432.06
477.908	432.06
478.127	454.06
478.346	457.06
478.564	454.06
478.783	448.06
479.002	458.06
479.22	462.06
479.439	454.06
479.658	472.06
479.876	489.06
480.095	474.06
480.313	512.06
480.532	508.06
480.751	500.06
480.969	502.06
481.188	521.06
481.406	520.06
481.624	486.06
481.843	472.06
482.061	446.06
482.28	461.06
482.498	454.06
482.717	449.06
482.935	447.06
483.153	439.06
483.372	449.06
483.59	426.06
483.808	442.06
484.027	456.06
484.245	461.06
484.463	449.06
484.681	486.06
484.9	451.06
485.118	451.06
485.336	463.06
485.554	455.06
485.772	436.06
485.99	493.06
486.209	469.06
486.427	462.06
486.645	464.06
486.863	458.06
487.081	481.06
487.299	489.06
487.517	487.06
487.735	468.06
487.953	480.06
488.171	484.06
488.389	484.06
488.607	497.06
488.825	482.06
489.043	470.06
489.261	505.06
489.479	497.06
489.696	493.06
489.914	492.06
490.132	494.06
490.35	489.06
490.568	504.06
490.786	525.06
491.003	545.06
491.221	524.06
491.439	536.06
491.657	558.06
491.874	564.06
492.092	547.06
492.31	554.06
492.527	563.06
492.745	551.06
492.963	557.06
493.18	554.06
493.398	573.06
493.615	598.06
493.833	556.06
494.05	582.06
494.268	590.06
494.485	584.06
494.703	547.06
494.92	571.06
495.138	563.06
495.355	550.06
495.573	576.06
495.79	550.06
496.008	568.06
496.225	568.06
496.442	561.06
496.66	578.06
496.877	572.06
497.094	571.06
497.312	595.06
497.529	596.06
497.746	602.06
497.963	604.06
498.181	626.06
498.398	635.06
498.615	660.06
498.832	670.06
499.049	683.06
499.267	713.06
499.484	763.06
499.701	836.06
499.918	865.06
500.135	916.06
500.352	996.06
500.569	1034.06
500.786	1000.06
501.003	974.06
501.22	925.06
501.437	877.06
501.654	834.06
501.871	784.06
502.088	749.06
