Data from 1969.PennyLincolnUp.Lamp.En5.5.200Scan.071719.P1._HRD10591_14-53-45-972.txt Node
Date: Thu Jul 18 14:53:45 EDT 2019
User: cochatt
Spectrometer: HR+D1059
Trigger mode: 1
Integration Time (sec): 1.000000E-1
Scans to average: 1
Electric dark correction enabled: true
Nonlinearity correction enabled: false
Boxcar width: 0
XAxis mode: Wavelengths
Number of Pixels in Spectrum: 2048
>>>>>Begin Spectral Data<<<<<
223.165	-18.19
223.4	-18.19
223.635	-18.19
223.869	-9.19
224.104	-11.19
224.338	-13.19
224.573	-9.19
224.808	-5.19
225.042	-6.19
225.277	-10.19
225.511	1.81
225.746	-1.19
225.98	1.81
226.215	12.81
226.449	16.81
226.683	5.81
226.918	18.81
227.152	25.81
227.387	46.81
227.621	49.81
227.856	46.81
228.09	49.81
228.324	45.81
228.559	56.81
228.793	72.81
229.027	100.81
229.262	75.81
229.496	90.81
229.73	118.81
229.964	130.81
230.199	106.81
230.433	86.81
230.667	91.81
230.901	107.81
231.136	109.81
231.37	93.81
231.604	112.81
231.838	107.81
232.072	103.81
232.306	106.81
232.541	111.81
232.775	96.81
233.009	101.81
233.243	101.81
233.477	107.81
233.711	98.81
233.945	130.81
234.179	110.81
234.413	93.81
234.647	91.81
234.881	105.81
235.115	107.81
235.349	105.81
235.583	110.81
235.817	102.81
236.051	108.81
236.285	107.81
236.519	116.81
236.753	121.81
236.987	129.81
237.221	138.81
237.455	152.81
237.689	137.81
237.922	115.81
238.156	111.81
238.39	111.81
238.624	109.81
238.858	111.81
239.091	121.81
239.325	99.81
239.559	95.81
239.793	121.81
240.027	117.81
240.26	130.81
240.494	127.81
240.728	111.81
240.961	125.81
241.195	130.81
241.429	117.81
241.662	102.81
241.896	125.81
242.13	114.81
242.363	115.81
242.597	127.81
242.83	114.81
243.064	123.81
243.298	127.81
243.531	136.81
243.765	120.81
243.998	134.81
244.232	113.81
244.465	112.81
244.699	122.81
244.932	123.81
245.166	111.81
245.399	123.81
245.633	123.81
245.866	130.81
246.099	134.81
246.333	133.81
246.566	126.81
246.8	139.81
247.033	126.81
247.266	136.81
247.5	130.81
247.733	146.81
247.966	157.81
248.2	139.81
248.433	147.81
248.666	148.81
248.899	140.81
249.133	153.81
249.366	157.81
249.599	130.81
249.832	146.81
250.066	150.81
250.299	138.81
250.532	149.81
250.765	168.81
250.998	170.81
251.231	179.81
251.465	171.81
251.698	169.81
251.931	163.81
252.164	145.81
252.397	155.81
252.63	154.81
252.863	142.81
253.096	168.81
253.329	165.81
253.562	169.81
253.795	162.81
254.028	178.81
254.261	164.81
254.494	184.81
254.727	181.81
254.96	200.81
255.193	190.81
255.426	174.81
255.659	182.81
255.892	160.81
256.124	154.81
256.357	168.81
256.59	166.81
256.823	169.81
257.056	157.81
257.289	161.81
257.521	159.81
257.754	160.81
257.987	170.81
258.22	181.81
258.452	171.81
258.685	181.81
258.918	159.81
259.151	181.81
259.383	161.81
259.616	186.81
259.849	174.81
260.081	181.81
260.314	201.81
260.547	203.81
260.779	184.81
261.012	162.81
261.244	171.81
261.477	182.81
261.71	167.81
261.942	182.81
262.175	183.81
262.407	181.81
262.64	154.81
262.872	161.81
263.105	172.81
263.337	185.81
263.57	165.81
263.802	174.81
264.035	172.81
264.267	190.81
264.499	177.81
264.732	185.81
264.964	157.81
265.197	173.81
265.429	178.81
265.661	176.81
265.894	181.81
266.126	181.81
266.358	178.81
266.591	179.81
266.823	186.81
267.055	208.81
267.287	185.81
267.52	177.81
267.752	185.81
267.984	189.81
268.216	170.81
268.448	194.81
268.681	178.81
268.913	205.81
269.145	223.81
269.377	204.81
269.609	210.81
269.841	212.81
270.073	208.81
270.306	213.81
270.538	221.81
270.77	222.81
271.002	230.81
271.234	221.81
271.466	239.81
271.698	233.81
271.93	242.81
272.162	223.81
272.394	217.81
272.626	225.81
272.858	205.81
273.09	212.81
273.322	219.81
273.553	213.81
273.785	214.81
274.017	227.81
274.249	222.81
274.481	205.81
274.713	205.81
274.945	215.81
275.176	223.81
275.408	225.81
275.64	217.81
275.872	218.81
276.104	197.81
276.335	211.81
276.567	224.81
276.799	235.81
277.031	241.81
277.262	237.81
277.494	229.81
277.726	228.81
277.957	216.81
278.189	227.81
278.421	216.81
278.652	238.81
278.884	214.81
279.115	239.81
279.347	219.81
279.579	246.81
279.81	261.81
280.042	261.81
280.273	231.81
280.505	229.81
280.736	231.81
280.968	222.81
281.199	232.81
281.431	229.81
281.662	228.81
281.894	227.81
282.125	203.81
282.356	224.81
282.588	242.81
282.819	249.81
283.051	217.81
283.282	225.81
283.513	246.81
283.745	253.81
283.976	224.81
284.207	214.81
284.439	210.81
284.67	236.81
284.901	235.81
285.132	217.81
285.364	225.81
285.595	262.81
285.826	223.81
286.057	225.81
286.288	228.81
286.52	232.81
286.751	237.81
286.982	234.81
287.213	239.81
287.444	238.81
287.675	237.81
287.906	264.81
288.138	243.81
288.369	234.81
288.6	239.81
288.831	247.81
289.062	250.81
289.293	236.81
289.524	223.81
289.755	259.81
289.986	253.81
290.217	240.81
290.448	250.81
290.679	245.81
290.91	262.81
291.141	243.81
291.371	252.81
291.602	232.81
291.833	246.81
292.064	248.81
292.295	247.81
292.526	258.81
292.757	233.81
292.987	257.81
293.218	242.81
293.449	245.81
293.68	249.81
293.91	232.81
294.141	235.81
294.372	249.81
294.603	241.81
294.833	252.81
295.064	242.81
295.295	241.81
295.525	230.81
295.756	251.81
295.987	273.81
296.217	260.81
296.448	257.81
296.679	246.81
296.909	257.81
297.14	265.81
297.37	266.81
297.601	255.81
297.831	259.81
298.062	250.81
298.292	259.81
298.523	261.81
298.753	263.81
298.984	253.81
299.214	250.81
299.445	266.81
299.675	277.81
299.905	260.81
300.136	268.81
300.366	247.81
300.597	255.81
300.827	281.81
301.057	265.81
301.288	267.81
301.518	265.81
301.748	269.81
301.979	275.81
302.209	270.81
302.439	296.81
302.669	277.81
302.9	269.81
303.13	276.81
303.36	258.81
303.59	290.81
303.82	283.81
304.051	258.81
304.281	273.81
304.511	274.81
304.741	274.81
304.971	278.81
305.201	269.81
305.431	282.81
305.661	245.81
305.891	275.81
306.121	281.81
306.352	280.81
306.582	281.81
306.812	280.81
307.042	270.81
307.272	280.81
307.502	256.81
307.731	286.81
307.961	293.81
308.191	269.81
308.421	282.81
308.651	277.81
308.881	279.81
309.111	295.81
309.341	286.81
309.571	275.81
309.8	279.81
310.03	293.81
310.26	298.81
310.49	289.81
310.72	294.81
310.949	314.81
311.179	309.81
311.409	285.81
311.639	297.81
311.868	276.81
312.098	294.81
312.328	313.81
312.557	314.81
312.787	309.81
313.017	314.81
313.246	303.81
313.476	297.81
313.706	294.81
313.935	312.81
314.165	317.81
314.394	310.81
314.624	311.81
314.853	288.81
315.083	306.81
315.312	290.81
315.542	289.81
315.771	304.81
316.001	296.81
316.23	303.81
316.46	300.81
316.689	307.81
316.919	320.81
317.148	324.81
317.377	288.81
317.607	305.81
317.836	296.81
318.065	300.81
318.295	289.81
318.524	293.81
318.753	307.81
318.983	294.81
319.212	316.81
319.441	313.81
319.67	312.81
319.9	308.81
320.129	310.81
320.358	307.81
320.587	290.81
320.816	307.81
321.046	312.81
321.275	301.81
321.504	311.81
321.733	333.81
321.962	313.81
322.191	334.81
322.42	318.81
322.649	322.81
322.878	328.81
323.108	331.81
323.337	351.81
323.566	333.81
323.795	371.81
324.024	386.81
324.253	473.81
324.482	640.81
324.71	894.81
324.939	1119.81
325.168	947.81
325.397	541.81
325.626	420.81
325.855	359.81
326.084	364.81
326.313	361.81
326.542	368.81
326.77	408.81
326.999	432.81
327.228	567.81
327.457	787.81
327.686	861.81
327.914	599.81
328.143	421.81
328.372	414.81
328.6	387.81
328.829	386.81
329.058	380.81
329.287	401.81
329.515	367.81
329.744	363.81
329.972	358.81
330.201	376.81
330.43	384.81
330.658	394.81
330.887	393.81
331.115	418.81
331.344	363.81
331.572	370.81
331.801	375.81
332.03	379.81
332.258	362.81
332.486	353.81
332.715	389.81
332.943	377.81
333.172	371.81
333.4	375.81
333.629	381.81
333.857	390.81
334.085	381.81
334.314	390.81
334.542	415.81
334.771	388.81
334.999	387.81
335.227	381.81
335.455	381.81
335.684	357.81
335.912	361.81
336.14	355.81
336.369	355.81
336.597	350.81
336.825	349.81
337.053	381.81
337.281	378.81
337.51	336.81
337.738	349.81
337.966	349.81
338.194	351.81
338.422	340.81
338.65	360.81
338.878	353.81
339.106	343.81
339.334	324.81
339.562	343.81
339.79	328.81
340.018	343.81
340.246	331.81
340.474	354.81
340.702	345.81
340.93	345.81
341.158	345.81
341.386	329.81
341.614	341.81
341.842	343.81
342.07	337.81
342.298	329.81
342.526	335.81
342.754	339.81
342.981	321.81
343.209	335.81
343.437	338.81
343.665	364.81
343.893	358.81
344.12	346.81
344.348	341.81
344.576	345.81
344.804	378.81
345.031	341.81
345.259	361.81
345.487	345.81
345.714	337.81
345.942	347.81
346.17	337.81
346.397	338.81
346.625	317.81
346.853	329.81
347.08	342.81
347.308	314.81
347.535	320.81
347.763	342.81
347.99	328.81
348.218	345.81
348.445	341.81
348.673	331.81
348.9	316.81
349.128	306.81
349.355	315.81
349.583	324.81
349.81	333.81
350.037	299.81
350.265	324.81
350.492	317.81
350.72	317.81
350.947	320.81
351.174	328.81
351.402	330.81
351.629	310.81
351.856	310.81
352.083	318.81
352.311	338.81
352.538	327.81
352.765	336.81
352.992	311.81
353.22	320.81
353.447	331.81
353.674	335.81
353.901	306.81
354.128	318.81
354.355	315.81
354.583	307.81
354.81	309.81
355.037	317.81
355.264	310.81
355.491	299.81
355.718	301.81
355.945	315.81
356.172	321.81
356.399	316.81
356.626	321.81
356.853	288.81
357.08	305.81
357.307	302.81
357.534	323.81
357.761	304.81
357.988	306.81
358.215	312.81
358.441	321.81
358.668	297.81
358.895	316.81
359.122	327.81
359.349	325.81
359.576	323.81
359.802	320.81
360.029	348.81
360.256	349.81
360.483	347.81
360.709	303.81
360.936	328.81
361.163	323.81
361.39	328.81
361.616	348.81
361.843	319.81
362.07	326.81
362.296	327.81
362.523	335.81
362.749	317.81
362.976	312.81
363.203	333.81
363.429	298.81
363.656	317.81
363.882	302.81
364.109	305.81
364.335	306.81
364.562	326.81
364.788	319.81
365.015	321.81
365.241	314.81
365.468	300.81
365.694	320.81
365.92	315.81
366.147	328.81
366.373	323.81
366.599	316.81
366.826	312.81
367.052	311.81
367.278	299.81
367.505	322.81
367.731	309.81
367.957	304.81
368.184	304.81
368.41	330.81
368.636	315.81
368.862	330.81
369.089	321.81
369.315	304.81
369.541	313.81
369.767	315.81
369.993	331.81
370.219	304.81
370.445	294.81
370.672	304.81
370.898	305.81
371.124	317.81
371.35	331.81
371.576	327.81
371.802	337.81
372.028	311.81
372.254	332.81
372.48	332.81
372.706	329.81
372.932	330.81
373.158	330.81
373.384	327.81
373.61	325.81
373.835	342.81
374.061	329.81
374.287	327.81
374.513	333.81
374.739	329.81
374.965	332.81
375.191	333.81
375.416	333.81
375.642	327.81
375.868	338.81
376.094	323.81
376.319	301.81
376.545	306.81
376.771	320.81
376.997	310.81
377.222	309.81
377.448	312.81
377.674	320.81
377.899	311.81
378.125	323.81
378.35	315.81
378.576	307.81
378.802	309.81
379.027	315.81
379.253	322.81
379.478	326.81
379.704	311.81
379.929	333.81
380.155	322.81
380.38	312.81
380.606	330.81
380.831	318.81
381.057	330.81
381.282	314.81
381.507	327.81
381.733	326.81
381.958	320.81
382.184	332.81
382.409	332.81
382.634	326.81
382.86	334.81
383.085	338.81
383.31	339.81
383.535	342.81
383.761	339.81
383.986	339.81
384.211	349.81
384.436	369.81
384.662	366.81
384.887	357.81
385.112	388.81
385.337	370.81
385.562	381.81
385.787	372.81
386.013	380.81
386.238	376.81
386.463	353.81
386.688	383.81
386.913	374.81
387.138	376.81
387.363	358.81
387.588	366.81
387.813	349.81
388.038	374.81
388.263	379.81
388.488	383.81
388.713	360.81
388.938	332.81
389.163	370.81
389.387	332.81
389.612	368.81
389.837	358.81
390.062	354.81
390.287	362.81
390.512	356.81
390.736	357.81
390.961	356.81
391.186	368.81
391.411	365.81
391.636	385.81
391.86	360.81
392.085	382.81
392.31	386.81
392.534	374.81
392.759	370.81
392.984	368.81
393.208	414.81
393.433	457.81
393.658	453.81
393.882	388.81
394.107	373.81
394.331	361.81
394.556	362.81
394.78	378.81
395.005	379.81
395.229	355.81
395.454	394.81
395.678	375.81
395.903	375.81
396.127	401.81
396.352	405.81
396.576	391.81
396.801	421.81
397.025	456.81
397.249	418.81
397.474	396.81
397.698	391.81
397.922	401.81
398.147	400.81
398.371	395.81
398.595	409.81
398.82	445.81
399.044	450.81
399.268	455.81
399.492	496.81
399.717	510.81
399.941	543.81
400.165	521.81
400.389	501.81
400.613	471.81
400.837	414.81
401.062	414.81
401.286	414.81
401.51	437.81
401.734	413.81
401.958	424.81
402.182	449.81
402.406	447.81
402.63	418.81
402.854	428.81
403.078	435.81
403.302	434.81
403.526	441.81
403.75	451.81
403.974	441.81
404.198	458.81
404.422	462.81
404.645	448.81
404.869	457.81
405.093	473.81
405.317	473.81
405.541	470.81
405.765	464.81
405.988	447.81
406.212	469.81
406.436	467.81
406.66	496.81
406.883	502.81
407.107	494.81
407.331	528.81
407.555	558.81
407.778	525.81
408.002	497.81
408.226	490.81
408.449	509.81
408.673	460.81
408.896	488.81
409.12	481.81
409.344	479.81
409.567	428.81
409.791	431.81
410.014	448.81
410.238	458.81
410.461	449.81
410.685	432.81
410.908	437.81
411.132	453.81
411.355	489.81
411.578	456.81
411.802	414.81
412.025	424.81
412.249	425.81
412.472	413.81
412.695	433.81
412.919	443.81
413.142	425.81
413.365	418.81
413.589	401.81
413.812	402.81
414.035	418.81
414.258	407.81
414.482	399.81
414.705	430.81
414.928	429.81
415.151	401.81
415.374	406.81
415.597	410.81
415.821	413.81
416.044	385.81
416.267	391.81
416.49	419.81
416.713	398.81
416.936	398.81
417.159	393.81
417.382	423.81
417.605	415.81
417.828	428.81
418.051	410.81
418.274	428.81
418.497	418.81
418.72	414.81
418.943	417.81
419.166	435.81
419.389	460.81
419.611	436.81
419.834	432.81
420.057	450.81
420.28	438.81
420.503	414.81
420.726	430.81
420.948	432.81
421.171	432.81
421.394	455.81
421.617	434.81
421.839	417.81
422.062	428.81
422.285	423.81
422.507	466.81
422.73	478.81
422.953	513.81
423.175	437.81
423.398	446.81
423.621	428.81
423.843	459.81
424.066	445.81
424.288	455.81
424.511	457.81
424.733	484.81
424.956	492.81
425.178	478.81
425.401	494.81
425.623	523.81
425.846	464.81
426.068	405.81
426.291	429.81
426.513	440.81
426.735	450.81
426.958	474.81
427.18	492.81
427.402	557.81
427.625	594.81
427.847	527.81
428.069	460.81
428.292	434.81
428.514	409.81
428.736	410.81
428.958	389.81
429.181	407.81
429.403	375.81
429.625	384.81
429.847	406.81
430.069	434.81
430.292	436.81
430.514	412.81
430.736	392.81
430.958	397.81
431.18	389.81
431.402	384.81
431.624	375.81
431.846	387.81
432.068	394.81
432.29	387.81
432.512	380.81
432.734	389.81
432.956	385.81
433.178	401.81
433.4	394.81
433.622	379.81
433.844	390.81
434.066	377.81
434.287	389.81
434.509	402.81
434.731	415.81
434.953	435.81
435.175	424.81
435.397	425.81
435.618	434.81
435.84	438.81
436.062	480.81
436.284	496.81
436.505	444.81
436.727	430.81
436.949	397.81
437.17	381.81
437.392	398.81
437.614	418.81
437.835	428.81
438.057	473.81
438.278	483.81
438.5	481.81
438.721	537.81
438.943	517.81
439.165	439.81
439.386	407.81
439.608	417.81
439.829	403.81
440.05	423.81
440.272	455.81
440.493	425.81
440.715	427.81
440.936	407.81
441.158	410.81
441.379	405.81
441.6	450.81
441.822	453.81
442.043	441.81
442.264	494.81
442.486	511.81
442.707	462.81
442.928	463.81
443.149	432.81
443.371	463.81
443.592	483.81
443.813	525.81
444.034	543.81
444.255	502.81
444.476	459.81
444.698	470.81
444.919	485.81
445.14	577.81
445.361	521.81
445.582	479.81
445.803	513.81
446.024	529.81
446.245	526.81
446.466	487.81
446.687	430.81
446.908	426.81
447.129	393.81
447.35	383.81
447.571	397.81
447.792	413.81
448.013	407.81
448.234	404.81
448.455	425.81
448.675	473.81
448.896	516.81
449.117	484.81
449.338	443.81
449.559	507.81
449.779	551.81
450	443.81
450.221	400.81
450.442	378.81
450.662	382.81
450.883	367.81
451.104	411.81
451.324	383.81
451.545	371.81
451.766	366.81
451.986	369.81
452.207	363.81
452.428	342.81
452.648	352.81
452.869	363.81
453.089	386.81
453.31	378.81
453.53	348.81
453.751	352.81
453.971	361.81
454.192	357.81
454.412	350.81
454.633	344.81
454.853	354.81
455.073	352.81
455.294	368.81
455.514	407.81
455.734	403.81
455.955	368.81
456.175	357.81
456.395	324.81
456.616	329.81
456.836	329.81
457.056	349.81
457.276	339.81
457.497	348.81
457.717	345.81
457.937	354.81
458.157	359.81
458.377	373.81
458.598	370.81
458.818	390.81
459.038	463.81
459.258	453.81
459.478	404.81
459.698	394.81
459.918	423.81
460.138	398.81
460.358	409.81
460.578	395.81
460.798	414.81
461.018	415.81
461.238	419.81
461.458	417.81
461.678	410.81
461.898	440.81
462.118	420.81
462.338	441.81
462.558	441.81
462.777	438.81
462.997	453.81
463.217	473.81
463.437	495.81
463.657	471.81
463.876	457.81
464.096	451.81
464.316	451.81
464.536	456.81
464.755	481.81
464.975	430.81
465.195	475.81
465.414	470.81
465.634	451.81
465.854	418.81
466.073	391.81
466.293	381.81
466.512	363.81
466.732	387.81
466.951	357.81
467.171	379.81
467.391	385.81
467.61	384.81
467.829	389.81
468.049	375.81
468.268	367.81
468.488	373.81
468.707	358.81
468.927	347.81
469.146	358.81
469.365	378.81
469.585	386.81
469.804	389.81
470.023	375.81
470.243	398.81
470.462	394.81
470.681	413.81
470.901	396.81
471.12	392.81
471.339	372.81
471.558	380.81
471.777	392.81
471.997	355.81
472.216	384.81
472.435	387.81
472.654	396.81
472.873	353.81
473.092	379.81
473.311	377.81
473.53	377.81
473.749	374.81
473.968	411.81
474.187	425.81
474.406	465.81
474.625	406.81
474.844	383.81
475.063	380.81
475.282	376.81
475.501	357.81
475.72	394.81
475.939	381.81
476.158	370.81
476.377	415.81
476.596	378.81
476.814	404.81
477.033	401.81
477.252	403.81
477.471	401.81
477.69	430.81
477.908	419.81
478.127	418.81
478.346	428.81
478.564	436.81
478.783	433.81
479.002	439.81
479.22	438.81
479.439	435.81
479.658	469.81
479.876	469.81
480.095	473.81
480.313	488.81
480.532	488.81
480.751	470.81
480.969	485.81
481.188	462.81
481.406	480.81
481.624	462.81
481.843	449.81
482.061	421.81
482.28	469.81
482.498	428.81
482.717	413.81
482.935	428.81
483.153	426.81
483.372	443.81
483.59	430.81
483.808	426.81
484.027	433.81
484.245	418.81
484.463	451.81
484.681	455.81
484.9	429.81
485.118	437.81
485.336	431.81
485.554	431.81
485.772	473.81
485.99	461.81
486.209	462.81
486.427	471.81
486.645	443.81
486.863	442.81
487.081	486.81
487.299	466.81
487.517	482.81
487.735	480.81
487.953	465.81
488.171	477.81
488.389	478.81
488.607	466.81
488.825	472.81
489.043	471.81
489.261	448.81
489.479	477.81
489.696	457.81
489.914	474.81
490.132	486.81
490.35	480.81
490.568	484.81
490.786	501.81
491.003	489.81
491.221	489.81
491.439	516.81
491.657	499.81
491.874	515.81
492.092	533.81
492.31	508.81
492.527	514.81
492.745	519.81
492.963	498.81
493.18	518.81
493.398	523.81
493.615	537.81
493.833	529.81
494.05	520.81
494.268	522.81
494.485	520.81
494.703	505.81
494.92	507.81
495.138	525.81
495.355	524.81
495.573	552.81
495.79	515.81
496.008	553.81
496.225	512.81
496.442	519.81
496.66	536.81
496.877	533.81
497.094	521.81
497.312	539.81
497.529	547.81
497.746	540.81
497.963	558.81
498.181	575.81
498.398	589.81
498.615	622.81
498.832	643.81
499.049	664.81
499.267	690.81
499.484	720.81
499.701	764.81
499.918	825.81
500.135	880.81
500.352	961.81
500.569	961.81
500.786	969.81
501.003	919.81
501.22	895.81
501.437	821.81
501.654	778.81
501.871	746.81
502.088	725.81
