Data from 1969.PennyLincolnUp.Lamp.En5.5.200Scan.071719.P1._HRD10591_14-54-51-972.txt Node
Date: Thu Jul 18 14:54:51 EDT 2019
User: cochatt
Spectrometer: HR+D1059
Trigger mode: 1
Integration Time (sec): 1.000000E-1
Scans to average: 1
Electric dark correction enabled: true
Nonlinearity correction enabled: false
Boxcar width: 0
XAxis mode: Wavelengths
Number of Pixels in Spectrum: 2048
>>>>>Begin Spectral Data<<<<<
223.165	-22.5
223.4	-22.5
223.635	-22.5
223.869	1.5
224.104	-19.5
224.338	-20.5
224.573	-20.5
224.808	-11.5
225.042	1.5
225.277	-15.5
225.511	-8.5
225.746	11.5
225.98	-2.5
226.215	12.5
226.449	36.5
226.683	7.5
226.918	24.5
227.152	25.5
227.387	47.5
227.621	29.5
227.856	49.5
228.09	49.5
228.324	32.5
228.559	55.5
228.793	59.5
229.027	78.5
229.262	93.5
229.496	99.5
229.73	107.5
229.964	120.5
230.199	113.5
230.433	87.5
230.667	104.5
230.901	99.5
231.136	99.5
231.37	109.5
231.604	98.5
231.838	108.5
232.072	124.5
232.306	119.5
232.541	119.5
232.775	106.5
233.009	105.5
233.243	116.5
233.477	116.5
233.711	115.5
233.945	110.5
234.179	113.5
234.413	102.5
234.647	117.5
234.881	128.5
235.115	106.5
235.349	110.5
235.583	107.5
235.817	129.5
236.051	117.5
236.285	107.5
236.519	117.5
236.753	109.5
236.987	126.5
237.221	135.5
237.455	173.5
237.689	134.5
237.922	134.5
238.156	129.5
238.39	125.5
238.624	115.5
238.858	104.5
239.091	115.5
239.325	104.5
239.559	110.5
239.793	117.5
240.027	126.5
240.26	121.5
240.494	133.5
240.728	141.5
240.961	135.5
241.195	127.5
241.429	116.5
241.662	116.5
241.896	122.5
242.13	130.5
242.363	109.5
242.597	133.5
242.83	125.5
243.064	128.5
243.298	147.5
243.531	131.5
243.765	129.5
243.998	132.5
244.232	132.5
244.465	129.5
244.699	141.5
244.932	137.5
245.166	134.5
245.399	135.5
245.633	118.5
245.866	147.5
246.099	129.5
246.333	149.5
246.566	123.5
246.8	139.5
247.033	133.5
247.266	125.5
247.5	146.5
247.733	154.5
247.966	157.5
248.2	139.5
248.433	155.5
248.666	147.5
248.899	148.5
249.133	163.5
249.366	174.5
249.599	172.5
249.832	148.5
250.066	171.5
250.299	169.5
250.532	166.5
250.765	175.5
250.998	198.5
251.231	177.5
251.465	196.5
251.698	172.5
251.931	159.5
252.164	168.5
252.397	166.5
252.63	151.5
252.863	172.5
253.096	172.5
253.329	190.5
253.562	175.5
253.795	182.5
254.028	171.5
254.261	177.5
254.494	194.5
254.727	201.5
254.96	218.5
255.193	209.5
255.426	199.5
255.659	195.5
255.892	186.5
256.124	190.5
256.357	185.5
256.59	205.5
256.823	173.5
257.056	185.5
257.289	184.5
257.521	186.5
257.754	174.5
257.987	181.5
258.22	177.5
258.452	174.5
258.685	165.5
258.918	169.5
259.151	164.5
259.383	179.5
259.616	167.5
259.849	187.5
260.081	193.5
260.314	202.5
260.547	204.5
260.779	199.5
261.012	186.5
261.244	179.5
261.477	183.5
261.71	167.5
261.942	197.5
262.175	193.5
262.407	202.5
262.64	201.5
262.872	186.5
263.105	158.5
263.337	193.5
263.57	182.5
263.802	202.5
264.035	174.5
264.267	189.5
264.499	171.5
264.732	187.5
264.964	180.5
265.197	169.5
265.429	187.5
265.661	177.5
265.894	182.5
266.126	182.5
266.358	183.5
266.591	178.5
266.823	189.5
267.055	191.5
267.287	175.5
267.52	182.5
267.752	191.5
267.984	193.5
268.216	206.5
268.448	199.5
268.681	205.5
268.913	220.5
269.145	229.5
269.377	212.5
269.609	222.5
269.841	219.5
270.073	233.5
270.306	223.5
270.538	260.5
270.77	236.5
271.002	245.5
271.234	238.5
271.466	241.5
271.698	253.5
271.93	270.5
272.162	241.5
272.394	236.5
272.626	251.5
272.858	245.5
273.09	234.5
273.322	227.5
273.553	207.5
273.785	229.5
274.017	222.5
274.249	220.5
274.481	230.5
274.713	247.5
274.945	228.5
275.176	206.5
275.408	230.5
275.64	238.5
275.872	224.5
276.104	221.5
276.335	208.5
276.567	237.5
276.799	239.5
277.031	247.5
277.262	256.5
277.494	250.5
277.726	249.5
277.957	230.5
278.189	233.5
278.421	218.5
278.652	222.5
278.884	231.5
279.115	225.5
279.347	221.5
279.579	222.5
279.81	227.5
280.042	239.5
280.273	222.5
280.505	226.5
280.736	222.5
280.968	233.5
281.199	223.5
281.431	234.5
281.662	211.5
281.894	244.5
282.125	225.5
282.356	251.5
282.588	229.5
282.819	236.5
283.051	223.5
283.282	249.5
283.513	269.5
283.745	245.5
283.976	238.5
284.207	259.5
284.439	223.5
284.67	246.5
284.901	234.5
285.132	249.5
285.364	232.5
285.595	256.5
285.826	228.5
286.057	243.5
286.288	243.5
286.52	244.5
286.751	222.5
286.982	235.5
287.213	253.5
287.444	236.5
287.675	247.5
287.906	253.5
288.138	253.5
288.369	242.5
288.6	262.5
288.831	235.5
289.062	251.5
289.293	247.5
289.524	248.5
289.755	246.5
289.986	250.5
290.217	252.5
290.448	257.5
290.679	250.5
290.91	246.5
291.141	259.5
291.371	255.5
291.602	258.5
291.833	260.5
292.064	238.5
292.295	248.5
292.526	269.5
292.757	269.5
292.987	261.5
293.218	244.5
293.449	261.5
293.68	261.5
293.91	265.5
294.141	275.5
294.372	277.5
294.603	267.5
294.833	268.5
295.064	262.5
295.295	275.5
295.525	251.5
295.756	272.5
295.987	277.5
296.217	282.5
296.448	274.5
296.679	275.5
296.909	257.5
297.14	279.5
297.37	269.5
297.601	273.5
297.831	267.5
298.062	278.5
298.292	266.5
298.523	272.5
298.753	283.5
298.984	277.5
299.214	289.5
299.445	266.5
299.675	277.5
299.905	275.5
300.136	269.5
300.366	275.5
300.597	267.5
300.827	275.5
301.057	285.5
301.288	298.5
301.518	290.5
301.748	280.5
301.979	280.5
302.209	272.5
302.439	290.5
302.669	284.5
302.9	277.5
303.13	288.5
303.36	292.5
303.59	301.5
303.82	283.5
304.051	311.5
304.281	303.5
304.511	281.5
304.741	282.5
304.971	269.5
305.201	291.5
305.431	282.5
305.661	270.5
305.891	285.5
306.121	273.5
306.352	283.5
306.582	295.5
306.812	289.5
307.042	283.5
307.272	287.5
307.502	294.5
307.731	281.5
307.961	303.5
308.191	282.5
308.421	291.5
308.651	300.5
308.881	283.5
309.111	286.5
309.341	290.5
309.571	285.5
309.8	283.5
310.03	305.5
310.26	296.5
310.49	315.5
310.72	311.5
310.949	314.5
311.179	323.5
311.409	321.5
311.639	318.5
311.868	305.5
312.098	315.5
312.328	318.5
312.557	319.5
312.787	338.5
313.017	334.5
313.246	312.5
313.476	311.5
313.706	307.5
313.935	315.5
314.165	322.5
314.394	327.5
314.624	337.5
314.853	329.5
315.083	323.5
315.312	311.5
315.542	324.5
315.771	313.5
316.001	299.5
316.23	321.5
316.46	314.5
316.689	301.5
316.919	325.5
317.148	335.5
317.377	306.5
317.607	324.5
317.836	314.5
318.065	317.5
318.295	322.5
318.524	315.5
318.753	312.5
318.983	305.5
319.212	330.5
319.441	323.5
319.67	324.5
319.9	329.5
320.129	318.5
320.358	323.5
320.587	301.5
320.816	326.5
321.046	325.5
321.275	315.5
321.504	325.5
321.733	337.5
321.962	328.5
322.191	342.5
322.42	347.5
322.649	325.5
322.878	345.5
323.108	328.5
323.337	365.5
323.566	374.5
323.795	380.5
324.024	403.5
324.253	471.5
324.482	600.5
324.71	855.5
324.939	1116.5
325.168	958.5
325.397	532.5
325.626	423.5
325.855	377.5
326.084	373.5
326.313	365.5
326.542	399.5
326.77	411.5
326.999	458.5
327.228	552.5
327.457	735.5
327.686	830.5
327.914	601.5
328.143	463.5
328.372	426.5
328.6	402.5
328.829	390.5
329.058	402.5
329.287	417.5
329.515	401.5
329.744	391.5
329.972	401.5
330.201	423.5
330.43	413.5
330.658	436.5
330.887	437.5
331.115	437.5
331.344	389.5
331.572	378.5
331.801	381.5
332.03	389.5
332.258	394.5
332.486	374.5
332.715	378.5
332.943	386.5
333.172	386.5
333.4	411.5
333.629	418.5
333.857	410.5
334.085	413.5
334.314	429.5
334.542	433.5
334.771	457.5
334.999	421.5
335.227	399.5
335.455	397.5
335.684	395.5
335.912	378.5
336.14	372.5
336.369	378.5
336.597	380.5
336.825	379.5
337.053	370.5
337.281	366.5
337.51	367.5
337.738	375.5
337.966	369.5
338.194	371.5
338.422	343.5
338.65	366.5
338.878	368.5
339.106	365.5
339.334	354.5
339.562	337.5
339.79	344.5
340.018	377.5
340.246	349.5
340.474	348.5
340.702	341.5
340.93	339.5
341.158	351.5
341.386	349.5
341.614	357.5
341.842	356.5
342.07	350.5
342.298	335.5
342.526	360.5
342.754	349.5
342.981	359.5
343.209	354.5
343.437	358.5
343.665	370.5
343.893	375.5
344.12	379.5
344.348	382.5
344.576	375.5
344.804	374.5
345.031	347.5
345.259	363.5
345.487	339.5
345.714	359.5
345.942	343.5
346.17	334.5
346.397	342.5
346.625	342.5
346.853	345.5
347.08	328.5
347.308	339.5
347.535	353.5
347.763	333.5
347.99	341.5
348.218	347.5
348.445	335.5
348.673	338.5
348.9	350.5
349.128	333.5
349.355	329.5
349.583	340.5
349.81	332.5
350.037	334.5
350.265	332.5
350.492	330.5
350.72	325.5
350.947	344.5
351.174	324.5
351.402	331.5
351.629	342.5
351.856	334.5
352.083	319.5
352.311	317.5
352.538	351.5
352.765	348.5
352.992	338.5
353.22	342.5
353.447	331.5
353.674	333.5
353.901	301.5
354.128	331.5
354.355	319.5
354.583	315.5
354.81	333.5
355.037	336.5
355.264	327.5
355.491	327.5
355.718	317.5
355.945	312.5
356.172	323.5
356.399	301.5
356.626	318.5
356.853	301.5
357.08	310.5
357.307	298.5
357.534	321.5
357.761	324.5
357.988	309.5
358.215	322.5
358.441	310.5
358.668	324.5
358.895	325.5
359.122	326.5
359.349	325.5
359.576	346.5
359.802	348.5
360.029	354.5
360.256	375.5
360.483	349.5
360.709	334.5
360.936	333.5
361.163	308.5
361.39	349.5
361.616	331.5
361.843	329.5
362.07	340.5
362.296	313.5
362.523	325.5
362.749	326.5
362.976	318.5
363.203	322.5
363.429	321.5
363.656	316.5
363.882	337.5
364.109	341.5
364.335	336.5
364.562	331.5
364.788	317.5
365.015	323.5
365.241	307.5
365.468	326.5
365.694	328.5
365.92	325.5
366.147	309.5
366.373	315.5
366.599	309.5
366.826	341.5
367.052	321.5
367.278	343.5
367.505	300.5
367.731	325.5
367.957	313.5
368.184	319.5
368.41	321.5
368.636	341.5
368.862	328.5
369.089	332.5
369.315	333.5
369.541	340.5
369.767	329.5
369.993	315.5
370.219	316.5
370.445	323.5
370.672	330.5
370.898	324.5
371.124	338.5
371.35	308.5
371.576	317.5
371.802	331.5
372.028	332.5
372.254	325.5
372.48	323.5
372.706	338.5
372.932	350.5
373.158	346.5
373.384	331.5
373.61	328.5
373.835	317.5
374.061	335.5
374.287	345.5
374.513	352.5
374.739	348.5
374.965	357.5
375.191	347.5
375.416	366.5
375.642	334.5
375.868	338.5
376.094	344.5
376.319	348.5
376.545	315.5
376.771	319.5
376.997	324.5
377.222	338.5
377.448	325.5
377.674	334.5
377.899	325.5
378.125	334.5
378.35	330.5
378.576	325.5
378.802	326.5
379.027	335.5
379.253	334.5
379.478	333.5
379.704	308.5
379.929	332.5
380.155	335.5
380.38	331.5
380.606	343.5
380.831	342.5
381.057	335.5
381.282	325.5
381.507	316.5
381.733	331.5
381.958	327.5
382.184	351.5
382.409	341.5
382.634	352.5
382.86	331.5
383.085	325.5
383.31	332.5
383.535	343.5
383.761	350.5
383.986	365.5
384.211	358.5
384.436	364.5
384.662	356.5
384.887	362.5
385.112	349.5
385.337	373.5
385.562	377.5
385.787	382.5
386.013	389.5
386.238	344.5
386.463	375.5
386.688	382.5
386.913	371.5
387.138	365.5
387.363	350.5
387.588	369.5
387.813	373.5
388.038	364.5
388.263	366.5
388.488	354.5
388.713	375.5
388.938	359.5
389.163	366.5
389.387	359.5
389.612	363.5
389.837	360.5
390.062	358.5
390.287	341.5
390.512	348.5
390.736	350.5
390.961	357.5
391.186	363.5
391.411	373.5
391.636	372.5
391.86	395.5
392.085	383.5
392.31	390.5
392.534	385.5
392.759	393.5
392.984	397.5
393.208	385.5
393.433	386.5
393.658	382.5
393.882	371.5
394.107	362.5
394.331	362.5
394.556	394.5
394.78	375.5
395.005	348.5
395.229	395.5
395.454	384.5
395.678	379.5
395.903	398.5
396.127	403.5
396.352	422.5
396.576	403.5
396.801	385.5
397.025	401.5
397.249	396.5
397.474	398.5
397.698	385.5
397.922	402.5
398.147	406.5
398.371	434.5
398.595	400.5
398.82	412.5
399.044	442.5
399.268	486.5
399.492	530.5
399.717	555.5
399.941	557.5
400.165	554.5
400.389	511.5
400.613	458.5
400.837	444.5
401.062	429.5
401.286	419.5
401.51	439.5
401.734	413.5
401.958	428.5
402.182	439.5
402.406	445.5
402.63	449.5
402.854	442.5
403.078	442.5
403.302	452.5
403.526	441.5
403.75	470.5
403.974	456.5
404.198	458.5
404.422	464.5
404.645	464.5
404.869	469.5
405.093	479.5
405.317	494.5
405.541	520.5
405.765	482.5
405.988	452.5
406.212	473.5
406.436	479.5
406.66	510.5
406.883	494.5
407.107	491.5
407.331	530.5
407.555	584.5
407.778	571.5
408.002	522.5
408.226	519.5
408.449	469.5
408.673	488.5
408.896	479.5
409.12	514.5
409.344	486.5
409.567	458.5
409.791	446.5
410.014	447.5
410.238	431.5
410.461	442.5
410.685	469.5
410.908	463.5
411.132	476.5
411.355	481.5
411.578	477.5
411.802	428.5
412.025	447.5
412.249	445.5
412.472	470.5
412.695	479.5
412.919	457.5
413.142	431.5
413.365	425.5
413.589	418.5
413.812	411.5
414.035	429.5
414.258	399.5
414.482	425.5
414.705	407.5
414.928	415.5
415.151	417.5
415.374	425.5
415.597	424.5
415.821	442.5
416.044	403.5
416.267	419.5
416.49	426.5
416.713	434.5
416.936	433.5
417.159	407.5
417.382	429.5
417.605	420.5
417.828	440.5
418.051	451.5
418.274	425.5
418.497	409.5
418.72	420.5
418.943	432.5
419.166	479.5
419.389	452.5
419.611	469.5
419.834	444.5
420.057	445.5
420.28	469.5
420.503	432.5
420.726	416.5
420.948	442.5
421.171	454.5
421.394	469.5
421.617	443.5
421.839	436.5
422.062	435.5
422.285	441.5
422.507	456.5
422.73	513.5
422.953	478.5
423.175	459.5
423.398	452.5
423.621	457.5
423.843	461.5
424.066	457.5
424.288	455.5
424.511	490.5
424.733	508.5
424.956	545.5
425.178	512.5
425.401	511.5
425.623	533.5
425.846	459.5
426.068	433.5
426.291	430.5
426.513	429.5
426.735	437.5
426.958	466.5
427.18	521.5
427.402	581.5
427.625	590.5
427.847	535.5
428.069	464.5
428.292	451.5
428.514	426.5
428.736	411.5
428.958	394.5
429.181	419.5
429.403	409.5
429.625	394.5
429.847	417.5
430.069	451.5
430.292	443.5
430.514	407.5
430.736	403.5
430.958	420.5
431.18	392.5
431.402	405.5
431.624	379.5
431.846	411.5
432.068	399.5
432.29	398.5
432.512	366.5
432.734	378.5
432.956	415.5
433.178	400.5
433.4	390.5
433.622	407.5
433.844	413.5
434.066	417.5
434.287	419.5
434.509	413.5
434.731	404.5
434.953	446.5
435.175	452.5
435.397	459.5
435.618	441.5
435.84	472.5
436.062	503.5
436.284	525.5
436.505	467.5
436.727	430.5
436.949	419.5
437.17	416.5
437.392	397.5
437.614	405.5
437.835	422.5
438.057	478.5
438.278	530.5
438.5	500.5
438.721	549.5
438.943	529.5
439.165	451.5
439.386	431.5
439.608	418.5
439.829	430.5
440.05	438.5
440.272	439.5
440.493	448.5
440.715	444.5
440.936	418.5
441.158	441.5
441.379	437.5
441.6	438.5
441.822	435.5
442.043	477.5
442.264	503.5
442.486	507.5
442.707	471.5
442.928	428.5
443.149	455.5
443.371	459.5
443.592	498.5
443.813	537.5
444.034	578.5
444.255	497.5
444.476	489.5
444.698	490.5
444.919	475.5
445.14	546.5
445.361	501.5
445.582	480.5
445.803	495.5
446.024	545.5
446.245	555.5
446.466	510.5
446.687	441.5
446.908	420.5
447.129	430.5
447.35	406.5
447.571	400.5
447.792	396.5
448.013	391.5
448.234	404.5
448.455	432.5
448.675	492.5
448.896	543.5
449.117	481.5
449.338	469.5
449.559	544.5
449.779	558.5
450	488.5
450.221	433.5
450.442	394.5
450.662	397.5
450.883	392.5
451.104	379.5
451.324	402.5
451.545	388.5
451.766	344.5
451.986	366.5
452.207	375.5
452.428	370.5
452.648	377.5
452.869	367.5
453.089	375.5
453.31	387.5
453.53	372.5
453.751	366.5
453.971	369.5
454.192	360.5
454.412	379.5
454.633	366.5
454.853	373.5
455.073	366.5
455.294	377.5
455.514	411.5
455.734	395.5
455.955	371.5
456.175	359.5
456.395	354.5
456.616	347.5
456.836	354.5
457.056	349.5
457.276	349.5
457.497	351.5
457.717	342.5
457.937	376.5
458.157	363.5
458.377	362.5
458.598	388.5
458.818	408.5
459.038	447.5
459.258	444.5
459.478	420.5
459.698	410.5
459.918	420.5
460.138	400.5
460.358	414.5
460.578	430.5
460.798	410.5
461.018	435.5
461.238	410.5
461.458	429.5
461.678	439.5
461.898	423.5
462.118	437.5
462.338	434.5
462.558	429.5
462.777	453.5
462.997	492.5
463.217	517.5
463.437	485.5
463.657	500.5
463.876	491.5
464.096	479.5
464.316	452.5
464.536	448.5
464.755	464.5
464.975	457.5
465.195	458.5
465.414	468.5
465.634	444.5
465.854	413.5
466.073	412.5
466.293	394.5
466.512	389.5
466.732	370.5
466.951	375.5
467.171	388.5
467.391	395.5
467.61	380.5
467.829	364.5
468.049	389.5
468.268	400.5
468.488	377.5
468.707	382.5
468.927	375.5
469.146	376.5
469.365	377.5
469.585	380.5
469.804	383.5
470.023	405.5
470.243	404.5
470.462	425.5
470.681	404.5
470.901	421.5
471.12	389.5
471.339	405.5
471.558	391.5
471.777	383.5
471.997	369.5
472.216	403.5
472.435	415.5
472.654	402.5
472.873	387.5
473.092	374.5
473.311	361.5
473.53	375.5
473.749	371.5
473.968	410.5
474.187	455.5
474.406	454.5
474.625	405.5
474.844	375.5
475.063	363.5
475.282	381.5
475.501	379.5
475.72	360.5
475.939	366.5
476.158	389.5
476.377	403.5
476.596	395.5
476.814	377.5
477.033	390.5
477.252	409.5
477.471	403.5
477.69	419.5
477.908	424.5
478.127	431.5
478.346	430.5
478.564	421.5
478.783	430.5
479.002	440.5
479.22	455.5
479.439	442.5
479.658	466.5
479.876	453.5
480.095	457.5
480.313	455.5
480.532	495.5
480.751	470.5
480.969	476.5
481.188	495.5
481.406	523.5
481.624	465.5
481.843	433.5
482.061	444.5
482.28	446.5
482.498	452.5
482.717	422.5
482.935	433.5
483.153	431.5
483.372	426.5
483.59	422.5
483.808	439.5
484.027	411.5
484.245	441.5
484.463	429.5
484.681	457.5
484.9	433.5
485.118	459.5
485.336	449.5
485.554	447.5
485.772	467.5
485.99	439.5
486.209	458.5
486.427	467.5
486.645	474.5
486.863	474.5
487.081	484.5
487.299	451.5
487.517	465.5
487.735	455.5
487.953	460.5
488.171	469.5
488.389	482.5
488.607	458.5
488.825	450.5
489.043	453.5
489.261	474.5
489.479	477.5
489.696	464.5
489.914	479.5
490.132	491.5
490.35	477.5
490.568	478.5
490.786	507.5
491.003	506.5
491.221	494.5
491.439	502.5
491.657	522.5
491.874	522.5
492.092	519.5
492.31	549.5
492.527	535.5
492.745	557.5
492.963	539.5
493.18	529.5
493.398	539.5
493.615	541.5
493.833	565.5
494.05	559.5
494.268	529.5
494.485	557.5
494.703	557.5
494.92	518.5
495.138	563.5
495.355	545.5
495.573	550.5
495.79	545.5
496.008	557.5
496.225	576.5
496.442	543.5
496.66	543.5
496.877	574.5
497.094	556.5
497.312	589.5
497.529	578.5
497.746	590.5
497.963	574.5
498.181	617.5
498.398	600.5
498.615	633.5
498.832	651.5
499.049	676.5
499.267	730.5
499.484	737.5
499.701	812.5
499.918	841.5
500.135	894.5
500.352	939.5
500.569	1002.5
500.786	982.5
501.003	947.5
501.22	870.5
501.437	831.5
501.654	809.5
501.871	757.5
502.088	700.5
502.305	663.5
502.522	635.5
502.739	643.5
502.956	590.5
503.172	582.5
503.389	576.5
503.606	594.5
503.823	554.5
504.04	573.5
504.256	548.5
504.473	563.5
504.69	565.5
504.907	556.5
505.123	537.5
505.34	524.5
505.557	515.5
505.773	518.5
505.99	523.5
506.207	526.5
506.423	517.5
506.64	509.5
506.856	507.5
507.073	502.5
507.289	506.5
507.506	501.5
507.722	497.5
507.939	509.5
508.155	497.5
508.372	504.5
508.588	475.5
508.805	465.5
509.021	485.5
509.238	488.5
509.454	470.5
509.67	493.5
509.887	459.5
510.103	462.5
510.319	454.5
510.536	493.5
510.752	734.5
510.968	616.5
511.184	470.5
511.401	468.5
511.617	461.5
511.833	450.5
512.049	465.5
512.265	438.5
512.481	435.5
512.698	429.5
512.914	453.5
513.13	431.5
513.346	439.5
513.562	444.5
513.778	439.5
513.994	442.5
514.21	449.5
514.426	445.5
514.642	462.5
514.858	470.5
515.074	521.5
515.29	575.5
515.506	788.5
515.721	676.5
515.937	541.5
516.153	462.5
516.369	476.5
516.585	486.5
516.801	479.5
517.016	494.5
517.232	502.5
517.448	494.5
517.664	529.5
517.879	516.5
518.095	520.5
518.311	512.5
518.527	494.5
518.742	486.5
518.958	464.5
519.173	461.5
519.389	466.5
519.605	483.5
519.82	462.5
520.036	449.5
