Data from 1969.PennyLincolnUp.Lamp.En5.5.200Scan.071719.P1._HRD10591_14-55-48-973.txt Node
Date: Thu Jul 18 14:55:48 EDT 2019
User: cochatt
Spectrometer: HR+D1059
Trigger mode: 1
Integration Time (sec): 1.000000E-1
Scans to average: 1
Electric dark correction enabled: true
Nonlinearity correction enabled: false
Boxcar width: 0
XAxis mode: Wavelengths
Number of Pixels in Spectrum: 2048
>>>>>Begin Spectral Data<<<<<
223.165	-13.06
223.4	-13.06
223.635	-13.06
223.869	-21.06
224.104	-12.06
224.338	-15.06
224.573	-8.06
224.808	-5.06
225.042	-12.06
225.277	-2.06
225.511	-17.06
225.746	-6.06
225.98	14.94
226.215	9.94
226.449	12.94
226.683	22.94
226.918	15.94
227.152	34.94
227.387	45.94
227.621	43.94
227.856	40.94
228.09	39.94
228.324	49.94
228.559	54.94
228.793	42.94
229.027	69.94
229.262	91.94
229.496	87.94
229.73	103.94
229.964	113.94
230.199	93.94
230.433	102.94
230.667	100.94
230.901	92.94
231.136	104.94
231.37	107.94
231.604	104.94
231.838	101.94
232.072	118.94
232.306	111.94
232.541	95.94
232.775	108.94
233.009	104.94
233.243	101.94
233.477	109.94
233.711	107.94
233.945	110.94
234.179	110.94
234.413	110.94
234.647	122.94
234.881	114.94
235.115	99.94
235.349	114.94
235.583	116.94
235.817	116.94
236.051	123.94
236.285	102.94
236.519	114.94
236.753	116.94
236.987	130.94
237.221	140.94
237.455	165.94
237.689	142.94
237.922	118.94
238.156	120.94
238.39	109.94
238.624	108.94
238.858	120.94
239.091	123.94
239.325	107.94
239.559	122.94
239.793	105.94
240.027	113.94
240.26	108.94
240.494	110.94
240.728	126.94
240.961	133.94
241.195	122.94
241.429	123.94
241.662	124.94
241.896	118.94
242.13	121.94
242.363	121.94
242.597	110.94
242.83	119.94
243.064	102.94
243.298	118.94
243.531	128.94
243.765	120.94
243.998	128.94
244.232	125.94
244.465	135.94
244.699	126.94
244.932	119.94
245.166	118.94
245.399	142.94
245.633	135.94
245.866	127.94
246.099	124.94
246.333	117.94
246.566	141.94
246.8	130.94
247.033	134.94
247.266	130.94
247.5	147.94
247.733	151.94
247.966	137.94
248.2	160.94
248.433	146.94
248.666	147.94
248.899	154.94
249.133	172.94
249.366	177.94
249.599	156.94
249.832	131.94
250.066	151.94
250.299	146.94
250.532	159.94
250.765	173.94
250.998	182.94
251.231	174.94
251.465	171.94
251.698	148.94
251.931	155.94
252.164	155.94
252.397	146.94
252.63	167.94
252.863	169.94
253.096	174.94
253.329	175.94
253.562	198.94
253.795	188.94
254.028	159.94
254.261	183.94
254.494	182.94
254.727	198.94
254.96	221.94
255.193	202.94
255.426	170.94
255.659	178.94
255.892	197.94
256.124	186.94
256.357	202.94
256.59	193.94
256.823	190.94
257.056	183.94
257.289	187.94
257.521	171.94
257.754	178.94
257.987	189.94
258.22	171.94
258.452	168.94
258.685	170.94
258.918	150.94
259.151	190.94
259.383	181.94
259.616	177.94
259.849	202.94
260.081	192.94
260.314	196.94
260.547	212.94
260.779	195.94
261.012	186.94
261.244	201.94
261.477	206.94
261.71	174.94
261.942	197.94
262.175	198.94
262.407	183.94
262.64	178.94
262.872	194.94
263.105	178.94
263.337	182.94
263.57	179.94
263.802	175.94
264.035	191.94
264.267	188.94
264.499	195.94
264.732	182.94
264.964	187.94
265.197	191.94
265.429	193.94
265.661	181.94
265.894	172.94
266.126	194.94
266.358	186.94
266.591	197.94
266.823	185.94
267.055	190.94
267.287	186.94
267.52	198.94
267.752	194.94
267.984	214.94
268.216	195.94
268.448	205.94
268.681	199.94
268.913	211.94
269.145	203.94
269.377	227.94
269.609	232.94
269.841	228.94
270.073	233.94
270.306	239.94
270.538	252.94
270.77	247.94
271.002	226.94
271.234	237.94
271.466	248.94
271.698	249.94
271.93	245.94
272.162	259.94
272.394	269.94
272.626	248.94
272.858	233.94
273.09	219.94
273.322	238.94
273.553	239.94
273.785	220.94
274.017	222.94
274.249	214.94
274.481	226.94
274.713	209.94
274.945	235.94
275.176	204.94
275.408	234.94
275.64	227.94
275.872	227.94
276.104	225.94
276.335	223.94
276.567	215.94
276.799	232.94
277.031	255.94
277.262	254.94
277.494	264.94
277.726	244.94
277.957	258.94
278.189	232.94
278.421	224.94
278.652	230.94
278.884	231.94
279.115	228.94
279.347	202.94
279.579	221.94
279.81	217.94
280.042	236.94
280.273	215.94
280.505	232.94
280.736	243.94
280.968	225.94
281.199	250.94
281.431	231.94
281.662	228.94
281.894	240.94
282.125	241.94
282.356	231.94
282.588	246.94
282.819	254.94
283.051	249.94
283.282	247.94
283.513	244.94
283.745	233.94
283.976	251.94
284.207	266.94
284.439	246.94
284.67	258.94
284.901	243.94
285.132	232.94
285.364	249.94
285.595	235.94
285.826	232.94
286.057	258.94
286.288	254.94
286.52	254.94
286.751	235.94
286.982	231.94
287.213	260.94
287.444	263.94
287.675	277.94
287.906	270.94
288.138	272.94
288.369	267.94
288.6	254.94
288.831	251.94
289.062	266.94
289.293	246.94
289.524	263.94
289.755	250.94
289.986	251.94
290.217	248.94
290.448	259.94
290.679	262.94
290.91	253.94
291.141	260.94
291.371	267.94
291.602	244.94
291.833	231.94
292.064	242.94
292.295	245.94
292.526	267.94
292.757	265.94
292.987	260.94
293.218	261.94
293.449	262.94
293.68	266.94
293.91	255.94
294.141	256.94
294.372	257.94
294.603	264.94
294.833	253.94
295.064	263.94
295.295	277.94
295.525	260.94
295.756	250.94
295.987	268.94
296.217	263.94
296.448	266.94
296.679	277.94
296.909	276.94
297.14	273.94
297.37	291.94
297.601	267.94
297.831	263.94
298.062	266.94
298.292	260.94
298.523	294.94
298.753	284.94
298.984	268.94
299.214	267.94
299.445	285.94
299.675	286.94
299.905	288.94
300.136	283.94
300.366	268.94
300.597	281.94
300.827	304.94
301.057	276.94
301.288	282.94
301.518	285.94
301.748	291.94
301.979	283.94
302.209	279.94
302.439	300.94
302.669	303.94
302.9	297.94
303.13	284.94
303.36	291.94
303.59	284.94
303.82	283.94
304.051	293.94
304.281	285.94
304.511	282.94
304.741	281.94
304.971	294.94
305.201	279.94
305.431	292.94
305.661	275.94
305.891	284.94
306.121	295.94
306.352	285.94
306.582	289.94
306.812	277.94
307.042	289.94
307.272	291.94
307.502	294.94
307.731	300.94
307.961	282.94
308.191	298.94
308.421	287.94
308.651	277.94
308.881	279.94
309.111	306.94
309.341	291.94
309.571	293.94
309.8	294.94
310.03	294.94
310.26	297.94
310.49	299.94
310.72	326.94
310.949	311.94
311.179	322.94
311.409	316.94
311.639	316.94
311.868	310.94
312.098	322.94
312.328	325.94
312.557	334.94
312.787	328.94
313.017	325.94
313.246	322.94
313.476	329.94
313.706	326.94
313.935	318.94
314.165	335.94
314.394	331.94
314.624	335.94
314.853	317.94
315.083	318.94
315.312	317.94
315.542	314.94
315.771	310.94
316.001	298.94
316.23	294.94
316.46	300.94
316.689	303.94
316.919	318.94
317.148	321.94
317.377	318.94
317.607	346.94
317.836	314.94
318.065	319.94
318.295	319.94
318.524	319.94
318.753	310.94
318.983	311.94
319.212	301.94
319.441	317.94
319.67	317.94
319.9	312.94
320.129	309.94
320.358	299.94
320.587	337.94
320.816	330.94
321.046	323.94
321.275	308.94
321.504	308.94
321.733	346.94
321.962	341.94
322.191	330.94
322.42	357.94
322.649	340.94
322.878	369.94
323.108	349.94
323.337	389.94
323.566	376.94
323.795	377.94
324.024	413.94
324.253	467.94
324.482	606.94
324.71	858.94
324.939	1109.94
325.168	950.94
325.397	552.94
325.626	428.94
325.855	374.94
326.084	367.94
326.313	391.94
326.542	376.94
326.77	422.94
326.999	467.94
327.228	599.94
327.457	788.94
327.686	890.94
327.914	635.94
328.143	473.94
328.372	428.94
328.6	417.94
328.829	407.94
329.058	410.94
329.287	418.94
329.515	405.94
329.744	383.94
329.972	379.94
330.201	400.94
330.43	428.94
330.658	438.94
330.887	455.94
331.115	460.94
331.344	396.94
331.572	390.94
331.801	393.94
332.03	378.94
332.258	392.94
332.486	393.94
332.715	403.94
332.943	402.94
333.172	396.94
333.4	394.94
333.629	405.94
333.857	417.94
334.085	429.94
334.314	437.94
334.542	439.94
334.771	454.94
334.999	429.94
335.227	415.94
335.455	396.94
335.684	375.94
335.912	408.94
336.14	405.94
336.369	377.94
336.597	379.94
336.825	388.94
337.053	400.94
337.281	381.94
337.51	393.94
337.738	388.94
337.966	387.94
338.194	381.94
338.422	379.94
338.65	378.94
338.878	377.94
339.106	353.94
339.334	387.94
339.562	361.94
339.79	354.94
340.018	357.94
340.246	362.94
340.474	351.94
340.702	360.94
340.93	358.94
341.158	355.94
341.386	351.94
341.614	370.94
341.842	358.94
342.07	348.94
342.298	357.94
342.526	343.94
342.754	333.94
342.981	337.94
343.209	357.94
343.437	362.94
343.665	374.94
343.893	369.94
344.12	397.94
344.348	383.94
344.576	373.94
344.804	383.94
345.031	378.94
345.259	363.94
345.487	352.94
345.714	338.94
345.942	353.94
346.17	351.94
346.397	348.94
346.625	347.94
346.853	333.94
347.08	320.94
347.308	344.94
347.535	334.94
347.763	354.94
347.99	378.94
348.218	354.94
348.445	362.94
348.673	348.94
348.9	351.94
349.128	332.94
349.355	332.94
349.583	330.94
349.81	326.94
350.037	312.94
350.265	345.94
350.492	332.94
350.72	331.94
350.947	343.94
351.174	333.94
351.402	333.94
351.629	344.94
351.856	323.94
352.083	352.94
352.311	350.94
352.538	349.94
352.765	341.94
352.992	331.94
353.22	343.94
353.447	341.94
353.674	330.94
353.901	328.94
354.128	309.94
354.355	330.94
354.583	330.94
354.81	340.94
355.037	327.94
355.264	315.94
355.491	328.94
355.718	321.94
355.945	337.94
356.172	324.94
356.399	319.94
356.626	321.94
356.853	315.94
357.08	316.94
357.307	332.94
357.534	310.94
357.761	323.94
357.988	326.94
358.215	309.94
358.441	329.94
358.668	330.94
358.895	319.94
359.122	341.94
359.349	315.94
359.576	328.94
359.802	323.94
360.029	362.94
360.256	374.94
360.483	340.94
360.709	342.94
360.936	324.94
361.163	324.94
361.39	341.94
361.616	350.94
361.843	331.94
362.07	341.94
362.296	328.94
362.523	334.94
362.749	345.94
362.976	329.94
363.203	317.94
363.429	317.94
363.656	323.94
363.882	316.94
364.109	323.94
364.335	324.94
364.562	334.94
364.788	315.94
365.015	321.94
365.241	332.94
365.468	343.94
365.694	318.94
365.92	321.94
366.147	331.94
366.373	316.94
366.599	321.94
366.826	330.94
367.052	303.94
367.278	308.94
367.505	335.94
367.731	342.94
367.957	331.94
368.184	315.94
368.41	332.94
368.636	335.94
368.862	335.94
369.089	330.94
369.315	324.94
369.541	337.94
369.767	327.94
369.993	324.94
370.219	316.94
370.445	320.94
370.672	316.94
370.898	323.94
371.124	332.94
371.35	317.94
371.576	316.94
371.802	350.94
372.028	338.94
372.254	330.94
372.48	340.94
372.706	343.94
372.932	324.94
373.158	332.94
373.384	334.94
373.61	329.94
373.835	318.94
374.061	330.94
374.287	342.94
374.513	346.94
374.739	343.94
374.965	347.94
375.191	334.94
375.416	361.94
375.642	341.94
375.868	342.94
376.094	345.94
376.319	321.94
376.545	343.94
376.771	331.94
376.997	316.94
377.222	340.94
377.448	346.94
377.674	348.94
377.899	332.94
378.125	340.94
378.35	331.94
378.576	329.94
378.802	313.94
379.027	325.94
379.253	315.94
379.478	337.94
379.704	321.94
379.929	338.94
380.155	347.94
380.38	314.94
380.606	327.94
380.831	340.94
381.057	331.94
381.282	344.94
381.507	341.94
381.733	337.94
381.958	345.94
382.184	342.94
382.409	337.94
382.634	326.94
382.86	341.94
383.085	342.94
383.31	344.94
383.535	357.94
383.761	357.94
383.986	330.94
384.211	352.94
384.436	338.94
384.662	377.94
384.887	377.94
385.112	361.94
385.337	377.94
385.562	387.94
385.787	371.94
386.013	376.94
386.238	364.94
386.463	359.94
386.688	380.94
386.913	371.94
387.138	364.94
387.363	367.94
387.588	367.94
387.813	363.94
388.038	371.94
388.263	375.94
388.488	370.94
388.713	393.94
388.938	362.94
389.163	373.94
389.387	369.94
389.612	356.94
389.837	383.94
390.062	375.94
390.287	365.94
390.512	326.94
390.736	358.94
390.961	361.94
391.186	377.94
391.411	390.94
391.636	370.94
391.86	392.94
392.085	394.94
392.31	403.94
392.534	387.94
392.759	366.94
392.984	386.94
393.208	383.94
393.433	375.94
393.658	388.94
393.882	371.94
394.107	372.94
394.331	383.94
394.556	388.94
394.78	371.94
395.005	396.94
395.229	389.94
395.454	378.94
395.678	394.94
395.903	403.94
396.127	385.94
396.352	394.94
396.576	395.94
396.801	380.94
397.025	376.94
397.249	388.94
397.474	399.94
397.698	410.94
397.922	419.94
398.147	416.94
398.371	412.94
398.595	414.94
398.82	435.94
399.044	455.94
399.268	470.94
399.492	524.94
399.717	573.94
399.941	539.94
400.165	529.94
400.389	496.94
400.613	484.94
400.837	453.94
401.062	440.94
401.286	449.94
401.51	426.94
401.734	430.94
401.958	429.94
402.182	447.94
402.406	445.94
402.63	451.94
402.854	472.94
403.078	439.94
403.302	435.94
403.526	455.94
403.75	464.94
403.974	458.94
404.198	465.94
404.422	473.94
404.645	485.94
404.869	466.94
405.093	466.94
405.317	505.94
405.541	522.94
405.765	481.94
405.988	487.94
406.212	462.94
406.436	492.94
406.66	515.94
406.883	515.94
407.107	485.94
407.331	520.94
407.555	579.94
407.778	562.94
408.002	536.94
408.226	502.94
408.449	503.94
408.673	472.94
408.896	507.94
409.12	515.94
409.344	488.94
409.567	439.94
409.791	444.94
410.014	446.94
410.238	450.94
410.461	452.94
410.685	441.94
410.908	445.94
411.132	472.94
411.355	476.94
411.578	468.94
411.802	439.94
412.025	422.94
412.249	455.94
412.472	451.94
412.695	483.94
412.919	455.94
413.142	453.94
413.365	439.94
413.589	427.94
413.812	450.94
414.035	430.94
414.258	418.94
414.482	397.94
414.705	423.94
414.928	421.94
415.151	411.94
415.374	417.94
415.597	430.94
415.821	417.94
416.044	426.94
416.267	409.94
416.49	420.94
416.713	419.94
416.936	404.94
417.159	403.94
417.382	410.94
417.605	410.94
417.828	420.94
418.051	425.94
418.274	434.94
418.497	425.94
418.72	433.94
418.943	422.94
419.166	441.94
419.389	464.94
419.611	448.94
419.834	454.94
420.057	453.94
420.28	453.94
420.503	441.94
420.726	435.94
420.948	446.94
421.171	452.94
421.394	478.94
421.617	435.94
421.839	411.94
422.062	429.94
422.285	430.94
422.507	472.94
422.73	515.94
422.953	491.94
423.175	463.94
423.398	458.94
423.621	445.94
423.843	446.94
424.066	479.94
424.288	474.94
424.511	484.94
424.733	487.94
424.956	543.94
425.178	514.94
425.401	526.94
425.623	551.94
425.846	497.94
426.068	447.94
426.291	447.94
426.513	438.94
426.735	448.94
426.958	451.94
427.18	509.94
427.402	580.94
427.625	609.94
427.847	537.94
428.069	484.94
428.292	453.94
428.514	427.94
428.736	408.94
428.958	411.94
429.181	416.94
429.403	401.94
429.625	403.94
429.847	418.94
430.069	463.94
430.292	453.94
430.514	424.94
430.736	396.94
430.958	423.94
431.18	413.94
431.402	397.94
431.624	394.94
431.846	386.94
432.068	387.94
432.29	412.94
432.512	399.94
432.734	412.94
432.956	405.94
433.178	392.94
433.4	398.94
433.622	415.94
433.844	411.94
434.066	394.94
434.287	390.94
434.509	413.94
434.731	431.94
434.953	426.94
435.175	446.94
435.397	449.94
435.618	449.94
435.84	478.94
436.062	492.94
436.284	536.94
436.505	477.94
436.727	424.94
436.949	417.94
437.17	417.94
437.392	405.94
437.614	427.94
437.835	447.94
438.057	500.94
438.278	534.94
438.5	551.94
438.721	593.94
438.943	545.94
439.165	457.94
439.386	445.94
439.608	430.94
439.829	422.94
440.05	435.94
440.272	461.94
440.493	453.94
440.715	437.94
440.936	413.94
441.158	405.94
441.379	432.94
441.6	459.94
441.822	449.94
442.043	478.94
442.264	539.94
442.486	528.94
442.707	469.94
442.928	453.94
443.149	463.94
443.371	472.94
443.592	501.94
443.813	557.94
444.034	567.94
444.255	509.94
444.476	477.94
444.698	485.94
444.919	504.94
445.14	588.94
445.361	535.94
445.582	491.94
445.803	526.94
446.024	541.94
446.245	533.94
446.466	516.94
446.687	453.94
446.908	444.94
447.129	424.94
447.35	402.94
447.571	402.94
447.792	400.94
448.013	406.94
448.234	393.94
448.455	434.94
448.675	500.94
448.896	571.94
449.117	469.94
449.338	483.94
449.559	548.94
449.779	570.94
450	489.94
450.221	419.94
450.442	392.94
450.662	407.94
450.883	375.94
451.104	414.94
451.324	403.94
451.545	390.94
451.766	380.94
451.986	374.94
452.207	375.94
452.428	365.94
452.648	394.94
452.869	376.94
453.089	371.94
453.31	358.94
453.53	369.94
453.751	387.94
453.971	362.94
454.192	377.94
454.412	361.94
454.633	350.94
454.853	355.94
455.073	357.94
455.294	374.94
455.514	405.94
455.734	396.94
455.955	363.94
456.175	349.94
456.395	368.94
456.616	336.94
456.836	348.94
457.056	333.94
457.276	338.94
457.497	334.94
457.717	337.94
457.937	356.94
458.157	358.94
458.377	350.94
458.598	374.94
458.818	411.94
459.038	438.94
459.258	458.94
459.478	403.94
459.698	412.94
459.918	386.94
460.138	402.94
460.358	428.94
460.578	426.94
460.798	426.94
461.018	421.94
461.238	424.94
461.458	427.94
461.678	424.94
461.898	451.94
462.118	419.94
462.338	453.94
462.558	447.94
462.777	466.94
462.997	499.94
463.217	496.94
463.437	475.94
463.657	471.94
463.876	469.94
464.096	472.94
464.316	469.94
464.536	445.94
464.755	467.94
464.975	443.94
465.195	468.94
465.414	485.94
465.634	442.94
465.854	427.94
466.073	400.94
466.293	403.94
466.512	383.94
466.732	370.94
466.951	375.94
467.171	391.94
467.391	409.94
467.61	389.94
467.829	394.94
468.049	397.94
468.268	394.94
468.488	370.94
468.707	384.94
468.927	385.94
469.146	373.94
469.365	381.94
469.585	371.94
469.804	381.94
470.023	389.94
470.243	391.94
470.462	404.94
470.681	395.94
470.901	405.94
471.12	402.94
471.339	398.94
471.558	408.94
471.777	393.94
471.997	364.94
472.216	406.94
472.435	387.94
472.654	393.94
472.873	390.94
473.092	369.94
473.311	361.94
473.53	372.94
473.749	369.94
473.968	411.94
474.187	448.94
474.406	482.94
474.625	417.94
474.844	369.94
475.063	383.94
475.282	374.94
475.501	399.94
475.72	406.94
475.939	385.94
476.158	377.94
476.377	388.94
476.596	398.94
476.814	387.94
477.033	403.94
477.252	402.94
477.471	395.94
477.69	415.94
477.908	439.94
478.127	427.94
478.346	426.94
478.564	442.94
478.783	439.94
479.002	445.94
479.22	452.94
479.439	450.94
479.658	453.94
479.876	447.94
480.095	467.94
480.313	480.94
480.532	490.94
480.751	477.94
480.969	469.94
481.188	514.94
481.406	521.94
481.624	461.94
481.843	461.94
482.061	443.94
482.28	433.94
482.498	441.94
482.717	436.94
482.935	441.94
483.153	436.94
483.372	439.94
483.59	446.94
483.808	444.94
484.027	438.94
484.245	431.94
484.463	441.94
484.681	458.94
484.9	452.94
485.118	466.94
485.336	458.94
485.554	448.94
485.772	450.94
485.99	462.94
486.209	456.94
486.427	460.94
486.645	489.94
486.863	490.94
487.081	458.94
487.299	461.94
487.517	460.94
487.735	482.94
487.953	474.94
488.171	460.94
488.389	450.94
488.607	467.94
488.825	474.94
489.043	470.94
489.261	473.94
489.479	471.94
489.696	469.94
489.914	470.94
490.132	484.94
490.35	497.94
490.568	487.94
490.786	521.94
491.003	521.94
491.221	510.94
491.439	502.94
491.657	537.94
491.874	536.94
492.092	538.94
492.31	537.94
492.527	541.94
492.745	535.94
492.963	546.94
493.18	545.94
493.398	554.94
493.615	557.94
493.833	558.94
494.05	556.94
494.268	545.94
494.485	536.94
494.703	550.94
494.92	554.94
495.138	540.94
495.355	555.94
495.573	551.94
495.79	528.94
496.008	548.94
496.225	546.94
496.442	533.94
496.66	557.94
496.877	583.94
497.094	565.94
497.312	556.94
497.529	569.94
497.746	567.94
497.963	594.94
498.181	611.94
498.398	629.94
498.615	639.94
498.832	649.94
499.049	682.94
499.267	729.94
499.484	735.94
499.701	812.94
499.918	834.94
500.135	892.94
500.352	929.94
500.569	984.94
500.786	975.94
501.003	948.94
501.22	902.94
501.437	834.94
501.654	770.94
501.871	746.94
502.088	721.94
