Data from 1969.PennyLincolnUp.Lamp.En5.5.200Scan.071719.P1._HRD10591_14-55-43-972.txt Node
Date: Thu Jul 18 14:55:43 EDT 2019
User: cochatt
Spectrometer: HR+D1059
Trigger mode: 1
Integration Time (sec): 1.000000E-1
Scans to average: 1
Electric dark correction enabled: true
Nonlinearity correction enabled: false
Boxcar width: 0
XAxis mode: Wavelengths
Number of Pixels in Spectrum: 2048
>>>>>Begin Spectral Data<<<<<
223.165	-13.62
223.4	-13.62
223.635	-13.62
223.869	-25.62
224.104	-11.62
224.338	-5.62
224.573	-4.62
224.808	-20.62
225.042	-7.62
225.277	-5.62
225.511	-6.62
225.746	8.38
225.98	6.38
226.215	12.38
226.449	3.38
226.683	25.38
226.918	13.38
227.152	32.38
227.387	32.38
227.621	44.38
227.856	41.38
228.09	31.38
228.324	50.38
228.559	45.38
228.793	70.38
229.027	97.38
229.262	82.38
229.496	103.38
229.73	119.38
229.964	124.38
230.199	101.38
230.433	109.38
230.667	108.38
230.901	109.38
231.136	95.38
231.37	93.38
231.604	102.38
231.838	95.38
232.072	109.38
232.306	109.38
232.541	101.38
232.775	101.38
233.009	108.38
233.243	106.38
233.477	104.38
233.711	118.38
233.945	114.38
234.179	112.38
234.413	97.38
234.647	96.38
234.881	91.38
235.115	106.38
235.349	100.38
235.583	114.38
235.817	100.38
236.051	103.38
236.285	111.38
236.519	116.38
236.753	114.38
236.987	127.38
237.221	134.38
237.455	170.38
237.689	169.38
237.922	119.38
238.156	126.38
238.39	131.38
238.624	116.38
238.858	100.38
239.091	112.38
239.325	103.38
239.559	106.38
239.793	101.38
240.027	119.38
240.26	125.38
240.494	131.38
240.728	147.38
240.961	126.38
241.195	131.38
241.429	132.38
241.662	111.38
241.896	114.38
242.13	106.38
242.363	120.38
242.597	115.38
242.83	145.38
243.064	129.38
243.298	124.38
243.531	127.38
243.765	127.38
243.998	123.38
244.232	123.38
244.465	135.38
244.699	141.38
244.932	128.38
245.166	126.38
245.399	145.38
245.633	125.38
245.866	134.38
246.099	151.38
246.333	141.38
246.566	128.38
246.8	138.38
247.033	142.38
247.266	133.38
247.5	135.38
247.733	142.38
247.966	143.38
248.2	146.38
248.433	124.38
248.666	151.38
248.899	152.38
249.133	158.38
249.366	158.38
249.599	157.38
249.832	157.38
250.066	151.38
250.299	152.38
250.532	170.38
250.765	159.38
250.998	191.38
251.231	190.38
251.465	168.38
251.698	167.38
251.931	168.38
252.164	175.38
252.397	157.38
252.63	171.38
252.863	159.38
253.096	185.38
253.329	171.38
253.562	182.38
253.795	175.38
254.028	182.38
254.261	166.38
254.494	174.38
254.727	201.38
254.96	212.38
255.193	204.38
255.426	214.38
255.659	187.38
255.892	186.38
256.124	188.38
256.357	188.38
256.59	183.38
256.823	190.38
257.056	176.38
257.289	176.38
257.521	190.38
257.754	175.38
257.987	176.38
258.22	174.38
258.452	169.38
258.685	189.38
258.918	173.38
259.151	182.38
259.383	188.38
259.616	186.38
259.849	176.38
260.081	210.38
260.314	216.38
260.547	215.38
260.779	200.38
261.012	191.38
261.244	192.38
261.477	186.38
261.71	196.38
261.942	190.38
262.175	184.38
262.407	191.38
262.64	178.38
262.872	192.38
263.105	172.38
263.337	178.38
263.57	194.38
263.802	192.38
264.035	178.38
264.267	181.38
264.499	194.38
264.732	191.38
264.964	187.38
265.197	176.38
265.429	211.38
265.661	184.38
265.894	183.38
266.126	192.38
266.358	191.38
266.591	195.38
266.823	189.38
267.055	189.38
267.287	190.38
267.52	186.38
267.752	199.38
267.984	200.38
268.216	203.38
268.448	217.38
268.681	189.38
268.913	211.38
269.145	216.38
269.377	223.38
269.609	225.38
269.841	216.38
270.073	218.38
270.306	242.38
270.538	250.38
270.77	259.38
271.002	268.38
271.234	246.38
271.466	253.38
271.698	250.38
271.93	235.38
272.162	260.38
272.394	255.38
272.626	240.38
272.858	234.38
273.09	243.38
273.322	221.38
273.553	227.38
273.785	226.38
274.017	224.38
274.249	228.38
274.481	227.38
274.713	211.38
274.945	226.38
275.176	214.38
275.408	220.38
275.64	239.38
275.872	220.38
276.104	226.38
276.335	254.38
276.567	232.38
276.799	242.38
277.031	250.38
277.262	249.38
277.494	256.38
277.726	246.38
277.957	248.38
278.189	230.38
278.421	244.38
278.652	243.38
278.884	236.38
279.115	240.38
279.347	224.38
279.579	233.38
279.81	240.38
280.042	236.38
280.273	236.38
280.505	225.38
280.736	231.38
280.968	257.38
281.199	243.38
281.431	227.38
281.662	236.38
281.894	237.38
282.125	221.38
282.356	243.38
282.588	266.38
282.819	251.38
283.051	226.38
283.282	233.38
283.513	237.38
283.745	242.38
283.976	245.38
284.207	262.38
284.439	260.38
284.67	268.38
284.901	259.38
285.132	235.38
285.364	242.38
285.595	246.38
285.826	228.38
286.057	253.38
286.288	262.38
286.52	263.38
286.751	262.38
286.982	240.38
287.213	248.38
287.444	232.38
287.675	235.38
287.906	251.38
288.138	262.38
288.369	275.38
288.6	268.38
288.831	278.38
289.062	260.38
289.293	256.38
289.524	242.38
289.755	244.38
289.986	247.38
290.217	254.38
290.448	264.38
290.679	253.38
290.91	258.38
291.141	249.38
291.371	249.38
291.602	264.38
291.833	250.38
292.064	256.38
292.295	270.38
292.526	253.38
292.757	244.38
292.987	246.38
293.218	249.38
293.449	271.38
293.68	242.38
293.91	262.38
294.141	279.38
294.372	251.38
294.603	247.38
294.833	262.38
295.064	247.38
295.295	258.38
295.525	255.38
295.756	276.38
295.987	267.38
296.217	280.38
296.448	278.38
296.679	267.38
296.909	262.38
297.14	267.38
297.37	270.38
297.601	266.38
297.831	250.38
298.062	249.38
298.292	269.38
298.523	277.38
298.753	294.38
298.984	263.38
299.214	284.38
299.445	271.38
299.675	274.38
299.905	286.38
300.136	285.38
300.366	276.38
300.597	264.38
300.827	278.38
301.057	294.38
301.288	303.38
301.518	286.38
301.748	283.38
301.979	293.38
302.209	300.38
302.439	311.38
302.669	290.38
302.9	297.38
303.13	284.38
303.36	306.38
303.59	311.38
303.82	311.38
304.051	291.38
304.281	292.38
304.511	288.38
304.741	280.38
304.971	281.38
305.201	282.38
305.431	295.38
305.661	290.38
305.891	262.38
306.121	281.38
306.352	270.38
306.582	282.38
306.812	285.38
307.042	288.38
307.272	281.38
307.502	268.38
307.731	285.38
307.961	272.38
308.191	274.38
308.421	287.38
308.651	290.38
308.881	281.38
309.111	296.38
309.341	290.38
309.571	303.38
309.8	282.38
310.03	304.38
310.26	311.38
310.49	302.38
310.72	320.38
310.949	327.38
311.179	320.38
311.409	300.38
311.639	299.38
311.868	307.38
312.098	308.38
312.328	335.38
312.557	330.38
312.787	319.38
313.017	315.38
313.246	326.38
313.476	312.38
313.706	324.38
313.935	300.38
314.165	322.38
314.394	318.38
314.624	334.38
314.853	301.38
315.083	333.38
315.312	300.38
315.542	315.38
315.771	317.38
316.001	319.38
316.23	317.38
316.46	303.38
316.689	299.38
316.919	325.38
317.148	336.38
317.377	329.38
317.607	317.38
317.836	330.38
318.065	328.38
318.295	316.38
318.524	325.38
318.753	311.38
318.983	306.38
319.212	302.38
319.441	320.38
319.67	309.38
319.9	303.38
320.129	327.38
320.358	298.38
320.587	312.38
320.816	324.38
321.046	325.38
321.275	320.38
321.504	313.38
321.733	332.38
321.962	334.38
322.191	337.38
322.42	342.38
322.649	342.38
322.878	357.38
323.108	358.38
323.337	364.38
323.566	373.38
323.795	370.38
324.024	395.38
324.253	448.38
324.482	616.38
324.71	862.38
324.939	1143.38
325.168	965.38
325.397	536.38
325.626	450.38
325.855	374.38
326.084	394.38
326.313	378.38
326.542	379.38
326.77	411.38
326.999	438.38
327.228	571.38
327.457	779.38
327.686	887.38
327.914	619.38
328.143	457.38
328.372	438.38
328.6	407.38
328.829	390.38
329.058	400.38
329.287	410.38
329.515	410.38
329.744	391.38
329.972	380.38
330.201	397.38
330.43	424.38
330.658	438.38
330.887	455.38
331.115	452.38
331.344	378.38
331.572	380.38
331.801	396.38
332.03	393.38
332.258	379.38
332.486	378.38
332.715	395.38
332.943	406.38
333.172	404.38
333.4	394.38
333.629	417.38
333.857	408.38
334.085	413.38
334.314	425.38
334.542	464.38
334.771	462.38
334.999	430.38
335.227	398.38
335.455	413.38
335.684	388.38
335.912	385.38
336.14	372.38
336.369	382.38
336.597	393.38
336.825	382.38
337.053	380.38
337.281	379.38
337.51	373.38
337.738	381.38
337.966	378.38
338.194	375.38
338.422	367.38
338.65	359.38
338.878	371.38
339.106	346.38
339.334	350.38
339.562	367.38
339.79	357.38
340.018	350.38
340.246	382.38
340.474	370.38
340.702	357.38
340.93	355.38
341.158	348.38
341.386	358.38
341.614	330.38
341.842	336.38
342.07	336.38
342.298	347.38
342.526	357.38
342.754	357.38
342.981	338.38
343.209	351.38
343.437	358.38
343.665	364.38
343.893	375.38
344.12	412.38
344.348	384.38
344.576	388.38
344.804	375.38
345.031	371.38
345.259	386.38
345.487	358.38
345.714	349.38
345.942	350.38
346.17	336.38
346.397	331.38
346.625	327.38
346.853	337.38
347.08	346.38
347.308	343.38
347.535	351.38
347.763	339.38
347.99	339.38
348.218	351.38
348.445	349.38
348.673	364.38
348.9	344.38
349.128	339.38
349.355	332.38
349.583	324.38
349.81	327.38
350.037	328.38
350.265	325.38
350.492	329.38
350.72	333.38
350.947	361.38
351.174	343.38
351.402	325.38
351.629	349.38
351.856	314.38
352.083	342.38
352.311	339.38
352.538	348.38
352.765	349.38
352.992	338.38
353.22	339.38
353.447	329.38
353.674	336.38
353.901	308.38
354.128	320.38
354.355	329.38
354.583	322.38
354.81	314.38
355.037	315.38
355.264	327.38
355.491	344.38
355.718	326.38
355.945	318.38
356.172	332.38
356.399	316.38
356.626	317.38
356.853	317.38
357.08	315.38
357.307	306.38
357.534	310.38
357.761	313.38
357.988	317.38
358.215	326.38
358.441	332.38
358.668	326.38
358.895	315.38
359.122	321.38
359.349	347.38
359.576	343.38
359.802	340.38
360.029	364.38
360.256	364.38
360.483	371.38
360.709	334.38
360.936	349.38
361.163	331.38
361.39	339.38
361.616	339.38
361.843	336.38
362.07	331.38
362.296	336.38
362.523	344.38
362.749	340.38
362.976	322.38
363.203	328.38
363.429	318.38
363.656	330.38
363.882	304.38
364.109	331.38
364.335	322.38
364.562	330.38
364.788	320.38
365.015	323.38
365.241	310.38
365.468	315.38
365.694	321.38
365.92	332.38
366.147	314.38
366.373	323.38
366.599	325.38
366.826	338.38
367.052	327.38
367.278	319.38
367.505	323.38
367.731	341.38
367.957	317.38
368.184	324.38
368.41	334.38
368.636	354.38
368.862	327.38
369.089	328.38
369.315	326.38
369.541	299.38
369.767	338.38
369.993	337.38
370.219	354.38
370.445	320.38
370.672	324.38
370.898	310.38
371.124	340.38
371.35	327.38
371.576	336.38
371.802	327.38
372.028	334.38
372.254	351.38
372.48	340.38
372.706	341.38
372.932	334.38
373.158	338.38
373.384	346.38
373.61	340.38
373.835	342.38
374.061	332.38
374.287	353.38
374.513	339.38
374.739	349.38
374.965	336.38
375.191	353.38
375.416	362.38
375.642	334.38
375.868	351.38
376.094	341.38
376.319	329.38
376.545	339.38
376.771	318.38
376.997	332.38
377.222	343.38
377.448	338.38
377.674	336.38
377.899	315.38
378.125	336.38
378.35	332.38
378.576	337.38
378.802	308.38
379.027	348.38
379.253	335.38
379.478	326.38
379.704	334.38
379.929	303.38
380.155	322.38
380.38	321.38
380.606	327.38
380.831	334.38
381.057	344.38
381.282	333.38
381.507	346.38
381.733	355.38
381.958	322.38
382.184	311.38
382.409	350.38
382.634	329.38
382.86	324.38
383.085	330.38
383.31	333.38
383.535	352.38
383.761	336.38
383.986	360.38
384.211	358.38
384.436	351.38
384.662	363.38
384.887	367.38
385.112	361.38
385.337	354.38
385.562	371.38
385.787	370.38
386.013	375.38
386.238	383.38
386.463	358.38
386.688	372.38
386.913	336.38
387.138	360.38
387.363	362.38
387.588	375.38
387.813	365.38
388.038	355.38
388.263	348.38
388.488	363.38
388.713	376.38
388.938	372.38
389.163	365.38
389.387	363.38
389.612	367.38
389.837	352.38
390.062	356.38
390.287	354.38
390.512	357.38
390.736	368.38
390.961	376.38
391.186	374.38
391.411	375.38
391.636	381.38
391.86	378.38
392.085	397.38
392.31	377.38
392.534	367.38
392.759	378.38
392.984	372.38
393.208	364.38
393.433	380.38
393.658	367.38
393.882	370.38
394.107	350.38
394.331	357.38
394.556	377.38
394.78	378.38
395.005	388.38
395.229	381.38
395.454	383.38
395.678	395.38
395.903	402.38
396.127	407.38
396.352	387.38
396.576	382.38
396.801	382.38
397.025	392.38
397.249	381.38
397.474	399.38
397.698	398.38
397.922	416.38
398.147	422.38
398.371	423.38
398.595	414.38
398.82	446.38
399.044	452.38
399.268	478.38
399.492	532.38
399.717	556.38
399.941	554.38
400.165	513.38
400.389	518.38
400.613	475.38
400.837	454.38
401.062	446.38
401.286	428.38
401.51	421.38
401.734	431.38
401.958	443.38
402.182	439.38
402.406	430.38
402.63	443.38
402.854	438.38
403.078	442.38
403.302	458.38
403.526	454.38
403.75	458.38
403.974	461.38
404.198	475.38
404.422	462.38
404.645	477.38
404.869	464.38
405.093	483.38
405.317	514.38
405.541	517.38
405.765	478.38
405.988	459.38
406.212	472.38
406.436	495.38
406.66	496.38
406.883	490.38
407.107	507.38
407.331	548.38
407.555	570.38
407.778	558.38
408.002	524.38
408.226	494.38
408.449	490.38
408.673	479.38
408.896	483.38
409.12	509.38
409.344	506.38
409.567	476.38
409.791	470.38
410.014	437.38
410.238	442.38
410.461	442.38
410.685	465.38
410.908	459.38
411.132	452.38
411.355	474.38
411.578	450.38
411.802	420.38
412.025	428.38
412.249	440.38
412.472	446.38
412.695	460.38
412.919	458.38
413.142	456.38
413.365	443.38
413.589	452.38
413.812	420.38
414.035	423.38
414.258	411.38
414.482	414.38
414.705	418.38
414.928	435.38
415.151	442.38
415.374	414.38
415.597	407.38
415.821	426.38
416.044	436.38
416.267	436.38
416.49	430.38
416.713	423.38
416.936	430.38
417.159	407.38
417.382	425.38
417.605	424.38
417.828	434.38
418.051	434.38
418.274	446.38
418.497	422.38
418.72	418.38
418.943	424.38
419.166	465.38
419.389	448.38
419.611	439.38
419.834	459.38
420.057	480.38
420.28	452.38
420.503	430.38
420.726	438.38
420.948	458.38
421.171	456.38
421.394	473.38
421.617	444.38
421.839	421.38
422.062	429.38
422.285	449.38
422.507	486.38
422.73	510.38
422.953	496.38
423.175	451.38
423.398	465.38
423.621	436.38
423.843	470.38
424.066	460.38
424.288	452.38
424.511	479.38
424.733	492.38
424.956	533.38
425.178	526.38
425.401	522.38
425.623	494.38
425.846	457.38
426.068	442.38
426.291	444.38
426.513	437.38
426.735	452.38
426.958	459.38
427.18	510.38
427.402	561.38
427.625	606.38
427.847	540.38
428.069	495.38
428.292	460.38
428.514	428.38
428.736	422.38
428.958	412.38
429.181	396.38
429.403	407.38
429.625	420.38
429.847	417.38
430.069	463.38
430.292	465.38
430.514	410.38
430.736	409.38
430.958	405.38
431.18	392.38
431.402	386.38
431.624	385.38
431.846	396.38
432.068	394.38
432.29	399.38
432.512	403.38
432.734	408.38
432.956	402.38
433.178	403.38
433.4	400.38
433.622	406.38
433.844	398.38
434.066	412.38
434.287	389.38
434.509	399.38
434.731	419.38
434.953	444.38
435.175	446.38
435.397	476.38
435.618	444.38
435.84	447.38
436.062	493.38
436.284	514.38
436.505	472.38
436.727	442.38
436.949	421.38
437.17	409.38
437.392	396.38
437.614	414.38
437.835	434.38
438.057	469.38
438.278	519.38
438.5	518.38
438.721	562.38
438.943	550.38
439.165	466.38
439.386	440.38
439.608	444.38
439.829	435.38
440.05	447.38
440.272	464.38
440.493	424.38
440.715	444.38
440.936	428.38
441.158	414.38
441.379	413.38
441.6	446.38
441.822	455.38
442.043	478.38
442.264	527.38
442.486	531.38
442.707	461.38
442.928	442.38
443.149	467.38
443.371	467.38
443.592	495.38
443.813	550.38
444.034	562.38
444.255	516.38
444.476	495.38
444.698	478.38
444.919	487.38
445.14	596.38
445.361	508.38
445.582	487.38
445.803	500.38
446.024	578.38
446.245	527.38
446.466	521.38
446.687	474.38
446.908	417.38
447.129	427.38
447.35	387.38
447.571	407.38
447.792	386.38
448.013	395.38
448.234	399.38
448.455	451.38
448.675	516.38
448.896	566.38
449.117	459.38
449.338	468.38
449.559	526.38
449.779	572.38
450	460.38
450.221	427.38
450.442	401.38
450.662	387.38
450.883	418.38
451.104	407.38
451.324	377.38
451.545	381.38
451.766	358.38
451.986	360.38
452.207	366.38
452.428	362.38
452.648	375.38
452.869	354.38
453.089	380.38
453.31	386.38
453.53	367.38
453.751	364.38
453.971	378.38
454.192	388.38
454.412	376.38
454.633	355.38
454.853	359.38
455.073	371.38
455.294	377.38
455.514	403.38
455.734	383.38
455.955	348.38
456.175	339.38
456.395	340.38
456.616	364.38
456.836	355.38
457.056	331.38
457.276	364.38
457.497	338.38
457.717	364.38
457.937	350.38
458.157	352.38
458.377	369.38
458.598	358.38
458.818	382.38
459.038	460.38
459.258	467.38
459.478	415.38
459.698	401.38
459.918	389.38
460.138	394.38
460.358	422.38
460.578	431.38
460.798	440.38
461.018	428.38
461.238	425.38
461.458	448.38
461.678	430.38
461.898	420.38
462.118	424.38
462.338	443.38
462.558	466.38
462.777	464.38
462.997	483.38
463.217	504.38
463.437	488.38
463.657	482.38
463.876	471.38
464.096	469.38
464.316	459.38
464.536	461.38
464.755	444.38
464.975	466.38
465.195	455.38
465.414	479.38
465.634	444.38
465.854	413.38
466.073	398.38
466.293	396.38
466.512	380.38
466.732	373.38
466.951	392.38
467.171	372.38
467.391	390.38
467.61	384.38
467.829	387.38
468.049	390.38
468.268	394.38
468.488	378.38
468.707	374.38
468.927	359.38
469.146	378.38
469.365	382.38
469.585	379.38
469.804	388.38
470.023	411.38
470.243	378.38
470.462	406.38
470.681	399.38
470.901	384.38
471.12	416.38
471.339	396.38
471.558	392.38
471.777	378.38
471.997	396.38
472.216	396.38
472.435	435.38
472.654	396.38
472.873	382.38
473.092	372.38
473.311	395.38
473.53	387.38
473.749	385.38
473.968	404.38
474.187	467.38
474.406	463.38
474.625	415.38
474.844	387.38
475.063	397.38
475.282	390.38
475.501	364.38
475.72	376.38
475.939	395.38
476.158	402.38
476.377	403.38
476.596	388.38
476.814	407.38
477.033	392.38
477.252	395.38
477.471	412.38
477.69	383.38
477.908	419.38
478.127	441.38
478.346	434.38
478.564	431.38
478.783	430.38
479.002	439.38
479.22	447.38
479.439	446.38
479.658	456.38
479.876	476.38
480.095	452.38
480.313	475.38
480.532	461.38
480.751	465.38
480.969	474.38
481.188	528.38
481.406	546.38
481.624	457.38
481.843	455.38
482.061	441.38
482.28	440.38
482.498	448.38
482.717	423.38
482.935	447.38
483.153	416.38
483.372	424.38
483.59	424.38
483.808	426.38
484.027	458.38
484.245	456.38
484.463	455.38
484.681	445.38
484.9	452.38
485.118	436.38
485.336	434.38
485.554	446.38
485.772	451.38
485.99	455.38
486.209	455.38
486.427	465.38
486.645	448.38
486.863	470.38
487.081	495.38
487.299	466.38
487.517	440.38
487.735	438.38
487.953	474.38
488.171	480.38
488.389	457.38
488.607	458.38
488.825	470.38
489.043	462.38
489.261	455.38
489.479	468.38
489.696	466.38
489.914	461.38
490.132	485.38
490.35	483.38
490.568	479.38
490.786	506.38
491.003	504.38
491.221	500.38
491.439	519.38
491.657	532.38
491.874	530.38
492.092	533.38
492.31	544.38
492.527	518.38
492.745	534.38
492.963	532.38
493.18	562.38
493.398	536.38
493.615	549.38
493.833	554.38
494.05	535.38
494.268	536.38
494.485	564.38
494.703	544.38
494.92	551.38
495.138	533.38
495.355	547.38
495.573	553.38
495.79	543.38
496.008	537.38
496.225	556.38
496.442	556.38
496.66	537.38
496.877	544.38
497.094	573.38
497.312	546.38
497.529	560.38
497.746	609.38
497.963	598.38
498.181	605.38
498.398	590.38
498.615	620.38
498.832	646.38
499.049	674.38
499.267	703.38
499.484	740.38
499.701	813.38
499.918	852.38
500.135	894.38
500.352	963.38
500.569	987.38
500.786	974.38
501.003	957.38
501.22	876.38
501.437	837.38
501.654	792.38
501.871	760.38
502.088	721.38
