Data from 1969.PennyLincolnUp.Lamp.En5.5.200Scan.071719.P1._HRD10591_14-54-09-972.txt Node
Date: Thu Jul 18 14:54:09 EDT 2019
User: cochatt
Spectrometer: HR+D1059
Trigger mode: 1
Integration Time (sec): 1.000000E-1
Scans to average: 1
Electric dark correction enabled: true
Nonlinearity correction enabled: false
Boxcar width: 0
XAxis mode: Wavelengths
Number of Pixels in Spectrum: 2048
>>>>>Begin Spectral Data<<<<<
223.165	-21.38
223.4	-21.38
223.635	-21.38
223.869	1.62
224.104	-21.38
224.338	-5.38
224.573	4.62
224.808	-10.38
225.042	-9.38
225.277	-5.38
225.511	-18.38
225.746	5.62
225.98	10.62
226.215	4.62
226.449	13.62
226.683	14.62
226.918	11.62
227.152	24.62
227.387	49.62
227.621	29.62
227.856	33.62
228.09	44.62
228.324	36.62
228.559	47.62
228.793	64.62
229.027	81.62
229.262	100.62
229.496	101.62
229.73	106.62
229.964	108.62
230.199	108.62
230.433	87.62
230.667	104.62
230.901	109.62
231.136	102.62
231.37	93.62
231.604	102.62
231.838	86.62
232.072	101.62
232.306	107.62
232.541	97.62
232.775	100.62
233.009	93.62
233.243	93.62
233.477	108.62
233.711	112.62
233.945	97.62
234.179	101.62
234.413	106.62
234.647	95.62
234.881	89.62
235.115	114.62
235.349	105.62
235.583	121.62
235.817	115.62
236.051	113.62
236.285	87.62
236.519	106.62
236.753	118.62
236.987	135.62
237.221	146.62
237.455	149.62
237.689	134.62
237.922	118.62
238.156	131.62
238.39	106.62
238.624	113.62
238.858	102.62
239.091	110.62
239.325	110.62
239.559	115.62
239.793	97.62
240.027	117.62
240.26	110.62
240.494	116.62
240.728	117.62
240.961	120.62
241.195	124.62
241.429	127.62
241.662	112.62
241.896	111.62
242.13	104.62
242.363	102.62
242.597	125.62
242.83	113.62
243.064	106.62
243.298	118.62
243.531	114.62
243.765	121.62
243.998	134.62
244.232	120.62
244.465	117.62
244.699	150.62
244.932	108.62
245.166	113.62
245.399	126.62
245.633	132.62
245.866	129.62
246.099	122.62
246.333	124.62
246.566	134.62
246.8	134.62
247.033	121.62
247.266	116.62
247.5	124.62
247.733	144.62
247.966	145.62
248.2	153.62
248.433	145.62
248.666	145.62
248.899	153.62
249.133	145.62
249.366	156.62
249.599	151.62
249.832	149.62
250.066	148.62
250.299	152.62
250.532	153.62
250.765	171.62
250.998	188.62
251.231	177.62
251.465	164.62
251.698	157.62
251.931	162.62
252.164	158.62
252.397	159.62
252.63	175.62
252.863	163.62
253.096	177.62
253.329	178.62
253.562	173.62
253.795	182.62
254.028	166.62
254.261	186.62
254.494	180.62
254.727	209.62
254.96	210.62
255.193	186.62
255.426	169.62
255.659	174.62
255.892	160.62
256.124	195.62
256.357	178.62
256.59	170.62
256.823	181.62
257.056	159.62
257.289	156.62
257.521	159.62
257.754	169.62
257.987	167.62
258.22	180.62
258.452	168.62
258.685	183.62
258.918	165.62
259.151	176.62
259.383	182.62
259.616	195.62
259.849	159.62
260.081	179.62
260.314	196.62
260.547	202.62
260.779	197.62
261.012	196.62
261.244	172.62
261.477	167.62
261.71	185.62
261.942	170.62
262.175	197.62
262.407	175.62
262.64	165.62
262.872	184.62
263.105	162.62
263.337	159.62
263.57	161.62
263.802	172.62
264.035	168.62
264.267	179.62
264.499	187.62
264.732	187.62
264.964	177.62
265.197	172.62
265.429	170.62
265.661	177.62
265.894	165.62
266.126	166.62
266.358	185.62
266.591	191.62
266.823	185.62
267.055	193.62
267.287	195.62
267.52	194.62
267.752	189.62
267.984	195.62
268.216	201.62
268.448	197.62
268.681	182.62
268.913	198.62
269.145	210.62
269.377	207.62
269.609	231.62
269.841	217.62
270.073	210.62
270.306	249.62
270.538	240.62
270.77	250.62
271.002	232.62
271.234	234.62
271.466	234.62
271.698	231.62
271.93	240.62
272.162	249.62
272.394	243.62
272.626	241.62
272.858	232.62
273.09	224.62
273.322	218.62
273.553	228.62
273.785	216.62
274.017	221.62
274.249	207.62
274.481	209.62
274.713	219.62
274.945	235.62
275.176	216.62
275.408	216.62
275.64	225.62
275.872	219.62
276.104	205.62
276.335	227.62
276.567	226.62
276.799	229.62
277.031	241.62
277.262	239.62
277.494	250.62
277.726	229.62
277.957	237.62
278.189	241.62
278.421	238.62
278.652	204.62
278.884	225.62
279.115	229.62
279.347	214.62
279.579	222.62
279.81	233.62
280.042	239.62
280.273	233.62
280.505	238.62
280.736	225.62
280.968	226.62
281.199	210.62
281.431	233.62
281.662	234.62
281.894	218.62
282.125	229.62
282.356	231.62
282.588	251.62
282.819	241.62
283.051	235.62
283.282	216.62
283.513	221.62
283.745	214.62
283.976	230.62
284.207	242.62
284.439	236.62
284.67	249.62
284.901	239.62
285.132	238.62
285.364	250.62
285.595	243.62
285.826	237.62
286.057	251.62
286.288	243.62
286.52	242.62
286.751	235.62
286.982	239.62
287.213	247.62
287.444	243.62
287.675	244.62
287.906	257.62
288.138	246.62
288.369	244.62
288.6	259.62
288.831	259.62
289.062	264.62
289.293	251.62
289.524	252.62
289.755	249.62
289.986	249.62
290.217	262.62
290.448	249.62
290.679	250.62
290.91	254.62
291.141	266.62
291.371	244.62
291.602	245.62
291.833	244.62
292.064	257.62
292.295	243.62
292.526	247.62
292.757	243.62
292.987	253.62
293.218	247.62
293.449	241.62
293.68	254.62
293.91	256.62
294.141	251.62
294.372	257.62
294.603	270.62
294.833	265.62
295.064	246.62
295.295	247.62
295.525	261.62
295.756	244.62
295.987	262.62
296.217	265.62
296.448	283.62
296.679	271.62
296.909	257.62
297.14	259.62
297.37	262.62
297.601	252.62
297.831	257.62
298.062	280.62
298.292	277.62
298.523	270.62
298.753	283.62
298.984	267.62
299.214	253.62
299.445	257.62
299.675	261.62
299.905	282.62
300.136	284.62
300.366	258.62
300.597	282.62
300.827	261.62
301.057	270.62
301.288	279.62
301.518	280.62
301.748	279.62
301.979	289.62
302.209	260.62
302.439	287.62
302.669	279.62
302.9	280.62
303.13	301.62
303.36	294.62
303.59	292.62
303.82	278.62
304.051	282.62
304.281	304.62
304.511	296.62
304.741	294.62
304.971	299.62
305.201	294.62
305.431	269.62
305.661	295.62
305.891	292.62
306.121	296.62
306.352	273.62
306.582	276.62
306.812	277.62
307.042	290.62
307.272	281.62
307.502	269.62
307.731	285.62
307.961	281.62
308.191	283.62
308.421	276.62
308.651	287.62
308.881	271.62
309.111	283.62
309.341	280.62
309.571	302.62
309.8	306.62
310.03	305.62
310.26	296.62
310.49	301.62
310.72	308.62
310.949	306.62
311.179	306.62
311.409	306.62
311.639	296.62
311.868	309.62
312.098	322.62
312.328	326.62
312.557	313.62
312.787	325.62
313.017	313.62
313.246	317.62
313.476	319.62
313.706	326.62
313.935	338.62
314.165	308.62
314.394	337.62
314.624	326.62
314.853	294.62
315.083	310.62
315.312	321.62
315.542	297.62
315.771	299.62
316.001	326.62
316.23	297.62
316.46	301.62
316.689	316.62
316.919	313.62
317.148	311.62
317.377	310.62
317.607	316.62
317.836	312.62
318.065	314.62
318.295	302.62
318.524	294.62
318.753	313.62
318.983	300.62
319.212	309.62
319.441	330.62
319.67	315.62
319.9	313.62
320.129	301.62
320.358	311.62
320.587	303.62
320.816	315.62
321.046	331.62
321.275	322.62
321.504	324.62
321.733	309.62
321.962	296.62
322.191	320.62
322.42	322.62
322.649	328.62
322.878	333.62
323.108	335.62
323.337	353.62
323.566	355.62
323.795	356.62
324.024	394.62
324.253	423.62
324.482	578.62
324.71	801.62
324.939	1053.62
325.168	868.62
325.397	493.62
325.626	390.62
325.855	373.62
326.084	351.62
326.313	355.62
326.542	374.62
326.77	378.62
326.999	417.62
327.228	515.62
327.457	707.62
327.686	788.62
327.914	556.62
328.143	454.62
328.372	383.62
328.6	389.62
328.829	389.62
329.058	373.62
329.287	363.62
329.515	355.62
329.744	373.62
329.972	373.62
330.201	383.62
330.43	404.62
330.658	415.62
330.887	420.62
331.115	418.62
331.344	364.62
331.572	374.62
331.801	387.62
332.03	391.62
332.258	368.62
332.486	388.62
332.715	374.62
332.943	382.62
333.172	362.62
333.4	393.62
333.629	393.62
333.857	396.62
334.085	413.62
334.314	429.62
334.542	437.62
334.771	430.62
334.999	397.62
335.227	382.62
335.455	391.62
335.684	372.62
335.912	371.62
336.14	375.62
336.369	357.62
336.597	381.62
336.825	371.62
337.053	369.62
337.281	375.62
337.51	362.62
337.738	358.62
337.966	370.62
338.194	369.62
338.422	358.62
338.65	358.62
338.878	358.62
339.106	357.62
339.334	352.62
339.562	349.62
339.79	353.62
340.018	360.62
340.246	347.62
340.474	344.62
340.702	344.62
340.93	337.62
341.158	358.62
341.386	333.62
341.614	355.62
341.842	354.62
342.07	345.62
342.298	346.62
342.526	321.62
342.754	331.62
342.981	332.62
343.209	350.62
343.437	355.62
343.665	346.62
343.893	381.62
344.12	369.62
344.348	366.62
344.576	362.62
344.804	352.62
345.031	349.62
345.259	380.62
345.487	366.62
345.714	337.62
345.942	342.62
346.17	315.62
346.397	329.62
346.625	323.62
346.853	319.62
347.08	340.62
347.308	341.62
347.535	333.62
347.763	327.62
347.99	344.62
348.218	326.62
348.445	333.62
348.673	338.62
348.9	318.62
349.128	341.62
349.355	315.62
349.583	318.62
349.81	321.62
350.037	332.62
350.265	324.62
350.492	319.62
350.72	313.62
350.947	337.62
351.174	345.62
351.402	339.62
351.629	316.62
351.856	329.62
352.083	318.62
352.311	350.62
352.538	318.62
352.765	338.62
352.992	363.62
353.22	324.62
353.447	322.62
353.674	318.62
353.901	308.62
354.128	327.62
354.355	300.62
354.583	283.62
354.81	314.62
355.037	312.62
355.264	311.62
355.491	311.62
355.718	306.62
355.945	298.62
356.172	311.62
356.399	309.62
356.626	285.62
356.853	320.62
357.08	318.62
357.307	310.62
357.534	325.62
357.761	315.62
357.988	330.62
358.215	334.62
358.441	319.62
358.668	299.62
358.895	327.62
359.122	332.62
359.349	319.62
359.576	338.62
359.802	323.62
360.029	339.62
360.256	353.62
360.483	327.62
360.709	338.62
360.936	339.62
361.163	340.62
361.39	318.62
361.616	318.62
361.843	321.62
362.07	315.62
362.296	309.62
362.523	327.62
362.749	302.62
362.976	333.62
363.203	339.62
363.429	317.62
363.656	321.62
363.882	337.62
364.109	313.62
364.335	309.62
364.562	303.62
364.788	311.62
365.015	323.62
365.241	323.62
365.468	322.62
365.694	314.62
365.92	302.62
366.147	323.62
366.373	310.62
366.599	309.62
366.826	302.62
367.052	309.62
367.278	313.62
367.505	301.62
367.731	323.62
367.957	331.62
368.184	314.62
368.41	324.62
368.636	333.62
368.862	339.62
369.089	332.62
369.315	336.62
369.541	337.62
369.767	324.62
369.993	327.62
370.219	314.62
370.445	327.62
370.672	315.62
370.898	336.62
371.124	334.62
371.35	315.62
371.576	316.62
371.802	312.62
372.028	326.62
372.254	320.62
372.48	346.62
372.706	310.62
372.932	341.62
373.158	329.62
373.384	327.62
373.61	324.62
373.835	338.62
374.061	325.62
374.287	325.62
374.513	335.62
374.739	350.62
374.965	330.62
375.191	364.62
375.416	316.62
375.642	335.62
375.868	327.62
376.094	340.62
376.319	333.62
376.545	324.62
376.771	324.62
376.997	327.62
377.222	293.62
377.448	317.62
377.674	327.62
377.899	308.62
378.125	315.62
378.35	324.62
378.576	309.62
378.802	322.62
379.027	325.62
379.253	335.62
379.478	318.62
379.704	343.62
379.929	331.62
380.155	324.62
380.38	326.62
380.606	310.62
380.831	322.62
381.057	328.62
381.282	331.62
381.507	315.62
381.733	327.62
381.958	323.62
382.184	323.62
382.409	360.62
382.634	341.62
382.86	329.62
383.085	337.62
383.31	312.62
383.535	333.62
383.761	331.62
383.986	333.62
384.211	351.62
384.436	350.62
384.662	364.62
384.887	365.62
385.112	347.62
385.337	363.62
385.562	381.62
385.787	367.62
386.013	354.62
386.238	362.62
386.463	363.62
386.688	373.62
386.913	364.62
387.138	344.62
387.363	357.62
387.588	370.62
387.813	379.62
388.038	366.62
388.263	376.62
388.488	366.62
388.713	356.62
388.938	350.62
389.163	355.62
389.387	353.62
389.612	358.62
389.837	341.62
390.062	329.62
390.287	351.62
390.512	339.62
390.736	361.62
390.961	367.62
391.186	355.62
391.411	351.62
391.636	385.62
391.86	391.62
392.085	394.62
392.31	394.62
392.534	375.62
392.759	370.62
392.984	354.62
393.208	379.62
393.433	376.62
393.658	360.62
393.882	356.62
394.107	358.62
394.331	376.62
394.556	375.62
394.78	373.62
395.005	383.62
395.229	348.62
395.454	362.62
395.678	382.62
395.903	393.62
396.127	407.62
396.352	396.62
396.576	375.62
396.801	365.62
397.025	378.62
397.249	390.62
397.474	401.62
397.698	404.62
397.922	383.62
398.147	420.62
398.371	423.62
398.595	410.62
398.82	413.62
399.044	440.62
399.268	457.62
399.492	479.62
399.717	533.62
399.941	551.62
400.165	514.62
400.389	514.62
400.613	460.62
400.837	414.62
401.062	426.62
401.286	414.62
401.51	411.62
401.734	418.62
401.958	435.62
402.182	435.62
402.406	412.62
402.63	445.62
402.854	412.62
403.078	433.62
403.302	442.62
403.526	431.62
403.75	457.62
403.974	433.62
404.198	469.62
404.422	447.62
404.645	443.62
404.869	458.62
405.093	473.62
405.317	486.62
405.541	508.62
405.765	457.62
405.988	464.62
406.212	471.62
406.436	450.62
406.66	502.62
406.883	477.62
407.107	487.62
407.331	512.62
407.555	539.62
407.778	533.62
408.002	541.62
408.226	477.62
408.449	472.62
408.673	452.62
408.896	488.62
409.12	502.62
409.344	479.62
409.567	438.62
409.791	443.62
410.014	433.62
410.238	437.62
410.461	466.62
410.685	449.62
410.908	461.62
411.132	471.62
411.355	474.62
411.578	477.62
411.802	421.62
412.025	442.62
412.249	436.62
412.472	435.62
412.695	451.62
412.919	470.62
413.142	440.62
413.365	425.62
413.589	411.62
413.812	415.62
414.035	418.62
414.258	409.62
414.482	431.62
414.705	407.62
414.928	414.62
415.151	431.62
415.374	412.62
415.597	409.62
415.821	421.62
416.044	398.62
416.267	425.62
416.49	411.62
416.713	411.62
416.936	415.62
417.159	396.62
417.382	421.62
417.605	438.62
417.828	423.62
418.051	439.62
418.274	423.62
418.497	406.62
418.72	421.62
418.943	425.62
419.166	439.62
419.389	454.62
419.611	458.62
419.834	451.62
420.057	417.62
420.28	419.62
420.503	447.62
420.726	433.62
420.948	432.62
421.171	459.62
421.394	462.62
421.617	417.62
421.839	425.62
422.062	417.62
422.285	452.62
422.507	465.62
422.73	495.62
422.953	476.62
423.175	433.62
423.398	444.62
423.621	442.62
423.843	459.62
424.066	436.62
424.288	436.62
424.511	446.62
424.733	491.62
424.956	531.62
425.178	493.62
425.401	493.62
425.623	485.62
425.846	456.62
426.068	432.62
426.291	413.62
426.513	420.62
426.735	412.62
426.958	465.62
427.18	492.62
427.402	568.62
427.625	595.62
427.847	519.62
428.069	473.62
428.292	442.62
428.514	407.62
428.736	390.62
428.958	399.62
429.181	406.62
429.403	382.62
429.625	408.62
429.847	406.62
430.069	428.62
430.292	439.62
430.514	417.62
430.736	399.62
430.958	403.62
431.18	372.62
431.402	378.62
431.624	387.62
431.846	378.62
432.068	377.62
432.29	404.62
432.512	380.62
432.734	394.62
432.956	394.62
433.178	388.62
433.4	387.62
433.622	386.62
433.844	381.62
434.066	397.62
434.287	390.62
434.509	401.62
434.731	401.62
434.953	405.62
435.175	417.62
435.397	445.62
435.618	431.62
435.84	434.62
436.062	482.62
436.284	500.62
436.505	447.62
436.727	405.62
436.949	400.62
437.17	403.62
437.392	379.62
437.614	406.62
437.835	422.62
438.057	454.62
438.278	481.62
438.5	505.62
438.721	531.62
438.943	535.62
439.165	438.62
439.386	415.62
439.608	430.62
439.829	417.62
440.05	433.62
440.272	452.62
440.493	440.62
440.715	408.62
440.936	403.62
441.158	413.62
441.379	402.62
441.6	417.62
441.822	426.62
442.043	455.62
442.264	502.62
442.486	497.62
442.707	470.62
442.928	439.62
443.149	421.62
443.371	446.62
443.592	472.62
443.813	538.62
444.034	574.62
444.255	483.62
444.476	477.62
444.698	444.62
444.919	446.62
445.14	588.62
445.361	517.62
445.582	489.62
445.803	492.62
446.024	518.62
446.245	503.62
446.466	512.62
446.687	443.62
446.908	426.62
447.129	411.62
447.35	398.62
447.571	389.62
447.792	395.62
448.013	400.62
448.234	383.62
448.455	428.62
448.675	489.62
448.896	528.62
449.117	446.62
449.338	441.62
449.559	507.62
449.779	557.62
450	452.62
450.221	389.62
450.442	392.62
450.662	378.62
450.883	375.62
451.104	391.62
451.324	381.62
451.545	367.62
451.766	353.62
451.986	350.62
452.207	363.62
452.428	343.62
452.648	365.62
452.869	373.62
453.089	359.62
453.31	375.62
453.53	355.62
453.751	344.62
453.971	345.62
454.192	371.62
454.412	357.62
454.633	337.62
454.853	340.62
455.073	350.62
455.294	370.62
455.514	402.62
455.734	384.62
455.955	343.62
456.175	342.62
456.395	342.62
456.616	349.62
456.836	349.62
457.056	349.62
457.276	335.62
457.497	341.62
457.717	331.62
457.937	366.62
458.157	349.62
458.377	343.62
458.598	351.62
458.818	374.62
459.038	435.62
459.258	451.62
459.478	387.62
459.698	389.62
459.918	387.62
460.138	397.62
460.358	414.62
460.578	413.62
460.798	422.62
461.018	395.62
461.238	431.62
461.458	432.62
461.678	421.62
461.898	426.62
462.118	409.62
462.338	422.62
462.558	440.62
462.777	457.62
462.997	461.62
463.217	489.62
463.437	488.62
463.657	468.62
463.876	461.62
464.096	454.62
464.316	456.62
464.536	463.62
464.755	462.62
464.975	433.62
465.195	451.62
465.414	486.62
465.634	424.62
465.854	405.62
466.073	398.62
466.293	381.62
466.512	399.62
466.732	379.62
466.951	358.62
467.171	379.62
467.391	340.62
467.61	377.62
467.829	381.62
468.049	387.62
468.268	397.62
468.488	380.62
468.707	356.62
468.927	371.62
469.146	361.62
469.365	381.62
469.585	348.62
469.804	349.62
470.023	375.62
470.243	394.62
470.462	381.62
470.681	397.62
470.901	375.62
471.12	417.62
471.339	376.62
471.558	381.62
471.777	374.62
471.997	365.62
472.216	375.62
472.435	377.62
472.654	368.62
472.873	396.62
473.092	386.62
473.311	400.62
473.53	360.62
473.749	363.62
473.968	405.62
474.187	428.62
474.406	436.62
474.625	388.62
474.844	371.62
475.063	374.62
475.282	372.62
475.501	378.62
475.72	396.62
475.939	354.62
476.158	356.62
476.377	386.62
476.596	378.62
476.814	395.62
477.033	379.62
477.252	391.62
477.471	401.62
477.69	402.62
477.908	425.62
478.127	404.62
478.346	411.62
478.564	426.62
478.783	427.62
479.002	445.62
479.22	419.62
479.439	453.62
479.658	441.62
479.876	438.62
480.095	462.62
480.313	469.62
480.532	460.62
480.751	471.62
480.969	459.62
481.188	487.62
481.406	491.62
481.624	444.62
481.843	427.62
482.061	418.62
482.28	457.62
482.498	430.62
482.717	426.62
482.935	427.62
483.153	444.62
483.372	451.62
483.59	448.62
483.808	416.62
484.027	425.62
484.245	423.62
484.463	437.62
484.681	434.62
484.9	419.62
485.118	413.62
485.336	396.62
485.554	433.62
485.772	449.62
485.99	450.62
486.209	451.62
486.427	420.62
486.645	430.62
486.863	460.62
487.081	463.62
487.299	438.62
487.517	449.62
487.735	441.62
487.953	448.62
488.171	460.62
488.389	442.62
488.607	464.62
488.825	461.62
489.043	450.62
489.261	437.62
489.479	459.62
489.696	465.62
489.914	461.62
490.132	472.62
490.35	467.62
490.568	478.62
490.786	478.62
491.003	490.62
491.221	488.62
491.439	484.62
491.657	506.62
491.874	517.62
492.092	507.62
492.31	510.62
492.527	517.62
492.745	536.62
492.963	511.62
493.18	514.62
493.398	522.62
493.615	530.62
493.833	531.62
494.05	536.62
494.268	539.62
494.485	532.62
494.703	533.62
494.92	534.62
495.138	523.62
495.355	520.62
495.573	517.62
495.79	533.62
496.008	523.62
496.225	534.62
496.442	529.62
496.66	537.62
496.877	548.62
497.094	547.62
497.312	542.62
497.529	545.62
497.746	547.62
497.963	595.62
498.181	588.62
498.398	597.62
498.615	609.62
498.832	631.62
499.049	683.62
499.267	674.62
499.484	730.62
499.701	757.62
499.918	823.62
500.135	874.62
500.352	938.62
500.569	971.62
500.786	954.62
501.003	882.62
501.22	879.62
501.437	825.62
501.654	756.62
501.871	718.62
502.088	691.62
