Data from 1969.PennyLincolnUp.Lamp.En5.5.200Scan.071719.P1._HRD10591_14-55-54-972.txt Node
Date: Thu Jul 18 14:55:54 EDT 2019
User: cochatt
Spectrometer: HR+D1059
Trigger mode: 1
Integration Time (sec): 1.000000E-1
Scans to average: 1
Electric dark correction enabled: true
Nonlinearity correction enabled: false
Boxcar width: 0
XAxis mode: Wavelengths
Number of Pixels in Spectrum: 2048
>>>>>Begin Spectral Data<<<<<
223.165	-13.69
223.4	-13.69
223.635	-13.69
223.869	-22.69
224.104	-17.69
224.338	-21.69
224.573	-8.69
224.808	-8.69
225.042	-12.69
225.277	-13.69
225.511	5.31
225.746	20.31
225.98	3.31
226.215	12.31
226.449	5.31
226.683	15.31
226.918	29.31
227.152	28.31
227.387	30.31
227.621	37.31
227.856	36.31
228.09	42.31
228.324	44.31
228.559	49.31
228.793	61.31
229.027	76.31
229.262	90.31
229.496	93.31
229.73	93.31
229.964	132.31
230.199	114.31
230.433	96.31
230.667	87.31
230.901	106.31
231.136	104.31
231.37	101.31
231.604	108.31
231.838	116.31
232.072	109.31
232.306	110.31
232.541	117.31
232.775	106.31
233.009	101.31
233.243	105.31
233.477	106.31
233.711	103.31
233.945	107.31
234.179	102.31
234.413	115.31
234.647	99.31
234.881	109.31
235.115	116.31
235.349	123.31
235.583	104.31
235.817	107.31
236.051	100.31
236.285	112.31
236.519	119.31
236.753	105.31
236.987	129.31
237.221	142.31
237.455	161.31
237.689	136.31
237.922	124.31
238.156	126.31
238.39	105.31
238.624	125.31
238.858	100.31
239.091	94.31
239.325	108.31
239.559	122.31
239.793	115.31
240.027	120.31
240.26	126.31
240.494	132.31
240.728	136.31
240.961	129.31
241.195	134.31
241.429	122.31
241.662	119.31
241.896	118.31
242.13	117.31
242.363	125.31
242.597	114.31
242.83	126.31
243.064	119.31
243.298	127.31
243.531	132.31
243.765	129.31
243.998	129.31
244.232	146.31
244.465	125.31
244.699	144.31
244.932	127.31
245.166	119.31
245.399	117.31
245.633	131.31
245.866	127.31
246.099	137.31
246.333	146.31
246.566	127.31
246.8	132.31
247.033	131.31
247.266	136.31
247.5	134.31
247.733	145.31
247.966	131.31
248.2	151.31
248.433	140.31
248.666	150.31
248.899	160.31
249.133	158.31
249.366	165.31
249.599	153.31
249.832	146.31
250.066	160.31
250.299	158.31
250.532	165.31
250.765	174.31
250.998	181.31
251.231	181.31
251.465	177.31
251.698	190.31
251.931	161.31
252.164	145.31
252.397	166.31
252.63	156.31
252.863	171.31
253.096	178.31
253.329	188.31
253.562	185.31
253.795	186.31
254.028	172.31
254.261	198.31
254.494	190.31
254.727	207.31
254.96	217.31
255.193	219.31
255.426	197.31
255.659	186.31
255.892	201.31
256.124	183.31
256.357	182.31
256.59	184.31
256.823	167.31
257.056	179.31
257.289	172.31
257.521	175.31
257.754	171.31
257.987	175.31
258.22	176.31
258.452	176.31
258.685	174.31
258.918	185.31
259.151	170.31
259.383	164.31
259.616	166.31
259.849	183.31
260.081	191.31
260.314	202.31
260.547	205.31
260.779	200.31
261.012	198.31
261.244	176.31
261.477	185.31
261.71	191.31
261.942	188.31
262.175	169.31
262.407	194.31
262.64	186.31
262.872	191.31
263.105	192.31
263.337	174.31
263.57	179.31
263.802	182.31
264.035	192.31
264.267	193.31
264.499	187.31
264.732	177.31
264.964	182.31
265.197	183.31
265.429	181.31
265.661	185.31
265.894	181.31
266.126	189.31
266.358	207.31
266.591	199.31
266.823	189.31
267.055	193.31
267.287	191.31
267.52	203.31
267.752	200.31
267.984	192.31
268.216	210.31
268.448	192.31
268.681	198.31
268.913	202.31
269.145	228.31
269.377	219.31
269.609	225.31
269.841	226.31
270.073	214.31
270.306	241.31
270.538	259.31
270.77	256.31
271.002	245.31
271.234	234.31
271.466	237.31
271.698	234.31
271.93	251.31
272.162	250.31
272.394	237.31
272.626	253.31
272.858	232.31
273.09	244.31
273.322	227.31
273.553	217.31
273.785	208.31
274.017	218.31
274.249	217.31
274.481	217.31
274.713	227.31
274.945	233.31
275.176	218.31
275.408	225.31
275.64	233.31
275.872	210.31
276.104	233.31
276.335	231.31
276.567	234.31
276.799	235.31
277.031	242.31
277.262	257.31
277.494	263.31
277.726	237.31
277.957	243.31
278.189	229.31
278.421	230.31
278.652	215.31
278.884	225.31
279.115	217.31
279.347	233.31
279.579	256.31
279.81	240.31
280.042	247.31
280.273	230.31
280.505	236.31
280.736	233.31
280.968	234.31
281.199	243.31
281.431	235.31
281.662	244.31
281.894	229.31
282.125	250.31
282.356	233.31
282.588	263.31
282.819	246.31
283.051	246.31
283.282	217.31
283.513	245.31
283.745	248.31
283.976	241.31
284.207	238.31
284.439	261.31
284.67	234.31
284.901	240.31
285.132	244.31
285.364	243.31
285.595	243.31
285.826	244.31
286.057	242.31
286.288	249.31
286.52	263.31
286.751	246.31
286.982	234.31
287.213	244.31
287.444	271.31
287.675	271.31
287.906	280.31
288.138	268.31
288.369	276.31
288.6	250.31
288.831	245.31
289.062	254.31
289.293	260.31
289.524	263.31
289.755	269.31
289.986	273.31
290.217	280.31
290.448	260.31
290.679	244.31
290.91	250.31
291.141	257.31
291.371	245.31
291.602	252.31
291.833	248.31
292.064	250.31
292.295	273.31
292.526	263.31
292.757	255.31
292.987	264.31
293.218	269.31
293.449	248.31
293.68	255.31
293.91	243.31
294.141	268.31
294.372	268.31
294.603	266.31
294.833	250.31
295.064	274.31
295.295	258.31
295.525	277.31
295.756	269.31
295.987	261.31
296.217	270.31
296.448	281.31
296.679	267.31
296.909	279.31
297.14	276.31
297.37	263.31
297.601	258.31
297.831	279.31
298.062	269.31
298.292	281.31
298.523	277.31
298.753	264.31
298.984	277.31
299.214	277.31
299.445	287.31
299.675	275.31
299.905	285.31
300.136	282.31
300.366	290.31
300.597	296.31
300.827	290.31
301.057	299.31
301.288	302.31
301.518	291.31
301.748	281.31
301.979	303.31
302.209	282.31
302.439	297.31
302.669	294.31
302.9	296.31
303.13	298.31
303.36	292.31
303.59	279.31
303.82	312.31
304.051	289.31
304.281	286.31
304.511	309.31
304.741	286.31
304.971	293.31
305.201	287.31
305.431	297.31
305.661	297.31
305.891	281.31
306.121	296.31
306.352	285.31
306.582	286.31
306.812	306.31
307.042	284.31
307.272	293.31
307.502	298.31
307.731	305.31
307.961	286.31
308.191	312.31
308.421	298.31
308.651	286.31
308.881	290.31
309.111	284.31
309.341	300.31
309.571	308.31
309.8	306.31
310.03	290.31
310.26	307.31
310.49	304.31
310.72	309.31
310.949	323.31
311.179	329.31
311.409	321.31
311.639	322.31
311.868	309.31
312.098	311.31
312.328	327.31
312.557	336.31
312.787	323.31
313.017	310.31
313.246	327.31
313.476	332.31
313.706	323.31
313.935	331.31
314.165	335.31
314.394	345.31
314.624	355.31
314.853	335.31
315.083	322.31
315.312	320.31
315.542	314.31
315.771	326.31
316.001	307.31
316.23	298.31
316.46	312.31
316.689	335.31
316.919	332.31
317.148	330.31
317.377	324.31
317.607	321.31
317.836	325.31
318.065	332.31
318.295	312.31
318.524	315.31
318.753	322.31
318.983	321.31
319.212	321.31
319.441	319.31
319.67	329.31
319.9	311.31
320.129	320.31
320.358	331.31
320.587	324.31
320.816	333.31
321.046	317.31
321.275	331.31
321.504	316.31
321.733	350.31
321.962	317.31
322.191	330.31
322.42	347.31
322.649	341.31
322.878	349.31
323.108	345.31
323.337	365.31
323.566	377.31
323.795	395.31
324.024	395.31
324.253	465.31
324.482	629.31
324.71	878.31
324.939	1184.31
325.168	966.31
325.397	589.31
325.626	418.31
325.855	411.31
326.084	379.31
326.313	391.31
326.542	366.31
326.77	406.31
326.999	434.31
327.228	562.31
327.457	783.31
327.686	889.31
327.914	621.31
328.143	469.31
328.372	441.31
328.6	433.31
328.829	403.31
329.058	405.31
329.287	427.31
329.515	414.31
329.744	386.31
329.972	397.31
330.201	405.31
330.43	430.31
330.658	435.31
330.887	441.31
331.115	430.31
331.344	411.31
331.572	385.31
331.801	404.31
332.03	381.31
332.258	402.31
332.486	385.31
332.715	393.31
332.943	384.31
333.172	406.31
333.4	397.31
333.629	421.31
333.857	434.31
334.085	422.31
334.314	429.31
334.542	471.31
334.771	461.31
334.999	420.31
335.227	386.31
335.455	392.31
335.684	398.31
335.912	391.31
336.14	413.31
336.369	379.31
336.597	396.31
336.825	362.31
337.053	389.31
337.281	387.31
337.51	391.31
337.738	381.31
337.966	372.31
338.194	373.31
338.422	391.31
338.65	361.31
338.878	359.31
339.106	386.31
339.334	386.31
339.562	366.31
339.79	344.31
340.018	372.31
340.246	353.31
340.474	377.31
340.702	361.31
340.93	363.31
341.158	357.31
341.386	356.31
341.614	366.31
341.842	353.31
342.07	348.31
342.298	347.31
342.526	352.31
342.754	349.31
342.981	350.31
343.209	358.31
343.437	351.31
343.665	368.31
343.893	375.31
344.12	381.31
344.348	381.31
344.576	378.31
344.804	382.31
345.031	378.31
345.259	361.31
345.487	369.31
345.714	356.31
345.942	341.31
346.17	321.31
346.397	325.31
346.625	351.31
346.853	353.31
347.08	343.31
347.308	353.31
347.535	360.31
347.763	340.31
347.99	350.31
348.218	343.31
348.445	353.31
348.673	348.31
348.9	337.31
349.128	351.31
349.355	337.31
349.583	326.31
349.81	328.31
350.037	323.31
350.265	333.31
350.492	332.31
350.72	340.31
350.947	345.31
351.174	353.31
351.402	337.31
351.629	346.31
351.856	342.31
352.083	340.31
352.311	371.31
352.538	331.31
352.765	347.31
352.992	340.31
353.22	332.31
353.447	335.31
353.674	326.31
353.901	325.31
354.128	330.31
354.355	326.31
354.583	326.31
354.81	333.31
355.037	340.31
355.264	305.31
355.491	326.31
355.718	325.31
355.945	317.31
356.172	318.31
356.399	313.31
356.626	318.31
356.853	321.31
357.08	317.31
357.307	314.31
357.534	313.31
357.761	313.31
357.988	322.31
358.215	335.31
358.441	330.31
358.668	326.31
358.895	332.31
359.122	321.31
359.349	327.31
359.576	326.31
359.802	343.31
360.029	353.31
360.256	386.31
360.483	355.31
360.709	349.31
360.936	358.31
361.163	329.31
361.39	359.31
361.616	334.31
361.843	355.31
362.07	335.31
362.296	340.31
362.523	329.31
362.749	331.31
362.976	322.31
363.203	324.31
363.429	343.31
363.656	335.31
363.882	332.31
364.109	310.31
364.335	322.31
364.562	326.31
364.788	329.31
365.015	342.31
365.241	323.31
365.468	332.31
365.694	334.31
365.92	344.31
366.147	334.31
366.373	322.31
366.599	322.31
366.826	314.31
367.052	329.31
367.278	353.31
367.505	332.31
367.731	323.31
367.957	325.31
368.184	323.31
368.41	322.31
368.636	328.31
368.862	342.31
369.089	339.31
369.315	317.31
369.541	341.31
369.767	335.31
369.993	351.31
370.219	322.31
370.445	325.31
370.672	333.31
370.898	341.31
371.124	315.31
371.35	335.31
371.576	339.31
371.802	324.31
372.028	342.31
372.254	324.31
372.48	343.31
372.706	350.31
372.932	350.31
373.158	336.31
373.384	330.31
373.61	326.31
373.835	328.31
374.061	346.31
374.287	344.31
374.513	339.31
374.739	354.31
374.965	361.31
375.191	363.31
375.416	362.31
375.642	334.31
375.868	312.31
376.094	339.31
376.319	321.31
376.545	333.31
376.771	334.31
376.997	329.31
377.222	305.31
377.448	342.31
377.674	325.31
377.899	329.31
378.125	348.31
378.35	331.31
378.576	333.31
378.802	321.31
379.027	340.31
379.253	330.31
379.478	329.31
379.704	335.31
379.929	329.31
380.155	334.31
380.38	339.31
380.606	338.31
380.831	318.31
381.057	331.31
381.282	316.31
381.507	333.31
381.733	344.31
381.958	336.31
382.184	347.31
382.409	324.31
382.634	339.31
382.86	344.31
383.085	343.31
383.31	363.31
383.535	334.31
383.761	342.31
383.986	346.31
384.211	353.31
384.436	356.31
384.662	372.31
384.887	350.31
385.112	350.31
385.337	368.31
385.562	383.31
385.787	381.31
386.013	358.31
386.238	343.31
386.463	360.31
386.688	366.31
386.913	357.31
387.138	361.31
387.363	355.31
387.588	360.31
387.813	363.31
388.038	348.31
388.263	366.31
388.488	361.31
388.713	360.31
388.938	353.31
389.163	355.31
389.387	377.31
389.612	363.31
389.837	361.31
390.062	360.31
390.287	378.31
390.512	350.31
390.736	360.31
390.961	381.31
391.186	363.31
391.411	374.31
391.636	403.31
391.86	380.31
392.085	410.31
392.31	387.31
392.534	377.31
392.759	373.31
392.984	379.31
393.208	378.31
393.433	363.31
393.658	381.31
393.882	373.31
394.107	391.31
394.331	385.31
394.556	359.31
394.78	381.31
395.005	391.31
395.229	383.31
395.454	392.31
395.678	380.31
395.903	395.31
396.127	422.31
396.352	403.31
396.576	381.31
396.801	379.31
397.025	365.31
397.249	381.31
397.474	396.31
397.698	388.31
397.922	416.31
398.147	419.31
398.371	397.31
398.595	434.31
398.82	431.31
399.044	446.31
399.268	474.31
399.492	527.31
399.717	537.31
399.941	568.31
400.165	549.31
400.389	529.31
400.613	493.31
400.837	443.31
401.062	446.31
401.286	459.31
401.51	429.31
401.734	421.31
401.958	434.31
402.182	437.31
402.406	449.31
402.63	446.31
402.854	445.31
403.078	441.31
403.302	473.31
403.526	453.31
403.75	473.31
403.974	487.31
404.198	465.31
404.422	474.31
404.645	479.31
404.869	469.31
405.093	459.31
405.317	518.31
405.541	525.31
405.765	479.31
405.988	488.31
406.212	472.31
406.436	502.31
406.66	490.31
406.883	484.31
407.107	503.31
407.331	555.31
407.555	578.31
407.778	575.31
408.002	517.31
408.226	498.31
408.449	515.31
408.673	489.31
408.896	498.31
409.12	508.31
409.344	480.31
409.567	464.31
409.791	454.31
410.014	452.31
410.238	463.31
410.461	458.31
410.685	428.31
410.908	451.31
411.132	469.31
411.355	491.31
411.578	478.31
411.802	460.31
412.025	429.31
412.249	442.31
412.472	463.31
412.695	485.31
412.919	461.31
413.142	459.31
413.365	442.31
413.589	432.31
413.812	437.31
414.035	445.31
414.258	424.31
414.482	427.31
414.705	415.31
414.928	451.31
415.151	430.31
415.374	421.31
415.597	427.31
415.821	419.31
416.044	418.31
416.267	430.31
416.49	441.31
416.713	412.31
416.936	414.31
417.159	390.31
417.382	430.31
417.605	447.31
417.828	427.31
418.051	445.31
418.274	461.31
418.497	448.31
418.72	433.31
418.943	433.31
419.166	450.31
419.389	453.31
419.611	473.31
419.834	467.31
420.057	475.31
420.28	437.31
420.503	446.31
420.726	428.31
420.948	441.31
421.171	474.31
421.394	471.31
421.617	450.31
421.839	430.31
422.062	436.31
422.285	453.31
422.507	489.31
422.73	503.31
422.953	493.31
423.175	468.31
423.398	446.31
423.621	467.31
423.843	499.31
424.066	463.31
424.288	460.31
424.511	500.31
424.733	494.31
424.956	558.31
425.178	520.31
425.401	526.31
425.623	521.31
425.846	462.31
426.068	437.31
426.291	433.31
426.513	455.31
426.735	457.31
426.958	458.31
427.18	503.31
427.402	597.31
427.625	610.31
427.847	552.31
428.069	489.31
428.292	462.31
428.514	412.31
428.736	415.31
428.958	420.31
429.181	408.31
429.403	409.31
429.625	422.31
429.847	438.31
430.069	441.31
430.292	440.31
430.514	424.31
430.736	414.31
430.958	422.31
431.18	389.31
431.402	410.31
431.624	387.31
431.846	411.31
432.068	405.31
432.29	402.31
432.512	390.31
432.734	408.31
432.956	413.31
433.178	406.31
433.4	410.31
433.622	411.31
433.844	390.31
434.066	405.31
434.287	418.31
434.509	410.31
434.731	423.31
434.953	411.31
435.175	430.31
435.397	443.31
435.618	445.31
435.84	483.31
436.062	492.31
436.284	528.31
436.505	460.31
436.727	419.31
436.949	398.31
437.17	409.31
437.392	423.31
437.614	417.31
437.835	433.31
438.057	498.31
438.278	525.31
438.5	548.31
438.721	565.31
438.943	535.31
439.165	463.31
439.386	441.31
439.608	428.31
439.829	439.31
440.05	449.31
440.272	465.31
440.493	460.31
440.715	443.31
440.936	434.31
441.158	425.31
441.379	426.31
441.6	444.31
441.822	431.31
442.043	457.31
442.264	517.31
442.486	517.31
442.707	468.31
442.928	470.31
443.149	455.31
443.371	485.31
443.592	515.31
443.813	573.31
444.034	575.31
444.255	506.31
444.476	486.31
444.698	510.31
444.919	505.31
445.14	584.31
445.361	527.31
445.582	500.31
445.803	553.31
446.024	564.31
446.245	546.31
446.466	521.31
446.687	469.31
446.908	451.31
447.129	425.31
447.35	411.31
447.571	411.31
447.792	385.31
448.013	406.31
448.234	435.31
448.455	463.31
448.675	514.31
448.896	575.31
449.117	479.31
449.338	474.31
449.559	548.31
449.779	572.31
450	484.31
450.221	434.31
450.442	419.31
450.662	406.31
450.883	401.31
451.104	407.31
451.324	413.31
451.545	386.31
451.766	393.31
451.986	369.31
452.207	379.31
452.428	358.31
452.648	376.31
452.869	371.31
453.089	393.31
453.31	374.31
453.53	388.31
453.751	366.31
453.971	381.31
454.192	389.31
454.412	388.31
454.633	354.31
454.853	351.31
455.073	377.31
455.294	390.31
455.514	403.31
455.734	405.31
455.955	363.31
456.175	358.31
456.395	349.31
456.616	330.31
456.836	356.31
457.056	352.31
457.276	349.31
457.497	352.31
457.717	355.31
457.937	345.31
458.157	346.31
458.377	365.31
458.598	387.31
458.818	403.31
459.038	479.31
459.258	492.31
459.478	421.31
459.698	407.31
459.918	410.31
460.138	419.31
460.358	429.31
460.578	423.31
460.798	429.31
461.018	427.31
461.238	429.31
461.458	425.31
461.678	420.31
461.898	425.31
462.118	437.31
462.338	460.31
462.558	468.31
462.777	452.31
462.997	483.31
463.217	503.31
463.437	513.31
463.657	473.31
463.876	467.31
464.096	470.31
464.316	476.31
464.536	473.31
464.755	472.31
464.975	469.31
465.195	469.31
465.414	511.31
465.634	459.31
465.854	429.31
466.073	427.31
466.293	390.31
466.512	382.31
466.732	387.31
466.951	385.31
467.171	401.31
467.391	387.31
467.61	389.31
467.829	379.31
468.049	394.31
468.268	405.31
468.488	373.31
468.707	387.31
468.927	385.31
469.146	381.31
469.365	392.31
469.585	372.31
469.804	375.31
470.023	397.31
470.243	387.31
470.462	392.31
470.681	423.31
470.901	399.31
471.12	414.31
471.339	402.31
471.558	395.31
471.777	381.31
471.997	394.31
472.216	382.31
472.435	400.31
472.654	417.31
472.873	370.31
473.092	374.31
473.311	374.31
473.53	372.31
473.749	381.31
473.968	393.31
474.187	470.31
474.406	455.31
474.625	415.31
474.844	386.31
475.063	387.31
475.282	390.31
475.501	366.31
475.72	375.31
475.939	375.31
476.158	375.31
476.377	378.31
476.596	398.31
476.814	386.31
477.033	400.31
477.252	412.31
477.471	406.31
477.69	426.31
477.908	401.31
478.127	454.31
478.346	442.31
478.564	451.31
478.783	430.31
479.002	441.31
479.22	439.31
479.439	470.31
479.658	448.31
479.876	474.31
480.095	467.31
480.313	491.31
480.532	476.31
480.751	479.31
480.969	500.31
481.188	524.31
481.406	519.31
481.624	470.31
481.843	456.31
482.061	443.31
482.28	442.31
482.498	434.31
482.717	446.31
482.935	439.31
483.153	430.31
483.372	430.31
483.59	452.31
483.808	452.31
484.027	427.31
484.245	440.31
484.463	433.31
484.681	462.31
484.9	447.31
485.118	454.31
485.336	455.31
485.554	454.31
485.772	444.31
485.99	463.31
486.209	449.31
486.427	469.31
486.645	460.31
486.863	467.31
487.081	482.31
487.299	474.31
487.517	477.31
487.735	470.31
487.953	458.31
488.171	490.31
488.389	458.31
488.607	474.31
488.825	478.31
489.043	463.31
489.261	491.31
489.479	475.31
489.696	478.31
489.914	486.31
490.132	491.31
490.35	492.31
490.568	502.31
490.786	523.31
491.003	499.31
491.221	501.31
491.439	520.31
491.657	547.31
491.874	515.31
492.092	541.31
492.31	563.31
492.527	587.31
492.745	547.31
492.963	555.31
493.18	563.31
493.398	549.31
493.615	518.31
493.833	551.31
494.05	536.31
494.268	557.31
494.485	556.31
494.703	535.31
494.92	557.31
495.138	565.31
495.355	554.31
495.573	545.31
495.79	592.31
496.008	563.31
496.225	564.31
496.442	550.31
496.66	556.31
496.877	540.31
497.094	548.31
497.312	575.31
497.529	599.31
497.746	598.31
497.963	587.31
498.181	613.31
498.398	646.31
498.615	648.31
498.832	648.31
499.049	663.31
499.267	713.31
499.484	750.31
499.701	802.31
499.918	841.31
500.135	907.31
500.352	973.31
500.569	1003.31
500.786	968.31
501.003	942.31
501.22	932.31
501.437	854.31
501.654	792.31
501.871	761.31
502.088	726.31
