Data from 1969.PennyLincolnUp.Lamp.En5.5.200Scan.071719.P1._HRD10591_14-56-52-972.txt Node
Date: Thu Jul 18 14:56:52 EDT 2019
User: cochatt
Spectrometer: HR+D1059
Trigger mode: 1
Integration Time (sec): 1.000000E-1
Scans to average: 1
Electric dark correction enabled: true
Nonlinearity correction enabled: false
Boxcar width: 0
XAxis mode: Wavelengths
Number of Pixels in Spectrum: 2048
>>>>>Begin Spectral Data<<<<<
223.165	-9.25
223.4	-9.25
223.635	-9.25
223.869	-5.25
224.104	-10.25
224.338	-11.25
224.573	-3.25
224.808	-8.25
225.042	5.75
225.277	-7.25
225.511	-0.25
225.746	-12.25
225.98	1.75
226.215	-9.25
226.449	8.75
226.683	14.75
226.918	19.75
227.152	25.75
227.387	27.75
227.621	32.75
227.856	58.75
228.09	46.75
228.324	45.75
228.559	69.75
228.793	72.75
229.027	86.75
229.262	106.75
229.496	94.75
229.73	121.75
229.964	146.75
230.199	104.75
230.433	100.75
230.667	101.75
230.901	105.75
231.136	100.75
231.37	92.75
231.604	91.75
231.838	115.75
232.072	104.75
232.306	105.75
232.541	91.75
232.775	106.75
233.009	97.75
233.243	110.75
233.477	115.75
233.711	112.75
233.945	121.75
234.179	101.75
234.413	115.75
234.647	109.75
234.881	124.75
235.115	102.75
235.349	106.75
235.583	95.75
235.817	110.75
236.051	129.75
236.285	118.75
236.519	123.75
236.753	123.75
236.987	125.75
237.221	135.75
237.455	184.75
237.689	140.75
237.922	128.75
238.156	119.75
238.39	117.75
238.624	109.75
238.858	118.75
239.091	112.75
239.325	110.75
239.559	122.75
239.793	105.75
240.027	122.75
240.26	122.75
240.494	124.75
240.728	139.75
240.961	137.75
241.195	135.75
241.429	125.75
241.662	112.75
241.896	117.75
242.13	118.75
242.363	121.75
242.597	131.75
242.83	125.75
243.064	127.75
243.298	128.75
243.531	123.75
243.765	139.75
243.998	123.75
244.232	126.75
244.465	115.75
244.699	122.75
244.932	121.75
245.166	132.75
245.399	123.75
245.633	146.75
245.866	125.75
246.099	145.75
246.333	124.75
246.566	134.75
246.8	127.75
247.033	130.75
247.266	136.75
247.5	154.75
247.733	157.75
247.966	143.75
248.2	147.75
248.433	150.75
248.666	163.75
248.899	151.75
249.133	162.75
249.366	172.75
249.599	170.75
249.832	161.75
250.066	161.75
250.299	171.75
250.532	171.75
250.765	196.75
250.998	200.75
251.231	173.75
251.465	170.75
251.698	161.75
251.931	173.75
252.164	173.75
252.397	168.75
252.63	176.75
252.863	168.75
253.096	160.75
253.329	183.75
253.562	165.75
253.795	171.75
254.028	177.75
254.261	186.75
254.494	182.75
254.727	215.75
254.96	201.75
255.193	205.75
255.426	202.75
255.659	180.75
255.892	196.75
256.124	191.75
256.357	198.75
256.59	182.75
256.823	188.75
257.056	197.75
257.289	186.75
257.521	185.75
257.754	179.75
257.987	169.75
258.22	180.75
258.452	177.75
258.685	187.75
258.918	178.75
259.151	172.75
259.383	185.75
259.616	184.75
259.849	197.75
260.081	203.75
260.314	221.75
260.547	188.75
260.779	207.75
261.012	205.75
261.244	182.75
261.477	202.75
261.71	175.75
261.942	185.75
262.175	189.75
262.407	199.75
262.64	197.75
262.872	184.75
263.105	182.75
263.337	194.75
263.57	192.75
263.802	173.75
264.035	189.75
264.267	185.75
264.499	189.75
264.732	176.75
264.964	192.75
265.197	190.75
265.429	166.75
265.661	176.75
265.894	196.75
266.126	204.75
266.358	189.75
266.591	176.75
266.823	203.75
267.055	180.75
267.287	198.75
267.52	195.75
267.752	195.75
267.984	194.75
268.216	185.75
268.448	198.75
268.681	195.75
268.913	228.75
269.145	214.75
269.377	240.75
269.609	225.75
269.841	235.75
270.073	224.75
270.306	244.75
270.538	252.75
270.77	251.75
271.002	252.75
271.234	249.75
271.466	254.75
271.698	274.75
271.93	243.75
272.162	258.75
272.394	271.75
272.626	262.75
272.858	244.75
273.09	228.75
273.322	230.75
273.553	243.75
273.785	214.75
274.017	208.75
274.249	220.75
274.481	221.75
274.713	223.75
274.945	228.75
275.176	238.75
275.408	233.75
275.64	246.75
275.872	224.75
276.104	219.75
276.335	225.75
276.567	236.75
276.799	241.75
277.031	262.75
277.262	265.75
277.494	269.75
277.726	249.75
277.957	237.75
278.189	243.75
278.421	232.75
278.652	240.75
278.884	229.75
279.115	220.75
279.347	221.75
279.579	221.75
279.81	244.75
280.042	223.75
280.273	230.75
280.505	219.75
280.736	231.75
280.968	228.75
281.199	222.75
281.431	241.75
281.662	228.75
281.894	252.75
282.125	252.75
282.356	242.75
282.588	256.75
282.819	257.75
283.051	256.75
283.282	239.75
283.513	234.75
283.745	245.75
283.976	256.75
284.207	252.75
284.439	234.75
284.67	251.75
284.901	243.75
285.132	262.75
285.364	249.75
285.595	257.75
285.826	242.75
286.057	254.75
286.288	240.75
286.52	266.75
286.751	248.75
286.982	266.75
287.213	249.75
287.444	270.75
287.675	250.75
287.906	261.75
288.138	268.75
288.369	266.75
288.6	270.75
288.831	251.75
289.062	260.75
289.293	264.75
289.524	267.75
289.755	265.75
289.986	265.75
290.217	276.75
290.448	241.75
290.679	269.75
290.91	262.75
291.141	248.75
291.371	257.75
291.602	253.75
291.833	251.75
292.064	255.75
292.295	269.75
292.526	274.75
292.757	260.75
292.987	256.75
293.218	268.75
293.449	262.75
293.68	254.75
293.91	285.75
294.141	251.75
294.372	270.75
294.603	253.75
294.833	257.75
295.064	252.75
295.295	268.75
295.525	252.75
295.756	266.75
295.987	273.75
296.217	274.75
296.448	286.75
296.679	261.75
296.909	271.75
297.14	267.75
297.37	276.75
297.601	261.75
297.831	273.75
298.062	275.75
298.292	280.75
298.523	300.75
298.753	276.75
298.984	279.75
299.214	263.75
299.445	281.75
299.675	285.75
299.905	288.75
300.136	289.75
300.366	280.75
300.597	286.75
300.827	285.75
301.057	279.75
301.288	306.75
301.518	284.75
301.748	294.75
301.979	305.75
302.209	277.75
302.439	302.75
302.669	294.75
302.9	305.75
303.13	284.75
303.36	293.75
303.59	290.75
303.82	297.75
304.051	314.75
304.281	298.75
304.511	290.75
304.741	282.75
304.971	284.75
305.201	292.75
305.431	277.75
305.661	295.75
305.891	278.75
306.121	286.75
306.352	293.75
306.582	293.75
306.812	292.75
307.042	281.75
307.272	268.75
307.502	292.75
307.731	298.75
307.961	314.75
308.191	288.75
308.421	279.75
308.651	290.75
308.881	294.75
309.111	274.75
309.341	275.75
309.571	305.75
309.8	292.75
310.03	317.75
310.26	313.75
310.49	310.75
310.72	323.75
310.949	336.75
311.179	325.75
311.409	313.75
311.639	314.75
311.868	325.75
312.098	324.75
312.328	335.75
312.557	339.75
312.787	348.75
313.017	330.75
313.246	333.75
313.476	321.75
313.706	317.75
313.935	320.75
314.165	346.75
314.394	335.75
314.624	331.75
314.853	320.75
315.083	326.75
315.312	334.75
315.542	322.75
315.771	325.75
316.001	324.75
316.23	313.75
316.46	317.75
316.689	328.75
316.919	330.75
317.148	346.75
317.377	319.75
317.607	331.75
317.836	310.75
318.065	321.75
318.295	325.75
318.524	328.75
318.753	321.75
318.983	336.75
319.212	333.75
319.441	336.75
319.67	333.75
319.9	317.75
320.129	329.75
320.358	331.75
320.587	318.75
320.816	333.75
321.046	339.75
321.275	337.75
321.504	340.75
321.733	344.75
321.962	338.75
322.191	338.75
322.42	353.75
322.649	339.75
322.878	352.75
323.108	362.75
323.337	365.75
323.566	381.75
323.795	389.75
324.024	413.75
324.253	502.75
324.482	637.75
324.71	938.75
324.939	1252.75
325.168	1012.75
325.397	560.75
325.626	462.75
325.855	400.75
326.084	390.75
326.313	402.75
326.542	392.75
326.77	406.75
326.999	463.75
327.228	599.75
327.457	841.75
327.686	955.75
327.914	645.75
328.143	481.75
328.372	440.75
328.6	436.75
328.829	416.75
329.058	428.75
329.287	427.75
329.515	429.75
329.744	407.75
329.972	395.75
330.201	424.75
330.43	449.75
330.658	454.75
330.887	458.75
331.115	465.75
331.344	420.75
331.572	392.75
331.801	393.75
332.03	396.75
332.258	406.75
332.486	395.75
332.715	374.75
332.943	404.75
333.172	412.75
333.4	416.75
333.629	424.75
333.857	437.75
334.085	450.75
334.314	433.75
334.542	471.75
334.771	474.75
334.999	457.75
335.227	428.75
335.455	405.75
335.684	408.75
335.912	401.75
336.14	392.75
336.369	394.75
336.597	408.75
336.825	395.75
337.053	376.75
337.281	362.75
337.51	371.75
337.738	386.75
337.966	363.75
338.194	380.75
338.422	375.75
338.65	365.75
338.878	353.75
339.106	361.75
339.334	360.75
339.562	369.75
339.79	345.75
340.018	357.75
340.246	355.75
340.474	384.75
340.702	365.75
340.93	348.75
341.158	362.75
341.386	365.75
341.614	354.75
341.842	366.75
342.07	355.75
342.298	358.75
342.526	339.75
342.754	345.75
342.981	348.75
343.209	369.75
343.437	373.75
343.665	353.75
343.893	377.75
344.12	416.75
344.348	364.75
344.576	368.75
344.804	378.75
345.031	385.75
345.259	382.75
345.487	355.75
345.714	366.75
345.942	364.75
346.17	333.75
346.397	346.75
346.625	350.75
346.853	350.75
347.08	360.75
347.308	362.75
347.535	340.75
347.763	339.75
347.99	355.75
348.218	344.75
348.445	350.75
348.673	345.75
348.9	355.75
349.128	341.75
349.355	337.75
349.583	342.75
349.81	338.75
350.037	324.75
350.265	334.75
350.492	345.75
350.72	320.75
350.947	344.75
351.174	364.75
351.402	362.75
351.629	346.75
351.856	332.75
352.083	341.75
352.311	352.75
352.538	349.75
352.765	344.75
352.992	350.75
353.22	340.75
353.447	324.75
353.674	327.75
353.901	318.75
354.128	320.75
354.355	319.75
354.583	333.75
354.81	331.75
355.037	292.75
355.264	310.75
355.491	334.75
355.718	315.75
355.945	316.75
356.172	319.75
356.399	342.75
356.626	324.75
356.853	327.75
357.08	336.75
357.307	314.75
357.534	337.75
357.761	316.75
357.988	323.75
358.215	317.75
358.441	329.75
358.668	318.75
358.895	322.75
359.122	325.75
359.349	329.75
359.576	338.75
359.802	344.75
360.029	358.75
360.256	368.75
360.483	364.75
360.709	348.75
360.936	332.75
361.163	340.75
361.39	326.75
361.616	344.75
361.843	349.75
362.07	326.75
362.296	360.75
362.523	352.75
362.749	336.75
362.976	327.75
363.203	341.75
363.429	313.75
363.656	310.75
363.882	320.75
364.109	347.75
364.335	328.75
364.562	321.75
364.788	317.75
365.015	337.75
365.241	322.75
365.468	339.75
365.694	330.75
365.92	348.75
366.147	332.75
366.373	331.75
366.599	331.75
366.826	332.75
367.052	314.75
367.278	321.75
367.505	331.75
367.731	329.75
367.957	337.75
368.184	344.75
368.41	322.75
368.636	322.75
368.862	350.75
369.089	340.75
369.315	336.75
369.541	335.75
369.767	332.75
369.993	321.75
370.219	321.75
370.445	330.75
370.672	328.75
370.898	321.75
371.124	324.75
371.35	351.75
371.576	338.75
371.802	336.75
372.028	336.75
372.254	325.75
372.48	342.75
372.706	361.75
372.932	336.75
373.158	342.75
373.384	343.75
373.61	339.75
373.835	343.75
374.061	335.75
374.287	353.75
374.513	341.75
374.739	353.75
374.965	348.75
375.191	337.75
375.416	349.75
375.642	340.75
375.868	340.75
376.094	348.75
376.319	344.75
376.545	342.75
376.771	341.75
376.997	325.75
377.222	322.75
377.448	305.75
377.674	333.75
377.899	334.75
378.125	322.75
378.35	342.75
378.576	345.75
378.802	327.75
379.027	327.75
379.253	329.75
379.478	337.75
379.704	326.75
379.929	336.75
380.155	324.75
380.38	324.75
380.606	330.75
380.831	340.75
381.057	327.75
381.282	328.75
381.507	321.75
381.733	338.75
381.958	339.75
382.184	326.75
382.409	341.75
382.634	352.75
382.86	326.75
383.085	335.75
383.31	347.75
383.535	345.75
383.761	369.75
383.986	352.75
384.211	356.75
384.436	357.75
384.662	361.75
384.887	370.75
385.112	347.75
385.337	378.75
385.562	396.75
385.787	379.75
386.013	382.75
386.238	386.75
386.463	398.75
386.688	376.75
386.913	376.75
387.138	364.75
387.363	352.75
387.588	352.75
387.813	365.75
388.038	372.75
388.263	357.75
388.488	368.75
388.713	356.75
388.938	367.75
389.163	370.75
389.387	401.75
389.612	388.75
389.837	362.75
390.062	358.75
390.287	377.75
390.512	363.75
390.736	364.75
390.961	378.75
391.186	375.75
391.411	375.75
391.636	375.75
391.86	372.75
392.085	411.75
392.31	385.75
392.534	380.75
392.759	397.75
392.984	380.75
393.208	386.75
393.433	356.75
393.658	358.75
393.882	366.75
394.107	350.75
394.331	377.75
394.556	371.75
394.78	378.75
395.005	368.75
395.229	392.75
395.454	401.75
395.678	403.75
395.903	401.75
396.127	404.75
396.352	373.75
396.576	375.75
396.801	393.75
397.025	393.75
397.249	395.75
397.474	395.75
397.698	386.75
397.922	412.75
398.147	420.75
398.371	420.75
398.595	418.75
398.82	428.75
399.044	444.75
399.268	489.75
399.492	534.75
399.717	586.75
399.941	577.75
400.165	545.75
400.389	533.75
400.613	501.75
400.837	457.75
401.062	432.75
401.286	442.75
401.51	434.75
401.734	436.75
401.958	454.75
402.182	445.75
402.406	451.75
402.63	438.75
402.854	452.75
403.078	446.75
403.302	470.75
403.526	464.75
403.75	464.75
403.974	475.75
404.198	455.75
404.422	471.75
404.645	452.75
404.869	444.75
405.093	519.75
405.317	508.75
405.541	527.75
405.765	508.75
405.988	492.75
406.212	491.75
406.436	483.75
406.66	527.75
406.883	482.75
407.107	488.75
407.331	541.75
407.555	589.75
407.778	577.75
408.002	545.75
408.226	510.75
408.449	496.75
408.673	484.75
408.896	522.75
409.12	511.75
409.344	492.75
409.567	451.75
409.791	455.75
410.014	445.75
410.238	440.75
410.461	450.75
410.685	461.75
410.908	468.75
411.132	474.75
411.355	493.75
411.578	486.75
411.802	462.75
412.025	439.75
412.249	438.75
412.472	449.75
412.695	469.75
412.919	483.75
413.142	455.75
413.365	447.75
413.589	440.75
413.812	417.75
414.035	426.75
414.258	422.75
414.482	436.75
414.705	430.75
414.928	418.75
415.151	439.75
415.374	420.75
415.597	429.75
415.821	408.75
416.044	422.75
416.267	416.75
416.49	415.75
416.713	417.75
416.936	420.75
417.159	416.75
417.382	408.75
417.605	437.75
417.828	453.75
418.051	454.75
418.274	451.75
418.497	440.75
418.72	404.75
418.943	436.75
419.166	446.75
419.389	463.75
419.611	455.75
419.834	452.75
420.057	478.75
420.28	463.75
420.503	434.75
420.726	421.75
420.948	460.75
421.171	480.75
421.394	479.75
421.617	451.75
421.839	436.75
422.062	449.75
422.285	444.75
422.507	470.75
422.73	507.75
422.953	513.75
423.175	467.75
423.398	469.75
423.621	472.75
423.843	478.75
424.066	484.75
424.288	497.75
424.511	474.75
424.733	526.75
424.956	556.75
425.178	530.75
425.401	523.75
425.623	536.75
425.846	464.75
426.068	449.75
426.291	448.75
426.513	435.75
426.735	448.75
426.958	470.75
427.18	522.75
427.402	582.75
427.625	634.75
427.847	559.75
428.069	496.75
428.292	470.75
428.514	450.75
428.736	409.75
428.958	412.75
429.181	418.75
429.403	416.75
429.625	412.75
429.847	449.75
430.069	477.75
430.292	470.75
430.514	414.75
430.736	409.75
430.958	403.75
431.18	411.75
431.402	385.75
431.624	389.75
431.846	385.75
432.068	414.75
432.29	392.75
432.512	404.75
432.734	397.75
432.956	400.75
433.178	418.75
433.4	406.75
433.622	424.75
433.844	409.75
434.066	404.75
434.287	404.75
434.509	417.75
434.731	427.75
434.953	435.75
435.175	444.75
435.397	457.75
435.618	449.75
435.84	463.75
436.062	500.75
436.284	530.75
436.505	485.75
436.727	445.75
436.949	421.75
437.17	436.75
437.392	423.75
437.614	412.75
437.835	442.75
438.057	488.75
438.278	535.75
438.5	543.75
438.721	573.75
438.943	555.75
439.165	451.75
439.386	444.75
439.608	423.75
439.829	464.75
440.05	459.75
440.272	470.75
440.493	457.75
440.715	439.75
440.936	409.75
441.158	445.75
441.379	443.75
441.6	441.75
441.822	458.75
442.043	469.75
442.264	525.75
442.486	549.75
442.707	484.75
442.928	464.75
443.149	491.75
443.371	498.75
443.592	506.75
443.813	561.75
444.034	589.75
444.255	503.75
444.476	480.75
444.698	472.75
444.919	502.75
445.14	584.75
445.361	513.75
445.582	502.75
445.803	522.75
446.024	559.75
446.245	564.75
446.466	512.75
446.687	465.75
446.908	419.75
447.129	414.75
447.35	416.75
447.571	387.75
447.792	412.75
448.013	409.75
448.234	432.75
448.455	456.75
448.675	509.75
448.896	538.75
449.117	511.75
449.338	474.75
449.559	526.75
449.779	590.75
450	476.75
450.221	430.75
450.442	402.75
450.662	414.75
450.883	405.75
451.104	424.75
451.324	382.75
451.545	399.75
451.766	371.75
451.986	380.75
452.207	366.75
452.428	378.75
452.648	364.75
452.869	357.75
453.089	370.75
453.31	383.75
453.53	371.75
453.751	369.75
453.971	374.75
454.192	377.75
454.412	361.75
454.633	364.75
454.853	372.75
455.073	374.75
455.294	380.75
455.514	411.75
455.734	412.75
455.955	346.75
456.175	358.75
456.395	359.75
456.616	358.75
456.836	332.75
457.056	337.75
457.276	352.75
457.497	346.75
457.717	357.75
457.937	353.75
458.157	358.75
458.377	378.75
458.598	380.75
458.818	434.75
459.038	479.75
459.258	475.75
459.478	453.75
459.698	418.75
459.918	422.75
460.138	416.75
460.358	428.75
460.578	413.75
460.798	425.75
461.018	445.75
461.238	423.75
461.458	423.75
461.678	421.75
461.898	437.75
462.118	436.75
462.338	450.75
462.558	437.75
462.777	444.75
462.997	490.75
463.217	504.75
463.437	514.75
463.657	493.75
463.876	478.75
464.096	474.75
464.316	481.75
464.536	483.75
464.755	465.75
464.975	428.75
465.195	483.75
465.414	493.75
465.634	450.75
465.854	430.75
466.073	415.75
466.293	386.75
466.512	391.75
466.732	372.75
466.951	387.75
467.171	376.75
467.391	389.75
467.61	399.75
467.829	396.75
468.049	388.75
468.268	404.75
468.488	396.75
468.707	375.75
468.927	376.75
469.146	357.75
469.365	392.75
469.585	378.75
469.804	381.75
470.023	384.75
470.243	396.75
470.462	388.75
470.681	398.75
470.901	405.75
471.12	382.75
471.339	396.75
471.558	398.75
471.777	407.75
471.997	388.75
472.216	413.75
472.435	391.75
472.654	394.75
472.873	377.75
473.092	394.75
473.311	378.75
473.53	399.75
473.749	360.75
473.968	434.75
474.187	476.75
474.406	473.75
474.625	417.75
474.844	399.75
475.063	392.75
475.282	398.75
475.501	373.75
475.72	368.75
475.939	394.75
476.158	392.75
476.377	386.75
476.596	380.75
476.814	410.75
477.033	401.75
477.252	397.75
477.471	397.75
477.69	396.75
477.908	430.75
478.127	437.75
478.346	428.75
478.564	437.75
478.783	442.75
479.002	458.75
479.22	442.75
479.439	464.75
479.658	478.75
479.876	457.75
480.095	477.75
480.313	523.75
480.532	489.75
480.751	508.75
480.969	492.75
481.188	530.75
481.406	524.75
481.624	478.75
481.843	460.75
482.061	437.75
482.28	450.75
482.498	440.75
482.717	413.75
482.935	418.75
483.153	416.75
483.372	430.75
483.59	439.75
483.808	440.75
484.027	432.75
484.245	441.75
484.463	437.75
484.681	467.75
484.9	452.75
485.118	471.75
485.336	455.75
485.554	454.75
485.772	458.75
485.99	500.75
486.209	457.75
486.427	445.75
486.645	457.75
486.863	491.75
487.081	482.75
487.299	478.75
487.517	467.75
487.735	466.75
487.953	462.75
488.171	477.75
488.389	471.75
488.607	455.75
488.825	469.75
489.043	474.75
489.261	473.75
489.479	474.75
489.696	481.75
489.914	502.75
490.132	480.75
490.35	517.75
490.568	478.75
490.786	508.75
491.003	525.75
491.221	529.75
491.439	541.75
491.657	531.75
491.874	536.75
492.092	530.75
492.31	543.75
492.527	536.75
492.745	570.75
492.963	568.75
493.18	529.75
493.398	572.75
493.615	570.75
493.833	574.75
494.05	557.75
494.268	544.75
494.485	555.75
494.703	533.75
494.92	552.75
495.138	554.75
495.355	544.75
495.573	554.75
495.79	573.75
496.008	581.75
496.225	578.75
496.442	556.75
496.66	561.75
496.877	586.75
497.094	583.75
497.312	552.75
497.529	577.75
497.746	585.75
497.963	593.75
498.181	617.75
498.398	632.75
498.615	616.75
498.832	665.75
499.049	678.75
499.267	714.75
499.484	744.75
499.701	808.75
499.918	836.75
500.135	910.75
500.352	982.75
500.569	996.75
500.786	976.75
501.003	931.75
501.22	906.75
501.437	838.75
501.654	832.75
501.871	775.75
502.088	739.75
