Data from 1969.PennyLincolnUp.Lamp.En5.5.200Scan.071719.P1._HRD10591_14-55-50-973.txt Node
Date: Thu Jul 18 14:55:50 EDT 2019
User: cochatt
Spectrometer: HR+D1059
Trigger mode: 1
Integration Time (sec): 1.000000E-1
Scans to average: 1
Electric dark correction enabled: true
Nonlinearity correction enabled: false
Boxcar width: 0
XAxis mode: Wavelengths
Number of Pixels in Spectrum: 2048
>>>>>Begin Spectral Data<<<<<
223.165	-22.94
223.4	-22.94
223.635	-22.94
223.869	-22.94
224.104	-11.94
224.338	-9.94
224.573	-3.94
224.808	3.06
225.042	-3.94
225.277	-8.94
225.511	-12.94
225.746	2.06
225.98	7.06
226.215	2.06
226.449	5.06
226.683	23.06
226.918	31.06
227.152	24.06
227.387	20.06
227.621	26.06
227.856	29.06
228.09	30.06
228.324	43.06
228.559	42.06
228.793	61.06
229.027	82.06
229.262	69.06
229.496	82.06
229.73	110.06
229.964	125.06
230.199	111.06
230.433	86.06
230.667	84.06
230.901	85.06
231.136	90.06
231.37	90.06
231.604	102.06
231.838	99.06
232.072	91.06
232.306	97.06
232.541	98.06
232.775	90.06
233.009	100.06
233.243	93.06
233.477	99.06
233.711	114.06
233.945	107.06
234.179	112.06
234.413	111.06
234.647	102.06
234.881	104.06
235.115	95.06
235.349	119.06
235.583	115.06
235.817	105.06
236.051	99.06
236.285	95.06
236.519	110.06
236.753	114.06
236.987	114.06
237.221	123.06
237.455	155.06
237.689	154.06
237.922	126.06
238.156	112.06
238.39	114.06
238.624	115.06
238.858	101.06
239.091	100.06
239.325	109.06
239.559	104.06
239.793	106.06
240.027	128.06
240.26	116.06
240.494	133.06
240.728	125.06
240.961	123.06
241.195	120.06
241.429	101.06
241.662	105.06
241.896	124.06
242.13	112.06
242.363	103.06
242.597	106.06
242.83	126.06
243.064	121.06
243.298	116.06
243.531	100.06
243.765	131.06
243.998	113.06
244.232	117.06
244.465	128.06
244.699	136.06
244.932	112.06
245.166	122.06
245.399	119.06
245.633	123.06
245.866	139.06
246.099	127.06
246.333	137.06
246.566	128.06
246.8	132.06
247.033	125.06
247.266	143.06
247.5	135.06
247.733	143.06
247.966	143.06
248.2	139.06
248.433	144.06
248.666	142.06
248.899	161.06
249.133	167.06
249.366	165.06
249.599	162.06
249.832	135.06
250.066	146.06
250.299	151.06
250.532	150.06
250.765	170.06
250.998	174.06
251.231	166.06
251.465	175.06
251.698	163.06
251.931	163.06
252.164	162.06
252.397	163.06
252.63	165.06
252.863	175.06
253.096	164.06
253.329	180.06
253.562	179.06
253.795	177.06
254.028	160.06
254.261	159.06
254.494	183.06
254.727	219.06
254.96	225.06
255.193	188.06
255.426	185.06
255.659	176.06
255.892	189.06
256.124	193.06
256.357	184.06
256.59	183.06
256.823	185.06
257.056	167.06
257.289	188.06
257.521	162.06
257.754	158.06
257.987	169.06
258.22	155.06
258.452	184.06
258.685	181.06
258.918	168.06
259.151	179.06
259.383	188.06
259.616	164.06
259.849	207.06
260.081	186.06
260.314	205.06
260.547	197.06
260.779	198.06
261.012	190.06
261.244	193.06
261.477	184.06
261.71	174.06
261.942	185.06
262.175	172.06
262.407	172.06
262.64	167.06
262.872	167.06
263.105	184.06
263.337	160.06
263.57	177.06
263.802	185.06
264.035	190.06
264.267	163.06
264.499	183.06
264.732	185.06
264.964	185.06
265.197	198.06
265.429	165.06
265.661	185.06
265.894	172.06
266.126	192.06
266.358	177.06
266.591	177.06
266.823	190.06
267.055	186.06
267.287	204.06
267.52	219.06
267.752	190.06
267.984	189.06
268.216	204.06
268.448	215.06
268.681	186.06
268.913	200.06
269.145	202.06
269.377	223.06
269.609	220.06
269.841	215.06
270.073	207.06
270.306	242.06
270.538	260.06
270.77	252.06
271.002	252.06
271.234	225.06
271.466	235.06
271.698	222.06
271.93	239.06
272.162	247.06
272.394	247.06
272.626	231.06
272.858	221.06
273.09	216.06
273.322	217.06
273.553	207.06
273.785	197.06
274.017	218.06
274.249	216.06
274.481	208.06
274.713	203.06
274.945	226.06
275.176	228.06
275.408	216.06
275.64	230.06
275.872	228.06
276.104	218.06
276.335	209.06
276.567	226.06
276.799	242.06
277.031	251.06
277.262	251.06
277.494	254.06
277.726	239.06
277.957	238.06
278.189	236.06
278.421	231.06
278.652	229.06
278.884	236.06
279.115	217.06
279.347	229.06
279.579	230.06
279.81	232.06
280.042	218.06
280.273	221.06
280.505	224.06
280.736	231.06
280.968	219.06
281.199	218.06
281.431	247.06
281.662	235.06
281.894	240.06
282.125	230.06
282.356	250.06
282.588	250.06
282.819	248.06
283.051	226.06
283.282	234.06
283.513	259.06
283.745	231.06
283.976	244.06
284.207	240.06
284.439	230.06
284.67	262.06
284.901	231.06
285.132	233.06
285.364	243.06
285.595	238.06
285.826	224.06
286.057	258.06
286.288	216.06
286.52	233.06
286.751	263.06
286.982	248.06
287.213	250.06
287.444	246.06
287.675	258.06
287.906	236.06
288.138	252.06
288.369	259.06
288.6	266.06
288.831	243.06
289.062	257.06
289.293	256.06
289.524	255.06
289.755	240.06
289.986	239.06
290.217	242.06
290.448	251.06
290.679	257.06
290.91	254.06
291.141	255.06
291.371	264.06
291.602	256.06
291.833	246.06
292.064	238.06
292.295	268.06
292.526	251.06
292.757	242.06
292.987	243.06
293.218	242.06
293.449	254.06
293.68	259.06
293.91	259.06
294.141	272.06
294.372	251.06
294.603	275.06
294.833	257.06
295.064	255.06
295.295	244.06
295.525	252.06
295.756	264.06
295.987	262.06
296.217	282.06
296.448	271.06
296.679	257.06
296.909	238.06
297.14	254.06
297.37	257.06
297.601	280.06
297.831	262.06
298.062	242.06
298.292	261.06
298.523	266.06
298.753	255.06
298.984	265.06
299.214	269.06
299.445	273.06
299.675	271.06
299.905	265.06
300.136	294.06
300.366	265.06
300.597	271.06
300.827	275.06
301.057	281.06
301.288	294.06
301.518	297.06
301.748	273.06
301.979	271.06
302.209	282.06
302.439	296.06
302.669	296.06
302.9	306.06
303.13	295.06
303.36	288.06
303.59	296.06
303.82	294.06
304.051	282.06
304.281	282.06
304.511	294.06
304.741	277.06
304.971	263.06
305.201	290.06
305.431	282.06
305.661	271.06
305.891	290.06
306.121	279.06
306.352	285.06
306.582	274.06
306.812	286.06
307.042	303.06
307.272	284.06
307.502	294.06
307.731	313.06
307.961	299.06
308.191	286.06
308.421	295.06
308.651	298.06
308.881	267.06
309.111	293.06
309.341	291.06
309.571	293.06
309.8	298.06
310.03	299.06
310.26	313.06
310.49	329.06
310.72	306.06
310.949	314.06
311.179	324.06
311.409	307.06
311.639	310.06
311.868	298.06
312.098	300.06
312.328	312.06
312.557	328.06
312.787	291.06
313.017	312.06
313.246	310.06
313.476	307.06
313.706	320.06
313.935	315.06
314.165	304.06
314.394	321.06
314.624	306.06
314.853	335.06
315.083	323.06
315.312	298.06
315.542	304.06
315.771	326.06
316.001	313.06
316.23	317.06
316.46	300.06
316.689	329.06
316.919	308.06
317.148	327.06
317.377	320.06
317.607	312.06
317.836	316.06
318.065	308.06
318.295	319.06
318.524	299.06
318.753	300.06
318.983	319.06
319.212	323.06
319.441	310.06
319.67	310.06
319.9	307.06
320.129	293.06
320.358	318.06
320.587	315.06
320.816	306.06
321.046	326.06
321.275	317.06
321.504	312.06
321.733	325.06
321.962	323.06
322.191	309.06
322.42	322.06
322.649	324.06
322.878	350.06
323.108	353.06
323.337	332.06
323.566	345.06
323.795	363.06
324.024	383.06
324.253	450.06
324.482	599.06
324.71	836.06
324.939	1076.06
325.168	907.06
325.397	534.06
325.626	409.06
325.855	367.06
326.084	367.06
326.313	362.06
326.542	366.06
326.77	396.06
326.999	447.06
327.228	542.06
327.457	742.06
327.686	857.06
327.914	596.06
328.143	454.06
328.372	403.06
328.6	398.06
328.829	392.06
329.058	402.06
329.287	410.06
329.515	404.06
329.744	366.06
329.972	382.06
330.201	394.06
330.43	412.06
330.658	430.06
330.887	426.06
331.115	406.06
331.344	399.06
331.572	387.06
331.801	384.06
332.03	386.06
332.258	363.06
332.486	356.06
332.715	359.06
332.943	382.06
333.172	380.06
333.4	395.06
333.629	411.06
333.857	396.06
334.085	427.06
334.314	432.06
334.542	436.06
334.771	454.06
334.999	418.06
335.227	400.06
335.455	400.06
335.684	366.06
335.912	389.06
336.14	384.06
336.369	356.06
336.597	368.06
336.825	372.06
337.053	389.06
337.281	359.06
337.51	358.06
337.738	342.06
337.966	352.06
338.194	356.06
338.422	357.06
338.65	363.06
338.878	367.06
339.106	363.06
339.334	364.06
339.562	349.06
339.79	325.06
340.018	347.06
340.246	338.06
340.474	353.06
340.702	350.06
340.93	343.06
341.158	354.06
341.386	330.06
341.614	358.06
341.842	353.06
342.07	329.06
342.298	351.06
342.526	362.06
342.754	323.06
342.981	356.06
343.209	368.06
343.437	342.06
343.665	361.06
343.893	386.06
344.12	386.06
344.348	379.06
344.576	361.06
344.804	368.06
345.031	370.06
345.259	360.06
345.487	360.06
345.714	328.06
345.942	350.06
346.17	342.06
346.397	339.06
346.625	338.06
346.853	324.06
347.08	321.06
347.308	327.06
347.535	340.06
347.763	362.06
347.99	338.06
348.218	338.06
348.445	316.06
348.673	338.06
348.9	332.06
349.128	325.06
349.355	309.06
349.583	324.06
349.81	324.06
350.037	328.06
350.265	315.06
350.492	315.06
350.72	327.06
350.947	321.06
351.174	333.06
351.402	328.06
351.629	334.06
351.856	340.06
352.083	325.06
352.311	326.06
352.538	338.06
352.765	332.06
352.992	334.06
353.22	334.06
353.447	307.06
353.674	328.06
353.901	322.06
354.128	311.06
354.355	312.06
354.583	307.06
354.81	314.06
355.037	328.06
355.264	300.06
355.491	322.06
355.718	312.06
355.945	319.06
356.172	321.06
356.399	322.06
356.626	296.06
356.853	297.06
357.08	298.06
357.307	317.06
357.534	294.06
357.761	334.06
357.988	319.06
358.215	325.06
358.441	308.06
358.668	300.06
358.895	316.06
359.122	330.06
359.349	336.06
359.576	330.06
359.802	342.06
360.029	330.06
360.256	359.06
360.483	357.06
360.709	321.06
360.936	313.06
361.163	327.06
361.39	335.06
361.616	337.06
361.843	328.06
362.07	329.06
362.296	339.06
362.523	324.06
362.749	334.06
362.976	313.06
363.203	325.06
363.429	333.06
363.656	343.06
363.882	324.06
364.109	344.06
364.335	305.06
364.562	314.06
364.788	321.06
365.015	313.06
365.241	315.06
365.468	312.06
365.694	326.06
365.92	318.06
366.147	320.06
366.373	298.06
366.599	312.06
366.826	314.06
367.052	313.06
367.278	313.06
367.505	315.06
367.731	329.06
367.957	312.06
368.184	327.06
368.41	324.06
368.636	348.06
368.862	317.06
369.089	314.06
369.315	318.06
369.541	338.06
369.767	297.06
369.993	294.06
370.219	325.06
370.445	329.06
370.672	312.06
370.898	312.06
371.124	331.06
371.35	326.06
371.576	322.06
371.802	315.06
372.028	322.06
372.254	329.06
372.48	344.06
372.706	326.06
372.932	332.06
373.158	323.06
373.384	330.06
373.61	332.06
373.835	342.06
374.061	323.06
374.287	331.06
374.513	330.06
374.739	332.06
374.965	339.06
375.191	342.06
375.416	337.06
375.642	345.06
375.868	324.06
376.094	331.06
376.319	321.06
376.545	326.06
376.771	328.06
376.997	314.06
377.222	329.06
377.448	331.06
377.674	335.06
377.899	325.06
378.125	318.06
378.35	325.06
378.576	332.06
378.802	331.06
379.027	328.06
379.253	325.06
379.478	325.06
379.704	322.06
379.929	307.06
380.155	330.06
380.38	318.06
380.606	327.06
380.831	346.06
381.057	324.06
381.282	320.06
381.507	335.06
381.733	317.06
381.958	320.06
382.184	335.06
382.409	341.06
382.634	339.06
382.86	320.06
383.085	343.06
383.31	343.06
383.535	336.06
383.761	337.06
383.986	336.06
384.211	337.06
384.436	359.06
384.662	347.06
384.887	360.06
385.112	361.06
385.337	345.06
385.562	338.06
385.787	367.06
386.013	376.06
386.238	367.06
386.463	368.06
386.688	360.06
386.913	354.06
387.138	374.06
387.363	357.06
387.588	379.06
387.813	371.06
388.038	361.06
388.263	366.06
388.488	370.06
388.713	360.06
388.938	352.06
389.163	369.06
389.387	361.06
389.612	353.06
389.837	354.06
390.062	376.06
390.287	347.06
390.512	342.06
390.736	361.06
390.961	351.06
391.186	370.06
391.411	378.06
391.636	389.06
391.86	402.06
392.085	383.06
392.31	384.06
392.534	373.06
392.759	393.06
392.984	366.06
393.208	376.06
393.433	385.06
393.658	363.06
393.882	372.06
394.107	376.06
394.331	384.06
394.556	367.06
394.78	356.06
395.005	386.06
395.229	369.06
395.454	391.06
395.678	392.06
395.903	379.06
396.127	370.06
396.352	415.06
396.576	382.06
396.801	382.06
397.025	387.06
397.249	395.06
397.474	377.06
397.698	401.06
397.922	400.06
398.147	404.06
398.371	423.06
398.595	413.06
398.82	420.06
399.044	432.06
399.268	468.06
399.492	516.06
399.717	539.06
399.941	560.06
400.165	520.06
400.389	496.06
400.613	468.06
400.837	460.06
401.062	447.06
401.286	433.06
401.51	414.06
401.734	406.06
401.958	420.06
402.182	436.06
402.406	430.06
402.63	419.06
402.854	439.06
403.078	449.06
403.302	470.06
403.526	465.06
403.75	452.06
403.974	472.06
404.198	475.06
404.422	467.06
404.645	448.06
404.869	468.06
405.093	453.06
405.317	477.06
405.541	509.06
405.765	466.06
405.988	452.06
406.212	472.06
406.436	484.06
406.66	474.06
406.883	480.06
407.107	479.06
407.331	516.06
407.555	561.06
407.778	547.06
408.002	498.06
408.226	486.06
408.449	491.06
408.673	471.06
408.896	494.06
409.12	534.06
409.344	506.06
409.567	443.06
409.791	448.06
410.014	442.06
410.238	432.06
410.461	450.06
410.685	469.06
410.908	458.06
411.132	476.06
411.355	475.06
411.578	438.06
411.802	452.06
412.025	434.06
412.249	452.06
412.472	452.06
412.695	460.06
412.919	451.06
413.142	438.06
413.365	454.06
413.589	441.06
413.812	417.06
414.035	409.06
414.258	400.06
414.482	411.06
414.705	423.06
414.928	424.06
415.151	415.06
415.374	414.06
415.597	428.06
415.821	430.06
416.044	405.06
416.267	419.06
416.49	408.06
416.713	395.06
416.936	408.06
417.159	410.06
417.382	410.06
417.605	409.06
417.828	432.06
418.051	452.06
418.274	434.06
418.497	425.06
418.72	433.06
418.943	437.06
419.166	425.06
419.389	451.06
419.611	440.06
419.834	435.06
420.057	436.06
420.28	440.06
420.503	436.06
420.726	420.06
420.948	442.06
421.171	473.06
421.394	459.06
421.617	434.06
421.839	431.06
422.062	428.06
422.285	444.06
422.507	456.06
422.73	493.06
422.953	493.06
423.175	441.06
423.398	462.06
423.621	440.06
423.843	467.06
424.066	461.06
424.288	454.06
424.511	469.06
424.733	486.06
424.956	537.06
425.178	510.06
425.401	508.06
425.623	532.06
425.846	454.06
426.068	441.06
426.291	444.06
426.513	437.06
426.735	427.06
426.958	454.06
427.18	504.06
427.402	550.06
427.625	580.06
427.847	525.06
428.069	511.06
428.292	448.06
428.514	413.06
428.736	403.06
428.958	407.06
429.181	402.06
429.403	396.06
429.625	405.06
429.847	409.06
430.069	452.06
430.292	452.06
430.514	395.06
430.736	385.06
430.958	399.06
431.18	378.06
431.402	398.06
431.624	388.06
431.846	400.06
432.068	398.06
432.29	401.06
432.512	412.06
432.734	382.06
432.956	397.06
433.178	386.06
433.4	408.06
433.622	404.06
433.844	379.06
434.066	400.06
434.287	414.06
434.509	405.06
434.731	405.06
434.953	422.06
435.175	454.06
435.397	459.06
435.618	422.06
435.84	452.06
436.062	491.06
436.284	520.06
436.505	436.06
436.727	439.06
436.949	439.06
437.17	400.06
437.392	402.06
437.614	390.06
437.835	423.06
438.057	457.06
438.278	525.06
438.5	491.06
438.721	542.06
438.943	522.06
439.165	450.06
439.386	435.06
439.608	425.06
439.829	432.06
440.05	434.06
440.272	462.06
440.493	441.06
440.715	414.06
440.936	412.06
441.158	409.06
441.379	422.06
441.6	434.06
441.822	442.06
442.043	465.06
442.264	495.06
442.486	502.06
442.707	474.06
442.928	455.06
443.149	455.06
443.371	463.06
443.592	487.06
443.813	528.06
444.034	543.06
444.255	495.06
444.476	473.06
444.698	487.06
444.919	478.06
445.14	585.06
445.361	524.06
445.582	518.06
445.803	504.06
446.024	532.06
446.245	550.06
446.466	513.06
446.687	452.06
446.908	420.06
447.129	420.06
447.35	403.06
447.571	407.06
447.792	386.06
448.013	406.06
448.234	402.06
448.455	413.06
448.675	503.06
448.896	546.06
449.117	496.06
449.338	465.06
449.559	536.06
449.779	584.06
450	459.06
450.221	424.06
450.442	393.06
450.662	396.06
450.883	367.06
451.104	406.06
451.324	378.06
451.545	371.06
451.766	382.06
451.986	373.06
452.207	369.06
452.428	346.06
452.648	343.06
452.869	370.06
453.089	358.06
453.31	380.06
453.53	355.06
453.751	353.06
453.971	341.06
454.192	346.06
454.412	346.06
454.633	356.06
454.853	361.06
455.073	352.06
455.294	367.06
455.514	411.06
455.734	403.06
455.955	374.06
456.175	350.06
456.395	345.06
456.616	343.06
456.836	334.06
457.056	338.06
457.276	333.06
457.497	353.06
457.717	371.06
457.937	343.06
458.157	356.06
458.377	350.06
458.598	348.06
458.818	391.06
459.038	448.06
459.258	454.06
459.478	421.06
459.698	386.06
459.918	405.06
460.138	396.06
460.358	424.06
460.578	409.06
460.798	422.06
461.018	425.06
461.238	424.06
461.458	428.06
461.678	415.06
461.898	427.06
462.118	420.06
462.338	419.06
462.558	439.06
462.777	451.06
462.997	456.06
463.217	496.06
463.437	482.06
463.657	480.06
463.876	449.06
464.096	469.06
464.316	463.06
464.536	487.06
464.755	453.06
464.975	437.06
465.195	475.06
465.414	483.06
465.634	434.06
465.854	420.06
466.073	404.06
466.293	397.06
466.512	373.06
466.732	376.06
466.951	378.06
467.171	378.06
467.391	354.06
467.61	372.06
467.829	418.06
468.049	373.06
468.268	379.06
468.488	386.06
468.707	370.06
468.927	377.06
469.146	386.06
469.365	365.06
469.585	373.06
469.804	385.06
470.023	379.06
470.243	390.06
470.462	389.06
470.681	409.06
470.901	398.06
471.12	380.06
471.339	384.06
471.558	401.06
471.777	402.06
471.997	392.06
472.216	382.06
472.435	384.06
472.654	387.06
472.873	385.06
473.092	360.06
473.311	368.06
473.53	366.06
473.749	371.06
473.968	410.06
474.187	449.06
474.406	467.06
474.625	395.06
474.844	398.06
475.063	373.06
475.282	374.06
475.501	383.06
475.72	379.06
475.939	377.06
476.158	377.06
476.377	401.06
476.596	386.06
476.814	391.06
477.033	381.06
477.252	377.06
477.471	419.06
477.69	403.06
477.908	407.06
478.127	425.06
478.346	420.06
478.564	429.06
478.783	442.06
479.002	432.06
479.22	451.06
479.439	449.06
479.658	439.06
479.876	462.06
480.095	459.06
480.313	463.06
480.532	478.06
480.751	454.06
480.969	487.06
481.188	512.06
481.406	534.06
481.624	462.06
481.843	436.06
482.061	420.06
482.28	440.06
482.498	439.06
482.717	423.06
482.935	430.06
483.153	414.06
483.372	450.06
483.59	428.06
483.808	423.06
484.027	418.06
484.245	434.06
484.463	421.06
484.681	416.06
484.9	453.06
485.118	440.06
485.336	439.06
485.554	436.06
485.772	439.06
485.99	458.06
486.209	451.06
486.427	465.06
486.645	447.06
486.863	473.06
487.081	478.06
487.299	456.06
487.517	454.06
487.735	462.06
487.953	478.06
488.171	469.06
488.389	444.06
488.607	466.06
488.825	475.06
489.043	472.06
489.261	463.06
489.479	480.06
489.696	464.06
489.914	470.06
490.132	491.06
490.35	465.06
490.568	469.06
490.786	475.06
491.003	480.06
491.221	503.06
491.439	524.06
491.657	522.06
491.874	540.06
492.092	540.06
492.31	549.06
492.527	529.06
492.745	532.06
492.963	537.06
493.18	541.06
493.398	550.06
493.615	547.06
493.833	535.06
494.05	541.06
494.268	548.06
494.485	544.06
494.703	540.06
494.92	536.06
495.138	522.06
495.355	524.06
495.573	547.06
495.79	553.06
496.008	542.06
496.225	540.06
496.442	535.06
496.66	542.06
496.877	530.06
497.094	563.06
497.312	545.06
497.529	551.06
497.746	547.06
497.963	592.06
498.181	596.06
498.398	614.06
498.615	622.06
498.832	626.06
499.049	677.06
499.267	708.06
499.484	730.06
499.701	774.06
499.918	833.06
500.135	907.06
500.352	958.06
500.569	979.06
500.786	963.06
501.003	914.06
501.22	841.06
501.437	816.06
501.654	766.06
501.871	755.06
502.088	724.06
502.305	671.06
