Data from 1969.PennyLincolnUp.Lamp.En5.5.200Scan.071719.P1._HRD10591_14-56-33-973.txt Node
Date: Thu Jul 18 14:56:33 EDT 2019
User: cochatt
Spectrometer: HR+D1059
Trigger mode: 1
Integration Time (sec): 1.000000E-1
Scans to average: 1
Electric dark correction enabled: true
Nonlinearity correction enabled: false
Boxcar width: 0
XAxis mode: Wavelengths
Number of Pixels in Spectrum: 2048
>>>>>Begin Spectral Data<<<<<
223.165	-5.44
223.4	-5.44
223.635	-5.44
223.869	-33.44
224.104	-6.44
224.338	-21.44
224.573	-10.44
224.808	-2.44
225.042	2.56
225.277	1.56
225.511	-5.44
225.746	-2.44
225.98	2.56
226.215	1.56
226.449	21.56
226.683	8.56
226.918	22.56
227.152	26.56
227.387	19.56
227.621	44.56
227.856	61.56
228.09	43.56
228.324	57.56
228.559	61.56
228.793	64.56
229.027	85.56
229.262	102.56
229.496	108.56
229.73	85.56
229.964	110.56
230.199	117.56
230.433	106.56
230.667	105.56
230.901	97.56
231.136	106.56
231.37	97.56
231.604	103.56
231.838	101.56
232.072	104.56
232.306	101.56
232.541	112.56
232.775	110.56
233.009	118.56
233.243	101.56
233.477	120.56
233.711	105.56
233.945	113.56
234.179	106.56
234.413	110.56
234.647	102.56
234.881	100.56
235.115	102.56
235.349	101.56
235.583	105.56
235.817	100.56
236.051	113.56
236.285	127.56
236.519	133.56
236.753	120.56
236.987	109.56
237.221	141.56
237.455	160.56
237.689	132.56
237.922	126.56
238.156	110.56
238.39	121.56
238.624	97.56
238.858	129.56
239.091	110.56
239.325	105.56
239.559	103.56
239.793	119.56
240.027	117.56
240.26	122.56
240.494	129.56
240.728	122.56
240.961	123.56
241.195	135.56
241.429	129.56
241.662	119.56
241.896	131.56
242.13	127.56
242.363	123.56
242.597	120.56
242.83	124.56
243.064	122.56
243.298	116.56
243.531	105.56
243.765	126.56
243.998	124.56
244.232	124.56
244.465	133.56
244.699	126.56
244.932	132.56
245.166	116.56
245.399	130.56
245.633	124.56
245.866	113.56
246.099	143.56
246.333	126.56
246.566	131.56
246.8	138.56
247.033	144.56
247.266	153.56
247.5	147.56
247.733	158.56
247.966	151.56
248.2	146.56
248.433	153.56
248.666	165.56
248.899	156.56
249.133	157.56
249.366	172.56
249.599	165.56
249.832	153.56
250.066	166.56
250.299	160.56
250.532	177.56
250.765	189.56
250.998	188.56
251.231	195.56
251.465	189.56
251.698	165.56
251.931	164.56
252.164	172.56
252.397	172.56
252.63	186.56
252.863	172.56
253.096	185.56
253.329	193.56
253.562	181.56
253.795	180.56
254.028	179.56
254.261	166.56
254.494	176.56
254.727	217.56
254.96	220.56
255.193	222.56
255.426	188.56
255.659	203.56
255.892	193.56
256.124	185.56
256.357	204.56
256.59	196.56
256.823	194.56
257.056	174.56
257.289	195.56
257.521	179.56
257.754	176.56
257.987	178.56
258.22	186.56
258.452	166.56
258.685	191.56
258.918	181.56
259.151	198.56
259.383	195.56
259.616	198.56
259.849	178.56
260.081	183.56
260.314	210.56
260.547	204.56
260.779	207.56
261.012	194.56
261.244	204.56
261.477	194.56
261.71	186.56
261.942	195.56
262.175	190.56
262.407	189.56
262.64	185.56
262.872	182.56
263.105	182.56
263.337	183.56
263.57	175.56
263.802	177.56
264.035	173.56
264.267	162.56
264.499	181.56
264.732	190.56
264.964	182.56
265.197	188.56
265.429	179.56
265.661	195.56
265.894	179.56
266.126	191.56
266.358	192.56
266.591	187.56
266.823	208.56
267.055	209.56
267.287	211.56
267.52	202.56
267.752	192.56
267.984	187.56
268.216	201.56
268.448	201.56
268.681	210.56
268.913	226.56
269.145	231.56
269.377	223.56
269.609	235.56
269.841	227.56
270.073	229.56
270.306	245.56
270.538	261.56
270.77	245.56
271.002	241.56
271.234	229.56
271.466	245.56
271.698	249.56
271.93	262.56
272.162	261.56
272.394	262.56
272.626	258.56
272.858	245.56
273.09	220.56
273.322	234.56
273.553	222.56
273.785	231.56
274.017	229.56
274.249	226.56
274.481	220.56
274.713	228.56
274.945	216.56
275.176	218.56
275.408	238.56
275.64	225.56
275.872	218.56
276.104	213.56
276.335	217.56
276.567	227.56
276.799	246.56
277.031	259.56
277.262	248.56
277.494	245.56
277.726	226.56
277.957	243.56
278.189	243.56
278.421	241.56
278.652	230.56
278.884	238.56
279.115	236.56
279.347	234.56
279.579	212.56
279.81	236.56
280.042	238.56
280.273	238.56
280.505	226.56
280.736	223.56
280.968	222.56
281.199	216.56
281.431	219.56
281.662	254.56
281.894	229.56
282.125	239.56
282.356	257.56
282.588	246.56
282.819	252.56
283.051	257.56
283.282	255.56
283.513	263.56
283.745	224.56
283.976	257.56
284.207	262.56
284.439	254.56
284.67	262.56
284.901	257.56
285.132	250.56
285.364	243.56
285.595	250.56
285.826	254.56
286.057	258.56
286.288	254.56
286.52	254.56
286.751	258.56
286.982	249.56
287.213	254.56
287.444	253.56
287.675	235.56
287.906	249.56
288.138	257.56
288.369	266.56
288.6	276.56
288.831	259.56
289.062	247.56
289.293	252.56
289.524	271.56
289.755	265.56
289.986	269.56
290.217	259.56
290.448	265.56
290.679	262.56
290.91	252.56
291.141	267.56
291.371	263.56
291.602	258.56
291.833	242.56
292.064	255.56
292.295	249.56
292.526	248.56
292.757	248.56
292.987	242.56
293.218	258.56
293.449	259.56
293.68	271.56
293.91	282.56
294.141	246.56
294.372	265.56
294.603	243.56
294.833	257.56
295.064	272.56
295.295	261.56
295.525	281.56
295.756	289.56
295.987	268.56
296.217	278.56
296.448	263.56
296.679	257.56
296.909	250.56
297.14	265.56
297.37	273.56
297.601	277.56
297.831	291.56
298.062	279.56
298.292	282.56
298.523	283.56
298.753	287.56
298.984	268.56
299.214	290.56
299.445	287.56
299.675	271.56
299.905	263.56
300.136	267.56
300.366	294.56
300.597	292.56
300.827	277.56
301.057	275.56
301.288	304.56
301.518	277.56
301.748	288.56
301.979	296.56
302.209	286.56
302.439	292.56
302.669	279.56
302.9	284.56
303.13	296.56
303.36	274.56
303.59	283.56
303.82	279.56
304.051	274.56
304.281	275.56
304.511	281.56
304.741	280.56
304.971	275.56
305.201	288.56
305.431	292.56
305.661	285.56
305.891	286.56
306.121	272.56
306.352	273.56
306.582	297.56
306.812	299.56
307.042	306.56
307.272	325.56
307.502	305.56
307.731	293.56
307.961	297.56
308.191	297.56
308.421	278.56
308.651	282.56
308.881	297.56
309.111	293.56
309.341	309.56
309.571	311.56
309.8	312.56
310.03	301.56
310.26	315.56
310.49	313.56
310.72	322.56
310.949	318.56
311.179	306.56
311.409	305.56
311.639	321.56
311.868	309.56
312.098	303.56
312.328	314.56
312.557	336.56
312.787	334.56
313.017	342.56
313.246	331.56
313.476	330.56
313.706	315.56
313.935	326.56
314.165	339.56
314.394	343.56
314.624	328.56
314.853	332.56
315.083	333.56
315.312	318.56
315.542	321.56
315.771	322.56
316.001	325.56
316.23	323.56
316.46	321.56
316.689	319.56
316.919	335.56
317.148	321.56
317.377	319.56
317.607	318.56
317.836	306.56
318.065	309.56
318.295	323.56
318.524	316.56
318.753	318.56
318.983	317.56
319.212	323.56
319.441	332.56
319.67	334.56
319.9	330.56
320.129	330.56
320.358	308.56
320.587	313.56
320.816	318.56
321.046	328.56
321.275	323.56
321.504	329.56
321.733	319.56
321.962	338.56
322.191	338.56
322.42	329.56
322.649	366.56
322.878	359.56
323.108	366.56
323.337	354.56
323.566	367.56
323.795	385.56
324.024	414.56
324.253	470.56
324.482	635.56
324.71	913.56
324.939	1215.56
325.168	961.56
325.397	551.56
325.626	419.56
325.855	378.56
326.084	355.56
326.313	381.56
326.542	359.56
326.77	411.56
326.999	456.56
327.228	575.56
327.457	824.56
327.686	917.56
327.914	637.56
328.143	476.56
328.372	440.56
328.6	422.56
328.829	421.56
329.058	418.56
329.287	422.56
329.515	389.56
329.744	409.56
329.972	386.56
330.201	413.56
330.43	423.56
330.658	446.56
330.887	452.56
331.115	453.56
331.344	405.56
331.572	391.56
331.801	381.56
332.03	406.56
332.258	418.56
332.486	377.56
332.715	389.56
332.943	389.56
333.172	410.56
333.4	423.56
333.629	420.56
333.857	433.56
334.085	425.56
334.314	438.56
334.542	469.56
334.771	460.56
334.999	414.56
335.227	402.56
335.455	394.56
335.684	390.56
335.912	387.56
336.14	396.56
336.369	389.56
336.597	395.56
336.825	386.56
337.053	376.56
337.281	360.56
337.51	378.56
337.738	369.56
337.966	379.56
338.194	379.56
338.422	366.56
338.65	380.56
338.878	355.56
339.106	375.56
339.334	349.56
339.562	356.56
339.79	364.56
340.018	370.56
340.246	365.56
340.474	364.56
340.702	346.56
340.93	351.56
341.158	350.56
341.386	362.56
341.614	368.56
341.842	345.56
342.07	356.56
342.298	338.56
342.526	374.56
342.754	332.56
342.981	347.56
343.209	347.56
343.437	377.56
343.665	369.56
343.893	384.56
344.12	376.56
344.348	387.56
344.576	374.56
344.804	376.56
345.031	350.56
345.259	364.56
345.487	363.56
345.714	361.56
345.942	350.56
346.17	335.56
346.397	341.56
346.625	348.56
346.853	318.56
347.08	318.56
347.308	364.56
347.535	352.56
347.763	355.56
347.99	348.56
348.218	353.56
348.445	356.56
348.673	334.56
348.9	340.56
349.128	366.56
349.355	335.56
349.583	319.56
349.81	338.56
350.037	335.56
350.265	319.56
350.492	338.56
350.72	345.56
350.947	333.56
351.174	338.56
351.402	341.56
351.629	343.56
351.856	333.56
352.083	350.56
352.311	358.56
352.538	354.56
352.765	366.56
352.992	335.56
353.22	357.56
353.447	341.56
353.674	339.56
353.901	322.56
354.128	331.56
354.355	338.56
354.583	323.56
354.81	316.56
355.037	312.56
355.264	319.56
355.491	327.56
355.718	326.56
355.945	319.56
356.172	323.56
356.399	320.56
356.626	312.56
356.853	334.56
357.08	323.56
357.307	317.56
357.534	324.56
357.761	327.56
357.988	330.56
358.215	320.56
358.441	317.56
358.668	323.56
358.895	334.56
359.122	335.56
359.349	331.56
359.576	348.56
359.802	349.56
360.029	355.56
360.256	348.56
360.483	354.56
360.709	347.56
360.936	355.56
361.163	312.56
361.39	329.56
361.616	329.56
361.843	314.56
362.07	330.56
362.296	319.56
362.523	305.56
362.749	332.56
362.976	336.56
363.203	337.56
363.429	339.56
363.656	320.56
363.882	317.56
364.109	335.56
364.335	333.56
364.562	350.56
364.788	330.56
365.015	336.56
365.241	337.56
365.468	323.56
365.694	319.56
365.92	339.56
366.147	312.56
366.373	296.56
366.599	319.56
366.826	314.56
367.052	310.56
367.278	321.56
367.505	337.56
367.731	329.56
367.957	324.56
368.184	336.56
368.41	316.56
368.636	334.56
368.862	334.56
369.089	308.56
369.315	329.56
369.541	334.56
369.767	334.56
369.993	324.56
370.219	344.56
370.445	340.56
370.672	315.56
370.898	327.56
371.124	331.56
371.35	327.56
371.576	334.56
371.802	338.56
372.028	325.56
372.254	318.56
372.48	338.56
372.706	354.56
372.932	336.56
373.158	337.56
373.384	331.56
373.61	319.56
373.835	337.56
374.061	339.56
374.287	359.56
374.513	329.56
374.739	354.56
374.965	362.56
375.191	360.56
375.416	341.56
375.642	342.56
375.868	342.56
376.094	338.56
376.319	312.56
376.545	342.56
376.771	321.56
376.997	327.56
377.222	339.56
377.448	335.56
377.674	353.56
377.899	337.56
378.125	324.56
378.35	334.56
378.576	326.56
378.802	330.56
379.027	334.56
379.253	335.56
379.478	327.56
379.704	347.56
379.929	335.56
380.155	341.56
380.38	347.56
380.606	353.56
380.831	329.56
381.057	336.56
381.282	325.56
381.507	322.56
381.733	324.56
381.958	320.56
382.184	321.56
382.409	339.56
382.634	354.56
382.86	341.56
383.085	341.56
383.31	337.56
383.535	346.56
383.761	348.56
383.986	358.56
384.211	373.56
384.436	366.56
384.662	349.56
384.887	340.56
385.112	360.56
385.337	373.56
385.562	369.56
385.787	371.56
386.013	396.56
386.238	373.56
386.463	387.56
386.688	362.56
386.913	383.56
387.138	361.56
387.363	377.56
387.588	370.56
387.813	353.56
388.038	351.56
388.263	362.56
388.488	372.56
388.713	377.56
388.938	386.56
389.163	349.56
389.387	365.56
389.612	362.56
389.837	350.56
390.062	346.56
390.287	358.56
390.512	377.56
390.736	379.56
390.961	357.56
391.186	369.56
391.411	379.56
391.636	374.56
391.86	374.56
392.085	384.56
392.31	374.56
392.534	380.56
392.759	399.56
392.984	381.56
393.208	384.56
393.433	375.56
393.658	349.56
393.882	388.56
394.107	389.56
394.331	379.56
394.556	371.56
394.78	397.56
395.005	376.56
395.229	383.56
395.454	371.56
395.678	384.56
395.903	405.56
396.127	418.56
396.352	381.56
396.576	387.56
396.801	383.56
397.025	384.56
397.249	389.56
397.474	390.56
397.698	403.56
397.922	401.56
398.147	418.56
398.371	416.56
398.595	416.56
398.82	424.56
399.044	459.56
399.268	478.56
399.492	534.56
399.717	555.56
399.941	567.56
400.165	554.56
400.389	529.56
400.613	491.56
400.837	458.56
401.062	438.56
401.286	457.56
401.51	441.56
401.734	431.56
401.958	445.56
402.182	435.56
402.406	441.56
402.63	432.56
402.854	460.56
403.078	455.56
403.302	451.56
403.526	509.56
403.75	463.56
403.974	457.56
404.198	480.56
404.422	474.56
404.645	468.56
404.869	467.56
405.093	480.56
405.317	500.56
405.541	517.56
405.765	470.56
405.988	469.56
406.212	474.56
406.436	498.56
406.66	505.56
406.883	483.56
407.107	510.56
407.331	553.56
407.555	575.56
407.778	594.56
408.002	542.56
408.226	523.56
408.449	493.56
408.673	473.56
408.896	504.56
409.12	527.56
409.344	509.56
409.567	467.56
409.791	450.56
410.014	439.56
410.238	464.56
410.461	461.56
410.685	446.56
410.908	457.56
411.132	487.56
411.355	495.56
411.578	463.56
411.802	445.56
412.025	445.56
412.249	460.56
412.472	463.56
412.695	492.56
412.919	457.56
413.142	433.56
413.365	440.56
413.589	439.56
413.812	415.56
414.035	419.56
414.258	426.56
414.482	434.56
414.705	424.56
414.928	423.56
415.151	434.56
415.374	415.56
415.597	429.56
415.821	410.56
416.044	444.56
416.267	459.56
416.49	425.56
416.713	411.56
416.936	402.56
417.159	422.56
417.382	413.56
417.605	423.56
417.828	422.56
418.051	457.56
418.274	437.56
418.497	430.56
418.72	442.56
418.943	418.56
419.166	452.56
419.389	460.56
419.611	447.56
419.834	443.56
420.057	451.56
420.28	450.56
420.503	445.56
420.726	447.56
420.948	430.56
421.171	485.56
421.394	495.56
421.617	453.56
421.839	427.56
422.062	413.56
422.285	438.56
422.507	462.56
422.73	495.56
422.953	501.56
423.175	453.56
423.398	433.56
423.621	442.56
423.843	479.56
424.066	468.56
424.288	453.56
424.511	468.56
424.733	519.56
424.956	523.56
425.178	511.56
425.401	531.56
425.623	520.56
425.846	461.56
426.068	456.56
426.291	449.56
426.513	445.56
426.735	459.56
426.958	464.56
427.18	519.56
427.402	565.56
427.625	622.56
427.847	549.56
428.069	487.56
428.292	477.56
428.514	429.56
428.736	403.56
428.958	426.56
429.181	425.56
429.403	406.56
429.625	399.56
429.847	425.56
430.069	478.56
430.292	451.56
430.514	430.56
430.736	395.56
430.958	424.56
431.18	403.56
431.402	393.56
431.624	395.56
431.846	417.56
432.068	405.56
432.29	412.56
432.512	389.56
432.734	413.56
432.956	406.56
433.178	410.56
433.4	418.56
433.622	403.56
433.844	411.56
434.066	399.56
434.287	394.56
434.509	413.56
434.731	422.56
434.953	435.56
435.175	437.56
435.397	443.56
435.618	460.56
435.84	461.56
436.062	522.56
436.284	537.56
436.505	480.56
436.727	459.56
436.949	403.56
437.17	396.56
437.392	432.56
437.614	401.56
437.835	437.56
438.057	489.56
438.278	552.56
438.5	532.56
438.721	561.56
438.943	551.56
439.165	477.56
439.386	455.56
439.608	446.56
439.829	456.56
440.05	455.56
440.272	499.56
440.493	472.56
440.715	426.56
440.936	414.56
441.158	423.56
441.379	443.56
441.6	457.56
441.822	454.56
442.043	481.56
442.264	530.56
442.486	541.56
442.707	502.56
442.928	472.56
443.149	446.56
443.371	471.56
443.592	486.56
443.813	553.56
444.034	589.56
444.255	519.56
444.476	490.56
444.698	488.56
444.919	501.56
445.14	565.56
445.361	528.56
445.582	497.56
445.803	516.56
446.024	578.56
446.245	561.56
446.466	520.56
446.687	448.56
446.908	435.56
447.129	426.56
447.35	416.56
447.571	402.56
447.792	398.56
448.013	413.56
448.234	415.56
448.455	461.56
448.675	520.56
448.896	581.56
449.117	515.56
449.338	475.56
449.559	532.56
449.779	565.56
450	494.56
450.221	425.56
450.442	413.56
450.662	401.56
450.883	403.56
451.104	417.56
451.324	393.56
451.545	399.56
451.766	357.56
451.986	373.56
452.207	385.56
452.428	371.56
452.648	360.56
452.869	373.56
453.089	373.56
453.31	378.56
453.53	372.56
453.751	376.56
453.971	368.56
454.192	357.56
454.412	373.56
454.633	369.56
454.853	350.56
455.073	372.56
455.294	393.56
455.514	435.56
455.734	406.56
455.955	354.56
456.175	360.56
456.395	321.56
456.616	338.56
456.836	338.56
457.056	346.56
457.276	344.56
457.497	355.56
457.717	352.56
457.937	362.56
458.157	361.56
458.377	355.56
458.598	359.56
458.818	420.56
459.038	476.56
459.258	471.56
459.478	414.56
459.698	419.56
459.918	395.56
460.138	414.56
460.358	430.56
460.578	426.56
460.798	428.56
461.018	434.56
461.238	413.56
461.458	428.56
461.678	415.56
461.898	443.56
462.118	428.56
462.338	452.56
462.558	452.56
462.777	448.56
462.997	489.56
463.217	522.56
463.437	501.56
463.657	495.56
463.876	463.56
464.096	445.56
464.316	462.56
464.536	490.56
464.755	474.56
464.975	465.56
465.195	467.56
465.414	504.56
465.634	437.56
465.854	408.56
466.073	428.56
466.293	396.56
466.512	387.56
466.732	389.56
466.951	406.56
467.171	418.56
467.391	366.56
467.61	393.56
467.829	394.56
468.049	394.56
468.268	391.56
468.488	389.56
468.707	391.56
468.927	406.56
469.146	366.56
469.365	400.56
469.585	387.56
469.804	396.56
470.023	394.56
470.243	409.56
470.462	419.56
470.681	405.56
470.901	414.56
471.12	410.56
471.339	412.56
471.558	384.56
471.777	399.56
471.997	406.56
472.216	375.56
472.435	420.56
472.654	394.56
472.873	389.56
473.092	362.56
473.311	387.56
473.53	382.56
473.749	403.56
473.968	397.56
474.187	468.56
474.406	483.56
474.625	417.56
474.844	387.56
475.063	376.56
475.282	387.56
475.501	371.56
475.72	397.56
475.939	390.56
476.158	399.56
476.377	399.56
476.596	410.56
476.814	403.56
477.033	389.56
477.252	420.56
477.471	422.56
477.69	400.56
477.908	444.56
478.127	433.56
478.346	408.56
478.564	442.56
478.783	426.56
479.002	459.56
479.22	452.56
479.439	452.56
479.658	477.56
479.876	471.56
480.095	468.56
480.313	493.56
480.532	486.56
480.751	482.56
480.969	490.56
481.188	521.56
481.406	523.56
481.624	471.56
481.843	441.56
482.061	419.56
482.28	460.56
482.498	456.56
482.717	449.56
482.935	441.56
483.153	444.56
483.372	409.56
483.59	438.56
483.808	449.56
484.027	444.56
484.245	440.56
484.463	435.56
484.681	450.56
484.9	463.56
485.118	462.56
485.336	439.56
485.554	461.56
485.772	461.56
485.99	458.56
486.209	468.56
486.427	459.56
486.645	465.56
486.863	468.56
487.081	464.56
487.299	479.56
487.517	443.56
487.735	457.56
487.953	477.56
488.171	478.56
488.389	464.56
488.607	474.56
488.825	459.56
489.043	475.56
489.261	492.56
489.479	492.56
489.696	469.56
489.914	481.56
490.132	492.56
490.35	499.56
490.568	487.56
490.786	513.56
491.003	511.56
491.221	518.56
491.439	527.56
491.657	514.56
491.874	522.56
492.092	546.56
492.31	570.56
492.527	548.56
492.745	537.56
492.963	533.56
493.18	589.56
493.398	556.56
493.615	571.56
493.833	552.56
494.05	571.56
494.268	559.56
494.485	549.56
494.703	556.56
494.92	538.56
495.138	569.56
495.355	543.56
495.573	552.56
495.79	532.56
496.008	560.56
496.225	557.56
496.442	563.56
496.66	573.56
496.877	564.56
497.094	562.56
497.312	573.56
497.529	568.56
497.746	585.56
497.963	587.56
498.181	622.56
498.398	620.56
498.615	645.56
498.832	664.56
499.049	697.56
499.267	709.56
499.484	767.56
499.701	813.56
499.918	854.56
500.135	890.56
500.352	993.56
500.569	993.56
500.786	981.56
501.003	942.56
501.22	901.56
501.437	841.56
501.654	805.56
501.871	770.56
502.088	721.56
