Data from 1969.PennyLincolnUp.Lamp.En5.5.200Scan.071719.P1._HRD10591_14-56-18-973.txt Node
Date: Thu Jul 18 14:56:18 EDT 2019
User: cochatt
Spectrometer: HR+D1059
Trigger mode: 1
Integration Time (sec): 1.000000E-1
Scans to average: 1
Electric dark correction enabled: true
Nonlinearity correction enabled: false
Boxcar width: 0
XAxis mode: Wavelengths
Number of Pixels in Spectrum: 2048
>>>>>Begin Spectral Data<<<<<
223.165	-9.5
223.4	-9.5
223.635	-9.5
223.869	-16.5
224.104	-16.5
224.338	-17.5
224.573	2.5
224.808	-24.5
225.042	-10.5
225.277	-21.5
225.511	-4.5
225.746	-1.5
225.98	16.5
226.215	14.5
226.449	12.5
226.683	17.5
226.918	22.5
227.152	36.5
227.387	27.5
227.621	32.5
227.856	37.5
228.09	53.5
228.324	52.5
228.559	42.5
228.793	61.5
229.027	73.5
229.262	86.5
229.496	95.5
229.73	109.5
229.964	123.5
230.199	106.5
230.433	85.5
230.667	100.5
230.901	100.5
231.136	94.5
231.37	90.5
231.604	96.5
231.838	109.5
232.072	109.5
232.306	100.5
232.541	93.5
232.775	109.5
233.009	117.5
233.243	103.5
233.477	93.5
233.711	104.5
233.945	105.5
234.179	98.5
234.413	114.5
234.647	118.5
234.881	99.5
235.115	102.5
235.349	111.5
235.583	92.5
235.817	109.5
236.051	93.5
236.285	101.5
236.519	122.5
236.753	119.5
236.987	116.5
237.221	150.5
237.455	168.5
237.689	141.5
237.922	127.5
238.156	118.5
238.39	106.5
238.624	113.5
238.858	113.5
239.091	116.5
239.325	109.5
239.559	102.5
239.793	106.5
240.027	147.5
240.26	125.5
240.494	144.5
240.728	133.5
240.961	136.5
241.195	135.5
241.429	118.5
241.662	120.5
241.896	120.5
242.13	117.5
242.363	117.5
242.597	132.5
242.83	106.5
243.064	115.5
243.298	124.5
243.531	119.5
243.765	125.5
243.998	123.5
244.232	132.5
244.465	137.5
244.699	127.5
244.932	120.5
245.166	126.5
245.399	123.5
245.633	113.5
245.866	123.5
246.099	139.5
246.333	137.5
246.566	148.5
246.8	137.5
247.033	134.5
247.266	133.5
247.5	148.5
247.733	133.5
247.966	141.5
248.2	160.5
248.433	149.5
248.666	160.5
248.899	143.5
249.133	170.5
249.366	173.5
249.599	157.5
249.832	163.5
250.066	163.5
250.299	163.5
250.532	160.5
250.765	183.5
250.998	179.5
251.231	187.5
251.465	187.5
251.698	177.5
251.931	171.5
252.164	160.5
252.397	177.5
252.63	175.5
252.863	169.5
253.096	174.5
253.329	188.5
253.562	191.5
253.795	180.5
254.028	169.5
254.261	179.5
254.494	192.5
254.727	198.5
254.96	220.5
255.193	212.5
255.426	177.5
255.659	191.5
255.892	191.5
256.124	196.5
256.357	205.5
256.59	191.5
256.823	180.5
257.056	172.5
257.289	176.5
257.521	175.5
257.754	171.5
257.987	178.5
258.22	177.5
258.452	166.5
258.685	193.5
258.918	177.5
259.151	183.5
259.383	189.5
259.616	191.5
259.849	184.5
260.081	190.5
260.314	207.5
260.547	215.5
260.779	198.5
261.012	170.5
261.244	200.5
261.477	200.5
261.71	182.5
261.942	180.5
262.175	184.5
262.407	183.5
262.64	187.5
262.872	173.5
263.105	186.5
263.337	177.5
263.57	201.5
263.802	169.5
264.035	183.5
264.267	182.5
264.499	174.5
264.732	186.5
264.964	205.5
265.197	181.5
265.429	186.5
265.661	163.5
265.894	187.5
266.126	185.5
266.358	181.5
266.591	178.5
266.823	200.5
267.055	195.5
267.287	207.5
267.52	203.5
267.752	194.5
267.984	218.5
268.216	209.5
268.448	205.5
268.681	210.5
268.913	209.5
269.145	219.5
269.377	243.5
269.609	230.5
269.841	230.5
270.073	222.5
270.306	240.5
270.538	268.5
270.77	255.5
271.002	245.5
271.234	234.5
271.466	261.5
271.698	268.5
271.93	257.5
272.162	242.5
272.394	245.5
272.626	261.5
272.858	243.5
273.09	241.5
273.322	243.5
273.553	221.5
273.785	221.5
274.017	232.5
274.249	225.5
274.481	233.5
274.713	220.5
274.945	226.5
275.176	227.5
275.408	237.5
275.64	228.5
275.872	233.5
276.104	221.5
276.335	212.5
276.567	225.5
276.799	225.5
277.031	260.5
277.262	261.5
277.494	269.5
277.726	263.5
277.957	244.5
278.189	234.5
278.421	235.5
278.652	255.5
278.884	235.5
279.115	221.5
279.347	226.5
279.579	245.5
279.81	236.5
280.042	236.5
280.273	237.5
280.505	230.5
280.736	241.5
280.968	238.5
281.199	243.5
281.431	228.5
281.662	249.5
281.894	232.5
282.125	249.5
282.356	253.5
282.588	243.5
282.819	268.5
283.051	239.5
283.282	245.5
283.513	241.5
283.745	249.5
283.976	258.5
284.207	253.5
284.439	248.5
284.67	256.5
284.901	239.5
285.132	243.5
285.364	236.5
285.595	227.5
285.826	257.5
286.057	263.5
286.288	235.5
286.52	246.5
286.751	238.5
286.982	257.5
287.213	263.5
287.444	263.5
287.675	267.5
287.906	294.5
288.138	266.5
288.369	271.5
288.6	279.5
288.831	272.5
289.062	273.5
289.293	254.5
289.524	249.5
289.755	258.5
289.986	254.5
290.217	255.5
290.448	271.5
290.679	263.5
290.91	245.5
291.141	270.5
291.371	264.5
291.602	263.5
291.833	260.5
292.064	261.5
292.295	271.5
292.526	273.5
292.757	276.5
292.987	268.5
293.218	273.5
293.449	271.5
293.68	268.5
293.91	263.5
294.141	268.5
294.372	255.5
294.603	256.5
294.833	263.5
295.064	281.5
295.295	276.5
295.525	253.5
295.756	262.5
295.987	271.5
296.217	284.5
296.448	292.5
296.679	284.5
296.909	268.5
297.14	270.5
297.37	282.5
297.601	267.5
297.831	274.5
298.062	264.5
298.292	283.5
298.523	274.5
298.753	277.5
298.984	275.5
299.214	286.5
299.445	281.5
299.675	262.5
299.905	287.5
300.136	295.5
300.366	290.5
300.597	282.5
300.827	295.5
301.057	285.5
301.288	300.5
301.518	290.5
301.748	277.5
301.979	279.5
302.209	281.5
302.439	289.5
302.669	297.5
302.9	299.5
303.13	294.5
303.36	293.5
303.59	285.5
303.82	314.5
304.051	299.5
304.281	296.5
304.511	282.5
304.741	289.5
304.971	285.5
305.201	294.5
305.431	299.5
305.661	292.5
305.891	281.5
306.121	295.5
306.352	311.5
306.582	298.5
306.812	294.5
307.042	298.5
307.272	302.5
307.502	295.5
307.731	309.5
307.961	290.5
308.191	309.5
308.421	303.5
308.651	311.5
308.881	311.5
309.111	289.5
309.341	290.5
309.571	311.5
309.8	314.5
310.03	305.5
310.26	321.5
310.49	303.5
310.72	308.5
310.949	324.5
311.179	330.5
311.409	295.5
311.639	319.5
311.868	322.5
312.098	307.5
312.328	337.5
312.557	328.5
312.787	341.5
313.017	336.5
313.246	329.5
313.476	322.5
313.706	331.5
313.935	332.5
314.165	341.5
314.394	347.5
314.624	347.5
314.853	327.5
315.083	312.5
315.312	323.5
315.542	312.5
315.771	334.5
316.001	323.5
316.23	327.5
316.46	342.5
316.689	306.5
316.919	333.5
317.148	337.5
317.377	340.5
317.607	334.5
317.836	313.5
318.065	304.5
318.295	318.5
318.524	329.5
318.753	329.5
318.983	315.5
319.212	325.5
319.441	321.5
319.67	315.5
319.9	323.5
320.129	302.5
320.358	315.5
320.587	323.5
320.816	328.5
321.046	325.5
321.275	319.5
321.504	335.5
321.733	358.5
321.962	335.5
322.191	318.5
322.42	353.5
322.649	338.5
322.878	356.5
323.108	350.5
323.337	367.5
323.566	386.5
323.795	407.5
324.024	425.5
324.253	485.5
324.482	657.5
324.71	900.5
324.939	1220.5
325.168	1027.5
325.397	590.5
325.626	441.5
325.855	415.5
326.084	392.5
326.313	384.5
326.542	402.5
326.77	415.5
326.999	472.5
327.228	597.5
327.457	832.5
327.686	915.5
327.914	634.5
328.143	473.5
328.372	468.5
328.6	438.5
328.829	432.5
329.058	432.5
329.287	450.5
329.515	423.5
329.744	417.5
329.972	402.5
330.201	421.5
330.43	441.5
330.658	453.5
330.887	464.5
331.115	441.5
331.344	417.5
331.572	407.5
331.801	403.5
332.03	407.5
332.258	408.5
332.486	392.5
332.715	410.5
332.943	397.5
333.172	419.5
333.4	428.5
333.629	441.5
333.857	433.5
334.085	442.5
334.314	446.5
334.542	461.5
334.771	471.5
334.999	447.5
335.227	417.5
335.455	419.5
335.684	409.5
335.912	406.5
336.14	406.5
336.369	374.5
336.597	386.5
336.825	401.5
337.053	365.5
337.281	370.5
337.51	361.5
337.738	395.5
337.966	375.5
338.194	375.5
338.422	393.5
338.65	376.5
338.878	378.5
339.106	365.5
339.334	378.5
339.562	361.5
339.79	367.5
340.018	365.5
340.246	363.5
340.474	351.5
340.702	347.5
340.93	372.5
341.158	388.5
341.386	382.5
341.614	360.5
341.842	336.5
342.07	348.5
342.298	360.5
342.526	366.5
342.754	367.5
342.981	355.5
343.209	349.5
343.437	344.5
343.665	369.5
343.893	395.5
344.12	404.5
344.348	402.5
344.576	397.5
344.804	366.5
345.031	362.5
345.259	378.5
345.487	387.5
345.714	339.5
345.942	352.5
346.17	347.5
346.397	357.5
346.625	362.5
346.853	358.5
347.08	338.5
347.308	343.5
347.535	351.5
347.763	365.5
347.99	346.5
348.218	346.5
348.445	361.5
348.673	364.5
348.9	360.5
349.128	353.5
349.355	358.5
349.583	345.5
349.81	319.5
350.037	336.5
350.265	330.5
350.492	337.5
350.72	362.5
350.947	343.5
351.174	349.5
351.402	348.5
351.629	347.5
351.856	353.5
352.083	342.5
352.311	349.5
352.538	365.5
352.765	352.5
352.992	345.5
353.22	339.5
353.447	334.5
353.674	343.5
353.901	351.5
354.128	328.5
354.355	342.5
354.583	317.5
354.81	339.5
355.037	310.5
355.264	333.5
355.491	337.5
355.718	343.5
355.945	334.5
356.172	344.5
356.399	321.5
356.626	305.5
356.853	326.5
357.08	329.5
357.307	323.5
357.534	332.5
357.761	326.5
357.988	331.5
358.215	326.5
358.441	318.5
358.668	320.5
358.895	315.5
359.122	322.5
359.349	335.5
359.576	359.5
359.802	339.5
360.029	380.5
360.256	373.5
360.483	374.5
360.709	338.5
360.936	345.5
361.163	325.5
361.39	347.5
361.616	350.5
361.843	357.5
362.07	336.5
362.296	330.5
362.523	329.5
362.749	323.5
362.976	333.5
363.203	328.5
363.429	337.5
363.656	336.5
363.882	334.5
364.109	321.5
364.335	329.5
364.562	328.5
364.788	347.5
365.015	354.5
365.241	326.5
365.468	337.5
365.694	323.5
365.92	331.5
366.147	333.5
366.373	326.5
366.599	326.5
366.826	327.5
367.052	326.5
367.278	326.5
367.505	328.5
367.731	345.5
367.957	334.5
368.184	331.5
368.41	325.5
368.636	353.5
368.862	361.5
369.089	344.5
369.315	321.5
369.541	324.5
369.767	320.5
369.993	334.5
370.219	332.5
370.445	348.5
370.672	331.5
370.898	338.5
371.124	338.5
371.35	340.5
371.576	341.5
371.802	331.5
372.028	333.5
372.254	333.5
372.48	320.5
372.706	342.5
372.932	342.5
373.158	340.5
373.384	361.5
373.61	355.5
373.835	338.5
374.061	354.5
374.287	323.5
374.513	363.5
374.739	345.5
374.965	344.5
375.191	350.5
375.416	340.5
375.642	344.5
375.868	354.5
376.094	338.5
376.319	338.5
376.545	341.5
376.771	321.5
376.997	331.5
377.222	327.5
377.448	323.5
377.674	336.5
377.899	322.5
378.125	323.5
378.35	334.5
378.576	347.5
378.802	327.5
379.027	338.5
379.253	313.5
379.478	318.5
379.704	341.5
379.929	348.5
380.155	330.5
380.38	334.5
380.606	330.5
380.831	341.5
381.057	327.5
381.282	327.5
381.507	331.5
381.733	320.5
381.958	332.5
382.184	349.5
382.409	345.5
382.634	343.5
382.86	353.5
383.085	342.5
383.31	332.5
383.535	350.5
383.761	341.5
383.986	345.5
384.211	351.5
384.436	368.5
384.662	356.5
384.887	365.5
385.112	356.5
385.337	373.5
385.562	389.5
385.787	374.5
386.013	383.5
386.238	371.5
386.463	377.5
386.688	382.5
386.913	374.5
387.138	361.5
387.363	346.5
387.588	381.5
387.813	369.5
388.038	358.5
388.263	381.5
388.488	375.5
388.713	376.5
388.938	386.5
389.163	388.5
389.387	378.5
389.612	365.5
389.837	345.5
390.062	360.5
390.287	371.5
390.512	379.5
390.736	384.5
390.961	376.5
391.186	370.5
391.411	377.5
391.636	397.5
391.86	390.5
392.085	397.5
392.31	385.5
392.534	389.5
392.759	370.5
392.984	373.5
393.208	390.5
393.433	395.5
393.658	386.5
393.882	402.5
394.107	387.5
394.331	389.5
394.556	381.5
394.78	387.5
395.005	373.5
395.229	391.5
395.454	392.5
395.678	418.5
395.903	405.5
396.127	405.5
396.352	423.5
396.576	362.5
396.801	383.5
397.025	397.5
397.249	394.5
397.474	395.5
397.698	394.5
397.922	433.5
398.147	411.5
398.371	420.5
398.595	416.5
398.82	442.5
399.044	453.5
399.268	488.5
399.492	507.5
399.717	553.5
399.941	562.5
400.165	559.5
400.389	522.5
400.613	497.5
400.837	456.5
401.062	446.5
401.286	451.5
401.51	438.5
401.734	421.5
401.958	459.5
402.182	439.5
402.406	447.5
402.63	477.5
402.854	466.5
403.078	458.5
403.302	460.5
403.526	461.5
403.75	477.5
403.974	468.5
404.198	479.5
404.422	488.5
404.645	479.5
404.869	482.5
405.093	489.5
405.317	525.5
405.541	515.5
405.765	505.5
405.988	500.5
406.212	499.5
406.436	491.5
406.66	514.5
406.883	503.5
407.107	518.5
407.331	539.5
407.555	573.5
407.778	560.5
408.002	559.5
408.226	503.5
408.449	505.5
408.673	499.5
408.896	511.5
409.12	537.5
409.344	506.5
409.567	454.5
409.791	465.5
410.014	463.5
410.238	452.5
410.461	455.5
410.685	460.5
410.908	455.5
411.132	475.5
411.355	510.5
411.578	494.5
411.802	450.5
412.025	451.5
412.249	458.5
412.472	488.5
412.695	513.5
412.919	485.5
413.142	440.5
413.365	451.5
413.589	451.5
413.812	445.5
414.035	436.5
414.258	427.5
414.482	431.5
414.705	435.5
414.928	435.5
415.151	456.5
415.374	424.5
415.597	451.5
415.821	416.5
416.044	425.5
416.267	434.5
416.49	441.5
416.713	430.5
416.936	439.5
417.159	409.5
417.382	417.5
417.605	440.5
417.828	429.5
418.051	433.5
418.274	431.5
418.497	430.5
418.72	436.5
418.943	437.5
419.166	457.5
419.389	465.5
419.611	456.5
419.834	465.5
420.057	455.5
420.28	452.5
420.503	447.5
420.726	440.5
420.948	442.5
421.171	469.5
421.394	497.5
421.617	456.5
421.839	446.5
422.062	455.5
422.285	477.5
422.507	500.5
422.73	527.5
422.953	503.5
423.175	475.5
423.398	446.5
423.621	471.5
423.843	482.5
424.066	481.5
424.288	480.5
424.511	490.5
424.733	515.5
424.956	546.5
425.178	534.5
425.401	544.5
425.623	549.5
425.846	473.5
426.068	471.5
426.291	446.5
426.513	461.5
426.735	458.5
426.958	463.5
427.18	522.5
427.402	586.5
427.625	626.5
427.847	554.5
428.069	501.5
428.292	460.5
428.514	435.5
428.736	436.5
428.958	436.5
429.181	404.5
429.403	411.5
429.625	430.5
429.847	434.5
430.069	478.5
430.292	489.5
430.514	439.5
430.736	410.5
430.958	414.5
431.18	402.5
431.402	391.5
431.624	388.5
431.846	391.5
432.068	423.5
432.29	417.5
432.512	429.5
432.734	418.5
432.956	397.5
433.178	423.5
433.4	434.5
433.622	421.5
433.844	429.5
434.066	431.5
434.287	425.5
434.509	415.5
434.731	421.5
434.953	446.5
435.175	437.5
435.397	456.5
435.618	451.5
435.84	478.5
436.062	519.5
436.284	528.5
436.505	481.5
436.727	446.5
436.949	427.5
437.17	452.5
437.392	403.5
437.614	430.5
437.835	442.5
438.057	486.5
438.278	561.5
438.5	550.5
438.721	595.5
438.943	581.5
439.165	484.5
439.386	442.5
439.608	433.5
439.829	443.5
440.05	466.5
440.272	480.5
440.493	456.5
440.715	439.5
440.936	444.5
441.158	446.5
441.379	433.5
441.6	455.5
441.822	457.5
442.043	488.5
442.264	541.5
442.486	553.5
442.707	493.5
442.928	447.5
443.149	465.5
443.371	485.5
443.592	516.5
443.813	568.5
444.034	599.5
444.255	527.5
444.476	494.5
444.698	481.5
444.919	524.5
445.14	614.5
445.361	536.5
445.582	500.5
445.803	494.5
446.024	561.5
446.245	562.5
446.466	534.5
446.687	465.5
446.908	447.5
447.129	433.5
447.35	437.5
447.571	401.5
447.792	403.5
448.013	403.5
448.234	418.5
448.455	456.5
448.675	522.5
448.896	575.5
449.117	499.5
449.338	511.5
449.559	538.5
449.779	602.5
450	496.5
450.221	431.5
450.442	402.5
450.662	401.5
450.883	423.5
451.104	399.5
451.324	407.5
451.545	408.5
451.766	393.5
451.986	357.5
452.207	385.5
452.428	369.5
452.648	384.5
452.869	375.5
453.089	398.5
453.31	398.5
453.53	374.5
453.751	360.5
453.971	377.5
454.192	389.5
454.412	389.5
454.633	385.5
454.853	369.5
455.073	366.5
455.294	386.5
455.514	420.5
455.734	406.5
455.955	387.5
456.175	365.5
456.395	357.5
456.616	354.5
456.836	346.5
457.056	351.5
457.276	350.5
457.497	353.5
457.717	369.5
457.937	367.5
458.157	379.5
458.377	369.5
458.598	379.5
458.818	423.5
459.038	479.5
459.258	468.5
459.478	443.5
459.698	422.5
459.918	402.5
460.138	421.5
460.358	442.5
460.578	427.5
460.798	434.5
461.018	454.5
461.238	437.5
461.458	425.5
461.678	425.5
461.898	441.5
462.118	439.5
462.338	435.5
462.558	446.5
462.777	463.5
462.997	489.5
463.217	515.5
463.437	523.5
463.657	488.5
463.876	477.5
464.096	460.5
464.316	478.5
464.536	509.5
464.755	487.5
464.975	483.5
465.195	470.5
465.414	530.5
465.634	460.5
465.854	432.5
466.073	442.5
466.293	384.5
466.512	403.5
466.732	413.5
466.951	388.5
467.171	402.5
467.391	367.5
467.61	399.5
467.829	399.5
468.049	413.5
468.268	408.5
468.488	383.5
468.707	396.5
468.927	390.5
469.146	389.5
469.365	377.5
469.585	393.5
469.804	394.5
470.023	385.5
470.243	415.5
470.462	400.5
470.681	405.5
470.901	416.5
471.12	408.5
471.339	391.5
471.558	408.5
471.777	397.5
471.997	388.5
472.216	375.5
472.435	419.5
472.654	400.5
472.873	394.5
473.092	373.5
473.311	397.5
473.53	393.5
473.749	409.5
473.968	425.5
474.187	469.5
474.406	477.5
474.625	417.5
474.844	376.5
475.063	384.5
475.282	382.5
475.501	395.5
475.72	403.5
475.939	392.5
476.158	420.5
476.377	400.5
476.596	414.5
476.814	402.5
477.033	418.5
477.252	412.5
477.471	405.5
477.69	431.5
477.908	442.5
478.127	424.5
478.346	436.5
478.564	451.5
478.783	433.5
479.002	448.5
479.22	464.5
479.439	462.5
479.658	472.5
479.876	488.5
480.095	463.5
480.313	494.5
480.532	504.5
480.751	490.5
480.969	498.5
481.188	498.5
481.406	530.5
481.624	504.5
481.843	441.5
482.061	437.5
482.28	446.5
482.498	454.5
482.717	425.5
482.935	435.5
483.153	438.5
483.372	459.5
483.59	429.5
483.808	468.5
484.027	459.5
484.245	463.5
484.463	448.5
484.681	450.5
484.9	452.5
485.118	461.5
485.336	457.5
485.554	467.5
485.772	454.5
485.99	477.5
486.209	471.5
486.427	471.5
486.645	460.5
486.863	470.5
487.081	473.5
487.299	478.5
487.517	493.5
487.735	493.5
487.953	485.5
488.171	509.5
488.389	484.5
488.607	483.5
488.825	465.5
489.043	480.5
489.261	472.5
489.479	462.5
489.696	490.5
489.914	513.5
490.132	512.5
490.35	500.5
490.568	512.5
490.786	517.5
491.003	526.5
491.221	535.5
491.439	550.5
491.657	542.5
491.874	555.5
492.092	544.5
492.31	567.5
492.527	555.5
492.745	561.5
492.963	573.5
493.18	567.5
493.398	581.5
493.615	575.5
493.833	603.5
494.05	585.5
494.268	569.5
494.485	584.5
494.703	561.5
494.92	552.5
495.138	576.5
495.355	563.5
495.573	578.5
495.79	565.5
496.008	560.5
496.225	554.5
496.442	559.5
496.66	575.5
496.877	561.5
497.094	573.5
497.312	563.5
497.529	584.5
497.746	618.5
497.963	614.5
498.181	638.5
498.398	656.5
498.615	671.5
498.832	661.5
499.049	705.5
499.267	742.5
499.484	757.5
499.701	821.5
499.918	868.5
500.135	901.5
500.352	987.5
500.569	1014.5
500.786	1010.5
501.003	949.5
501.22	914.5
501.437	850.5
501.654	825.5
501.871	765.5
502.088	738.5
502.305	722.5
502.522	676.5
502.739	660.5
502.956	634.5
503.172	613.5
503.389	624.5
503.606	597.5
503.823	578.5
504.04	591.5
504.256	584.5
504.473	591.5
504.69	601.5
504.907	575.5
505.123	563.5
505.34	577.5
505.557	566.5
505.773	535.5
505.99	541.5
506.207	522.5
506.423	530.5
506.64	534.5
506.856	512.5
507.073	513.5
507.289	526.5
507.506	513.5
507.722	509.5
507.939	531.5
508.155	516.5
508.372	496.5
508.588	488.5
508.805	488.5
509.021	488.5
509.238	483.5
509.454	513.5
509.67	507.5
509.887	471.5
510.103	472.5
510.319	490.5
510.536	534.5
510.752	787.5
510.968	655.5
511.184	479.5
511.401	462.5
511.617	460.5
511.833	451.5
512.049	447.5
512.265	478.5
512.481	446.5
512.698	445.5
512.914	466.5
513.13	458.5
513.346	473.5
513.562	454.5
513.778	454.5
513.994	460.5
514.21	475.5
514.426	461.5
514.642	513.5
514.858	495.5
515.074	525.5
515.29	608.5
515.506	823.5
515.721	693.5
515.937	538.5
516.153	518.5
516.369	502.5
516.585	514.5
516.801	473.5
517.016	487.5
517.232	524.5
517.448	525.5
517.664	546.5
517.879	537.5
518.095	522.5
518.311	521.5
518.527	524.5
518.742	488.5
518.958	495.5
519.173	474.5
519.389	497.5
519.605	467.5
519.82	491.5
520.036	468.5
