Data from 1969.PennyLincolnUp.Lamp.En5.5.200Scan.071719.P1._HRD10591_14-56-13-972.txt Node
Date: Thu Jul 18 14:56:13 EDT 2019
User: cochatt
Spectrometer: HR+D1059
Trigger mode: 1
Integration Time (sec): 1.000000E-1
Scans to average: 1
Electric dark correction enabled: true
Nonlinearity correction enabled: false
Boxcar width: 0
XAxis mode: Wavelengths
Number of Pixels in Spectrum: 2048
>>>>>Begin Spectral Data<<<<<
223.165	-3.88
223.4	-3.88
223.635	-3.88
223.869	-16.88
224.104	-25.88
224.338	-17.88
224.573	-23.88
224.808	-2.88
225.042	-10.88
225.277	5.12
225.511	-4.88
225.746	-6.88
225.98	6.12
226.215	13.12
226.449	34.12
226.683	4.12
226.918	22.12
227.152	29.12
227.387	34.12
227.621	44.12
227.856	53.12
228.09	45.12
228.324	45.12
228.559	46.12
228.793	62.12
229.027	92.12
229.262	96.12
229.496	94.12
229.73	104.12
229.964	121.12
230.199	117.12
230.433	115.12
230.667	100.12
230.901	109.12
231.136	93.12
231.37	108.12
231.604	99.12
231.838	116.12
232.072	101.12
232.306	112.12
232.541	113.12
232.775	100.12
233.009	113.12
233.243	123.12
233.477	110.12
233.711	111.12
233.945	117.12
234.179	114.12
234.413	122.12
234.647	111.12
234.881	110.12
235.115	121.12
235.349	119.12
235.583	128.12
235.817	100.12
236.051	123.12
236.285	109.12
236.519	105.12
236.753	121.12
236.987	124.12
237.221	156.12
237.455	170.12
237.689	136.12
237.922	128.12
238.156	130.12
238.39	104.12
238.624	115.12
238.858	118.12
239.091	108.12
239.325	110.12
239.559	108.12
239.793	118.12
240.027	124.12
240.26	122.12
240.494	132.12
240.728	134.12
240.961	141.12
241.195	138.12
241.429	120.12
241.662	120.12
241.896	119.12
242.13	107.12
242.363	109.12
242.597	120.12
242.83	127.12
243.064	132.12
243.298	134.12
243.531	137.12
243.765	143.12
243.998	132.12
244.232	135.12
244.465	139.12
244.699	132.12
244.932	133.12
245.166	134.12
245.399	136.12
245.633	136.12
245.866	130.12
246.099	136.12
246.333	136.12
246.566	139.12
246.8	137.12
247.033	129.12
247.266	135.12
247.5	144.12
247.733	152.12
247.966	153.12
248.2	159.12
248.433	146.12
248.666	155.12
248.899	172.12
249.133	170.12
249.366	177.12
249.599	150.12
249.832	149.12
250.066	159.12
250.299	158.12
250.532	157.12
250.765	176.12
250.998	188.12
251.231	183.12
251.465	181.12
251.698	185.12
251.931	167.12
252.164	173.12
252.397	154.12
252.63	165.12
252.863	167.12
253.096	163.12
253.329	201.12
253.562	184.12
253.795	161.12
254.028	175.12
254.261	189.12
254.494	198.12
254.727	209.12
254.96	202.12
255.193	211.12
255.426	201.12
255.659	199.12
255.892	190.12
256.124	214.12
256.357	183.12
256.59	196.12
256.823	191.12
257.056	172.12
257.289	189.12
257.521	187.12
257.754	175.12
257.987	160.12
258.22	169.12
258.452	174.12
258.685	174.12
258.918	171.12
259.151	166.12
259.383	190.12
259.616	185.12
259.849	201.12
260.081	184.12
260.314	206.12
260.547	215.12
260.779	202.12
261.012	186.12
261.244	192.12
261.477	203.12
261.71	187.12
261.942	201.12
262.175	187.12
262.407	205.12
262.64	189.12
262.872	200.12
263.105	172.12
263.337	180.12
263.57	186.12
263.802	190.12
264.035	191.12
264.267	191.12
264.499	174.12
264.732	196.12
264.964	182.12
265.197	177.12
265.429	199.12
265.661	180.12
265.894	197.12
266.126	190.12
266.358	215.12
266.591	188.12
266.823	192.12
267.055	186.12
267.287	205.12
267.52	192.12
267.752	194.12
267.984	219.12
268.216	213.12
268.448	217.12
268.681	190.12
268.913	214.12
269.145	225.12
269.377	224.12
269.609	237.12
269.841	217.12
270.073	228.12
270.306	230.12
270.538	264.12
270.77	230.12
271.002	232.12
271.234	236.12
271.466	253.12
271.698	254.12
271.93	238.12
272.162	263.12
272.394	269.12
272.626	274.12
272.858	234.12
273.09	242.12
273.322	245.12
273.553	225.12
273.785	218.12
274.017	235.12
274.249	237.12
274.481	228.12
274.713	224.12
274.945	231.12
275.176	245.12
275.408	223.12
275.64	231.12
275.872	224.12
276.104	226.12
276.335	223.12
276.567	218.12
276.799	260.12
277.031	262.12
277.262	266.12
277.494	281.12
277.726	248.12
277.957	256.12
278.189	231.12
278.421	241.12
278.652	233.12
278.884	225.12
279.115	233.12
279.347	230.12
279.579	249.12
279.81	218.12
280.042	243.12
280.273	234.12
280.505	235.12
280.736	230.12
280.968	239.12
281.199	253.12
281.431	245.12
281.662	239.12
281.894	233.12
282.125	238.12
282.356	263.12
282.588	269.12
282.819	268.12
283.051	247.12
283.282	239.12
283.513	242.12
283.745	250.12
283.976	242.12
284.207	267.12
284.439	254.12
284.67	266.12
284.901	265.12
285.132	249.12
285.364	245.12
285.595	249.12
285.826	248.12
286.057	257.12
286.288	271.12
286.52	257.12
286.751	267.12
286.982	234.12
287.213	242.12
287.444	257.12
287.675	250.12
287.906	266.12
288.138	270.12
288.369	267.12
288.6	273.12
288.831	266.12
289.062	268.12
289.293	284.12
289.524	258.12
289.755	241.12
289.986	255.12
290.217	247.12
290.448	250.12
290.679	252.12
290.91	266.12
291.141	261.12
291.371	273.12
291.602	285.12
291.833	243.12
292.064	273.12
292.295	256.12
292.526	258.12
292.757	272.12
292.987	268.12
293.218	257.12
293.449	252.12
293.68	268.12
293.91	273.12
294.141	266.12
294.372	266.12
294.603	264.12
294.833	262.12
295.064	271.12
295.295	267.12
295.525	274.12
295.756	266.12
295.987	274.12
296.217	289.12
296.448	270.12
296.679	256.12
296.909	242.12
297.14	275.12
297.37	273.12
297.601	301.12
297.831	278.12
298.062	277.12
298.292	266.12
298.523	292.12
298.753	269.12
298.984	282.12
299.214	288.12
299.445	279.12
299.675	293.12
299.905	272.12
300.136	279.12
300.366	280.12
300.597	287.12
300.827	287.12
301.057	281.12
301.288	296.12
301.518	282.12
301.748	265.12
301.979	302.12
302.209	311.12
302.439	295.12
302.669	271.12
302.9	308.12
303.13	302.12
303.36	286.12
303.59	285.12
303.82	300.12
304.051	304.12
304.281	297.12
304.511	282.12
304.741	289.12
304.971	302.12
305.201	292.12
305.431	297.12
305.661	297.12
305.891	280.12
306.121	295.12
306.352	301.12
306.582	311.12
306.812	278.12
307.042	286.12
307.272	283.12
307.502	309.12
307.731	309.12
307.961	281.12
308.191	302.12
308.421	296.12
308.651	290.12
308.881	303.12
309.111	307.12
309.341	300.12
309.571	301.12
309.8	295.12
310.03	305.12
310.26	318.12
310.49	306.12
310.72	327.12
310.949	329.12
311.179	313.12
311.409	330.12
311.639	322.12
311.868	304.12
312.098	324.12
312.328	330.12
312.557	318.12
312.787	330.12
313.017	348.12
313.246	326.12
313.476	325.12
313.706	315.12
313.935	325.12
314.165	324.12
314.394	346.12
314.624	322.12
314.853	317.12
315.083	336.12
315.312	338.12
315.542	321.12
315.771	313.12
316.001	318.12
316.23	316.12
316.46	332.12
316.689	318.12
316.919	325.12
317.148	336.12
317.377	322.12
317.607	313.12
317.836	320.12
318.065	329.12
318.295	328.12
318.524	321.12
318.753	322.12
318.983	322.12
319.212	314.12
319.441	318.12
319.67	339.12
319.9	315.12
320.129	334.12
320.358	321.12
320.587	348.12
320.816	324.12
321.046	345.12
321.275	348.12
321.504	325.12
321.733	333.12
321.962	332.12
322.191	324.12
322.42	353.12
322.649	347.12
322.878	345.12
323.108	362.12
323.337	389.12
323.566	376.12
323.795	396.12
324.024	423.12
324.253	478.12
324.482	614.12
324.71	912.12
324.939	1220.12
325.168	1003.12
325.397	562.12
325.626	436.12
325.855	389.12
326.084	376.12
326.313	383.12
326.542	414.12
326.77	417.12
326.999	452.12
327.228	584.12
327.457	791.12
327.686	877.12
327.914	647.12
328.143	479.12
328.372	430.12
328.6	422.12
328.829	414.12
329.058	432.12
329.287	436.12
329.515	419.12
329.744	401.12
329.972	396.12
330.201	410.12
330.43	436.12
330.658	446.12
330.887	450.12
331.115	430.12
331.344	384.12
331.572	385.12
331.801	390.12
332.03	376.12
332.258	402.12
332.486	383.12
332.715	388.12
332.943	386.12
333.172	422.12
333.4	432.12
333.629	416.12
333.857	431.12
334.085	440.12
334.314	438.12
334.542	464.12
334.771	473.12
334.999	438.12
335.227	407.12
335.455	405.12
335.684	412.12
335.912	414.12
336.14	397.12
336.369	382.12
336.597	399.12
336.825	405.12
337.053	381.12
337.281	388.12
337.51	393.12
337.738	382.12
337.966	372.12
338.194	376.12
338.422	365.12
338.65	376.12
338.878	369.12
339.106	366.12
339.334	392.12
339.562	357.12
339.79	360.12
340.018	369.12
340.246	366.12
340.474	368.12
340.702	347.12
340.93	362.12
341.158	365.12
341.386	375.12
341.614	349.12
341.842	356.12
342.07	346.12
342.298	343.12
342.526	338.12
342.754	344.12
342.981	349.12
343.209	360.12
343.437	384.12
343.665	380.12
343.893	390.12
344.12	394.12
344.348	383.12
344.576	372.12
344.804	372.12
345.031	368.12
345.259	360.12
345.487	381.12
345.714	351.12
345.942	361.12
346.17	346.12
346.397	348.12
346.625	336.12
346.853	351.12
347.08	357.12
347.308	362.12
347.535	343.12
347.763	339.12
347.99	343.12
348.218	356.12
348.445	344.12
348.673	335.12
348.9	352.12
349.128	349.12
349.355	351.12
349.583	340.12
349.81	335.12
350.037	344.12
350.265	340.12
350.492	341.12
350.72	331.12
350.947	324.12
351.174	348.12
351.402	333.12
351.629	343.12
351.856	348.12
352.083	343.12
352.311	335.12
352.538	361.12
352.765	338.12
352.992	343.12
353.22	330.12
353.447	326.12
353.674	330.12
353.901	329.12
354.128	327.12
354.355	348.12
354.583	334.12
354.81	329.12
355.037	324.12
355.264	335.12
355.491	338.12
355.718	314.12
355.945	336.12
356.172	324.12
356.399	327.12
356.626	325.12
356.853	334.12
357.08	322.12
357.307	323.12
357.534	329.12
357.761	340.12
357.988	315.12
358.215	332.12
358.441	336.12
358.668	331.12
358.895	314.12
359.122	329.12
359.349	335.12
359.576	343.12
359.802	350.12
360.029	362.12
360.256	356.12
360.483	350.12
360.709	337.12
360.936	343.12
361.163	324.12
361.39	346.12
361.616	349.12
361.843	328.12
362.07	334.12
362.296	342.12
362.523	356.12
362.749	340.12
362.976	345.12
363.203	348.12
363.429	324.12
363.656	328.12
363.882	341.12
364.109	324.12
364.335	336.12
364.562	324.12
364.788	337.12
365.015	316.12
365.241	326.12
365.468	333.12
365.694	337.12
365.92	334.12
366.147	310.12
366.373	334.12
366.599	335.12
366.826	312.12
367.052	300.12
367.278	323.12
367.505	337.12
367.731	351.12
367.957	349.12
368.184	314.12
368.41	338.12
368.636	329.12
368.862	338.12
369.089	325.12
369.315	328.12
369.541	309.12
369.767	323.12
369.993	337.12
370.219	321.12
370.445	331.12
370.672	326.12
370.898	333.12
371.124	337.12
371.35	341.12
371.576	308.12
371.802	332.12
372.028	329.12
372.254	348.12
372.48	332.12
372.706	330.12
372.932	354.12
373.158	362.12
373.384	339.12
373.61	340.12
373.835	338.12
374.061	340.12
374.287	338.12
374.513	342.12
374.739	346.12
374.965	342.12
375.191	357.12
375.416	356.12
375.642	345.12
375.868	328.12
376.094	338.12
376.319	336.12
376.545	331.12
376.771	331.12
376.997	345.12
377.222	328.12
377.448	334.12
377.674	324.12
377.899	333.12
378.125	314.12
378.35	333.12
378.576	334.12
378.802	327.12
379.027	320.12
379.253	322.12
379.478	326.12
379.704	335.12
379.929	318.12
380.155	316.12
380.38	326.12
380.606	333.12
380.831	350.12
381.057	347.12
381.282	333.12
381.507	332.12
381.733	332.12
381.958	327.12
382.184	337.12
382.409	336.12
382.634	353.12
382.86	333.12
383.085	351.12
383.31	361.12
383.535	343.12
383.761	344.12
383.986	350.12
384.211	345.12
384.436	363.12
384.662	356.12
384.887	368.12
385.112	349.12
385.337	388.12
385.562	378.12
385.787	356.12
386.013	371.12
386.238	387.12
386.463	376.12
386.688	385.12
386.913	374.12
387.138	370.12
387.363	348.12
387.588	372.12
387.813	348.12
388.038	365.12
388.263	362.12
388.488	379.12
388.713	391.12
388.938	389.12
389.163	368.12
389.387	369.12
389.612	376.12
389.837	360.12
390.062	378.12
390.287	364.12
390.512	364.12
390.736	381.12
390.961	380.12
391.186	388.12
391.411	400.12
391.636	389.12
391.86	413.12
392.085	391.12
392.31	400.12
392.534	394.12
392.759	400.12
392.984	395.12
393.208	382.12
393.433	386.12
393.658	370.12
393.882	374.12
394.107	373.12
394.331	392.12
394.556	382.12
394.78	388.12
395.005	393.12
395.229	378.12
395.454	391.12
395.678	396.12
395.903	414.12
396.127	391.12
396.352	410.12
396.576	396.12
396.801	368.12
397.025	392.12
397.249	387.12
397.474	400.12
397.698	393.12
397.922	407.12
398.147	408.12
398.371	409.12
398.595	414.12
398.82	429.12
399.044	441.12
399.268	484.12
399.492	528.12
399.717	546.12
399.941	554.12
400.165	557.12
400.389	530.12
400.613	500.12
400.837	457.12
401.062	442.12
401.286	413.12
401.51	422.12
401.734	445.12
401.958	440.12
402.182	450.12
402.406	439.12
402.63	427.12
402.854	464.12
403.078	467.12
403.302	456.12
403.526	480.12
403.75	473.12
403.974	473.12
404.198	458.12
404.422	478.12
404.645	469.12
404.869	467.12
405.093	480.12
405.317	513.12
405.541	511.12
405.765	475.12
405.988	460.12
406.212	495.12
406.436	488.12
406.66	504.12
406.883	470.12
407.107	492.12
407.331	533.12
407.555	564.12
407.778	547.12
408.002	509.12
408.226	498.12
408.449	506.12
408.673	480.12
408.896	497.12
409.12	517.12
409.344	496.12
409.567	466.12
409.791	463.12
410.014	460.12
410.238	452.12
410.461	469.12
410.685	457.12
410.908	472.12
411.132	459.12
411.355	489.12
411.578	462.12
411.802	432.12
412.025	436.12
412.249	454.12
412.472	452.12
412.695	475.12
412.919	444.12
413.142	443.12
413.365	429.12
413.589	433.12
413.812	430.12
414.035	429.12
414.258	430.12
414.482	408.12
414.705	432.12
414.928	428.12
415.151	422.12
415.374	458.12
415.597	426.12
415.821	417.12
416.044	420.12
416.267	426.12
416.49	421.12
416.713	394.12
416.936	430.12
417.159	394.12
417.382	409.12
417.605	419.12
417.828	444.12
418.051	425.12
418.274	442.12
418.497	446.12
418.72	409.12
418.943	413.12
419.166	455.12
419.389	470.12
419.611	477.12
419.834	459.12
420.057	443.12
420.28	455.12
420.503	455.12
420.726	444.12
420.948	443.12
421.171	457.12
421.394	459.12
421.617	438.12
421.839	438.12
422.062	435.12
422.285	428.12
422.507	479.12
422.73	525.12
422.953	513.12
423.175	462.12
423.398	451.12
423.621	459.12
423.843	464.12
424.066	482.12
424.288	466.12
424.511	489.12
424.733	500.12
424.956	529.12
425.178	508.12
425.401	523.12
425.623	522.12
425.846	475.12
426.068	461.12
426.291	444.12
426.513	442.12
426.735	456.12
426.958	483.12
427.18	520.12
427.402	583.12
427.625	642.12
427.847	552.12
428.069	506.12
428.292	438.12
428.514	408.12
428.736	405.12
428.958	408.12
429.181	395.12
429.403	417.12
429.625	429.12
429.847	431.12
430.069	471.12
430.292	450.12
430.514	418.12
430.736	433.12
430.958	420.12
431.18	406.12
431.402	400.12
431.624	383.12
431.846	403.12
432.068	386.12
432.29	394.12
432.512	397.12
432.734	406.12
432.956	424.12
433.178	412.12
433.4	444.12
433.622	415.12
433.844	406.12
434.066	389.12
434.287	412.12
434.509	432.12
434.731	415.12
434.953	452.12
435.175	438.12
435.397	460.12
435.618	452.12
435.84	461.12
436.062	522.12
436.284	566.12
436.505	478.12
436.727	431.12
436.949	408.12
437.17	407.12
437.392	409.12
437.614	420.12
437.835	441.12
438.057	484.12
438.278	513.12
438.5	524.12
438.721	572.12
438.943	545.12
439.165	477.12
439.386	441.12
439.608	427.12
439.829	436.12
440.05	446.12
440.272	462.12
440.493	429.12
440.715	417.12
440.936	432.12
441.158	406.12
441.379	429.12
441.6	457.12
441.822	462.12
442.043	459.12
442.264	529.12
442.486	540.12
442.707	467.12
442.928	488.12
443.149	461.12
443.371	487.12
443.592	506.12
443.813	563.12
444.034	591.12
444.255	505.12
444.476	470.12
444.698	491.12
444.919	481.12
445.14	590.12
445.361	546.12
445.582	502.12
445.803	496.12
446.024	571.12
446.245	556.12
446.466	514.12
446.687	449.12
446.908	430.12
447.129	428.12
447.35	407.12
447.571	422.12
447.792	381.12
448.013	420.12
448.234	436.12
448.455	469.12
448.675	517.12
448.896	559.12
449.117	508.12
449.338	461.12
449.559	546.12
449.779	580.12
450	470.12
450.221	420.12
450.442	399.12
450.662	394.12
450.883	406.12
451.104	415.12
451.324	418.12
451.545	394.12
451.766	396.12
451.986	378.12
452.207	365.12
452.428	372.12
452.648	368.12
452.869	344.12
453.089	385.12
453.31	385.12
453.53	368.12
453.751	364.12
453.971	362.12
454.192	373.12
454.412	366.12
454.633	362.12
454.853	368.12
455.073	360.12
455.294	377.12
455.514	430.12
455.734	385.12
455.955	365.12
456.175	362.12
456.395	344.12
456.616	352.12
456.836	352.12
457.056	344.12
457.276	336.12
457.497	326.12
457.717	337.12
457.937	346.12
458.157	364.12
458.377	357.12
458.598	391.12
458.818	432.12
459.038	455.12
459.258	478.12
459.478	424.12
459.698	408.12
459.918	414.12
460.138	431.12
460.358	437.12
460.578	398.12
460.798	417.12
461.018	414.12
461.238	424.12
461.458	441.12
461.678	410.12
461.898	429.12
462.118	415.12
462.338	437.12
462.558	462.12
462.777	458.12
462.997	487.12
463.217	511.12
463.437	502.12
463.657	487.12
463.876	477.12
464.096	439.12
464.316	461.12
464.536	469.12
464.755	478.12
464.975	468.12
465.195	489.12
465.414	513.12
465.634	448.12
465.854	425.12
466.073	404.12
466.293	399.12
466.512	403.12
466.732	372.12
466.951	393.12
467.171	402.12
467.391	391.12
467.61	399.12
467.829	407.12
468.049	372.12
468.268	392.12
468.488	393.12
468.707	358.12
468.927	376.12
469.146	366.12
469.365	396.12
469.585	392.12
469.804	382.12
470.023	397.12
470.243	387.12
470.462	390.12
470.681	385.12
470.901	404.12
471.12	392.12
471.339	380.12
471.558	395.12
471.777	394.12
471.997	412.12
472.216	396.12
472.435	420.12
472.654	387.12
472.873	400.12
473.092	378.12
473.311	372.12
473.53	374.12
473.749	412.12
473.968	425.12
474.187	478.12
474.406	481.12
474.625	428.12
474.844	402.12
475.063	375.12
475.282	401.12
475.501	384.12
475.72	377.12
475.939	407.12
476.158	384.12
476.377	386.12
476.596	402.12
476.814	422.12
477.033	410.12
477.252	425.12
477.471	399.12
477.69	412.12
477.908	414.12
478.127	444.12
478.346	437.12
478.564	434.12
478.783	423.12
479.002	437.12
479.22	453.12
479.439	428.12
479.658	452.12
479.876	453.12
480.095	481.12
480.313	500.12
480.532	485.12
480.751	482.12
480.969	471.12
481.188	517.12
481.406	523.12
481.624	476.12
481.843	455.12
482.061	458.12
482.28	438.12
482.498	452.12
482.717	447.12
482.935	447.12
483.153	439.12
483.372	452.12
483.59	439.12
483.808	451.12
484.027	435.12
484.245	448.12
484.463	440.12
484.681	463.12
484.9	446.12
485.118	459.12
485.336	455.12
485.554	447.12
485.772	454.12
485.99	449.12
486.209	446.12
486.427	470.12
486.645	476.12
486.863	457.12
487.081	465.12
487.299	474.12
487.517	452.12
487.735	472.12
487.953	447.12
488.171	475.12
488.389	488.12
488.607	460.12
488.825	472.12
489.043	473.12
489.261	473.12
489.479	496.12
489.696	463.12
489.914	482.12
490.132	488.12
490.35	490.12
490.568	486.12
490.786	514.12
491.003	530.12
491.221	492.12
491.439	516.12
491.657	524.12
491.874	519.12
492.092	529.12
492.31	553.12
492.527	555.12
492.745	534.12
492.963	545.12
493.18	568.12
493.398	545.12
493.615	561.12
493.833	559.12
494.05	549.12
494.268	544.12
494.485	545.12
494.703	554.12
494.92	554.12
495.138	549.12
495.355	560.12
495.573	548.12
495.79	560.12
496.008	559.12
496.225	576.12
496.442	583.12
496.66	555.12
496.877	555.12
497.094	575.12
497.312	578.12
497.529	565.12
497.746	584.12
497.963	596.12
498.181	602.12
498.398	630.12
498.615	617.12
498.832	658.12
499.049	704.12
499.267	724.12
499.484	742.12
499.701	796.12
499.918	860.12
500.135	905.12
500.352	998.12
500.569	1003.12
500.786	988.12
501.003	944.12
501.22	903.12
501.437	846.12
501.654	781.12
501.871	754.12
502.088	725.12
