Data from 1969.PennyLincolnUp.Lamp.En5.5.200Scan.071719.P1._HRD10591_14-56-51-972.txt Node
Date: Thu Jul 18 14:56:51 EDT 2019
User: cochatt
Spectrometer: HR+D1059
Trigger mode: 1
Integration Time (sec): 1.000000E-1
Scans to average: 1
Electric dark correction enabled: true
Nonlinearity correction enabled: false
Boxcar width: 0
XAxis mode: Wavelengths
Number of Pixels in Spectrum: 2048
>>>>>Begin Spectral Data<<<<<
223.165	-9.5
223.4	-9.5
223.635	-9.5
223.869	-14.5
224.104	-12.5
224.338	-11.5
224.573	-12.5
224.808	-22.5
225.042	-10.5
225.277	-12.5
225.511	-2.5
225.746	11.5
225.98	13.5
226.215	13.5
226.449	5.5
226.683	23.5
226.918	14.5
227.152	26.5
227.387	31.5
227.621	42.5
227.856	29.5
228.09	33.5
228.324	48.5
228.559	55.5
228.793	61.5
229.027	94.5
229.262	99.5
229.496	89.5
229.73	98.5
229.964	127.5
230.199	107.5
230.433	85.5
230.667	89.5
230.901	104.5
231.136	100.5
231.37	102.5
231.604	107.5
231.838	113.5
232.072	111.5
232.306	104.5
232.541	109.5
232.775	113.5
233.009	105.5
233.243	101.5
233.477	115.5
233.711	113.5
233.945	104.5
234.179	107.5
234.413	115.5
234.647	94.5
234.881	118.5
235.115	103.5
235.349	106.5
235.583	118.5
235.817	106.5
236.051	124.5
236.285	117.5
236.519	111.5
236.753	127.5
236.987	138.5
237.221	149.5
237.455	173.5
237.689	142.5
237.922	115.5
238.156	127.5
238.39	100.5
238.624	115.5
238.858	114.5
239.091	102.5
239.325	119.5
239.559	125.5
239.793	122.5
240.027	118.5
240.26	125.5
240.494	127.5
240.728	144.5
240.961	154.5
241.195	128.5
241.429	138.5
241.662	107.5
241.896	126.5
242.13	115.5
242.363	121.5
242.597	133.5
242.83	140.5
243.064	113.5
243.298	115.5
243.531	134.5
243.765	132.5
243.998	141.5
244.232	123.5
244.465	134.5
244.699	120.5
244.932	126.5
245.166	133.5
245.399	129.5
245.633	125.5
245.866	141.5
246.099	126.5
246.333	130.5
246.566	136.5
246.8	148.5
247.033	140.5
247.266	128.5
247.5	150.5
247.733	163.5
247.966	160.5
248.2	141.5
248.433	171.5
248.666	142.5
248.899	165.5
249.133	185.5
249.366	193.5
249.599	173.5
249.832	143.5
250.066	167.5
250.299	167.5
250.532	177.5
250.765	175.5
250.998	192.5
251.231	205.5
251.465	165.5
251.698	192.5
251.931	174.5
252.164	177.5
252.397	168.5
252.63	187.5
252.863	188.5
253.096	203.5
253.329	202.5
253.562	173.5
253.795	187.5
254.028	189.5
254.261	173.5
254.494	210.5
254.727	233.5
254.96	236.5
255.193	233.5
255.426	211.5
255.659	185.5
255.892	197.5
256.124	196.5
256.357	192.5
256.59	202.5
256.823	196.5
257.056	174.5
257.289	186.5
257.521	190.5
257.754	188.5
257.987	192.5
258.22	178.5
258.452	175.5
258.685	176.5
258.918	191.5
259.151	180.5
259.383	209.5
259.616	192.5
259.849	199.5
260.081	203.5
260.314	208.5
260.547	212.5
260.779	204.5
261.012	211.5
261.244	196.5
261.477	212.5
261.71	187.5
261.942	199.5
262.175	211.5
262.407	195.5
262.64	204.5
262.872	174.5
263.105	176.5
263.337	198.5
263.57	183.5
263.802	191.5
264.035	195.5
264.267	174.5
264.499	187.5
264.732	192.5
264.964	189.5
265.197	188.5
265.429	192.5
265.661	181.5
265.894	208.5
266.126	200.5
266.358	197.5
266.591	208.5
266.823	189.5
267.055	204.5
267.287	193.5
267.52	195.5
267.752	201.5
267.984	207.5
268.216	223.5
268.448	208.5
268.681	220.5
268.913	218.5
269.145	235.5
269.377	256.5
269.609	239.5
269.841	225.5
270.073	255.5
270.306	248.5
270.538	267.5
270.77	280.5
271.002	262.5
271.234	256.5
271.466	241.5
271.698	286.5
271.93	257.5
272.162	264.5
272.394	266.5
272.626	263.5
272.858	252.5
273.09	245.5
273.322	238.5
273.553	238.5
273.785	218.5
274.017	237.5
274.249	232.5
274.481	239.5
274.713	250.5
274.945	243.5
275.176	261.5
275.408	248.5
275.64	240.5
275.872	248.5
276.104	243.5
276.335	214.5
276.567	250.5
276.799	253.5
277.031	287.5
277.262	285.5
277.494	267.5
277.726	277.5
277.957	271.5
278.189	260.5
278.421	257.5
278.652	237.5
278.884	226.5
279.115	244.5
279.347	249.5
279.579	244.5
279.81	230.5
280.042	233.5
280.273	258.5
280.505	241.5
280.736	245.5
280.968	232.5
281.199	257.5
281.431	243.5
281.662	237.5
281.894	244.5
282.125	245.5
282.356	263.5
282.588	271.5
282.819	257.5
283.051	255.5
283.282	245.5
283.513	262.5
283.745	263.5
283.976	245.5
284.207	254.5
284.439	254.5
284.67	252.5
284.901	265.5
285.132	255.5
285.364	265.5
285.595	237.5
285.826	253.5
286.057	249.5
286.288	277.5
286.52	276.5
286.751	256.5
286.982	255.5
287.213	243.5
287.444	285.5
287.675	270.5
287.906	271.5
288.138	249.5
288.369	263.5
288.6	277.5
288.831	288.5
289.062	270.5
289.293	280.5
289.524	274.5
289.755	272.5
289.986	267.5
290.217	279.5
290.448	279.5
290.679	268.5
290.91	267.5
291.141	268.5
291.371	252.5
291.602	280.5
291.833	257.5
292.064	254.5
292.295	261.5
292.526	263.5
292.757	251.5
292.987	269.5
293.218	280.5
293.449	277.5
293.68	274.5
293.91	267.5
294.141	267.5
294.372	272.5
294.603	295.5
294.833	280.5
295.064	268.5
295.295	265.5
295.525	271.5
295.756	277.5
295.987	283.5
296.217	297.5
296.448	307.5
296.679	265.5
296.909	276.5
297.14	273.5
297.37	274.5
297.601	281.5
297.831	281.5
298.062	279.5
298.292	264.5
298.523	292.5
298.753	296.5
298.984	281.5
299.214	273.5
299.445	280.5
299.675	297.5
299.905	296.5
300.136	281.5
300.366	286.5
300.597	291.5
300.827	279.5
301.057	308.5
301.288	313.5
301.518	316.5
301.748	303.5
301.979	285.5
302.209	318.5
302.439	296.5
302.669	303.5
302.9	316.5
303.13	299.5
303.36	295.5
303.59	311.5
303.82	309.5
304.051	310.5
304.281	304.5
304.511	292.5
304.741	289.5
304.971	317.5
305.201	295.5
305.431	284.5
305.661	295.5
305.891	307.5
306.121	314.5
306.352	300.5
306.582	299.5
306.812	295.5
307.042	308.5
307.272	303.5
307.502	295.5
307.731	308.5
307.961	299.5
308.191	289.5
308.421	297.5
308.651	329.5
308.881	283.5
309.111	301.5
309.341	320.5
309.571	316.5
309.8	300.5
310.03	310.5
310.26	323.5
310.49	319.5
310.72	334.5
310.949	337.5
311.179	332.5
311.409	322.5
311.639	329.5
311.868	316.5
312.098	336.5
312.328	336.5
312.557	341.5
312.787	364.5
313.017	337.5
313.246	330.5
313.476	329.5
313.706	316.5
313.935	337.5
314.165	340.5
314.394	352.5
314.624	355.5
314.853	353.5
315.083	334.5
315.312	336.5
315.542	336.5
315.771	326.5
316.001	329.5
316.23	321.5
316.46	315.5
316.689	335.5
316.919	345.5
317.148	335.5
317.377	340.5
317.607	332.5
317.836	333.5
318.065	333.5
318.295	347.5
318.524	331.5
318.753	336.5
318.983	325.5
319.212	346.5
319.441	341.5
319.67	346.5
319.9	313.5
320.129	321.5
320.358	313.5
320.587	350.5
320.816	360.5
321.046	342.5
321.275	340.5
321.504	341.5
321.733	353.5
321.962	331.5
322.191	356.5
322.42	359.5
322.649	360.5
322.878	378.5
323.108	378.5
323.337	386.5
323.566	411.5
323.795	417.5
324.024	422.5
324.253	523.5
324.482	670.5
324.71	989.5
324.939	1294.5
325.168	1031.5
325.397	607.5
325.626	452.5
325.855	410.5
326.084	405.5
326.313	399.5
326.542	394.5
326.77	407.5
326.999	467.5
327.228	626.5
327.457	852.5
327.686	974.5
327.914	679.5
328.143	522.5
328.372	465.5
328.6	455.5
328.829	437.5
329.058	428.5
329.287	442.5
329.515	424.5
329.744	399.5
329.972	433.5
330.201	416.5
330.43	459.5
330.658	487.5
330.887	472.5
331.115	460.5
331.344	433.5
331.572	411.5
331.801	415.5
332.03	410.5
332.258	408.5
332.486	389.5
332.715	399.5
332.943	402.5
333.172	420.5
333.4	410.5
333.629	437.5
333.857	444.5
334.085	428.5
334.314	453.5
334.542	480.5
334.771	470.5
334.999	456.5
335.227	444.5
335.455	415.5
335.684	417.5
335.912	398.5
336.14	403.5
336.369	395.5
336.597	403.5
336.825	393.5
337.053	403.5
337.281	392.5
337.51	385.5
337.738	390.5
337.966	385.5
338.194	387.5
338.422	381.5
338.65	381.5
338.878	372.5
339.106	383.5
339.334	389.5
339.562	375.5
339.79	364.5
340.018	368.5
340.246	363.5
340.474	367.5
340.702	403.5
340.93	374.5
341.158	375.5
341.386	358.5
341.614	362.5
341.842	376.5
342.07	364.5
342.298	368.5
342.526	366.5
342.754	360.5
342.981	366.5
343.209	364.5
343.437	358.5
343.665	395.5
343.893	415.5
344.12	415.5
344.348	392.5
344.576	383.5
344.804	410.5
345.031	377.5
345.259	395.5
345.487	384.5
345.714	389.5
345.942	364.5
346.17	366.5
346.397	344.5
346.625	371.5
346.853	365.5
347.08	333.5
347.308	356.5
347.535	351.5
347.763	360.5
347.99	348.5
348.218	375.5
348.445	341.5
348.673	350.5
348.9	359.5
349.128	347.5
349.355	339.5
349.583	351.5
349.81	350.5
350.037	328.5
350.265	352.5
350.492	358.5
350.72	341.5
350.947	352.5
351.174	372.5
351.402	363.5
351.629	352.5
351.856	357.5
352.083	350.5
352.311	358.5
352.538	366.5
352.765	371.5
352.992	337.5
353.22	362.5
353.447	361.5
353.674	365.5
353.901	319.5
354.128	338.5
354.355	336.5
354.583	344.5
354.81	346.5
355.037	313.5
355.264	328.5
355.491	351.5
355.718	331.5
355.945	326.5
356.172	353.5
356.399	331.5
356.626	338.5
356.853	348.5
357.08	342.5
357.307	353.5
357.534	330.5
357.761	319.5
357.988	344.5
358.215	337.5
358.441	331.5
358.668	335.5
358.895	334.5
359.122	344.5
359.349	352.5
359.576	356.5
359.802	367.5
360.029	363.5
360.256	368.5
360.483	386.5
360.709	341.5
360.936	351.5
361.163	355.5
361.39	348.5
361.616	377.5
361.843	372.5
362.07	376.5
362.296	344.5
362.523	351.5
362.749	353.5
362.976	351.5
363.203	331.5
363.429	339.5
363.656	352.5
363.882	338.5
364.109	339.5
364.335	352.5
364.562	343.5
364.788	335.5
365.015	334.5
365.241	334.5
365.468	342.5
365.694	336.5
365.92	348.5
366.147	365.5
366.373	329.5
366.599	349.5
366.826	326.5
367.052	334.5
367.278	330.5
367.505	325.5
367.731	329.5
367.957	343.5
368.184	337.5
368.41	352.5
368.636	340.5
368.862	347.5
369.089	330.5
369.315	321.5
369.541	332.5
369.767	343.5
369.993	361.5
370.219	320.5
370.445	353.5
370.672	338.5
370.898	349.5
371.124	351.5
371.35	329.5
371.576	348.5
371.802	338.5
372.028	334.5
372.254	368.5
372.48	351.5
372.706	335.5
372.932	356.5
373.158	355.5
373.384	334.5
373.61	343.5
373.835	341.5
374.061	345.5
374.287	343.5
374.513	358.5
374.739	350.5
374.965	350.5
375.191	388.5
375.416	362.5
375.642	345.5
375.868	362.5
376.094	343.5
376.319	348.5
376.545	350.5
376.771	332.5
376.997	349.5
377.222	349.5
377.448	371.5
377.674	337.5
377.899	323.5
378.125	347.5
378.35	350.5
378.576	317.5
378.802	328.5
379.027	341.5
379.253	336.5
379.478	341.5
379.704	351.5
379.929	335.5
380.155	360.5
380.38	350.5
380.606	344.5
380.831	330.5
381.057	342.5
381.282	334.5
381.507	361.5
381.733	345.5
381.958	334.5
382.184	341.5
382.409	345.5
382.634	348.5
382.86	343.5
383.085	376.5
383.31	351.5
383.535	368.5
383.761	367.5
383.986	375.5
384.211	383.5
384.436	381.5
384.662	382.5
384.887	368.5
385.112	366.5
385.337	384.5
385.562	389.5
385.787	375.5
386.013	393.5
386.238	389.5
386.463	398.5
386.688	398.5
386.913	382.5
387.138	375.5
387.363	375.5
387.588	384.5
387.813	395.5
388.038	375.5
388.263	408.5
388.488	382.5
388.713	408.5
388.938	386.5
389.163	371.5
389.387	400.5
389.612	397.5
389.837	371.5
390.062	385.5
390.287	384.5
390.512	384.5
390.736	373.5
390.961	375.5
391.186	396.5
391.411	393.5
391.636	392.5
391.86	410.5
392.085	413.5
392.31	411.5
392.534	423.5
392.759	401.5
392.984	398.5
393.208	393.5
393.433	404.5
393.658	384.5
393.882	389.5
394.107	365.5
394.331	381.5
394.556	378.5
394.78	394.5
395.005	381.5
395.229	390.5
395.454	401.5
395.678	416.5
395.903	425.5
396.127	412.5
396.352	437.5
396.576	423.5
396.801	397.5
397.025	381.5
397.249	427.5
397.474	398.5
397.698	414.5
397.922	414.5
398.147	432.5
398.371	438.5
398.595	437.5
398.82	445.5
399.044	460.5
399.268	507.5
399.492	557.5
399.717	574.5
399.941	603.5
400.165	549.5
400.389	548.5
400.613	500.5
400.837	474.5
401.062	447.5
401.286	435.5
401.51	451.5
401.734	446.5
401.958	443.5
402.182	448.5
402.406	451.5
402.63	469.5
402.854	450.5
403.078	453.5
403.302	487.5
403.526	477.5
403.75	504.5
403.974	485.5
404.198	469.5
404.422	509.5
404.645	506.5
404.869	485.5
405.093	505.5
405.317	529.5
405.541	532.5
405.765	505.5
405.988	492.5
406.212	473.5
406.436	503.5
406.66	520.5
406.883	498.5
407.107	523.5
407.331	534.5
407.555	594.5
407.778	596.5
408.002	579.5
408.226	507.5
408.449	518.5
408.673	505.5
408.896	503.5
409.12	542.5
409.344	516.5
409.567	480.5
409.791	483.5
410.014	447.5
410.238	478.5
410.461	481.5
410.685	484.5
410.908	481.5
411.132	496.5
411.355	522.5
411.578	496.5
411.802	472.5
412.025	465.5
412.249	475.5
412.472	481.5
412.695	483.5
412.919	497.5
413.142	464.5
413.365	449.5
413.589	456.5
413.812	440.5
414.035	444.5
414.258	422.5
414.482	444.5
414.705	443.5
414.928	432.5
415.151	439.5
415.374	452.5
415.597	452.5
415.821	451.5
416.044	436.5
416.267	425.5
416.49	431.5
416.713	430.5
416.936	449.5
417.159	446.5
417.382	420.5
417.605	456.5
417.828	468.5
418.051	460.5
418.274	460.5
418.497	432.5
418.72	453.5
418.943	442.5
419.166	479.5
419.389	481.5
419.611	479.5
419.834	470.5
420.057	481.5
420.28	473.5
420.503	471.5
420.726	468.5
420.948	468.5
421.171	474.5
421.394	515.5
421.617	487.5
421.839	462.5
422.062	466.5
422.285	475.5
422.507	486.5
422.73	543.5
422.953	532.5
423.175	487.5
423.398	481.5
423.621	463.5
423.843	508.5
424.066	492.5
424.288	481.5
424.511	503.5
424.733	529.5
424.956	581.5
425.178	551.5
425.401	550.5
425.623	556.5
425.846	481.5
426.068	464.5
426.291	463.5
426.513	471.5
426.735	474.5
426.958	487.5
427.18	543.5
427.402	632.5
427.625	663.5
427.847	586.5
428.069	519.5
428.292	484.5
428.514	457.5
428.736	445.5
428.958	422.5
429.181	415.5
429.403	428.5
429.625	430.5
429.847	430.5
430.069	477.5
430.292	471.5
430.514	441.5
430.736	427.5
430.958	423.5
431.18	401.5
431.402	417.5
431.624	399.5
431.846	409.5
432.068	403.5
432.29	424.5
432.512	427.5
432.734	440.5
432.956	416.5
433.178	427.5
433.4	427.5
433.622	417.5
433.844	420.5
434.066	426.5
434.287	428.5
434.509	415.5
434.731	427.5
434.953	424.5
435.175	428.5
435.397	464.5
435.618	471.5
435.84	497.5
436.062	534.5
436.284	557.5
436.505	476.5
436.727	446.5
436.949	459.5
437.17	444.5
437.392	440.5
437.614	439.5
437.835	444.5
438.057	499.5
438.278	555.5
438.5	558.5
438.721	600.5
438.943	581.5
439.165	484.5
439.386	462.5
439.608	480.5
439.829	453.5
440.05	472.5
440.272	501.5
440.493	469.5
440.715	418.5
440.936	429.5
441.158	427.5
441.379	447.5
441.6	466.5
441.822	462.5
442.043	526.5
442.264	565.5
442.486	566.5
442.707	511.5
442.928	487.5
443.149	478.5
443.371	492.5
443.592	525.5
443.813	557.5
444.034	646.5
444.255	558.5
444.476	509.5
444.698	497.5
444.919	525.5
445.14	574.5
445.361	530.5
445.582	515.5
445.803	547.5
446.024	584.5
446.245	596.5
446.466	542.5
446.687	467.5
446.908	464.5
447.129	431.5
447.35	433.5
447.571	433.5
447.792	414.5
448.013	416.5
448.234	427.5
448.455	448.5
448.675	514.5
448.896	593.5
449.117	525.5
449.338	510.5
449.559	558.5
449.779	598.5
450	504.5
450.221	433.5
450.442	413.5
450.662	416.5
450.883	424.5
451.104	421.5
451.324	420.5
451.545	413.5
451.766	389.5
451.986	394.5
452.207	391.5
452.428	391.5
452.648	390.5
452.869	384.5
453.089	388.5
453.31	396.5
453.53	400.5
453.751	382.5
453.971	391.5
454.192	398.5
454.412	392.5
454.633	377.5
454.853	379.5
455.073	393.5
455.294	409.5
455.514	438.5
455.734	427.5
455.955	371.5
456.175	379.5
456.395	365.5
456.616	339.5
456.836	347.5
457.056	364.5
457.276	384.5
457.497	356.5
457.717	366.5
457.937	377.5
458.157	362.5
458.377	377.5
458.598	387.5
458.818	431.5
459.038	486.5
459.258	471.5
459.478	457.5
459.698	413.5
459.918	415.5
460.138	425.5
460.358	419.5
460.578	436.5
460.798	437.5
461.018	454.5
461.238	461.5
461.458	442.5
461.678	437.5
461.898	451.5
462.118	439.5
462.338	458.5
462.558	472.5
462.777	506.5
462.997	487.5
463.217	529.5
463.437	519.5
463.657	495.5
463.876	492.5
464.096	489.5
464.316	491.5
464.536	475.5
464.755	491.5
464.975	489.5
465.195	494.5
465.414	512.5
465.634	460.5
465.854	435.5
466.073	407.5
466.293	425.5
466.512	417.5
466.732	419.5
466.951	411.5
467.171	412.5
467.391	415.5
467.61	407.5
467.829	403.5
468.049	402.5
468.268	400.5
468.488	397.5
468.707	395.5
468.927	396.5
469.146	398.5
469.365	398.5
469.585	401.5
469.804	392.5
470.023	408.5
470.243	428.5
470.462	410.5
470.681	434.5
470.901	432.5
471.12	404.5
471.339	415.5
471.558	414.5
471.777	424.5
471.997	383.5
472.216	411.5
472.435	431.5
472.654	413.5
472.873	399.5
473.092	385.5
473.311	383.5
473.53	368.5
473.749	407.5
473.968	419.5
474.187	488.5
474.406	488.5
474.625	410.5
474.844	404.5
475.063	428.5
475.282	413.5
475.501	400.5
475.72	414.5
475.939	400.5
476.158	409.5
476.377	414.5
476.596	414.5
476.814	391.5
477.033	421.5
477.252	408.5
477.471	423.5
477.69	443.5
477.908	435.5
478.127	462.5
478.346	471.5
478.564	452.5
478.783	477.5
479.002	476.5
479.22	477.5
479.439	465.5
479.658	472.5
479.876	496.5
480.095	504.5
480.313	523.5
480.532	505.5
480.751	520.5
480.969	513.5
481.188	511.5
481.406	581.5
481.624	513.5
481.843	464.5
482.061	477.5
482.28	457.5
482.498	440.5
482.717	453.5
482.935	468.5
483.153	457.5
483.372	466.5
483.59	471.5
483.808	462.5
484.027	444.5
484.245	459.5
484.463	463.5
484.681	466.5
484.9	459.5
485.118	467.5
485.336	467.5
485.554	467.5
485.772	453.5
485.99	454.5
486.209	473.5
486.427	463.5
486.645	474.5
486.863	487.5
487.081	500.5
487.299	475.5
487.517	486.5
487.735	506.5
487.953	490.5
488.171	490.5
488.389	491.5
488.607	487.5
488.825	489.5
489.043	472.5
489.261	502.5
489.479	500.5
489.696	496.5
489.914	517.5
490.132	505.5
490.35	522.5
490.568	513.5
490.786	536.5
491.003	509.5
491.221	550.5
491.439	555.5
491.657	555.5
491.874	575.5
492.092	556.5
492.31	584.5
492.527	590.5
492.745	569.5
492.963	575.5
493.18	581.5
493.398	577.5
493.615	602.5
493.833	579.5
494.05	598.5
494.268	601.5
494.485	550.5
494.703	582.5
494.92	579.5
495.138	583.5
495.355	588.5
495.573	579.5
495.79	571.5
496.008	589.5
496.225	549.5
496.442	580.5
496.66	594.5
496.877	596.5
497.094	600.5
497.312	600.5
497.529	616.5
497.746	616.5
497.963	622.5
498.181	666.5
498.398	647.5
498.615	667.5
498.832	707.5
499.049	711.5
499.267	767.5
499.484	791.5
499.701	845.5
499.918	877.5
500.135	947.5
500.352	1021.5
500.569	1037.5
500.786	1016.5
501.003	1008.5
501.22	928.5
501.437	873.5
501.654	819.5
501.871	806.5
502.088	751.5
502.305	727.5
502.522	683.5
502.739	660.5
502.956	623.5
503.172	602.5
503.389	615.5
503.606	615.5
503.823	587.5
504.04	588.5
504.256	585.5
504.473	615.5
504.69	614.5
504.907	614.5
505.123	595.5
505.34	564.5
505.557	548.5
505.773	566.5
505.99	540.5
506.207	554.5
506.423	563.5
506.64	541.5
506.856	518.5
507.073	537.5
507.289	517.5
507.506	535.5
507.722	534.5
507.939	538.5
508.155	534.5
508.372	502.5
508.588	503.5
508.805	495.5
509.021	524.5
509.238	504.5
509.454	512.5
509.67	505.5
509.887	509.5
510.103	496.5
510.319	490.5
510.536	542.5
510.752	801.5
510.968	673.5
511.184	505.5
511.401	485.5
511.617	493.5
511.833	500.5
512.049	465.5
512.265	472.5
512.481	476.5
512.698	470.5
512.914	459.5
513.13	455.5
513.346	457.5
513.562	465.5
513.778	451.5
513.994	458.5
514.21	497.5
514.426	513.5
514.642	494.5
514.858	515.5
515.074	547.5
515.29	620.5
515.506	852.5
515.721	729.5
515.937	535.5
516.153	541.5
516.369	518.5
516.585	509.5
516.801	505.5
517.016	511.5
517.232	527.5
517.448	529.5
517.664	542.5
517.879	545.5
518.095	551.5
518.311	553.5
518.527	513.5
518.742	511.5
518.958	499.5
519.173	494.5
519.389	489.5
519.605	483.5
519.82	495.5
520.036	474.5
