Data from 1969.PennyLincolnUp.Lamp.En5.5.200Scan.071719.P1._HRD10591_14-54-40-972.txt Node
Date: Thu Jul 18 14:54:40 EDT 2019
User: cochatt
Spectrometer: HR+D1059
Trigger mode: 1
Integration Time (sec): 1.000000E-1
Scans to average: 1
Electric dark correction enabled: true
Nonlinearity correction enabled: false
Boxcar width: 0
XAxis mode: Wavelengths
Number of Pixels in Spectrum: 2048
>>>>>Begin Spectral Data<<<<<
223.165	-11.88
223.4	-11.88
223.635	-11.88
223.869	-25.88
224.104	-15.88
224.338	-18.88
224.573	-11.88
224.808	-13.88
225.042	4.12
225.277	-0.88
225.511	-3.88
225.746	7.12
225.98	14.12
226.215	7.12
226.449	11.12
226.683	11.12
226.918	24.12
227.152	24.12
227.387	33.12
227.621	41.12
227.856	37.12
228.09	55.12
228.324	37.12
228.559	57.12
228.793	80.12
229.027	88.12
229.262	82.12
229.496	104.12
229.73	113.12
229.964	118.12
230.199	120.12
230.433	103.12
230.667	98.12
230.901	89.12
231.136	91.12
231.37	111.12
231.604	116.12
231.838	109.12
232.072	98.12
232.306	85.12
232.541	109.12
232.775	110.12
233.009	111.12
233.243	115.12
233.477	102.12
233.711	112.12
233.945	119.12
234.179	92.12
234.413	98.12
234.647	106.12
234.881	106.12
235.115	109.12
235.349	112.12
235.583	113.12
235.817	97.12
236.051	117.12
236.285	114.12
236.519	106.12
236.753	104.12
236.987	121.12
237.221	142.12
237.455	164.12
237.689	140.12
237.922	118.12
238.156	120.12
238.39	121.12
238.624	118.12
238.858	98.12
239.091	116.12
239.325	103.12
239.559	126.12
239.793	109.12
240.027	119.12
240.26	123.12
240.494	145.12
240.728	118.12
240.961	132.12
241.195	116.12
241.429	139.12
241.662	132.12
241.896	132.12
242.13	110.12
242.363	105.12
242.597	111.12
242.83	130.12
243.064	115.12
243.298	125.12
243.531	122.12
243.765	123.12
243.998	114.12
244.232	132.12
244.465	121.12
244.699	126.12
244.932	120.12
245.166	136.12
245.399	119.12
245.633	137.12
245.866	138.12
246.099	148.12
246.333	125.12
246.566	150.12
246.8	132.12
247.033	119.12
247.266	148.12
247.5	148.12
247.733	147.12
247.966	130.12
248.2	152.12
248.433	148.12
248.666	139.12
248.899	146.12
249.133	160.12
249.366	152.12
249.599	130.12
249.832	152.12
250.066	150.12
250.299	130.12
250.532	159.12
250.765	167.12
250.998	164.12
251.231	181.12
251.465	171.12
251.698	170.12
251.931	173.12
252.164	157.12
252.397	160.12
252.63	173.12
252.863	172.12
253.096	178.12
253.329	177.12
253.562	167.12
253.795	182.12
254.028	167.12
254.261	172.12
254.494	178.12
254.727	203.12
254.96	208.12
255.193	184.12
255.426	175.12
255.659	185.12
255.892	178.12
256.124	182.12
256.357	180.12
256.59	164.12
256.823	165.12
257.056	176.12
257.289	168.12
257.521	161.12
257.754	159.12
257.987	190.12
258.22	173.12
258.452	197.12
258.685	180.12
258.918	165.12
259.151	196.12
259.383	182.12
259.616	162.12
259.849	177.12
260.081	191.12
260.314	199.12
260.547	200.12
260.779	191.12
261.012	183.12
261.244	182.12
261.477	187.12
261.71	172.12
261.942	189.12
262.175	180.12
262.407	180.12
262.64	173.12
262.872	167.12
263.105	171.12
263.337	186.12
263.57	163.12
263.802	178.12
264.035	178.12
264.267	193.12
264.499	173.12
264.732	170.12
264.964	196.12
265.197	182.12
265.429	184.12
265.661	180.12
265.894	191.12
266.126	170.12
266.358	206.12
266.591	193.12
266.823	186.12
267.055	195.12
267.287	192.12
267.52	189.12
267.752	180.12
267.984	189.12
268.216	201.12
268.448	205.12
268.681	190.12
268.913	212.12
269.145	206.12
269.377	210.12
269.609	212.12
269.841	207.12
270.073	211.12
270.306	210.12
270.538	250.12
270.77	237.12
271.002	236.12
271.234	210.12
271.466	234.12
271.698	235.12
271.93	234.12
272.162	246.12
272.394	250.12
272.626	218.12
272.858	224.12
273.09	207.12
273.322	218.12
273.553	215.12
273.785	213.12
274.017	210.12
274.249	231.12
274.481	218.12
274.713	197.12
274.945	212.12
275.176	225.12
275.408	212.12
275.64	209.12
275.872	212.12
276.104	225.12
276.335	216.12
276.567	214.12
276.799	220.12
277.031	241.12
277.262	238.12
277.494	249.12
277.726	235.12
277.957	223.12
278.189	221.12
278.421	234.12
278.652	228.12
278.884	219.12
279.115	217.12
279.347	210.12
279.579	222.12
279.81	229.12
280.042	234.12
280.273	223.12
280.505	228.12
280.736	223.12
280.968	222.12
281.199	229.12
281.431	213.12
281.662	220.12
281.894	240.12
282.125	224.12
282.356	233.12
282.588	241.12
282.819	232.12
283.051	241.12
283.282	223.12
283.513	244.12
283.745	236.12
283.976	231.12
284.207	244.12
284.439	261.12
284.67	222.12
284.901	231.12
285.132	235.12
285.364	218.12
285.595	237.12
285.826	222.12
286.057	234.12
286.288	244.12
286.52	239.12
286.751	223.12
286.982	258.12
287.213	250.12
287.444	234.12
287.675	255.12
287.906	246.12
288.138	253.12
288.369	251.12
288.6	258.12
288.831	245.12
289.062	242.12
289.293	247.12
289.524	254.12
289.755	249.12
289.986	250.12
290.217	244.12
290.448	247.12
290.679	260.12
290.91	246.12
291.141	253.12
291.371	249.12
291.602	250.12
291.833	234.12
292.064	269.12
292.295	237.12
292.526	246.12
292.757	255.12
292.987	230.12
293.218	241.12
293.449	257.12
293.68	254.12
293.91	253.12
294.141	255.12
294.372	248.12
294.603	251.12
294.833	244.12
295.064	232.12
295.295	241.12
295.525	237.12
295.756	255.12
295.987	260.12
296.217	260.12
296.448	266.12
296.679	262.12
296.909	278.12
297.14	278.12
297.37	257.12
297.601	249.12
297.831	249.12
298.062	248.12
298.292	252.12
298.523	247.12
298.753	270.12
298.984	270.12
299.214	273.12
299.445	261.12
299.675	271.12
299.905	252.12
300.136	279.12
300.366	267.12
300.597	278.12
300.827	292.12
301.057	263.12
301.288	288.12
301.518	285.12
301.748	300.12
301.979	282.12
302.209	276.12
302.439	287.12
302.669	280.12
302.9	264.12
303.13	268.12
303.36	281.12
303.59	289.12
303.82	271.12
304.051	291.12
304.281	279.12
304.511	270.12
304.741	278.12
304.971	264.12
305.201	269.12
305.431	287.12
305.661	287.12
305.891	291.12
306.121	282.12
306.352	285.12
306.582	268.12
306.812	292.12
307.042	282.12
307.272	278.12
307.502	266.12
307.731	290.12
307.961	277.12
308.191	289.12
308.421	278.12
308.651	266.12
308.881	288.12
309.111	287.12
309.341	294.12
309.571	278.12
309.8	299.12
310.03	295.12
310.26	303.12
310.49	285.12
310.72	286.12
310.949	309.12
311.179	288.12
311.409	282.12
311.639	281.12
311.868	296.12
312.098	296.12
312.328	314.12
312.557	291.12
312.787	305.12
313.017	327.12
313.246	307.12
313.476	308.12
313.706	310.12
313.935	321.12
314.165	311.12
314.394	311.12
314.624	325.12
314.853	321.12
315.083	305.12
315.312	292.12
315.542	310.12
315.771	303.12
316.001	307.12
316.23	309.12
316.46	305.12
316.689	324.12
316.919	303.12
317.148	318.12
317.377	314.12
317.607	304.12
317.836	325.12
318.065	302.12
318.295	280.12
318.524	302.12
318.753	313.12
318.983	299.12
319.212	332.12
319.441	312.12
319.67	334.12
319.9	303.12
320.129	294.12
320.358	288.12
320.587	318.12
320.816	293.12
321.046	303.12
321.275	321.12
321.504	324.12
321.733	309.12
321.962	313.12
322.191	313.12
322.42	319.12
322.649	317.12
322.878	318.12
323.108	340.12
323.337	346.12
323.566	354.12
323.795	367.12
324.024	396.12
324.253	424.12
324.482	546.12
324.71	758.12
324.939	1005.12
325.168	848.12
325.397	502.12
325.626	391.12
325.855	367.12
326.084	338.12
326.313	376.12
326.542	366.12
326.77	387.12
326.999	420.12
327.228	531.12
327.457	694.12
327.686	764.12
327.914	555.12
328.143	439.12
328.372	419.12
328.6	376.12
328.829	390.12
329.058	387.12
329.287	395.12
329.515	377.12
329.744	367.12
329.972	374.12
330.201	360.12
330.43	420.12
330.658	398.12
330.887	410.12
331.115	390.12
331.344	370.12
331.572	371.12
331.801	372.12
332.03	379.12
332.258	379.12
332.486	367.12
332.715	375.12
332.943	362.12
333.172	380.12
333.4	387.12
333.629	384.12
333.857	420.12
334.085	406.12
334.314	421.12
334.542	418.12
334.771	429.12
334.999	395.12
335.227	399.12
335.455	376.12
335.684	378.12
335.912	385.12
336.14	376.12
336.369	370.12
336.597	386.12
336.825	375.12
337.053	361.12
337.281	349.12
337.51	361.12
337.738	350.12
337.966	342.12
338.194	350.12
338.422	368.12
338.65	346.12
338.878	348.12
339.106	351.12
339.334	349.12
339.562	356.12
339.79	338.12
340.018	334.12
340.246	339.12
340.474	332.12
340.702	337.12
340.93	348.12
341.158	340.12
341.386	333.12
341.614	336.12
341.842	329.12
342.07	345.12
342.298	363.12
342.526	326.12
342.754	332.12
342.981	339.12
343.209	343.12
343.437	351.12
343.665	345.12
343.893	369.12
344.12	372.12
344.348	369.12
344.576	363.12
344.804	347.12
345.031	357.12
345.259	366.12
345.487	346.12
345.714	344.12
345.942	337.12
346.17	332.12
346.397	345.12
346.625	315.12
346.853	314.12
347.08	322.12
347.308	334.12
347.535	329.12
347.763	341.12
347.99	328.12
348.218	335.12
348.445	315.12
348.673	317.12
348.9	326.12
349.128	314.12
349.355	324.12
349.583	335.12
349.81	324.12
350.037	316.12
350.265	335.12
350.492	324.12
350.72	316.12
350.947	313.12
351.174	332.12
351.402	324.12
351.629	328.12
351.856	309.12
352.083	315.12
352.311	335.12
352.538	345.12
352.765	338.12
352.992	323.12
353.22	323.12
353.447	313.12
353.674	310.12
353.901	324.12
354.128	326.12
354.355	330.12
354.583	318.12
354.81	309.12
355.037	319.12
355.264	314.12
355.491	318.12
355.718	301.12
355.945	298.12
356.172	308.12
356.399	305.12
356.626	314.12
356.853	301.12
357.08	297.12
357.307	321.12
357.534	294.12
357.761	301.12
357.988	319.12
358.215	333.12
358.441	311.12
358.668	310.12
358.895	326.12
359.122	301.12
359.349	328.12
359.576	336.12
359.802	346.12
360.029	342.12
360.256	334.12
360.483	336.12
360.709	313.12
360.936	323.12
361.163	314.12
361.39	335.12
361.616	329.12
361.843	336.12
362.07	331.12
362.296	319.12
362.523	318.12
362.749	318.12
362.976	325.12
363.203	322.12
363.429	321.12
363.656	331.12
363.882	332.12
364.109	324.12
364.335	322.12
364.562	337.12
364.788	317.12
365.015	328.12
365.241	320.12
365.468	327.12
365.694	318.12
365.92	319.12
366.147	312.12
366.373	305.12
366.599	315.12
366.826	297.12
367.052	294.12
367.278	315.12
367.505	327.12
367.731	301.12
367.957	310.12
368.184	314.12
368.41	333.12
368.636	336.12
368.862	337.12
369.089	332.12
369.315	296.12
369.541	316.12
369.767	308.12
369.993	304.12
370.219	328.12
370.445	316.12
370.672	299.12
370.898	317.12
371.124	318.12
371.35	327.12
371.576	312.12
371.802	303.12
372.028	305.12
372.254	321.12
372.48	334.12
372.706	289.12
372.932	328.12
373.158	319.12
373.384	331.12
373.61	336.12
373.835	318.12
374.061	320.12
374.287	302.12
374.513	343.12
374.739	351.12
374.965	357.12
375.191	348.12
375.416	342.12
375.642	325.12
375.868	326.12
376.094	319.12
376.319	322.12
376.545	325.12
376.771	335.12
376.997	315.12
377.222	321.12
377.448	325.12
377.674	315.12
377.899	315.12
378.125	328.12
378.35	311.12
378.576	319.12
378.802	300.12
379.027	318.12
379.253	312.12
379.478	318.12
379.704	318.12
379.929	337.12
380.155	320.12
380.38	316.12
380.606	312.12
380.831	329.12
381.057	333.12
381.282	328.12
381.507	327.12
381.733	335.12
381.958	313.12
382.184	301.12
382.409	337.12
382.634	320.12
382.86	338.12
383.085	320.12
383.31	346.12
383.535	350.12
383.761	333.12
383.986	340.12
384.211	356.12
384.436	349.12
384.662	342.12
384.887	349.12
385.112	348.12
385.337	346.12
385.562	360.12
385.787	353.12
386.013	357.12
386.238	362.12
386.463	356.12
386.688	348.12
386.913	346.12
387.138	344.12
387.363	357.12
387.588	362.12
387.813	357.12
388.038	337.12
388.263	360.12
388.488	344.12
388.713	344.12
388.938	349.12
389.163	357.12
389.387	354.12
389.612	340.12
389.837	354.12
390.062	334.12
390.287	364.12
390.512	361.12
390.736	337.12
390.961	378.12
391.186	379.12
391.411	376.12
391.636	354.12
391.86	386.12
392.085	401.12
392.31	368.12
392.534	381.12
392.759	378.12
392.984	365.12
393.208	366.12
393.433	363.12
393.658	358.12
393.882	373.12
394.107	382.12
394.331	361.12
394.556	361.12
394.78	388.12
395.005	354.12
395.229	384.12
395.454	379.12
395.678	381.12
395.903	393.12
396.127	382.12
396.352	380.12
396.576	362.12
396.801	376.12
397.025	356.12
397.249	350.12
397.474	380.12
397.698	385.12
397.922	390.12
398.147	403.12
398.371	390.12
398.595	407.12
398.82	419.12
399.044	425.12
399.268	473.12
399.492	485.12
399.717	540.12
399.941	537.12
400.165	528.12
400.389	494.12
400.613	444.12
400.837	420.12
401.062	426.12
401.286	418.12
401.51	408.12
401.734	388.12
401.958	443.12
402.182	433.12
402.406	439.12
402.63	433.12
402.854	409.12
403.078	409.12
403.302	438.12
403.526	454.12
403.75	440.12
403.974	449.12
404.198	458.12
404.422	485.12
404.645	457.12
404.869	450.12
405.093	451.12
405.317	472.12
405.541	492.12
405.765	449.12
405.988	451.12
406.212	455.12
406.436	475.12
406.66	473.12
406.883	469.12
407.107	484.12
407.331	524.12
407.555	557.12
407.778	544.12
408.002	521.12
408.226	492.12
408.449	477.12
408.673	463.12
408.896	494.12
409.12	477.12
409.344	482.12
409.567	443.12
409.791	438.12
410.014	463.12
410.238	414.12
410.461	460.12
410.685	441.12
410.908	430.12
411.132	461.12
411.355	455.12
411.578	456.12
411.802	422.12
412.025	415.12
412.249	415.12
412.472	453.12
412.695	452.12
412.919	462.12
413.142	438.12
413.365	423.12
413.589	412.12
413.812	401.12
414.035	424.12
414.258	418.12
414.482	389.12
414.705	402.12
414.928	414.12
415.151	407.12
415.374	413.12
415.597	427.12
415.821	394.12
416.044	393.12
416.267	408.12
416.49	412.12
416.713	410.12
416.936	427.12
417.159	383.12
417.382	411.12
417.605	414.12
417.828	409.12
418.051	422.12
418.274	433.12
418.497	426.12
418.72	403.12
418.943	400.12
419.166	420.12
419.389	452.12
419.611	436.12
419.834	429.12
420.057	431.12
420.28	431.12
420.503	417.12
420.726	425.12
420.948	427.12
421.171	462.12
421.394	446.12
421.617	439.12
421.839	429.12
422.062	416.12
422.285	423.12
422.507	475.12
422.73	500.12
422.953	484.12
423.175	457.12
423.398	431.12
423.621	459.12
423.843	451.12
424.066	455.12
424.288	465.12
424.511	434.12
424.733	475.12
424.956	497.12
425.178	478.12
425.401	482.12
425.623	491.12
425.846	453.12
426.068	423.12
426.291	423.12
426.513	414.12
426.735	424.12
426.958	448.12
427.18	460.12
427.402	539.12
427.625	568.12
427.847	488.12
428.069	457.12
428.292	439.12
428.514	416.12
428.736	400.12
428.958	384.12
429.181	377.12
429.403	401.12
429.625	399.12
429.847	399.12
430.069	438.12
430.292	427.12
430.514	392.12
430.736	398.12
430.958	386.12
431.18	390.12
431.402	388.12
431.624	389.12
431.846	384.12
432.068	394.12
432.29	387.12
432.512	374.12
432.734	400.12
432.956	416.12
433.178	390.12
433.4	418.12
433.622	379.12
433.844	368.12
434.066	388.12
434.287	388.12
434.509	408.12
434.731	415.12
434.953	437.12
435.175	418.12
435.397	416.12
435.618	421.12
435.84	422.12
436.062	477.12
436.284	524.12
436.505	442.12
436.727	429.12
436.949	410.12
437.17	400.12
437.392	384.12
437.614	392.12
437.835	415.12
438.057	440.12
438.278	505.12
438.5	492.12
438.721	524.12
438.943	492.12
439.165	434.12
439.386	419.12
439.608	426.12
439.829	429.12
440.05	424.12
440.272	436.12
440.493	439.12
440.715	422.12
440.936	404.12
441.158	405.12
441.379	414.12
441.6	404.12
441.822	429.12
442.043	459.12
442.264	497.12
442.486	490.12
442.707	464.12
442.928	431.12
443.149	433.12
443.371	445.12
443.592	468.12
443.813	508.12
444.034	526.12
444.255	484.12
444.476	477.12
444.698	456.12
444.919	484.12
445.14	531.12
445.361	501.12
445.582	459.12
445.803	472.12
446.024	522.12
446.245	504.12
446.466	474.12
446.687	442.12
446.908	420.12
447.129	396.12
447.35	396.12
447.571	411.12
447.792	411.12
448.013	405.12
448.234	405.12
448.455	421.12
448.675	474.12
448.896	507.12
449.117	452.12
449.338	446.12
449.559	500.12
449.779	525.12
450	441.12
450.221	413.12
450.442	401.12
450.662	362.12
450.883	366.12
451.104	372.12
451.324	358.12
451.545	364.12
451.766	352.12
451.986	353.12
452.207	375.12
452.428	343.12
452.648	348.12
452.869	344.12
453.089	368.12
453.31	357.12
453.53	355.12
453.751	365.12
453.971	345.12
454.192	336.12
454.412	343.12
454.633	335.12
454.853	333.12
455.073	337.12
455.294	374.12
455.514	422.12
455.734	390.12
455.955	368.12
456.175	354.12
456.395	360.12
456.616	315.12
456.836	337.12
457.056	335.12
457.276	353.12
457.497	338.12
457.717	330.12
457.937	344.12
458.157	331.12
458.377	356.12
458.598	358.12
458.818	390.12
459.038	423.12
459.258	422.12
459.478	408.12
459.698	393.12
459.918	394.12
460.138	398.12
460.358	408.12
460.578	408.12
460.798	441.12
461.018	393.12
461.238	392.12
461.458	402.12
461.678	421.12
461.898	434.12
462.118	419.12
462.338	435.12
462.558	436.12
462.777	433.12
462.997	466.12
463.217	480.12
463.437	487.12
463.657	472.12
463.876	461.12
464.096	448.12
464.316	482.12
464.536	470.12
464.755	447.12
464.975	456.12
465.195	433.12
465.414	468.12
465.634	427.12
465.854	380.12
466.073	397.12
466.293	380.12
466.512	364.12
466.732	394.12
466.951	380.12
467.171	360.12
467.391	372.12
467.61	379.12
467.829	390.12
468.049	362.12
468.268	353.12
468.488	376.12
468.707	366.12
468.927	356.12
469.146	346.12
469.365	368.12
469.585	369.12
469.804	366.12
470.023	363.12
470.243	383.12
470.462	404.12
470.681	384.12
470.901	390.12
471.12	377.12
471.339	375.12
471.558	380.12
471.777	361.12
471.997	378.12
472.216	382.12
472.435	380.12
472.654	355.12
472.873	361.12
473.092	372.12
473.311	362.12
473.53	385.12
473.749	375.12
473.968	400.12
474.187	423.12
474.406	412.12
474.625	380.12
474.844	375.12
475.063	362.12
475.282	351.12
475.501	365.12
475.72	381.12
475.939	371.12
476.158	384.12
476.377	389.12
476.596	365.12
476.814	385.12
477.033	376.12
477.252	413.12
477.471	396.12
477.69	400.12
477.908	413.12
478.127	405.12
478.346	420.12
478.564	422.12
478.783	426.12
479.002	422.12
479.22	438.12
479.439	427.12
479.658	434.12
479.876	448.12
480.095	452.12
480.313	476.12
480.532	453.12
480.751	461.12
480.969	473.12
481.188	479.12
481.406	482.12
481.624	440.12
481.843	440.12
482.061	424.12
482.28	408.12
482.498	432.12
482.717	415.12
482.935	410.12
483.153	427.12
483.372	408.12
483.59	418.12
483.808	411.12
484.027	409.12
484.245	426.12
484.463	417.12
484.681	439.12
484.9	417.12
485.118	466.12
485.336	423.12
485.554	438.12
485.772	418.12
485.99	432.12
486.209	438.12
486.427	456.12
486.645	435.12
486.863	448.12
487.081	446.12
487.299	456.12
487.517	443.12
487.735	450.12
487.953	457.12
488.171	458.12
488.389	451.12
488.607	445.12
488.825	440.12
489.043	445.12
489.261	456.12
489.479	462.12
489.696	452.12
489.914	468.12
490.132	457.12
490.35	465.12
490.568	461.12
490.786	465.12
491.003	475.12
491.221	481.12
491.439	503.12
491.657	518.12
491.874	495.12
492.092	516.12
492.31	520.12
492.527	515.12
492.745	529.12
492.963	502.12
493.18	512.12
493.398	529.12
493.615	520.12
493.833	529.12
494.05	510.12
494.268	533.12
494.485	522.12
494.703	508.12
494.92	534.12
495.138	532.12
495.355	536.12
495.573	515.12
495.79	524.12
496.008	548.12
496.225	536.12
496.442	513.12
496.66	521.12
496.877	513.12
497.094	540.12
497.312	505.12
497.529	543.12
497.746	549.12
497.963	560.12
498.181	589.12
498.398	607.12
498.615	607.12
498.832	609.12
499.049	630.12
499.267	687.12
499.484	710.12
499.701	755.12
499.918	802.12
500.135	890.12
500.352	939.12
500.569	949.12
500.786	947.12
501.003	909.12
501.22	848.12
501.437	810.12
501.654	767.12
501.871	718.12
502.088	712.12
