Data from 1969.PennyLincolnUp.Lamp.En5.5.200Scan.071719.P1._HRD10591_14-55-08-972.txt Node
Date: Thu Jul 18 14:55:08 EDT 2019
User: cochatt
Spectrometer: HR+D1059
Trigger mode: 1
Integration Time (sec): 1.000000E-1
Scans to average: 1
Electric dark correction enabled: true
Nonlinearity correction enabled: false
Boxcar width: 0
XAxis mode: Wavelengths
Number of Pixels in Spectrum: 2048
>>>>>Begin Spectral Data<<<<<
223.165	-16.44
223.4	-16.44
223.635	-16.44
223.869	-11.44
224.104	-27.44
224.338	-24.44
224.573	-19.44
224.808	-9.44
225.042	-16.44
225.277	-12.44
225.511	-2.44
225.746	9.56
225.98	6.56
226.215	12.56
226.449	16.56
226.683	24.56
226.918	42.56
227.152	27.56
227.387	27.56
227.621	32.56
227.856	36.56
228.09	53.56
228.324	56.56
228.559	49.56
228.793	60.56
229.027	77.56
229.262	82.56
229.496	90.56
229.73	96.56
229.964	114.56
230.199	119.56
230.433	84.56
230.667	100.56
230.901	115.56
231.136	98.56
231.37	91.56
231.604	109.56
231.838	107.56
232.072	100.56
232.306	113.56
232.541	116.56
232.775	103.56
233.009	105.56
233.243	100.56
233.477	98.56
233.711	104.56
233.945	100.56
234.179	102.56
234.413	112.56
234.647	109.56
234.881	123.56
235.115	118.56
235.349	96.56
235.583	111.56
235.817	118.56
236.051	129.56
236.285	127.56
236.519	110.56
236.753	128.56
236.987	124.56
237.221	136.56
237.455	152.56
237.689	147.56
237.922	138.56
238.156	101.56
238.39	105.56
238.624	103.56
238.858	120.56
239.091	114.56
239.325	122.56
239.559	95.56
239.793	117.56
240.027	109.56
240.26	124.56
240.494	139.56
240.728	142.56
240.961	127.56
241.195	131.56
241.429	137.56
241.662	110.56
241.896	118.56
242.13	114.56
242.363	116.56
242.597	111.56
242.83	128.56
243.064	132.56
243.298	121.56
243.531	138.56
243.765	128.56
243.998	126.56
244.232	135.56
244.465	132.56
244.699	130.56
244.932	130.56
245.166	137.56
245.399	127.56
245.633	114.56
245.866	143.56
246.099	123.56
246.333	127.56
246.566	130.56
246.8	125.56
247.033	128.56
247.266	143.56
247.5	151.56
247.733	138.56
247.966	158.56
248.2	164.56
248.433	149.56
248.666	133.56
248.899	165.56
249.133	174.56
249.366	171.56
249.599	185.56
249.832	154.56
250.066	156.56
250.299	156.56
250.532	163.56
250.765	184.56
250.998	183.56
251.231	183.56
251.465	176.56
251.698	175.56
251.931	166.56
252.164	171.56
252.397	181.56
252.63	167.56
252.863	168.56
253.096	180.56
253.329	189.56
253.562	191.56
253.795	165.56
254.028	180.56
254.261	172.56
254.494	206.56
254.727	208.56
254.96	218.56
255.193	208.56
255.426	210.56
255.659	186.56
255.892	187.56
256.124	183.56
256.357	188.56
256.59	188.56
256.823	173.56
257.056	167.56
257.289	184.56
257.521	181.56
257.754	171.56
257.987	191.56
258.22	178.56
258.452	165.56
258.685	176.56
258.918	188.56
259.151	176.56
259.383	184.56
259.616	193.56
259.849	187.56
260.081	191.56
260.314	213.56
260.547	207.56
260.779	197.56
261.012	198.56
261.244	207.56
261.477	190.56
261.71	188.56
261.942	180.56
262.175	193.56
262.407	192.56
262.64	170.56
262.872	180.56
263.105	181.56
263.337	198.56
263.57	172.56
263.802	181.56
264.035	174.56
264.267	178.56
264.499	183.56
264.732	174.56
264.964	190.56
265.197	183.56
265.429	194.56
265.661	187.56
265.894	190.56
266.126	190.56
266.358	199.56
266.591	175.56
266.823	189.56
267.055	204.56
267.287	212.56
267.52	175.56
267.752	215.56
267.984	202.56
268.216	194.56
268.448	182.56
268.681	194.56
268.913	196.56
269.145	225.56
269.377	236.56
269.609	233.56
269.841	206.56
270.073	224.56
270.306	248.56
270.538	258.56
270.77	237.56
271.002	242.56
271.234	235.56
271.466	254.56
271.698	244.56
271.93	262.56
272.162	252.56
272.394	259.56
272.626	242.56
272.858	242.56
273.09	242.56
273.322	235.56
273.553	227.56
273.785	237.56
274.017	221.56
274.249	239.56
274.481	221.56
274.713	232.56
274.945	224.56
275.176	224.56
275.408	223.56
275.64	228.56
275.872	214.56
276.104	220.56
276.335	232.56
276.567	227.56
276.799	244.56
277.031	262.56
277.262	253.56
277.494	275.56
277.726	267.56
277.957	238.56
278.189	240.56
278.421	238.56
278.652	233.56
278.884	231.56
279.115	253.56
279.347	232.56
279.579	243.56
279.81	215.56
280.042	244.56
280.273	238.56
280.505	230.56
280.736	221.56
280.968	224.56
281.199	244.56
281.431	235.56
281.662	239.56
281.894	228.56
282.125	231.56
282.356	244.56
282.588	270.56
282.819	264.56
283.051	259.56
283.282	238.56
283.513	226.56
283.745	243.56
283.976	258.56
284.207	249.56
284.439	248.56
284.67	243.56
284.901	244.56
285.132	242.56
285.364	231.56
285.595	246.56
285.826	247.56
286.057	258.56
286.288	233.56
286.52	247.56
286.751	235.56
286.982	253.56
287.213	266.56
287.444	252.56
287.675	256.56
287.906	278.56
288.138	272.56
288.369	265.56
288.6	249.56
288.831	246.56
289.062	270.56
289.293	265.56
289.524	246.56
289.755	266.56
289.986	237.56
290.217	251.56
290.448	245.56
290.679	268.56
290.91	274.56
291.141	255.56
291.371	250.56
291.602	294.56
291.833	259.56
292.064	265.56
292.295	267.56
292.526	263.56
292.757	264.56
292.987	261.56
293.218	258.56
293.449	286.56
293.68	254.56
293.91	251.56
294.141	261.56
294.372	271.56
294.603	269.56
294.833	272.56
295.064	284.56
295.295	259.56
295.525	265.56
295.756	260.56
295.987	285.56
296.217	283.56
296.448	299.56
296.679	292.56
296.909	269.56
297.14	287.56
297.37	267.56
297.601	269.56
297.831	277.56
298.062	266.56
298.292	280.56
298.523	281.56
298.753	283.56
298.984	275.56
299.214	270.56
299.445	271.56
299.675	275.56
299.905	293.56
300.136	261.56
300.366	284.56
300.597	259.56
300.827	271.56
301.057	282.56
301.288	291.56
301.518	290.56
301.748	299.56
301.979	306.56
302.209	316.56
302.439	296.56
302.669	270.56
302.9	300.56
303.13	272.56
303.36	314.56
303.59	279.56
303.82	293.56
304.051	301.56
304.281	312.56
304.511	291.56
304.741	279.56
304.971	292.56
305.201	275.56
305.431	266.56
305.661	292.56
305.891	305.56
306.121	295.56
306.352	300.56
306.582	292.56
306.812	276.56
307.042	284.56
307.272	294.56
307.502	301.56
307.731	294.56
307.961	285.56
308.191	298.56
308.421	284.56
308.651	293.56
308.881	306.56
309.111	292.56
309.341	306.56
309.571	308.56
309.8	305.56
310.03	311.56
310.26	322.56
310.49	311.56
310.72	306.56
310.949	314.56
311.179	309.56
311.409	315.56
311.639	307.56
311.868	318.56
312.098	316.56
312.328	326.56
312.557	316.56
312.787	343.56
313.017	323.56
313.246	320.56
313.476	319.56
313.706	317.56
313.935	343.56
314.165	328.56
314.394	342.56
314.624	318.56
314.853	328.56
315.083	320.56
315.312	340.56
315.542	311.56
315.771	330.56
316.001	331.56
316.23	310.56
316.46	338.56
316.689	342.56
316.919	322.56
317.148	354.56
317.377	329.56
317.607	334.56
317.836	329.56
318.065	309.56
318.295	315.56
318.524	330.56
318.753	312.56
318.983	335.56
319.212	322.56
319.441	337.56
319.67	322.56
319.9	304.56
320.129	310.56
320.358	314.56
320.587	327.56
320.816	350.56
321.046	326.56
321.275	328.56
321.504	330.56
321.733	317.56
321.962	330.56
322.191	326.56
322.42	363.56
322.649	338.56
322.878	356.56
323.108	354.56
323.337	387.56
323.566	366.56
323.795	383.56
324.024	409.56
324.253	464.56
324.482	637.56
324.71	894.56
324.939	1199.56
325.168	957.56
325.397	553.56
325.626	404.56
325.855	377.56
326.084	383.56
326.313	389.56
326.542	367.56
326.77	418.56
326.999	465.56
327.228	584.56
327.457	787.56
327.686	899.56
327.914	638.56
328.143	463.56
328.372	461.56
328.6	412.56
328.829	396.56
329.058	424.56
329.287	421.56
329.515	396.56
329.744	404.56
329.972	399.56
330.201	392.56
330.43	430.56
330.658	440.56
330.887	461.56
331.115	455.56
331.344	416.56
331.572	407.56
331.801	390.56
332.03	396.56
332.258	387.56
332.486	389.56
332.715	376.56
332.943	377.56
333.172	382.56
333.4	421.56
333.629	406.56
333.857	431.56
334.085	450.56
334.314	424.56
334.542	453.56
334.771	467.56
334.999	442.56
335.227	411.56
335.455	408.56
335.684	382.56
335.912	398.56
336.14	400.56
336.369	379.56
336.597	403.56
336.825	382.56
337.053	383.56
337.281	380.56
337.51	378.56
337.738	359.56
337.966	376.56
338.194	370.56
338.422	370.56
338.65	350.56
338.878	382.56
339.106	380.56
339.334	365.56
339.562	370.56
339.79	348.56
340.018	367.56
340.246	352.56
340.474	359.56
340.702	357.56
340.93	356.56
341.158	362.56
341.386	363.56
341.614	368.56
341.842	380.56
342.07	374.56
342.298	359.56
342.526	357.56
342.754	358.56
342.981	347.56
343.209	363.56
343.437	341.56
343.665	374.56
343.893	370.56
344.12	375.56
344.348	375.56
344.576	378.56
344.804	363.56
345.031	368.56
345.259	356.56
345.487	372.56
345.714	377.56
345.942	340.56
346.17	345.56
346.397	351.56
346.625	354.56
346.853	350.56
347.08	347.56
347.308	352.56
347.535	339.56
347.763	346.56
347.99	347.56
348.218	353.56
348.445	357.56
348.673	352.56
348.9	349.56
349.128	350.56
349.355	333.56
349.583	330.56
349.81	338.56
350.037	352.56
350.265	324.56
350.492	334.56
350.72	341.56
350.947	333.56
351.174	326.56
351.402	332.56
351.629	335.56
351.856	330.56
352.083	346.56
352.311	338.56
352.538	360.56
352.765	352.56
352.992	328.56
353.22	338.56
353.447	339.56
353.674	336.56
353.901	322.56
354.128	333.56
354.355	326.56
354.583	334.56
354.81	326.56
355.037	330.56
355.264	318.56
355.491	342.56
355.718	325.56
355.945	327.56
356.172	321.56
356.399	311.56
356.626	334.56
356.853	316.56
357.08	319.56
357.307	312.56
357.534	319.56
357.761	318.56
357.988	340.56
358.215	334.56
358.441	315.56
358.668	318.56
358.895	320.56
359.122	340.56
359.349	328.56
359.576	327.56
359.802	357.56
360.029	391.56
360.256	376.56
360.483	351.56
360.709	364.56
360.936	342.56
361.163	331.56
361.39	340.56
361.616	351.56
361.843	346.56
362.07	330.56
362.296	335.56
362.523	351.56
362.749	340.56
362.976	339.56
363.203	333.56
363.429	318.56
363.656	332.56
363.882	319.56
364.109	318.56
364.335	327.56
364.562	332.56
364.788	328.56
365.015	335.56
365.241	336.56
365.468	327.56
365.694	323.56
365.92	338.56
366.147	322.56
366.373	332.56
366.599	327.56
366.826	327.56
367.052	320.56
367.278	314.56
367.505	323.56
367.731	330.56
367.957	335.56
368.184	352.56
368.41	318.56
368.636	319.56
368.862	345.56
369.089	350.56
369.315	346.56
369.541	333.56
369.767	320.56
369.993	314.56
370.219	330.56
370.445	336.56
370.672	310.56
370.898	336.56
371.124	338.56
371.35	346.56
371.576	352.56
371.802	360.56
372.028	333.56
372.254	329.56
372.48	349.56
372.706	341.56
372.932	331.56
373.158	339.56
373.384	342.56
373.61	345.56
373.835	322.56
374.061	326.56
374.287	357.56
374.513	344.56
374.739	345.56
374.965	353.56
375.191	373.56
375.416	365.56
375.642	327.56
375.868	330.56
376.094	327.56
376.319	329.56
376.545	333.56
376.771	333.56
376.997	329.56
377.222	326.56
377.448	307.56
377.674	321.56
377.899	348.56
378.125	333.56
378.35	338.56
378.576	326.56
378.802	346.56
379.027	324.56
379.253	326.56
379.478	313.56
379.704	318.56
379.929	343.56
380.155	317.56
380.38	323.56
380.606	333.56
380.831	339.56
381.057	334.56
381.282	347.56
381.507	327.56
381.733	329.56
381.958	340.56
382.184	345.56
382.409	346.56
382.634	343.56
382.86	341.56
383.085	355.56
383.31	348.56
383.535	354.56
383.761	356.56
383.986	339.56
384.211	351.56
384.436	349.56
384.662	383.56
384.887	359.56
385.112	365.56
385.337	366.56
385.562	374.56
385.787	379.56
386.013	382.56
386.238	370.56
386.463	388.56
386.688	381.56
386.913	366.56
387.138	367.56
387.363	381.56
387.588	374.56
387.813	376.56
388.038	382.56
388.263	380.56
388.488	375.56
388.713	366.56
388.938	364.56
389.163	368.56
389.387	355.56
389.612	359.56
389.837	375.56
390.062	357.56
390.287	368.56
390.512	398.56
390.736	376.56
390.961	391.56
391.186	382.56
391.411	390.56
391.636	382.56
391.86	371.56
392.085	398.56
392.31	391.56
392.534	374.56
392.759	394.56
392.984	386.56
393.208	381.56
393.433	365.56
393.658	380.56
393.882	368.56
394.107	382.56
394.331	375.56
394.556	376.56
394.78	396.56
395.005	400.56
395.229	381.56
395.454	381.56
395.678	411.56
395.903	412.56
396.127	396.56
396.352	389.56
396.576	399.56
396.801	400.56
397.025	397.56
397.249	390.56
397.474	412.56
397.698	399.56
397.922	416.56
398.147	407.56
398.371	422.56
398.595	436.56
398.82	416.56
399.044	451.56
399.268	471.56
399.492	520.56
399.717	572.56
399.941	564.56
400.165	537.56
400.389	544.56
400.613	499.56
400.837	465.56
401.062	438.56
401.286	428.56
401.51	444.56
401.734	428.56
401.958	433.56
402.182	437.56
402.406	468.56
402.63	444.56
402.854	444.56
403.078	460.56
403.302	461.56
403.526	486.56
403.75	443.56
403.974	460.56
404.198	475.56
404.422	462.56
404.645	458.56
404.869	474.56
405.093	504.56
405.317	510.56
405.541	543.56
405.765	504.56
405.988	465.56
406.212	468.56
406.436	524.56
406.66	515.56
406.883	488.56
407.107	505.56
407.331	544.56
407.555	603.56
407.778	581.56
408.002	530.56
408.226	490.56
408.449	495.56
408.673	497.56
408.896	511.56
409.12	522.56
409.344	483.56
409.567	471.56
409.791	446.56
410.014	468.56
410.238	469.56
410.461	456.56
410.685	475.56
410.908	459.56
411.132	467.56
411.355	472.56
411.578	481.56
411.802	440.56
412.025	452.56
412.249	473.56
412.472	454.56
412.695	460.56
412.919	473.56
413.142	451.56
413.365	453.56
413.589	432.56
413.812	432.56
414.035	457.56
414.258	433.56
414.482	439.56
414.705	413.56
414.928	424.56
415.151	446.56
415.374	427.56
415.597	417.56
415.821	438.56
416.044	428.56
416.267	435.56
416.49	416.56
416.713	405.56
416.936	428.56
417.159	428.56
417.382	421.56
417.605	420.56
417.828	415.56
418.051	439.56
418.274	435.56
418.497	434.56
418.72	439.56
418.943	432.56
419.166	465.56
419.389	456.56
419.611	445.56
419.834	456.56
420.057	465.56
420.28	442.56
420.503	438.56
420.726	436.56
420.948	460.56
421.171	477.56
421.394	502.56
421.617	455.56
421.839	423.56
422.062	439.56
422.285	443.56
422.507	474.56
422.73	508.56
422.953	488.56
423.175	457.56
423.398	476.56
423.621	461.56
423.843	463.56
424.066	464.56
424.288	492.56
424.511	498.56
424.733	486.56
424.956	562.56
425.178	527.56
425.401	519.56
425.623	529.56
425.846	485.56
426.068	457.56
426.291	442.56
426.513	434.56
426.735	437.56
426.958	469.56
427.18	525.56
427.402	575.56
427.625	616.56
427.847	564.56
428.069	500.56
428.292	431.56
428.514	429.56
428.736	420.56
428.958	437.56
429.181	412.56
429.403	415.56
429.625	429.56
429.847	429.56
430.069	470.56
430.292	471.56
430.514	422.56
430.736	406.56
430.958	398.56
431.18	393.56
431.402	388.56
431.624	398.56
431.846	405.56
432.068	406.56
432.29	387.56
432.512	408.56
432.734	427.56
432.956	410.56
433.178	423.56
433.4	412.56
433.622	402.56
433.844	395.56
434.066	388.56
434.287	408.56
434.509	425.56
434.731	424.56
434.953	452.56
435.175	428.56
435.397	448.56
435.618	470.56
435.84	457.56
436.062	505.56
436.284	556.56
436.505	454.56
436.727	446.56
436.949	411.56
437.17	393.56
437.392	417.56
437.614	402.56
437.835	428.56
438.057	480.56
438.278	534.56
438.5	518.56
438.721	582.56
438.943	555.56
439.165	469.56
439.386	446.56
439.608	452.56
439.829	447.56
440.05	466.56
440.272	480.56
440.493	457.56
440.715	426.56
440.936	433.56
441.158	425.56
441.379	409.56
441.6	436.56
441.822	444.56
442.043	490.56
442.264	506.56
442.486	528.56
442.707	471.56
442.928	474.56
443.149	460.56
443.371	472.56
443.592	492.56
443.813	559.56
444.034	563.56
444.255	520.56
444.476	478.56
444.698	500.56
444.919	492.56
445.14	582.56
445.361	514.56
445.582	487.56
445.803	498.56
446.024	582.56
446.245	562.56
446.466	501.56
446.687	446.56
446.908	444.56
447.129	411.56
447.35	417.56
447.571	412.56
447.792	407.56
448.013	399.56
448.234	399.56
448.455	439.56
448.675	495.56
448.896	547.56
449.117	503.56
449.338	467.56
449.559	546.56
449.779	586.56
450	491.56
450.221	427.56
450.442	406.56
450.662	390.56
450.883	419.56
451.104	410.56
451.324	388.56
451.545	388.56
451.766	367.56
451.986	384.56
452.207	388.56
452.428	375.56
452.648	381.56
452.869	378.56
453.089	388.56
453.31	378.56
453.53	367.56
453.751	360.56
453.971	383.56
454.192	366.56
454.412	370.56
454.633	370.56
454.853	345.56
455.073	359.56
455.294	388.56
455.514	429.56
455.734	396.56
455.955	367.56
456.175	366.56
456.395	345.56
456.616	347.56
456.836	340.56
457.056	344.56
457.276	345.56
457.497	341.56
457.717	363.56
457.937	357.56
458.157	363.56
458.377	348.56
458.598	373.56
458.818	400.56
459.038	457.56
459.258	469.56
459.478	418.56
459.698	400.56
459.918	396.56
460.138	418.56
460.358	413.56
460.578	429.56
460.798	434.56
461.018	429.56
461.238	434.56
461.458	412.56
461.678	414.56
461.898	418.56
462.118	437.56
462.338	454.56
462.558	466.56
462.777	475.56
462.997	489.56
463.217	518.56
463.437	503.56
463.657	474.56
463.876	471.56
464.096	474.56
464.316	480.56
464.536	494.56
464.755	490.56
464.975	456.56
465.195	490.56
465.414	504.56
465.634	462.56
465.854	412.56
466.073	426.56
466.293	407.56
466.512	400.56
466.732	387.56
466.951	370.56
467.171	387.56
467.391	393.56
467.61	400.56
467.829	405.56
468.049	409.56
468.268	390.56
468.488	371.56
468.707	348.56
468.927	372.56
469.146	374.56
469.365	386.56
469.585	393.56
469.804	390.56
470.023	403.56
470.243	413.56
470.462	395.56
470.681	386.56
470.901	422.56
471.12	412.56
471.339	395.56
471.558	400.56
471.777	403.56
471.997	388.56
472.216	400.56
472.435	413.56
472.654	401.56
472.873	386.56
473.092	386.56
473.311	384.56
473.53	390.56
473.749	395.56
473.968	421.56
474.187	455.56
474.406	466.56
474.625	396.56
474.844	401.56
475.063	381.56
475.282	386.56
475.501	382.56
475.72	385.56
475.939	407.56
476.158	406.56
476.377	394.56
476.596	396.56
476.814	410.56
477.033	414.56
477.252	404.56
477.471	418.56
477.69	427.56
477.908	431.56
478.127	426.56
478.346	441.56
478.564	423.56
478.783	450.56
479.002	450.56
479.22	447.56
479.439	478.56
479.658	478.56
479.876	462.56
480.095	472.56
480.313	478.56
480.532	479.56
480.751	490.56
480.969	511.56
481.188	522.56
481.406	524.56
481.624	464.56
481.843	442.56
482.061	409.56
482.28	434.56
482.498	436.56
482.717	411.56
482.935	432.56
483.153	443.56
483.372	454.56
483.59	454.56
483.808	442.56
484.027	424.56
484.245	447.56
484.463	428.56
484.681	447.56
484.9	462.56
485.118	458.56
485.336	454.56
485.554	453.56
485.772	464.56
485.99	444.56
486.209	446.56
486.427	457.56
486.645	463.56
486.863	484.56
487.081	467.56
487.299	462.56
487.517	472.56
487.735	475.56
487.953	465.56
488.171	493.56
488.389	468.56
488.607	470.56
488.825	477.56
489.043	479.56
489.261	481.56
489.479	478.56
489.696	476.56
489.914	486.56
490.132	498.56
490.35	483.56
490.568	498.56
490.786	529.56
491.003	506.56
491.221	510.56
491.439	538.56
491.657	546.56
491.874	546.56
492.092	543.56
492.31	554.56
492.527	567.56
492.745	540.56
492.963	553.56
493.18	556.56
493.398	549.56
493.615	575.56
493.833	560.56
494.05	574.56
494.268	566.56
494.485	556.56
494.703	569.56
494.92	574.56
495.138	579.56
495.355	573.56
495.573	571.56
495.79	569.56
496.008	557.56
496.225	549.56
496.442	570.56
496.66	566.56
496.877	567.56
497.094	558.56
497.312	594.56
497.529	583.56
497.746	574.56
497.963	599.56
498.181	614.56
498.398	611.56
498.615	634.56
498.832	661.56
499.049	693.56
499.267	704.56
499.484	764.56
499.701	787.56
499.918	860.56
500.135	911.56
500.352	1000.56
500.569	991.56
500.786	1019.56
501.003	950.56
501.22	910.56
501.437	870.56
501.654	792.56
501.871	766.56
502.088	728.56
