Data from 1969.PennyLincolnUp.Lamp.En5.5.200Scan.071719.P1._HRD10591_14-53-58-971.txt Node
Date: Thu Jul 18 14:53:58 EDT 2019
User: cochatt
Spectrometer: HR+D1059
Trigger mode: 1
Integration Time (sec): 1.000000E-1
Scans to average: 1
Electric dark correction enabled: true
Nonlinearity correction enabled: false
Boxcar width: 0
XAxis mode: Wavelengths
Number of Pixels in Spectrum: 2048
>>>>>Begin Spectral Data<<<<<
223.165	-6.06
223.4	-6.06
223.635	-6.06
223.869	-23.06
224.104	-12.06
224.338	-15.06
224.573	-9.06
224.808	-14.06
225.042	-20.06
225.277	-9.06
225.511	-0.06
225.746	-7.06
225.98	8.94
226.215	6.94
226.449	19.94
226.683	17.94
226.918	28.94
227.152	32.94
227.387	40.94
227.621	18.94
227.856	36.94
228.09	36.94
228.324	50.94
228.559	52.94
228.793	58.94
229.027	70.94
229.262	91.94
229.496	78.94
229.73	124.94
229.964	113.94
230.199	104.94
230.433	91.94
230.667	84.94
230.901	88.94
231.136	84.94
231.37	92.94
231.604	104.94
231.838	104.94
232.072	90.94
232.306	111.94
232.541	97.94
232.775	112.94
233.009	117.94
233.243	102.94
233.477	87.94
233.711	99.94
233.945	99.94
234.179	87.94
234.413	108.94
234.647	91.94
234.881	103.94
235.115	104.94
235.349	112.94
235.583	91.94
235.817	106.94
236.051	102.94
236.285	115.94
236.519	101.94
236.753	111.94
236.987	127.94
237.221	134.94
237.455	145.94
237.689	131.94
237.922	109.94
238.156	116.94
238.39	100.94
238.624	111.94
238.858	97.94
239.091	87.94
239.325	105.94
239.559	110.94
239.793	106.94
240.027	100.94
240.26	98.94
240.494	103.94
240.728	113.94
240.961	125.94
241.195	106.94
241.429	113.94
241.662	104.94
241.896	104.94
242.13	105.94
242.363	112.94
242.597	110.94
242.83	128.94
243.064	114.94
243.298	128.94
243.531	95.94
243.765	119.94
243.998	115.94
244.232	113.94
244.465	124.94
244.699	127.94
244.932	128.94
245.166	132.94
245.399	122.94
245.633	134.94
245.866	120.94
246.099	108.94
246.333	112.94
246.566	125.94
246.8	125.94
247.033	128.94
247.266	123.94
247.5	131.94
247.733	147.94
247.966	141.94
248.2	129.94
248.433	127.94
248.666	144.94
248.899	149.94
249.133	170.94
249.366	138.94
249.599	155.94
249.832	136.94
250.066	134.94
250.299	141.94
250.532	137.94
250.765	158.94
250.998	164.94
251.231	159.94
251.465	160.94
251.698	168.94
251.931	154.94
252.164	152.94
252.397	152.94
252.63	164.94
252.863	148.94
253.096	165.94
253.329	163.94
253.562	153.94
253.795	166.94
254.028	147.94
254.261	161.94
254.494	178.94
254.727	168.94
254.96	181.94
255.193	173.94
255.426	162.94
255.659	180.94
255.892	184.94
256.124	170.94
256.357	165.94
256.59	170.94
256.823	159.94
257.056	183.94
257.289	175.94
257.521	159.94
257.754	155.94
257.987	178.94
258.22	146.94
258.452	160.94
258.685	156.94
258.918	176.94
259.151	157.94
259.383	159.94
259.616	159.94
259.849	164.94
260.081	164.94
260.314	186.94
260.547	185.94
260.779	164.94
261.012	171.94
261.244	206.94
261.477	181.94
261.71	184.94
261.942	172.94
262.175	176.94
262.407	170.94
262.64	170.94
262.872	169.94
263.105	168.94
263.337	163.94
263.57	164.94
263.802	177.94
264.035	171.94
264.267	173.94
264.499	173.94
264.732	183.94
264.964	169.94
265.197	196.94
265.429	166.94
265.661	183.94
265.894	179.94
266.126	174.94
266.358	152.94
266.591	176.94
266.823	188.94
267.055	191.94
267.287	192.94
267.52	173.94
267.752	178.94
267.984	183.94
268.216	196.94
268.448	165.94
268.681	204.94
268.913	179.94
269.145	199.94
269.377	221.94
269.609	197.94
269.841	184.94
270.073	197.94
270.306	205.94
270.538	232.94
270.77	220.94
271.002	200.94
271.234	220.94
271.466	215.94
271.698	228.94
271.93	221.94
272.162	218.94
272.394	239.94
272.626	216.94
272.858	214.94
273.09	202.94
273.322	214.94
273.553	202.94
273.785	199.94
274.017	208.94
274.249	201.94
274.481	214.94
274.713	180.94
274.945	205.94
275.176	189.94
275.408	200.94
275.64	195.94
275.872	196.94
276.104	199.94
276.335	217.94
276.567	220.94
276.799	231.94
277.031	241.94
277.262	230.94
277.494	225.94
277.726	246.94
277.957	217.94
278.189	215.94
278.421	209.94
278.652	214.94
278.884	215.94
279.115	208.94
279.347	226.94
279.579	213.94
279.81	212.94
280.042	217.94
280.273	227.94
280.505	213.94
280.736	208.94
280.968	226.94
281.199	220.94
281.431	224.94
281.662	213.94
281.894	223.94
282.125	222.94
282.356	233.94
282.588	229.94
282.819	234.94
283.051	219.94
283.282	210.94
283.513	236.94
283.745	218.94
283.976	217.94
284.207	221.94
284.439	225.94
284.67	217.94
284.901	213.94
285.132	235.94
285.364	220.94
285.595	242.94
285.826	233.94
286.057	221.94
286.288	233.94
286.52	216.94
286.751	230.94
286.982	224.94
287.213	220.94
287.444	231.94
287.675	241.94
287.906	231.94
288.138	239.94
288.369	245.94
288.6	241.94
288.831	252.94
289.062	235.94
289.293	234.94
289.524	239.94
289.755	236.94
289.986	233.94
290.217	226.94
290.448	255.94
290.679	233.94
290.91	229.94
291.141	241.94
291.371	240.94
291.602	246.94
291.833	229.94
292.064	245.94
292.295	260.94
292.526	247.94
292.757	218.94
292.987	249.94
293.218	237.94
293.449	254.94
293.68	247.94
293.91	251.94
294.141	242.94
294.372	249.94
294.603	249.94
294.833	235.94
295.064	231.94
295.295	250.94
295.525	243.94
295.756	244.94
295.987	240.94
296.217	228.94
296.448	253.94
296.679	249.94
296.909	261.94
297.14	236.94
297.37	271.94
297.601	237.94
297.831	245.94
298.062	258.94
298.292	255.94
298.523	268.94
298.753	262.94
298.984	260.94
299.214	276.94
299.445	255.94
299.675	259.94
299.905	253.94
300.136	256.94
300.366	260.94
300.597	263.94
300.827	258.94
301.057	264.94
301.288	276.94
301.518	265.94
301.748	259.94
301.979	253.94
302.209	267.94
302.439	276.94
302.669	278.94
302.9	283.94
303.13	278.94
303.36	289.94
303.59	285.94
303.82	256.94
304.051	272.94
304.281	257.94
304.511	256.94
304.741	263.94
304.971	268.94
305.201	276.94
305.431	265.94
305.661	273.94
305.891	277.94
306.121	271.94
306.352	275.94
306.582	280.94
306.812	281.94
307.042	279.94
307.272	254.94
307.502	279.94
307.731	267.94
307.961	265.94
308.191	259.94
308.421	273.94
308.651	275.94
308.881	267.94
309.111	257.94
309.341	277.94
309.571	261.94
309.8	245.94
310.03	268.94
310.26	273.94
310.49	287.94
310.72	288.94
310.949	287.94
311.179	285.94
311.409	271.94
311.639	271.94
311.868	291.94
312.098	283.94
312.328	272.94
312.557	298.94
312.787	290.94
313.017	307.94
313.246	298.94
313.476	276.94
313.706	296.94
313.935	307.94
314.165	312.94
314.394	296.94
314.624	301.94
314.853	295.94
315.083	292.94
315.312	294.94
315.542	303.94
315.771	285.94
316.001	274.94
316.23	295.94
316.46	296.94
316.689	306.94
316.919	289.94
317.148	294.94
317.377	307.94
317.607	292.94
317.836	301.94
318.065	283.94
318.295	306.94
318.524	297.94
318.753	301.94
318.983	300.94
319.212	288.94
319.441	288.94
319.67	297.94
319.9	293.94
320.129	303.94
320.358	309.94
320.587	303.94
320.816	295.94
321.046	307.94
321.275	303.94
321.504	290.94
321.733	313.94
321.962	304.94
322.191	299.94
322.42	303.94
322.649	320.94
322.878	315.94
323.108	327.94
323.337	333.94
323.566	326.94
323.795	345.94
324.024	353.94
324.253	393.94
324.482	513.94
324.71	703.94
324.939	905.94
325.168	771.94
325.397	441.94
325.626	376.94
325.855	337.94
326.084	338.94
326.313	339.94
326.542	348.94
326.77	366.94
326.999	389.94
327.228	466.94
327.457	621.94
327.686	699.94
327.914	524.94
328.143	403.94
328.372	378.94
328.6	353.94
328.829	347.94
329.058	359.94
329.287	368.94
329.515	369.94
329.744	348.94
329.972	350.94
330.201	354.94
330.43	370.94
330.658	371.94
330.887	386.94
331.115	381.94
331.344	343.94
331.572	338.94
331.801	326.94
332.03	353.94
332.258	374.94
332.486	355.94
332.715	372.94
332.943	354.94
333.172	371.94
333.4	355.94
333.629	383.94
333.857	383.94
334.085	377.94
334.314	375.94
334.542	391.94
334.771	406.94
334.999	400.94
335.227	369.94
335.455	372.94
335.684	363.94
335.912	362.94
336.14	364.94
336.369	369.94
336.597	358.94
336.825	347.94
337.053	356.94
337.281	349.94
337.51	343.94
337.738	355.94
337.966	345.94
338.194	349.94
338.422	332.94
338.65	339.94
338.878	345.94
339.106	357.94
339.334	325.94
339.562	325.94
339.79	312.94
340.018	315.94
340.246	333.94
340.474	347.94
340.702	337.94
340.93	354.94
341.158	325.94
341.386	325.94
341.614	306.94
341.842	327.94
342.07	325.94
342.298	336.94
342.526	338.94
342.754	326.94
342.981	339.94
343.209	324.94
343.437	337.94
343.665	352.94
343.893	359.94
344.12	355.94
344.348	348.94
344.576	343.94
344.804	335.94
345.031	345.94
345.259	337.94
345.487	331.94
345.714	313.94
345.942	311.94
346.17	305.94
346.397	301.94
346.625	318.94
346.853	316.94
347.08	316.94
347.308	309.94
347.535	319.94
347.763	310.94
347.99	306.94
348.218	317.94
348.445	309.94
348.673	312.94
348.9	322.94
349.128	305.94
349.355	314.94
349.583	305.94
349.81	288.94
350.037	299.94
350.265	304.94
350.492	307.94
350.72	297.94
350.947	312.94
351.174	319.94
351.402	331.94
351.629	298.94
351.856	318.94
352.083	315.94
352.311	301.94
352.538	317.94
352.765	302.94
352.992	335.94
353.22	310.94
353.447	313.94
353.674	305.94
353.901	311.94
354.128	297.94
354.355	284.94
354.583	303.94
354.81	285.94
355.037	295.94
355.264	296.94
355.491	307.94
355.718	287.94
355.945	292.94
356.172	324.94
356.399	299.94
356.626	291.94
356.853	295.94
357.08	291.94
357.307	310.94
357.534	283.94
357.761	302.94
357.988	298.94
358.215	305.94
358.441	305.94
358.668	323.94
358.895	289.94
359.122	306.94
359.349	299.94
359.576	323.94
359.802	316.94
360.029	328.94
360.256	321.94
360.483	316.94
360.709	297.94
360.936	309.94
361.163	331.94
361.39	321.94
361.616	312.94
361.843	293.94
362.07	307.94
362.296	307.94
362.523	303.94
362.749	314.94
362.976	309.94
363.203	305.94
363.429	285.94
363.656	300.94
363.882	306.94
364.109	311.94
364.335	293.94
364.562	303.94
364.788	291.94
365.015	308.94
365.241	307.94
365.468	294.94
365.694	300.94
365.92	303.94
366.147	315.94
366.373	306.94
366.599	311.94
366.826	308.94
367.052	309.94
367.278	323.94
367.505	325.94
367.731	313.94
367.957	281.94
368.184	290.94
368.41	289.94
368.636	312.94
368.862	311.94
369.089	311.94
369.315	311.94
369.541	295.94
369.767	306.94
369.993	294.94
370.219	308.94
370.445	299.94
370.672	309.94
370.898	327.94
371.124	299.94
371.35	312.94
371.576	330.94
371.802	321.94
372.028	289.94
372.254	312.94
372.48	325.94
372.706	326.94
372.932	325.94
373.158	332.94
373.384	300.94
373.61	306.94
373.835	320.94
374.061	296.94
374.287	330.94
374.513	316.94
374.739	336.94
374.965	329.94
375.191	332.94
375.416	314.94
375.642	335.94
375.868	304.94
376.094	329.94
376.319	325.94
376.545	305.94
376.771	300.94
376.997	298.94
377.222	306.94
377.448	297.94
377.674	307.94
377.899	303.94
378.125	307.94
378.35	304.94
378.576	301.94
378.802	305.94
379.027	318.94
379.253	327.94
379.478	305.94
379.704	304.94
379.929	312.94
380.155	312.94
380.38	301.94
380.606	284.94
380.831	300.94
381.057	318.94
381.282	333.94
381.507	317.94
381.733	301.94
381.958	315.94
382.184	322.94
382.409	317.94
382.634	321.94
382.86	326.94
383.085	324.94
383.31	325.94
383.535	309.94
383.761	317.94
383.986	325.94
384.211	339.94
384.436	343.94
384.662	347.94
384.887	346.94
385.112	345.94
385.337	356.94
385.562	347.94
385.787	355.94
386.013	352.94
386.238	330.94
386.463	356.94
386.688	367.94
386.913	355.94
387.138	346.94
387.363	339.94
387.588	345.94
387.813	357.94
388.038	346.94
388.263	354.94
388.488	326.94
388.713	329.94
388.938	344.94
389.163	354.94
389.387	344.94
389.612	345.94
389.837	344.94
390.062	336.94
390.287	341.94
390.512	342.94
390.736	343.94
390.961	358.94
391.186	357.94
391.411	368.94
391.636	355.94
391.86	367.94
392.085	359.94
392.31	364.94
392.534	360.94
392.759	372.94
392.984	360.94
393.208	357.94
393.433	376.94
393.658	360.94
393.882	364.94
394.107	355.94
394.331	357.94
394.556	363.94
394.78	349.94
395.005	356.94
395.229	369.94
395.454	369.94
395.678	372.94
395.903	377.94
396.127	381.94
396.352	375.94
396.576	375.94
396.801	354.94
397.025	353.94
397.249	373.94
397.474	395.94
397.698	367.94
397.922	382.94
398.147	390.94
398.371	403.94
398.595	381.94
398.82	395.94
399.044	429.94
399.268	450.94
399.492	509.94
399.717	512.94
399.941	530.94
400.165	488.94
400.389	468.94
400.613	464.94
400.837	439.94
401.062	388.94
401.286	421.94
401.51	389.94
401.734	404.94
401.958	409.94
402.182	426.94
402.406	402.94
402.63	412.94
402.854	419.94
403.078	409.94
403.302	435.94
403.526	459.94
403.75	434.94
403.974	419.94
404.198	445.94
404.422	427.94
404.645	445.94
404.869	424.94
405.093	465.94
405.317	478.94
405.541	465.94
405.765	440.94
405.988	439.94
406.212	419.94
406.436	451.94
406.66	461.94
406.883	465.94
407.107	470.94
407.331	515.94
407.555	511.94
407.778	519.94
408.002	509.94
408.226	459.94
408.449	443.94
408.673	448.94
408.896	463.94
409.12	479.94
409.344	455.94
409.567	432.94
409.791	438.94
410.014	441.94
410.238	426.94
410.461	425.94
410.685	418.94
410.908	425.94
411.132	429.94
411.355	445.94
411.578	431.94
411.802	419.94
412.025	417.94
412.249	440.94
412.472	420.94
412.695	452.94
412.919	444.94
413.142	409.94
413.365	409.94
413.589	419.94
413.812	395.94
414.035	394.94
414.258	394.94
414.482	397.94
414.705	394.94
414.928	400.94
415.151	399.94
415.374	389.94
415.597	393.94
415.821	400.94
416.044	390.94
416.267	398.94
416.49	397.94
416.713	393.94
416.936	386.94
417.159	396.94
417.382	372.94
417.605	384.94
417.828	409.94
418.051	411.94
418.274	384.94
418.497	417.94
418.72	404.94
418.943	411.94
419.166	422.94
419.389	434.94
419.611	429.94
419.834	426.94
420.057	437.94
420.28	408.94
420.503	411.94
420.726	408.94
420.948	422.94
421.171	441.94
421.394	444.94
421.617	408.94
421.839	412.94
422.062	396.94
422.285	423.94
422.507	420.94
422.73	469.94
422.953	461.94
423.175	407.94
423.398	387.94
423.621	434.94
423.843	435.94
424.066	451.94
424.288	441.94
424.511	448.94
424.733	463.94
424.956	481.94
425.178	467.94
425.401	462.94
425.623	487.94
425.846	411.94
426.068	409.94
426.291	411.94
426.513	413.94
426.735	404.94
426.958	427.94
427.18	455.94
427.402	523.94
427.625	538.94
427.847	473.94
428.069	447.94
428.292	418.94
428.514	385.94
428.736	372.94
428.958	367.94
429.181	372.94
429.403	388.94
429.625	374.94
429.847	417.94
430.069	422.94
430.292	422.94
430.514	372.94
430.736	360.94
430.958	369.94
431.18	357.94
431.402	372.94
431.624	369.94
431.846	369.94
432.068	362.94
432.29	373.94
432.512	374.94
432.734	372.94
432.956	379.94
433.178	393.94
433.4	390.94
433.622	380.94
433.844	389.94
434.066	381.94
434.287	384.94
434.509	381.94
434.731	395.94
434.953	389.94
435.175	398.94
435.397	415.94
435.618	406.94
435.84	414.94
436.062	458.94
436.284	480.94
436.505	439.94
436.727	412.94
436.949	391.94
437.17	374.94
437.392	402.94
437.614	378.94
437.835	390.94
438.057	424.94
438.278	479.94
438.5	468.94
438.721	498.94
438.943	486.94
439.165	420.94
439.386	384.94
439.608	397.94
439.829	396.94
440.05	402.94
440.272	420.94
440.493	418.94
440.715	407.94
440.936	404.94
441.158	398.94
441.379	393.94
441.6	423.94
441.822	423.94
442.043	448.94
442.264	480.94
442.486	463.94
442.707	438.94
442.928	408.94
443.149	423.94
443.371	442.94
443.592	452.94
443.813	491.94
444.034	515.94
444.255	457.94
444.476	453.94
444.698	450.94
444.919	441.94
445.14	572.94
445.361	498.94
445.582	447.94
445.803	447.94
446.024	521.94
446.245	492.94
446.466	462.94
446.687	413.94
446.908	400.94
447.129	396.94
447.35	381.94
447.571	376.94
447.792	376.94
448.013	386.94
448.234	379.94
448.455	395.94
448.675	455.94
448.896	473.94
449.117	415.94
449.338	432.94
449.559	460.94
449.779	526.94
450	424.94
450.221	379.94
450.442	367.94
450.662	379.94
450.883	357.94
451.104	369.94
451.324	356.94
451.545	352.94
451.766	320.94
451.986	331.94
452.207	334.94
452.428	346.94
452.648	346.94
452.869	344.94
453.089	354.94
453.31	355.94
453.53	352.94
453.751	327.94
453.971	312.94
454.192	328.94
454.412	333.94
454.633	352.94
454.853	327.94
455.073	348.94
455.294	353.94
455.514	375.94
455.734	358.94
455.955	325.94
456.175	340.94
456.395	338.94
456.616	315.94
456.836	339.94
457.056	313.94
457.276	322.94
457.497	320.94
457.717	332.94
457.937	333.94
458.157	347.94
458.377	335.94
458.598	350.94
458.818	363.94
459.038	397.94
459.258	431.94
459.478	381.94
459.698	365.94
459.918	381.94
460.138	384.94
460.358	406.94
460.578	407.94
460.798	398.94
461.018	404.94
461.238	412.94
461.458	400.94
461.678	401.94
461.898	397.94
462.118	417.94
462.338	422.94
462.558	435.94
462.777	447.94
462.997	470.94
463.217	460.94
463.437	482.94
463.657	450.94
463.876	450.94
464.096	440.94
464.316	437.94
464.536	434.94
464.755	436.94
464.975	416.94
465.195	417.94
465.414	443.94
465.634	408.94
465.854	381.94
466.073	378.94
466.293	383.94
466.512	347.94
466.732	357.94
466.951	368.94
467.171	364.94
467.391	364.94
467.61	390.94
467.829	362.94
468.049	347.94
468.268	347.94
468.488	354.94
468.707	341.94
468.927	346.94
469.146	347.94
469.365	346.94
469.585	372.94
469.804	383.94
470.023	373.94
470.243	378.94
470.462	369.94
470.681	377.94
470.901	392.94
471.12	374.94
471.339	343.94
471.558	351.94
471.777	377.94
471.997	342.94
472.216	367.94
472.435	380.94
472.654	363.94
472.873	359.94
473.092	360.94
473.311	343.94
473.53	350.94
473.749	357.94
473.968	364.94
474.187	407.94
474.406	422.94
474.625	370.94
474.844	380.94
475.063	369.94
475.282	358.94
475.501	360.94
475.72	355.94
475.939	362.94
476.158	352.94
476.377	393.94
476.596	356.94
476.814	379.94
477.033	379.94
477.252	379.94
477.471	366.94
477.69	395.94
477.908	375.94
478.127	395.94
478.346	387.94
478.564	404.94
478.783	419.94
479.002	418.94
479.22	432.94
479.439	407.94
479.658	417.94
479.876	442.94
480.095	419.94
480.313	477.94
480.532	426.94
480.751	449.94
480.969	451.94
481.188	467.94
481.406	455.94
481.624	436.94
481.843	421.94
482.061	409.94
482.28	404.94
482.498	391.94
482.717	390.94
482.935	390.94
483.153	406.94
483.372	441.94
483.59	417.94
483.808	420.94
484.027	415.94
484.245	413.94
484.463	404.94
484.681	428.94
484.9	425.94
485.118	422.94
485.336	421.94
485.554	444.94
485.772	405.94
485.99	418.94
486.209	424.94
486.427	437.94
486.645	433.94
486.863	435.94
487.081	432.94
487.299	440.94
487.517	432.94
487.735	436.94
487.953	429.94
488.171	434.94
488.389	441.94
488.607	450.94
488.825	437.94
489.043	420.94
489.261	432.94
489.479	423.94
489.696	437.94
489.914	452.94
490.132	449.94
490.35	443.94
490.568	465.94
490.786	456.94
491.003	477.94
491.221	468.94
491.439	472.94
491.657	488.94
491.874	487.94
492.092	471.94
492.31	496.94
492.527	478.94
492.745	493.94
492.963	479.94
493.18	513.94
493.398	492.94
493.615	486.94
493.833	497.94
494.05	495.94
494.268	498.94
494.485	508.94
494.703	490.94
494.92	484.94
495.138	513.94
495.355	488.94
495.573	477.94
495.79	486.94
496.008	515.94
496.225	493.94
496.442	504.94
496.66	474.94
496.877	490.94
497.094	496.94
497.312	520.94
497.529	525.94
497.746	514.94
497.963	546.94
498.181	557.94
498.398	560.94
498.615	575.94
498.832	587.94
499.049	607.94
499.267	663.94
499.484	707.94
499.701	732.94
499.918	768.94
500.135	832.94
500.352	911.94
500.569	955.94
500.786	931.94
501.003	880.94
501.22	858.94
501.437	756.94
501.654	727.94
501.871	707.94
502.088	653.94
502.305	643.94
