Data from 1969.PennyLincolnUp.Lamp.En5.5.200Scan.071719.P1._HRD10591_14-55-25-972.txt Node
Date: Thu Jul 18 14:55:25 EDT 2019
User: cochatt
Spectrometer: HR+D1059
Trigger mode: 1
Integration Time (sec): 1.000000E-1
Scans to average: 1
Electric dark correction enabled: true
Nonlinearity correction enabled: false
Boxcar width: 0
XAxis mode: Wavelengths
Number of Pixels in Spectrum: 2048
>>>>>Begin Spectral Data<<<<<
223.165	-19.38
223.4	-19.38
223.635	-19.38
223.869	-0.38
224.104	-8.38
224.338	-14.38
224.573	-8.38
224.808	-7.38
225.042	-18.38
225.277	-8.38
225.511	-16.38
225.746	-19.38
225.98	6.62
226.215	14.62
226.449	13.62
226.683	23.62
226.918	25.62
227.152	36.62
227.387	40.62
227.621	59.62
227.856	31.62
228.09	55.62
228.324	57.62
228.559	60.62
228.793	63.62
229.027	96.62
229.262	89.62
229.496	84.62
229.73	116.62
229.964	127.62
230.199	105.62
230.433	112.62
230.667	98.62
230.901	105.62
231.136	94.62
231.37	104.62
231.604	100.62
231.838	110.62
232.072	112.62
232.306	114.62
232.541	110.62
232.775	110.62
233.009	94.62
233.243	107.62
233.477	106.62
233.711	114.62
233.945	102.62
234.179	101.62
234.413	119.62
234.647	105.62
234.881	107.62
235.115	106.62
235.349	101.62
235.583	108.62
235.817	100.62
236.051	110.62
236.285	117.62
236.519	104.62
236.753	119.62
236.987	124.62
237.221	135.62
237.455	166.62
237.689	132.62
237.922	107.62
238.156	99.62
238.39	114.62
238.624	124.62
238.858	126.62
239.091	114.62
239.325	103.62
239.559	116.62
239.793	116.62
240.027	118.62
240.26	128.62
240.494	148.62
240.728	140.62
240.961	134.62
241.195	142.62
241.429	134.62
241.662	108.62
241.896	132.62
242.13	105.62
242.363	117.62
242.597	122.62
242.83	133.62
243.064	124.62
243.298	123.62
243.531	132.62
243.765	138.62
243.998	126.62
244.232	121.62
244.465	135.62
244.699	123.62
244.932	131.62
245.166	130.62
245.399	130.62
245.633	148.62
245.866	138.62
246.099	141.62
246.333	133.62
246.566	140.62
246.8	139.62
247.033	145.62
247.266	153.62
247.5	140.62
247.733	146.62
247.966	144.62
248.2	150.62
248.433	140.62
248.666	140.62
248.899	154.62
249.133	160.62
249.366	166.62
249.599	162.62
249.832	150.62
250.066	163.62
250.299	144.62
250.532	162.62
250.765	164.62
250.998	186.62
251.231	180.62
251.465	166.62
251.698	158.62
251.931	169.62
252.164	170.62
252.397	164.62
252.63	171.62
252.863	154.62
253.096	175.62
253.329	195.62
253.562	190.62
253.795	190.62
254.028	182.62
254.261	182.62
254.494	196.62
254.727	202.62
254.96	205.62
255.193	222.62
255.426	192.62
255.659	197.62
255.892	191.62
256.124	197.62
256.357	194.62
256.59	188.62
256.823	180.62
257.056	178.62
257.289	175.62
257.521	172.62
257.754	172.62
257.987	170.62
258.22	173.62
258.452	180.62
258.685	191.62
258.918	176.62
259.151	193.62
259.383	199.62
259.616	192.62
259.849	190.62
260.081	205.62
260.314	206.62
260.547	202.62
260.779	196.62
261.012	189.62
261.244	175.62
261.477	198.62
261.71	192.62
261.942	190.62
262.175	211.62
262.407	180.62
262.64	170.62
262.872	186.62
263.105	186.62
263.337	183.62
263.57	190.62
263.802	199.62
264.035	186.62
264.267	188.62
264.499	184.62
264.732	194.62
264.964	192.62
265.197	182.62
265.429	197.62
265.661	184.62
265.894	184.62
266.126	195.62
266.358	186.62
266.591	187.62
266.823	205.62
267.055	202.62
267.287	209.62
267.52	182.62
267.752	194.62
267.984	212.62
268.216	214.62
268.448	223.62
268.681	202.62
268.913	225.62
269.145	227.62
269.377	222.62
269.609	237.62
269.841	232.62
270.073	219.62
270.306	247.62
270.538	252.62
270.77	262.62
271.002	255.62
271.234	222.62
271.466	260.62
271.698	246.62
271.93	269.62
272.162	260.62
272.394	266.62
272.626	243.62
272.858	242.62
273.09	240.62
273.322	229.62
273.553	226.62
273.785	235.62
274.017	230.62
274.249	231.62
274.481	229.62
274.713	218.62
274.945	222.62
275.176	227.62
275.408	223.62
275.64	221.62
275.872	235.62
276.104	235.62
276.335	226.62
276.567	228.62
276.799	240.62
277.031	258.62
277.262	272.62
277.494	261.62
277.726	242.62
277.957	248.62
278.189	244.62
278.421	224.62
278.652	226.62
278.884	235.62
279.115	227.62
279.347	230.62
279.579	238.62
279.81	250.62
280.042	232.62
280.273	246.62
280.505	254.62
280.736	234.62
280.968	239.62
281.199	226.62
281.431	251.62
281.662	242.62
281.894	233.62
282.125	252.62
282.356	247.62
282.588	252.62
282.819	257.62
283.051	251.62
283.282	222.62
283.513	247.62
283.745	247.62
283.976	253.62
284.207	234.62
284.439	256.62
284.67	258.62
284.901	267.62
285.132	262.62
285.364	248.62
285.595	245.62
285.826	259.62
286.057	266.62
286.288	248.62
286.52	259.62
286.751	255.62
286.982	253.62
287.213	249.62
287.444	269.62
287.675	247.62
287.906	250.62
288.138	280.62
288.369	281.62
288.6	258.62
288.831	254.62
289.062	271.62
289.293	282.62
289.524	264.62
289.755	245.62
289.986	244.62
290.217	261.62
290.448	252.62
290.679	263.62
290.91	280.62
291.141	263.62
291.371	261.62
291.602	260.62
291.833	271.62
292.064	264.62
292.295	284.62
292.526	283.62
292.757	251.62
292.987	254.62
293.218	242.62
293.449	261.62
293.68	280.62
293.91	256.62
294.141	257.62
294.372	262.62
294.603	269.62
294.833	283.62
295.064	247.62
295.295	268.62
295.525	279.62
295.756	280.62
295.987	264.62
296.217	286.62
296.448	271.62
296.679	282.62
296.909	264.62
297.14	280.62
297.37	272.62
297.601	269.62
297.831	275.62
298.062	280.62
298.292	278.62
298.523	277.62
298.753	280.62
298.984	284.62
299.214	291.62
299.445	263.62
299.675	291.62
299.905	293.62
300.136	270.62
300.366	278.62
300.597	284.62
300.827	277.62
301.057	299.62
301.288	295.62
301.518	290.62
301.748	313.62
301.979	262.62
302.209	294.62
302.439	310.62
302.669	298.62
302.9	308.62
303.13	282.62
303.36	276.62
303.59	309.62
303.82	292.62
304.051	303.62
304.281	293.62
304.511	294.62
304.741	311.62
304.971	287.62
305.201	294.62
305.431	295.62
305.661	308.62
305.891	283.62
306.121	298.62
306.352	285.62
306.582	299.62
306.812	294.62
307.042	291.62
307.272	288.62
307.502	294.62
307.731	284.62
307.961	290.62
308.191	306.62
308.421	286.62
308.651	281.62
308.881	299.62
309.111	301.62
309.341	308.62
309.571	316.62
309.8	317.62
310.03	293.62
310.26	306.62
310.49	291.62
310.72	326.62
310.949	311.62
311.179	336.62
311.409	321.62
311.639	316.62
311.868	333.62
312.098	329.62
312.328	324.62
312.557	336.62
312.787	336.62
313.017	333.62
313.246	315.62
313.476	314.62
313.706	328.62
313.935	338.62
314.165	306.62
314.394	328.62
314.624	348.62
314.853	323.62
315.083	327.62
315.312	331.62
315.542	320.62
315.771	327.62
316.001	302.62
316.23	328.62
316.46	333.62
316.689	332.62
316.919	343.62
317.148	326.62
317.377	336.62
317.607	336.62
317.836	333.62
318.065	314.62
318.295	330.62
318.524	335.62
318.753	298.62
318.983	331.62
319.212	331.62
319.441	326.62
319.67	333.62
319.9	331.62
320.129	339.62
320.358	327.62
320.587	323.62
320.816	317.62
321.046	327.62
321.275	336.62
321.504	331.62
321.733	328.62
321.962	326.62
322.191	341.62
322.42	337.62
322.649	355.62
322.878	359.62
323.108	373.62
323.337	360.62
323.566	383.62
323.795	392.62
324.024	405.62
324.253	500.62
324.482	634.62
324.71	872.62
324.939	1192.62
325.168	999.62
325.397	566.62
325.626	429.62
325.855	413.62
326.084	378.62
326.313	380.62
326.542	387.62
326.77	421.62
326.999	443.62
327.228	599.62
327.457	803.62
327.686	905.62
327.914	638.62
328.143	479.62
328.372	445.62
328.6	417.62
328.829	440.62
329.058	422.62
329.287	419.62
329.515	404.62
329.744	388.62
329.972	400.62
330.201	400.62
330.43	461.62
330.658	469.62
330.887	470.62
331.115	439.62
331.344	401.62
331.572	395.62
331.801	409.62
332.03	418.62
332.258	386.62
332.486	396.62
332.715	414.62
332.943	409.62
333.172	413.62
333.4	401.62
333.629	404.62
333.857	415.62
334.085	447.62
334.314	447.62
334.542	471.62
334.771	457.62
334.999	434.62
335.227	398.62
335.455	423.62
335.684	391.62
335.912	398.62
336.14	381.62
336.369	389.62
336.597	396.62
336.825	389.62
337.053	382.62
337.281	374.62
337.51	366.62
337.738	394.62
337.966	390.62
338.194	367.62
338.422	379.62
338.65	390.62
338.878	360.62
339.106	377.62
339.334	372.62
339.562	377.62
339.79	358.62
340.018	349.62
340.246	377.62
340.474	365.62
340.702	378.62
340.93	374.62
341.158	360.62
341.386	364.62
341.614	378.62
341.842	372.62
342.07	352.62
342.298	358.62
342.526	336.62
342.754	335.62
342.981	371.62
343.209	363.62
343.437	362.62
343.665	360.62
343.893	394.62
344.12	399.62
344.348	376.62
344.576	379.62
344.804	388.62
345.031	372.62
345.259	367.62
345.487	362.62
345.714	363.62
345.942	340.62
346.17	362.62
346.397	352.62
346.625	344.62
346.853	339.62
347.08	339.62
347.308	326.62
347.535	335.62
347.763	360.62
347.99	355.62
348.218	356.62
348.445	359.62
348.673	340.62
348.9	347.62
349.128	353.62
349.355	339.62
349.583	326.62
349.81	335.62
350.037	332.62
350.265	348.62
350.492	340.62
350.72	341.62
350.947	350.62
351.174	324.62
351.402	339.62
351.629	338.62
351.856	343.62
352.083	336.62
352.311	331.62
352.538	332.62
352.765	356.62
352.992	348.62
353.22	331.62
353.447	340.62
353.674	332.62
353.901	342.62
354.128	320.62
354.355	328.62
354.583	339.62
354.81	332.62
355.037	330.62
355.264	343.62
355.491	342.62
355.718	340.62
355.945	319.62
356.172	314.62
356.399	332.62
356.626	313.62
356.853	322.62
357.08	316.62
357.307	338.62
357.534	326.62
357.761	339.62
357.988	322.62
358.215	349.62
358.441	313.62
358.668	322.62
358.895	319.62
359.122	306.62
359.349	334.62
359.576	332.62
359.802	346.62
360.029	359.62
360.256	375.62
360.483	359.62
360.709	354.62
360.936	342.62
361.163	344.62
361.39	348.62
361.616	351.62
361.843	344.62
362.07	332.62
362.296	316.62
362.523	323.62
362.749	342.62
362.976	336.62
363.203	327.62
363.429	320.62
363.656	324.62
363.882	342.62
364.109	331.62
364.335	322.62
364.562	329.62
364.788	315.62
365.015	337.62
365.241	341.62
365.468	330.62
365.694	336.62
365.92	338.62
366.147	346.62
366.373	335.62
366.599	337.62
366.826	312.62
367.052	327.62
367.278	326.62
367.505	314.62
367.731	334.62
367.957	316.62
368.184	331.62
368.41	340.62
368.636	338.62
368.862	342.62
369.089	341.62
369.315	342.62
369.541	342.62
369.767	328.62
369.993	338.62
370.219	332.62
370.445	341.62
370.672	336.62
370.898	322.62
371.124	334.62
371.35	342.62
371.576	340.62
371.802	362.62
372.028	331.62
372.254	332.62
372.48	339.62
372.706	351.62
372.932	341.62
373.158	345.62
373.384	340.62
373.61	341.62
373.835	342.62
374.061	313.62
374.287	349.62
374.513	339.62
374.739	349.62
374.965	345.62
375.191	365.62
375.416	355.62
375.642	333.62
375.868	346.62
376.094	335.62
376.319	330.62
376.545	349.62
376.771	348.62
376.997	339.62
377.222	332.62
377.448	334.62
377.674	329.62
377.899	341.62
378.125	340.62
378.35	336.62
378.576	334.62
378.802	347.62
379.027	347.62
379.253	335.62
379.478	329.62
379.704	322.62
379.929	327.62
380.155	339.62
380.38	331.62
380.606	327.62
380.831	334.62
381.057	333.62
381.282	327.62
381.507	336.62
381.733	335.62
381.958	334.62
382.184	352.62
382.409	340.62
382.634	339.62
382.86	338.62
383.085	342.62
383.31	355.62
383.535	355.62
383.761	338.62
383.986	358.62
384.211	361.62
384.436	363.62
384.662	358.62
384.887	371.62
385.112	368.62
385.337	379.62
385.562	366.62
385.787	364.62
386.013	406.62
386.238	386.62
386.463	386.62
386.688	376.62
386.913	367.62
387.138	392.62
387.363	386.62
387.588	396.62
387.813	371.62
388.038	375.62
388.263	363.62
388.488	363.62
388.713	372.62
388.938	390.62
389.163	360.62
389.387	367.62
389.612	383.62
389.837	370.62
390.062	387.62
390.287	367.62
390.512	367.62
390.736	373.62
390.961	368.62
391.186	364.62
391.411	401.62
391.636	376.62
391.86	406.62
392.085	406.62
392.31	409.62
392.534	384.62
392.759	400.62
392.984	402.62
393.208	384.62
393.433	383.62
393.658	377.62
393.882	375.62
394.107	394.62
394.331	376.62
394.556	390.62
394.78	379.62
395.005	388.62
395.229	395.62
395.454	400.62
395.678	414.62
395.903	416.62
396.127	415.62
396.352	418.62
396.576	392.62
396.801	409.62
397.025	412.62
397.249	392.62
397.474	392.62
397.698	418.62
397.922	409.62
398.147	409.62
398.371	419.62
398.595	425.62
398.82	428.62
399.044	456.62
399.268	494.62
399.492	528.62
399.717	553.62
399.941	556.62
400.165	549.62
400.389	546.62
400.613	484.62
400.837	464.62
401.062	446.62
401.286	431.62
401.51	458.62
401.734	458.62
401.958	432.62
402.182	446.62
402.406	470.62
402.63	450.62
402.854	456.62
403.078	454.62
403.302	484.62
403.526	453.62
403.75	498.62
403.974	475.62
404.198	478.62
404.422	470.62
404.645	486.62
404.869	478.62
405.093	490.62
405.317	505.62
405.541	554.62
405.765	492.62
405.988	482.62
406.212	472.62
406.436	493.62
406.66	530.62
406.883	478.62
407.107	521.62
407.331	521.62
407.555	587.62
407.778	564.62
408.002	532.62
408.226	509.62
408.449	512.62
408.673	508.62
408.896	491.62
409.12	525.62
409.344	498.62
409.567	468.62
409.791	461.62
410.014	474.62
410.238	489.62
410.461	457.62
410.685	479.62
410.908	478.62
411.132	463.62
411.355	487.62
411.578	470.62
411.802	465.62
412.025	472.62
412.249	442.62
412.472	465.62
412.695	524.62
412.919	480.62
413.142	449.62
413.365	452.62
413.589	438.62
413.812	436.62
414.035	438.62
414.258	434.62
414.482	457.62
414.705	441.62
414.928	432.62
415.151	440.62
415.374	427.62
415.597	398.62
415.821	415.62
416.044	428.62
416.267	423.62
416.49	418.62
416.713	418.62
416.936	432.62
417.159	418.62
417.382	432.62
417.605	437.62
417.828	421.62
418.051	457.62
418.274	440.62
418.497	436.62
418.72	459.62
418.943	447.62
419.166	452.62
419.389	478.62
419.611	479.62
419.834	463.62
420.057	472.62
420.28	448.62
420.503	422.62
420.726	461.62
420.948	467.62
421.171	468.62
421.394	485.62
421.617	424.62
421.839	454.62
422.062	450.62
422.285	443.62
422.507	491.62
422.73	524.62
422.953	490.62
423.175	464.62
423.398	456.62
423.621	474.62
423.843	504.62
424.066	475.62
424.288	478.62
424.511	496.62
424.733	517.62
424.956	536.62
425.178	524.62
425.401	528.62
425.623	553.62
425.846	462.62
426.068	434.62
426.291	440.62
426.513	429.62
426.735	457.62
426.958	472.62
427.18	517.62
427.402	613.62
427.625	594.62
427.847	549.62
428.069	501.62
428.292	451.62
428.514	426.62
428.736	440.62
428.958	436.62
429.181	405.62
429.403	430.62
429.625	417.62
429.847	430.62
430.069	462.62
430.292	471.62
430.514	427.62
430.736	420.62
430.958	390.62
431.18	401.62
431.402	406.62
431.624	403.62
431.846	393.62
432.068	401.62
432.29	415.62
432.512	419.62
432.734	422.62
432.956	406.62
433.178	414.62
433.4	415.62
433.622	420.62
433.844	414.62
434.066	401.62
434.287	411.62
434.509	412.62
434.731	416.62
434.953	443.62
435.175	430.62
435.397	452.62
435.618	447.62
435.84	463.62
436.062	519.62
436.284	550.62
436.505	462.62
436.727	432.62
436.949	439.62
437.17	427.62
437.392	419.62
437.614	423.62
437.835	431.62
438.057	502.62
438.278	527.62
438.5	530.62
438.721	600.62
438.943	577.62
439.165	459.62
439.386	450.62
439.608	448.62
439.829	447.62
440.05	474.62
440.272	488.62
440.493	471.62
440.715	430.62
440.936	428.62
441.158	441.62
441.379	458.62
441.6	455.62
441.822	458.62
442.043	489.62
442.264	512.62
442.486	550.62
442.707	481.62
442.928	472.62
443.149	454.62
443.371	491.62
443.592	527.62
443.813	553.62
444.034	574.62
444.255	538.62
444.476	512.62
444.698	496.62
444.919	502.62
445.14	608.62
445.361	550.62
445.582	474.62
445.803	513.62
446.024	559.62
446.245	552.62
446.466	534.62
446.687	457.62
446.908	424.62
447.129	418.62
447.35	402.62
447.571	410.62
447.792	397.62
448.013	414.62
448.234	423.62
448.455	447.62
448.675	520.62
448.896	555.62
449.117	507.62
449.338	469.62
449.559	534.62
449.779	571.62
450	464.62
450.221	427.62
450.442	402.62
450.662	405.62
450.883	396.62
451.104	392.62
451.324	408.62
451.545	375.62
451.766	404.62
451.986	400.62
452.207	356.62
452.428	386.62
452.648	370.62
452.869	360.62
453.089	396.62
453.31	401.62
453.53	391.62
453.751	398.62
453.971	368.62
454.192	382.62
454.412	392.62
454.633	370.62
454.853	359.62
455.073	355.62
455.294	384.62
455.514	412.62
455.734	416.62
455.955	380.62
456.175	381.62
456.395	354.62
456.616	356.62
456.836	376.62
457.056	355.62
457.276	348.62
457.497	371.62
457.717	366.62
457.937	362.62
458.157	363.62
458.377	386.62
458.598	384.62
458.818	438.62
459.038	455.62
459.258	471.62
459.478	429.62
459.698	426.62
459.918	412.62
460.138	421.62
460.358	425.62
460.578	443.62
460.798	440.62
461.018	445.62
461.238	424.62
461.458	445.62
461.678	429.62
461.898	418.62
462.118	446.62
462.338	462.62
462.558	464.62
462.777	462.62
462.997	502.62
463.217	513.62
463.437	505.62
463.657	495.62
463.876	458.62
464.096	468.62
464.316	469.62
464.536	469.62
464.755	473.62
464.975	460.62
465.195	480.62
465.414	499.62
465.634	413.62
465.854	431.62
466.073	407.62
466.293	402.62
466.512	395.62
466.732	404.62
466.951	410.62
467.171	394.62
467.391	410.62
467.61	394.62
467.829	400.62
468.049	384.62
468.268	398.62
468.488	377.62
468.707	362.62
468.927	369.62
469.146	381.62
469.365	378.62
469.585	378.62
469.804	403.62
470.023	396.62
470.243	400.62
470.462	406.62
470.681	408.62
470.901	408.62
471.12	395.62
471.339	406.62
471.558	392.62
471.777	397.62
471.997	392.62
472.216	390.62
472.435	439.62
472.654	406.62
472.873	387.62
473.092	362.62
473.311	398.62
473.53	386.62
473.749	409.62
473.968	426.62
474.187	482.62
474.406	462.62
474.625	425.62
474.844	384.62
475.063	390.62
475.282	386.62
475.501	411.62
475.72	406.62
475.939	392.62
476.158	378.62
476.377	412.62
476.596	397.62
476.814	408.62
477.033	412.62
477.252	423.62
477.471	407.62
477.69	428.62
477.908	418.62
478.127	441.62
478.346	453.62
478.564	440.62
478.783	444.62
479.002	472.62
479.22	437.62
479.439	458.62
479.658	467.62
479.876	490.62
480.095	471.62
480.313	522.62
480.532	522.62
480.751	513.62
480.969	475.62
481.188	528.62
481.406	539.62
481.624	486.62
481.843	456.62
482.061	459.62
482.28	445.62
482.498	456.62
482.717	449.62
482.935	437.62
483.153	452.62
483.372	446.62
483.59	446.62
483.808	463.62
484.027	436.62
484.245	428.62
484.463	446.62
484.681	459.62
484.9	469.62
485.118	462.62
485.336	453.62
485.554	455.62
485.772	476.62
485.99	466.62
486.209	443.62
486.427	464.62
486.645	477.62
486.863	468.62
487.081	468.62
487.299	476.62
487.517	468.62
487.735	469.62
487.953	474.62
488.171	463.62
488.389	468.62
488.607	462.62
488.825	487.62
489.043	465.62
489.261	476.62
489.479	492.62
489.696	485.62
489.914	507.62
490.132	518.62
490.35	478.62
490.568	506.62
490.786	495.62
491.003	506.62
491.221	546.62
491.439	519.62
491.657	560.62
491.874	534.62
492.092	534.62
492.31	541.62
492.527	548.62
492.745	548.62
492.963	557.62
493.18	576.62
493.398	567.62
493.615	580.62
493.833	542.62
494.05	552.62
494.268	555.62
494.485	574.62
494.703	558.62
494.92	556.62
495.138	545.62
495.355	543.62
495.573	538.62
495.79	575.62
496.008	565.62
496.225	570.62
496.442	567.62
496.66	574.62
496.877	586.62
497.094	547.62
497.312	548.62
497.529	590.62
497.746	590.62
497.963	610.62
498.181	630.62
498.398	646.62
498.615	653.62
498.832	656.62
499.049	675.62
499.267	728.62
499.484	759.62
499.701	812.62
499.918	858.62
500.135	926.62
500.352	981.62
500.569	994.62
500.786	1001.62
501.003	959.62
501.22	912.62
501.437	840.62
501.654	815.62
501.871	772.62
502.088	730.62
