Data from 1969.PennyLincolnUp.Lamp.En5.5.200Scan.071719.P1._HRD10591_14-54-16-972.txt Node
Date: Thu Jul 18 14:54:16 EDT 2019
User: cochatt
Spectrometer: HR+D1059
Trigger mode: 1
Integration Time (sec): 1.000000E-1
Scans to average: 1
Electric dark correction enabled: true
Nonlinearity correction enabled: false
Boxcar width: 0
XAxis mode: Wavelengths
Number of Pixels in Spectrum: 2048
>>>>>Begin Spectral Data<<<<<
223.165	-21.44
223.4	-21.44
223.635	-21.44
223.869	-25.44
224.104	-26.44
224.338	-15.44
224.573	-8.44
224.808	-12.44
225.042	-21.44
225.277	-9.44
225.511	0.56
225.746	-0.44
225.98	13.56
226.215	7.56
226.449	31.56
226.683	31.56
226.918	22.56
227.152	33.56
227.387	24.56
227.621	27.56
227.856	24.56
228.09	47.56
228.324	41.56
228.559	51.56
228.793	63.56
229.027	88.56
229.262	79.56
229.496	104.56
229.73	107.56
229.964	105.56
230.199	115.56
230.433	89.56
230.667	83.56
230.901	102.56
231.136	89.56
231.37	90.56
231.604	104.56
231.838	97.56
232.072	90.56
232.306	98.56
232.541	101.56
232.775	93.56
233.009	92.56
233.243	114.56
233.477	97.56
233.711	116.56
233.945	111.56
234.179	106.56
234.413	111.56
234.647	98.56
234.881	92.56
235.115	104.56
235.349	108.56
235.583	108.56
235.817	92.56
236.051	109.56
236.285	112.56
236.519	119.56
236.753	84.56
236.987	95.56
237.221	129.56
237.455	155.56
237.689	128.56
237.922	108.56
238.156	104.56
238.39	113.56
238.624	101.56
238.858	95.56
239.091	102.56
239.325	105.56
239.559	104.56
239.793	121.56
240.027	101.56
240.26	134.56
240.494	123.56
240.728	110.56
240.961	127.56
241.195	113.56
241.429	113.56
241.662	104.56
241.896	104.56
242.13	94.56
242.363	115.56
242.597	125.56
242.83	127.56
243.064	122.56
243.298	133.56
243.531	132.56
243.765	139.56
243.998	120.56
244.232	127.56
244.465	127.56
244.699	133.56
244.932	111.56
245.166	122.56
245.399	114.56
245.633	106.56
245.866	131.56
246.099	127.56
246.333	135.56
246.566	124.56
246.8	141.56
247.033	132.56
247.266	132.56
247.5	131.56
247.733	137.56
247.966	151.56
248.2	140.56
248.433	142.56
248.666	133.56
248.899	136.56
249.133	158.56
249.366	166.56
249.599	139.56
249.832	133.56
250.066	150.56
250.299	140.56
250.532	154.56
250.765	162.56
250.998	175.56
251.231	170.56
251.465	163.56
251.698	161.56
251.931	151.56
252.164	161.56
252.397	150.56
252.63	148.56
252.863	171.56
253.096	180.56
253.329	171.56
253.562	170.56
253.795	161.56
254.028	171.56
254.261	167.56
254.494	171.56
254.727	188.56
254.96	199.56
255.193	188.56
255.426	160.56
255.659	176.56
255.892	171.56
256.124	175.56
256.357	180.56
256.59	169.56
256.823	165.56
257.056	158.56
257.289	163.56
257.521	169.56
257.754	182.56
257.987	155.56
258.22	168.56
258.452	170.56
258.685	169.56
258.918	177.56
259.151	177.56
259.383	155.56
259.616	188.56
259.849	198.56
260.081	195.56
260.314	189.56
260.547	189.56
260.779	192.56
261.012	168.56
261.244	183.56
261.477	189.56
261.71	176.56
261.942	181.56
262.175	191.56
262.407	176.56
262.64	169.56
262.872	161.56
263.105	167.56
263.337	181.56
263.57	167.56
263.802	189.56
264.035	177.56
264.267	166.56
264.499	179.56
264.732	167.56
264.964	170.56
265.197	183.56
265.429	191.56
265.661	183.56
265.894	187.56
266.126	160.56
266.358	187.56
266.591	183.56
266.823	178.56
267.055	179.56
267.287	183.56
267.52	179.56
267.752	178.56
267.984	178.56
268.216	195.56
268.448	195.56
268.681	193.56
268.913	200.56
269.145	212.56
269.377	204.56
269.609	228.56
269.841	212.56
270.073	199.56
270.306	203.56
270.538	240.56
270.77	222.56
271.002	221.56
271.234	230.56
271.466	235.56
271.698	229.56
271.93	218.56
272.162	232.56
272.394	230.56
272.626	232.56
272.858	208.56
273.09	206.56
273.322	221.56
273.553	208.56
273.785	224.56
274.017	223.56
274.249	215.56
274.481	213.56
274.713	190.56
274.945	216.56
275.176	211.56
275.408	201.56
275.64	227.56
275.872	201.56
276.104	213.56
276.335	210.56
276.567	224.56
276.799	212.56
277.031	228.56
277.262	232.56
277.494	245.56
277.726	230.56
277.957	214.56
278.189	229.56
278.421	239.56
278.652	220.56
278.884	230.56
279.115	209.56
279.347	200.56
279.579	225.56
279.81	217.56
280.042	208.56
280.273	223.56
280.505	230.56
280.736	201.56
280.968	205.56
281.199	212.56
281.431	220.56
281.662	242.56
281.894	231.56
282.125	224.56
282.356	255.56
282.588	253.56
282.819	230.56
283.051	231.56
283.282	219.56
283.513	257.56
283.745	242.56
283.976	245.56
284.207	245.56
284.439	230.56
284.67	248.56
284.901	246.56
285.132	239.56
285.364	233.56
285.595	231.56
285.826	235.56
286.057	258.56
286.288	231.56
286.52	245.56
286.751	243.56
286.982	251.56
287.213	226.56
287.444	225.56
287.675	235.56
287.906	237.56
288.138	261.56
288.369	244.56
288.6	250.56
288.831	235.56
289.062	254.56
289.293	239.56
289.524	231.56
289.755	243.56
289.986	250.56
290.217	245.56
290.448	263.56
290.679	271.56
290.91	242.56
291.141	231.56
291.371	245.56
291.602	239.56
291.833	243.56
292.064	240.56
292.295	261.56
292.526	245.56
292.757	239.56
292.987	268.56
293.218	241.56
293.449	255.56
293.68	269.56
293.91	244.56
294.141	249.56
294.372	251.56
294.603	234.56
294.833	223.56
295.064	264.56
295.295	249.56
295.525	267.56
295.756	251.56
295.987	261.56
296.217	259.56
296.448	256.56
296.679	240.56
296.909	263.56
297.14	235.56
297.37	251.56
297.601	251.56
297.831	262.56
298.062	277.56
298.292	262.56
298.523	257.56
298.753	274.56
298.984	281.56
299.214	263.56
299.445	262.56
299.675	273.56
299.905	281.56
300.136	265.56
300.366	269.56
300.597	274.56
300.827	277.56
301.057	284.56
301.288	267.56
301.518	274.56
301.748	262.56
301.979	269.56
302.209	276.56
302.439	279.56
302.669	276.56
302.9	280.56
303.13	270.56
303.36	273.56
303.59	258.56
303.82	268.56
304.051	275.56
304.281	267.56
304.511	267.56
304.741	281.56
304.971	292.56
305.201	273.56
305.431	277.56
305.661	260.56
305.891	289.56
306.121	282.56
306.352	285.56
306.582	277.56
306.812	276.56
307.042	269.56
307.272	277.56
307.502	267.56
307.731	299.56
307.961	286.56
308.191	279.56
308.421	286.56
308.651	296.56
308.881	282.56
309.111	275.56
309.341	267.56
309.571	272.56
309.8	296.56
310.03	291.56
310.26	292.56
310.49	298.56
310.72	298.56
310.949	304.56
311.179	301.56
311.409	295.56
311.639	288.56
311.868	312.56
312.098	290.56
312.328	299.56
312.557	314.56
312.787	325.56
313.017	315.56
313.246	321.56
313.476	325.56
313.706	297.56
313.935	299.56
314.165	306.56
314.394	301.56
314.624	323.56
314.853	313.56
315.083	291.56
315.312	305.56
315.542	311.56
315.771	302.56
316.001	295.56
316.23	296.56
316.46	291.56
316.689	291.56
316.919	300.56
317.148	296.56
317.377	320.56
317.607	307.56
317.836	306.56
318.065	307.56
318.295	293.56
318.524	300.56
318.753	299.56
318.983	303.56
319.212	310.56
319.441	307.56
319.67	326.56
319.9	315.56
320.129	295.56
320.358	305.56
320.587	299.56
320.816	306.56
321.046	320.56
321.275	319.56
321.504	319.56
321.733	306.56
321.962	321.56
322.191	326.56
322.42	311.56
322.649	323.56
322.878	320.56
323.108	324.56
323.337	337.56
323.566	351.56
323.795	352.56
324.024	369.56
324.253	413.56
324.482	551.56
324.71	728.56
324.939	1005.56
325.168	829.56
325.397	498.56
325.626	395.56
325.855	360.56
326.084	354.56
326.313	367.56
326.542	354.56
326.77	379.56
326.999	409.56
327.228	530.56
327.457	699.56
327.686	753.56
327.914	531.56
328.143	428.56
328.372	406.56
328.6	386.56
328.829	370.56
329.058	375.56
329.287	394.56
329.515	373.56
329.744	371.56
329.972	354.56
330.201	390.56
330.43	402.56
330.658	407.56
330.887	398.56
331.115	411.56
331.344	365.56
331.572	354.56
331.801	364.56
332.03	355.56
332.258	357.56
332.486	365.56
332.715	362.56
332.943	392.56
333.172	403.56
333.4	387.56
333.629	412.56
333.857	391.56
334.085	392.56
334.314	417.56
334.542	417.56
334.771	427.56
334.999	415.56
335.227	369.56
335.455	380.56
335.684	392.56
335.912	380.56
336.14	355.56
336.369	356.56
336.597	372.56
336.825	355.56
337.053	354.56
337.281	357.56
337.51	359.56
337.738	355.56
337.966	367.56
338.194	343.56
338.422	351.56
338.65	345.56
338.878	335.56
339.106	347.56
339.334	356.56
339.562	347.56
339.79	329.56
340.018	339.56
340.246	336.56
340.474	328.56
340.702	336.56
340.93	341.56
341.158	331.56
341.386	326.56
341.614	336.56
341.842	341.56
342.07	330.56
342.298	312.56
342.526	321.56
342.754	325.56
342.981	333.56
343.209	330.56
343.437	343.56
343.665	364.56
343.893	375.56
344.12	381.56
344.348	361.56
344.576	341.56
344.804	367.56
345.031	355.56
345.259	350.56
345.487	337.56
345.714	348.56
345.942	331.56
346.17	345.56
346.397	333.56
346.625	348.56
346.853	323.56
347.08	323.56
347.308	309.56
347.535	350.56
347.763	332.56
347.99	339.56
348.218	346.56
348.445	328.56
348.673	320.56
348.9	320.56
349.128	301.56
349.355	297.56
349.583	319.56
349.81	330.56
350.037	309.56
350.265	334.56
350.492	324.56
350.72	314.56
350.947	333.56
351.174	305.56
351.402	333.56
351.629	336.56
351.856	312.56
352.083	319.56
352.311	328.56
352.538	341.56
352.765	329.56
352.992	330.56
353.22	329.56
353.447	320.56
353.674	300.56
353.901	308.56
354.128	303.56
354.355	311.56
354.583	285.56
354.81	327.56
355.037	314.56
355.264	319.56
355.491	308.56
355.718	295.56
355.945	320.56
356.172	316.56
356.399	317.56
356.626	299.56
356.853	293.56
357.08	300.56
357.307	329.56
357.534	319.56
357.761	310.56
357.988	303.56
358.215	315.56
358.441	297.56
358.668	323.56
358.895	317.56
359.122	308.56
359.349	301.56
359.576	325.56
359.802	330.56
360.029	328.56
360.256	334.56
360.483	336.56
360.709	316.56
360.936	319.56
361.163	331.56
361.39	314.56
361.616	313.56
361.843	328.56
362.07	317.56
362.296	323.56
362.523	326.56
362.749	311.56
362.976	310.56
363.203	304.56
363.429	307.56
363.656	321.56
363.882	321.56
364.109	311.56
364.335	288.56
364.562	323.56
364.788	303.56
365.015	320.56
365.241	313.56
365.468	307.56
365.694	298.56
365.92	289.56
366.147	298.56
366.373	314.56
366.599	314.56
366.826	295.56
367.052	304.56
367.278	299.56
367.505	301.56
367.731	322.56
367.957	311.56
368.184	307.56
368.41	311.56
368.636	304.56
368.862	310.56
369.089	316.56
369.315	317.56
369.541	317.56
369.767	320.56
369.993	316.56
370.219	311.56
370.445	326.56
370.672	328.56
370.898	322.56
371.124	310.56
371.35	308.56
371.576	314.56
371.802	319.56
372.028	340.56
372.254	328.56
372.48	329.56
372.706	330.56
372.932	315.56
373.158	307.56
373.384	324.56
373.61	320.56
373.835	328.56
374.061	320.56
374.287	312.56
374.513	336.56
374.739	341.56
374.965	352.56
375.191	345.56
375.416	321.56
375.642	323.56
375.868	332.56
376.094	316.56
376.319	342.56
376.545	308.56
376.771	322.56
376.997	319.56
377.222	315.56
377.448	325.56
377.674	303.56
377.899	318.56
378.125	330.56
378.35	295.56
378.576	329.56
378.802	314.56
379.027	309.56
379.253	315.56
379.478	308.56
379.704	307.56
379.929	319.56
380.155	328.56
380.38	298.56
380.606	322.56
380.831	316.56
381.057	319.56
381.282	312.56
381.507	318.56
381.733	328.56
381.958	322.56
382.184	338.56
382.409	310.56
382.634	318.56
382.86	337.56
383.085	339.56
383.31	338.56
383.535	326.56
383.761	347.56
383.986	355.56
384.211	348.56
384.436	337.56
384.662	349.56
384.887	336.56
385.112	350.56
385.337	363.56
385.562	357.56
385.787	338.56
386.013	372.56
386.238	380.56
386.463	358.56
386.688	357.56
386.913	352.56
387.138	345.56
387.363	341.56
387.588	345.56
387.813	365.56
388.038	347.56
388.263	348.56
388.488	372.56
388.713	345.56
388.938	351.56
389.163	359.56
389.387	367.56
389.612	350.56
389.837	358.56
390.062	351.56
390.287	350.56
390.512	353.56
390.736	337.56
390.961	369.56
391.186	358.56
391.411	364.56
391.636	360.56
391.86	371.56
392.085	361.56
392.31	389.56
392.534	377.56
392.759	374.56
392.984	370.56
393.208	361.56
393.433	371.56
393.658	360.56
393.882	337.56
394.107	355.56
394.331	352.56
394.556	354.56
394.78	368.56
395.005	369.56
395.229	362.56
395.454	379.56
395.678	387.56
395.903	388.56
396.127	394.56
396.352	380.56
396.576	361.56
396.801	370.56
397.025	367.56
397.249	383.56
397.474	393.56
397.698	396.56
397.922	394.56
398.147	395.56
398.371	401.56
398.595	403.56
398.82	428.56
399.044	428.56
399.268	460.56
399.492	496.56
399.717	529.56
399.941	514.56
400.165	519.56
400.389	504.56
400.613	448.56
400.837	435.56
401.062	411.56
401.286	422.56
401.51	411.56
401.734	408.56
401.958	413.56
402.182	420.56
402.406	414.56
402.63	421.56
402.854	431.56
403.078	435.56
403.302	419.56
403.526	470.56
403.75	447.56
403.974	449.56
404.198	456.56
404.422	461.56
404.645	452.56
404.869	437.56
405.093	484.56
405.317	479.56
405.541	484.56
405.765	471.56
405.988	433.56
406.212	443.56
406.436	486.56
406.66	476.56
406.883	476.56
407.107	485.56
407.331	514.56
407.555	537.56
407.778	546.56
408.002	490.56
408.226	494.56
408.449	465.56
408.673	447.56
408.896	474.56
409.12	479.56
409.344	475.56
409.567	452.56
409.791	457.56
410.014	420.56
410.238	437.56
410.461	411.56
410.685	425.56
410.908	434.56
411.132	449.56
411.355	453.56
411.578	434.56
411.802	424.56
412.025	414.56
412.249	433.56
412.472	453.56
412.695	450.56
412.919	449.56
413.142	430.56
413.365	416.56
413.589	431.56
413.812	412.56
414.035	398.56
414.258	395.56
414.482	411.56
414.705	410.56
414.928	409.56
415.151	400.56
415.374	397.56
415.597	415.56
415.821	406.56
416.044	400.56
416.267	409.56
416.49	396.56
416.713	396.56
416.936	420.56
417.159	402.56
417.382	407.56
417.605	405.56
417.828	400.56
418.051	425.56
418.274	429.56
418.497	422.56
418.72	405.56
418.943	409.56
419.166	421.56
419.389	448.56
419.611	431.56
419.834	434.56
420.057	436.56
420.28	418.56
420.503	435.56
420.726	435.56
420.948	410.56
421.171	437.56
421.394	478.56
421.617	427.56
421.839	417.56
422.062	400.56
422.285	432.56
422.507	476.56
422.73	469.56
422.953	466.56
423.175	419.56
423.398	436.56
423.621	444.56
423.843	444.56
424.066	463.56
424.288	435.56
424.511	464.56
424.733	454.56
424.956	485.56
425.178	488.56
425.401	480.56
425.623	495.56
425.846	436.56
426.068	447.56
426.291	445.56
426.513	418.56
426.735	421.56
426.958	447.56
427.18	476.56
427.402	546.56
427.625	585.56
427.847	507.56
428.069	457.56
428.292	405.56
428.514	392.56
428.736	385.56
428.958	395.56
429.181	385.56
429.403	389.56
429.625	415.56
429.847	425.56
430.069	460.56
430.292	439.56
430.514	389.56
430.736	393.56
430.958	388.56
431.18	386.56
431.402	383.56
431.624	365.56
431.846	376.56
432.068	379.56
432.29	372.56
432.512	374.56
432.734	392.56
432.956	389.56
433.178	374.56
433.4	379.56
433.622	391.56
433.844	403.56
434.066	381.56
434.287	388.56
434.509	385.56
434.731	381.56
434.953	408.56
435.175	413.56
435.397	413.56
435.618	432.56
435.84	447.56
436.062	491.56
436.284	488.56
436.505	427.56
436.727	410.56
436.949	403.56
437.17	408.56
437.392	412.56
437.614	389.56
437.835	419.56
438.057	412.56
438.278	469.56
438.5	490.56
438.721	535.56
438.943	495.56
439.165	421.56
439.386	387.56
439.608	398.56
439.829	397.56
440.05	429.56
440.272	435.56
440.493	440.56
440.715	410.56
440.936	400.56
441.158	422.56
441.379	417.56
441.6	412.56
441.822	420.56
442.043	450.56
442.264	495.56
442.486	474.56
442.707	441.56
442.928	429.56
443.149	439.56
443.371	455.56
443.592	503.56
443.813	527.56
444.034	529.56
444.255	485.56
444.476	442.56
444.698	448.56
444.919	464.56
445.14	598.56
445.361	509.56
445.582	447.56
445.803	485.56
446.024	523.56
446.245	526.56
446.466	441.56
446.687	441.56
446.908	406.56
447.129	384.56
447.35	391.56
447.571	377.56
447.792	390.56
448.013	383.56
448.234	380.56
448.455	418.56
448.675	476.56
448.896	531.56
449.117	433.56
449.338	436.56
449.559	481.56
449.779	511.56
450	444.56
450.221	400.56
450.442	378.56
450.662	383.56
450.883	383.56
451.104	384.56
451.324	385.56
451.545	378.56
451.766	354.56
451.986	356.56
452.207	361.56
452.428	363.56
452.648	360.56
452.869	346.56
453.089	359.56
453.31	354.56
453.53	350.56
453.751	347.56
453.971	364.56
454.192	336.56
454.412	350.56
454.633	349.56
454.853	346.56
455.073	339.56
455.294	351.56
455.514	392.56
455.734	383.56
455.955	359.56
456.175	346.56
456.395	341.56
456.616	336.56
456.836	340.56
457.056	322.56
457.276	335.56
457.497	344.56
457.717	327.56
457.937	352.56
458.157	331.56
458.377	341.56
458.598	355.56
458.818	376.56
459.038	411.56
459.258	419.56
459.478	408.56
459.698	373.56
459.918	376.56
460.138	395.56
460.358	407.56
460.578	405.56
460.798	429.56
461.018	427.56
461.238	408.56
461.458	427.56
461.678	411.56
461.898	420.56
462.118	405.56
462.338	431.56
462.558	429.56
462.777	435.56
462.997	477.56
463.217	493.56
463.437	471.56
463.657	461.56
463.876	434.56
464.096	460.56
464.316	456.56
464.536	461.56
464.755	444.56
464.975	444.56
465.195	436.56
465.414	433.56
465.634	406.56
465.854	394.56
466.073	390.56
466.293	378.56
466.512	369.56
466.732	368.56
466.951	378.56
467.171	360.56
467.391	378.56
467.61	370.56
467.829	373.56
468.049	385.56
468.268	376.56
468.488	358.56
468.707	369.56
468.927	345.56
469.146	341.56
469.365	355.56
469.585	347.56
469.804	359.56
470.023	396.56
470.243	383.56
470.462	397.56
470.681	397.56
470.901	371.56
471.12	387.56
471.339	376.56
471.558	381.56
471.777	376.56
471.997	361.56
472.216	375.56
472.435	375.56
472.654	373.56
472.873	367.56
473.092	344.56
473.311	363.56
473.53	351.56
473.749	372.56
473.968	401.56
474.187	441.56
474.406	413.56
474.625	396.56
474.844	368.56
475.063	380.56
475.282	363.56
475.501	368.56
475.72	387.56
475.939	365.56
476.158	365.56
476.377	380.56
476.596	379.56
476.814	376.56
477.033	381.56
477.252	386.56
477.471	399.56
477.69	415.56
477.908	398.56
478.127	398.56
478.346	410.56
478.564	413.56
478.783	447.56
479.002	457.56
479.22	426.56
479.439	439.56
479.658	442.56
479.876	453.56
480.095	450.56
480.313	460.56
480.532	466.56
480.751	456.56
480.969	472.56
481.188	469.56
481.406	483.56
481.624	459.56
481.843	433.56
482.061	427.56
482.28	426.56
482.498	412.56
482.717	414.56
482.935	412.56
483.153	412.56
483.372	411.56
483.59	418.56
483.808	421.56
484.027	433.56
484.245	433.56
484.463	429.56
484.681	449.56
484.9	445.56
485.118	435.56
485.336	423.56
485.554	427.56
485.772	433.56
485.99	434.56
486.209	417.56
486.427	423.56
486.645	447.56
486.863	450.56
487.081	449.56
487.299	440.56
487.517	458.56
487.735	456.56
487.953	441.56
488.171	450.56
488.389	431.56
488.607	456.56
488.825	457.56
489.043	428.56
489.261	450.56
489.479	457.56
489.696	443.56
489.914	433.56
490.132	453.56
490.35	466.56
490.568	480.56
490.786	474.56
491.003	460.56
491.221	492.56
491.439	504.56
491.657	483.56
491.874	513.56
492.092	482.56
492.31	488.56
492.527	518.56
492.745	535.56
492.963	519.56
493.18	520.56
493.398	488.56
493.615	501.56
493.833	515.56
494.05	503.56
494.268	536.56
494.485	510.56
494.703	509.56
494.92	512.56
495.138	499.56
495.355	511.56
495.573	538.56
495.79	512.56
496.008	523.56
496.225	508.56
496.442	516.56
496.66	549.56
496.877	526.56
497.094	528.56
497.312	526.56
497.529	554.56
497.746	541.56
497.963	565.56
498.181	566.56
498.398	584.56
498.615	601.56
498.832	627.56
499.049	650.56
499.267	671.56
499.484	700.56
499.701	753.56
499.918	799.56
500.135	884.56
500.352	925.56
500.569	948.56
500.786	951.56
501.003	927.56
501.22	846.56
501.437	803.56
501.654	753.56
501.871	726.56
502.088	689.56
502.305	663.56
