Data from 1969.PennyLincolnUp.Lamp.En5.5.200Scan.071719.P1._HRD10591_14-53-55-971.txt Node
Date: Thu Jul 18 14:53:55 EDT 2019
User: cochatt
Spectrometer: HR+D1059
Trigger mode: 1
Integration Time (sec): 1.000000E-1
Scans to average: 1
Electric dark correction enabled: true
Nonlinearity correction enabled: false
Boxcar width: 0
XAxis mode: Wavelengths
Number of Pixels in Spectrum: 2048
>>>>>Begin Spectral Data<<<<<
223.165	-18.69
223.4	-18.69
223.635	-18.69
223.869	-30.69
224.104	-18.69
224.338	-10.69
224.573	-14.69
224.808	-12.69
225.042	9.31
225.277	-12.69
225.511	6.31
225.746	8.31
225.98	-0.69
226.215	11.31
226.449	13.31
226.683	20.31
226.918	19.31
227.152	31.31
227.387	25.31
227.621	37.31
227.856	32.31
228.09	43.31
228.324	45.31
228.559	60.31
228.793	68.31
229.027	76.31
229.262	71.31
229.496	93.31
229.73	95.31
229.964	111.31
230.199	81.31
230.433	99.31
230.667	104.31
230.901	99.31
231.136	110.31
231.37	95.31
231.604	98.31
231.838	88.31
232.072	91.31
232.306	94.31
232.541	78.31
232.775	109.31
233.009	97.31
233.243	95.31
233.477	96.31
233.711	101.31
233.945	103.31
234.179	108.31
234.413	106.31
234.647	97.31
234.881	96.31
235.115	88.31
235.349	108.31
235.583	101.31
235.817	100.31
236.051	96.31
236.285	101.31
236.519	93.31
236.753	115.31
236.987	118.31
237.221	123.31
237.455	139.31
237.689	126.31
237.922	105.31
238.156	95.31
238.39	113.31
238.624	109.31
238.858	112.31
239.091	115.31
239.325	98.31
239.559	101.31
239.793	91.31
240.027	98.31
240.26	97.31
240.494	102.31
240.728	114.31
240.961	110.31
241.195	108.31
241.429	106.31
241.662	105.31
241.896	113.31
242.13	115.31
242.363	116.31
242.597	111.31
242.83	123.31
243.064	117.31
243.298	108.31
243.531	106.31
243.765	108.31
243.998	120.31
244.232	113.31
244.465	129.31
244.699	122.31
244.932	121.31
245.166	112.31
245.399	123.31
245.633	135.31
245.866	141.31
246.099	116.31
246.333	122.31
246.566	124.31
246.8	118.31
247.033	136.31
247.266	133.31
247.5	143.31
247.733	141.31
247.966	144.31
248.2	134.31
248.433	128.31
248.666	133.31
248.899	137.31
249.133	134.31
249.366	149.31
249.599	131.31
249.832	130.31
250.066	138.31
250.299	138.31
250.532	134.31
250.765	135.31
250.998	148.31
251.231	174.31
251.465	162.31
251.698	160.31
251.931	148.31
252.164	132.31
252.397	164.31
252.63	150.31
252.863	156.31
253.096	159.31
253.329	174.31
253.562	160.31
253.795	182.31
254.028	147.31
254.261	174.31
254.494	169.31
254.727	184.31
254.96	182.31
255.193	181.31
255.426	176.31
255.659	163.31
255.892	176.31
256.124	169.31
256.357	172.31
256.59	166.31
256.823	157.31
257.056	169.31
257.289	161.31
257.521	169.31
257.754	168.31
257.987	159.31
258.22	165.31
258.452	162.31
258.685	158.31
258.918	162.31
259.151	162.31
259.383	181.31
259.616	175.31
259.849	156.31
260.081	149.31
260.314	182.31
260.547	177.31
260.779	189.31
261.012	178.31
261.244	160.31
261.477	182.31
261.71	159.31
261.942	166.31
262.175	175.31
262.407	190.31
262.64	162.31
262.872	151.31
263.105	164.31
263.337	160.31
263.57	166.31
263.802	166.31
264.035	169.31
264.267	158.31
264.499	157.31
264.732	164.31
264.964	178.31
265.197	156.31
265.429	169.31
265.661	166.31
265.894	182.31
266.126	195.31
266.358	190.31
266.591	176.31
266.823	167.31
267.055	174.31
267.287	185.31
267.52	162.31
267.752	209.31
267.984	174.31
268.216	160.31
268.448	170.31
268.681	192.31
268.913	196.31
269.145	182.31
269.377	191.31
269.609	203.31
269.841	194.31
270.073	194.31
270.306	214.31
270.538	214.31
270.77	230.31
271.002	237.31
271.234	209.31
271.466	217.31
271.698	209.31
271.93	221.31
272.162	233.31
272.394	233.31
272.626	215.31
272.858	204.31
273.09	212.31
273.322	206.31
273.553	195.31
273.785	197.31
274.017	194.31
274.249	198.31
274.481	206.31
274.713	195.31
274.945	224.31
275.176	192.31
275.408	210.31
275.64	223.31
275.872	228.31
276.104	189.31
276.335	201.31
276.567	212.31
276.799	212.31
277.031	212.31
277.262	216.31
277.494	216.31
277.726	221.31
277.957	239.31
278.189	211.31
278.421	218.31
278.652	199.31
278.884	201.31
279.115	210.31
279.347	214.31
279.579	209.31
279.81	216.31
280.042	208.31
280.273	213.31
280.505	211.31
280.736	213.31
280.968	220.31
281.199	222.31
281.431	207.31
281.662	233.31
281.894	236.31
282.125	236.31
282.356	231.31
282.588	225.31
282.819	226.31
283.051	223.31
283.282	233.31
283.513	226.31
283.745	223.31
283.976	233.31
284.207	212.31
284.439	218.31
284.67	245.31
284.901	248.31
285.132	243.31
285.364	228.31
285.595	234.31
285.826	231.31
286.057	216.31
286.288	238.31
286.52	229.31
286.751	241.31
286.982	237.31
287.213	237.31
287.444	234.31
287.675	240.31
287.906	246.31
288.138	230.31
288.369	230.31
288.6	240.31
288.831	250.31
289.062	239.31
289.293	248.31
289.524	249.31
289.755	231.31
289.986	238.31
290.217	225.31
290.448	234.31
290.679	231.31
290.91	236.31
291.141	231.31
291.371	253.31
291.602	232.31
291.833	258.31
292.064	225.31
292.295	236.31
292.526	242.31
292.757	223.31
292.987	257.31
293.218	240.31
293.449	241.31
293.68	229.31
293.91	248.31
294.141	225.31
294.372	247.31
294.603	254.31
294.833	242.31
295.064	232.31
295.295	223.31
295.525	256.31
295.756	249.31
295.987	234.31
296.217	256.31
296.448	263.31
296.679	242.31
296.909	241.31
297.14	285.31
297.37	267.31
297.601	262.31
297.831	268.31
298.062	246.31
298.292	241.31
298.523	260.31
298.753	262.31
298.984	246.31
299.214	247.31
299.445	256.31
299.675	246.31
299.905	244.31
300.136	256.31
300.366	262.31
300.597	259.31
300.827	271.31
301.057	262.31
301.288	252.31
301.518	263.31
301.748	265.31
301.979	257.31
302.209	263.31
302.439	266.31
302.669	275.31
302.9	269.31
303.13	254.31
303.36	269.31
303.59	274.31
303.82	276.31
304.051	284.31
304.281	279.31
304.511	262.31
304.741	262.31
304.971	261.31
305.201	286.31
305.431	265.31
305.661	268.31
305.891	279.31
306.121	265.31
306.352	286.31
306.582	269.31
306.812	271.31
307.042	269.31
307.272	269.31
307.502	264.31
307.731	262.31
307.961	260.31
308.191	262.31
308.421	264.31
308.651	260.31
308.881	272.31
309.111	278.31
309.341	268.31
309.571	279.31
309.8	279.31
310.03	278.31
310.26	287.31
310.49	263.31
310.72	278.31
310.949	278.31
311.179	300.31
311.409	287.31
311.639	276.31
311.868	288.31
312.098	303.31
312.328	294.31
312.557	308.31
312.787	300.31
313.017	300.31
313.246	289.31
313.476	296.31
313.706	288.31
313.935	315.31
314.165	291.31
314.394	300.31
314.624	302.31
314.853	290.31
315.083	295.31
315.312	279.31
315.542	316.31
315.771	286.31
316.001	297.31
316.23	275.31
316.46	308.31
316.689	293.31
316.919	306.31
317.148	300.31
317.377	293.31
317.607	284.31
317.836	295.31
318.065	283.31
318.295	305.31
318.524	284.31
318.753	306.31
318.983	288.31
319.212	292.31
319.441	288.31
319.67	305.31
319.9	303.31
320.129	294.31
320.358	293.31
320.587	307.31
320.816	303.31
321.046	297.31
321.275	300.31
321.504	305.31
321.733	292.31
321.962	294.31
322.191	319.31
322.42	317.31
322.649	343.31
322.878	324.31
323.108	321.31
323.337	326.31
323.566	326.31
323.795	337.31
324.024	360.31
324.253	365.31
324.482	503.31
324.71	667.31
324.939	896.31
325.168	742.31
325.397	466.31
325.626	358.31
325.855	360.31
326.084	322.31
326.313	325.31
326.542	325.31
326.77	345.31
326.999	399.31
327.228	503.31
327.457	636.31
327.686	690.31
327.914	502.31
328.143	398.31
328.372	380.31
328.6	355.31
328.829	352.31
329.058	360.31
329.287	364.31
329.515	364.31
329.744	333.31
329.972	345.31
330.201	344.31
330.43	360.31
330.658	365.31
330.887	373.31
331.115	383.31
331.344	361.31
331.572	356.31
331.801	366.31
332.03	352.31
332.258	334.31
332.486	345.31
332.715	332.31
332.943	354.31
333.172	362.31
333.4	368.31
333.629	384.31
333.857	370.31
334.085	390.31
334.314	405.31
334.542	412.31
334.771	404.31
334.999	371.31
335.227	382.31
335.455	374.31
335.684	374.31
335.912	393.31
336.14	343.31
336.369	338.31
336.597	347.31
336.825	352.31
337.053	351.31
337.281	361.31
337.51	345.31
337.738	320.31
337.966	352.31
338.194	334.31
338.422	348.31
338.65	343.31
338.878	343.31
339.106	343.31
339.334	331.31
339.562	315.31
339.79	335.31
340.018	326.31
340.246	334.31
340.474	326.31
340.702	329.31
340.93	335.31
341.158	337.31
341.386	310.31
341.614	324.31
341.842	313.31
342.07	301.31
342.298	338.31
342.526	314.31
342.754	330.31
342.981	319.31
343.209	338.31
343.437	343.31
343.665	333.31
343.893	354.31
344.12	363.31
344.348	344.31
344.576	348.31
344.804	351.31
345.031	319.31
345.259	329.31
345.487	339.31
345.714	328.31
345.942	305.31
346.17	308.31
346.397	320.31
346.625	312.31
346.853	315.31
347.08	298.31
347.308	327.31
347.535	326.31
347.763	323.31
347.99	320.31
348.218	308.31
348.445	310.31
348.673	305.31
348.9	276.31
349.128	302.31
349.355	304.31
349.583	296.31
349.81	319.31
350.037	317.31
350.265	297.31
350.492	306.31
350.72	306.31
350.947	305.31
351.174	305.31
351.402	294.31
351.629	315.31
351.856	312.31
352.083	310.31
352.311	297.31
352.538	297.31
352.765	313.31
352.992	302.31
353.22	319.31
353.447	310.31
353.674	293.31
353.901	308.31
354.128	303.31
354.355	294.31
354.583	294.31
354.81	311.31
355.037	300.31
355.264	297.31
355.491	286.31
355.718	302.31
355.945	312.31
356.172	287.31
356.399	297.31
356.626	288.31
356.853	306.31
357.08	300.31
357.307	302.31
357.534	307.31
357.761	294.31
357.988	293.31
358.215	305.31
358.441	316.31
358.668	291.31
358.895	302.31
359.122	295.31
359.349	312.31
359.576	298.31
359.802	324.31
360.029	323.31
360.256	326.31
360.483	321.31
360.709	294.31
360.936	310.31
361.163	300.31
361.39	302.31
361.616	319.31
361.843	323.31
362.07	305.31
362.296	298.31
362.523	310.31
362.749	287.31
362.976	288.31
363.203	308.31
363.429	304.31
363.656	305.31
363.882	293.31
364.109	306.31
364.335	303.31
364.562	286.31
364.788	286.31
365.015	295.31
365.241	302.31
365.468	293.31
365.694	283.31
365.92	310.31
366.147	312.31
366.373	308.31
366.599	305.31
366.826	301.31
367.052	306.31
367.278	299.31
367.505	282.31
367.731	285.31
367.957	280.31
368.184	290.31
368.41	304.31
368.636	312.31
368.862	305.31
369.089	304.31
369.315	308.31
369.541	314.31
369.767	312.31
369.993	295.31
370.219	314.31
370.445	311.31
370.672	320.31
370.898	328.31
371.124	311.31
371.35	333.31
371.576	320.31
371.802	313.31
372.028	320.31
372.254	322.31
372.48	296.31
372.706	321.31
372.932	317.31
373.158	316.31
373.384	312.31
373.61	318.31
373.835	302.31
374.061	320.31
374.287	341.31
374.513	321.31
374.739	311.31
374.965	337.31
375.191	315.31
375.416	316.31
375.642	310.31
375.868	314.31
376.094	311.31
376.319	321.31
376.545	305.31
376.771	322.31
376.997	324.31
377.222	320.31
377.448	314.31
377.674	332.31
377.899	310.31
378.125	316.31
378.35	307.31
378.576	302.31
378.802	321.31
379.027	308.31
379.253	311.31
379.478	302.31
379.704	306.31
379.929	314.31
380.155	302.31
380.38	303.31
380.606	296.31
380.831	314.31
381.057	319.31
381.282	311.31
381.507	315.31
381.733	336.31
381.958	325.31
382.184	322.31
382.409	314.31
382.634	316.31
382.86	335.31
383.085	315.31
383.31	338.31
383.535	341.31
383.761	329.31
383.986	333.31
384.211	346.31
384.436	326.31
384.662	331.31
384.887	343.31
385.112	340.31
385.337	356.31
385.562	342.31
385.787	352.31
386.013	372.31
386.238	372.31
386.463	348.31
386.688	351.31
386.913	350.31
387.138	365.31
387.363	346.31
387.588	340.31
387.813	346.31
388.038	350.31
388.263	348.31
388.488	330.31
388.713	348.31
388.938	350.31
389.163	336.31
389.387	344.31
389.612	330.31
389.837	361.31
390.062	341.31
390.287	332.31
390.512	338.31
390.736	335.31
390.961	350.31
391.186	348.31
391.411	348.31
391.636	369.31
391.86	360.31
392.085	362.31
392.31	362.31
392.534	383.31
392.759	374.31
392.984	368.31
393.208	361.31
393.433	364.31
393.658	352.31
393.882	363.31
394.107	354.31
394.331	360.31
394.556	349.31
394.78	338.31
395.005	360.31
395.229	361.31
395.454	388.31
395.678	370.31
395.903	376.31
396.127	380.31
396.352	365.31
396.576	360.31
396.801	380.31
397.025	365.31
397.249	375.31
397.474	356.31
397.698	382.31
397.922	360.31
398.147	384.31
398.371	384.31
398.595	394.31
398.82	396.31
399.044	386.31
399.268	451.31
399.492	514.31
399.717	509.31
399.941	523.31
400.165	485.31
400.389	488.31
400.613	446.31
400.837	423.31
401.062	422.31
401.286	411.31
401.51	406.31
401.734	400.31
401.958	419.31
402.182	403.31
402.406	420.31
402.63	421.31
402.854	445.31
403.078	414.31
403.302	430.31
403.526	422.31
403.75	430.31
403.974	446.31
404.198	437.31
404.422	453.31
404.645	431.31
404.869	418.31
405.093	463.31
405.317	445.31
405.541	486.31
405.765	431.31
405.988	460.31
406.212	453.31
406.436	445.31
406.66	464.31
406.883	446.31
407.107	474.31
407.331	487.31
407.555	502.31
407.778	532.31
408.002	488.31
408.226	470.31
408.449	448.31
408.673	468.31
408.896	464.31
409.12	472.31
409.344	457.31
409.567	437.31
409.791	418.31
410.014	438.31
410.238	430.31
410.461	420.31
410.685	409.31
410.908	432.31
411.132	440.31
411.355	450.31
411.578	424.31
411.802	425.31
412.025	406.31
412.249	421.31
412.472	428.31
412.695	412.31
412.919	418.31
413.142	425.31
413.365	405.31
413.589	398.31
413.812	389.31
414.035	412.31
414.258	407.31
414.482	400.31
414.705	406.31
414.928	388.31
415.151	392.31
415.374	402.31
415.597	390.31
415.821	394.31
416.044	398.31
416.267	391.31
416.49	398.31
416.713	387.31
416.936	377.31
417.159	418.31
417.382	408.31
417.605	398.31
417.828	401.31
418.051	393.31
418.274	392.31
418.497	407.31
418.72	410.31
418.943	402.31
419.166	415.31
419.389	428.31
419.611	415.31
419.834	422.31
420.057	421.31
420.28	426.31
420.503	438.31
420.726	401.31
420.948	424.31
421.171	436.31
421.394	447.31
421.617	417.31
421.839	405.31
422.062	391.31
422.285	424.31
422.507	436.31
422.73	465.31
422.953	466.31
423.175	430.31
423.398	418.31
423.621	436.31
423.843	443.31
424.066	444.31
424.288	441.31
424.511	448.31
424.733	441.31
424.956	496.31
425.178	480.31
425.401	447.31
425.623	476.31
425.846	447.31
426.068	414.31
426.291	398.31
426.513	431.31
426.735	407.31
426.958	428.31
427.18	456.31
427.402	520.31
427.625	545.31
427.847	478.31
428.069	422.31
428.292	414.31
428.514	400.31
428.736	403.31
428.958	406.31
429.181	379.31
429.403	381.31
429.625	388.31
429.847	406.31
430.069	408.31
430.292	407.31
430.514	384.31
430.736	375.31
430.958	368.31
431.18	354.31
431.402	369.31
431.624	369.31
431.846	370.31
432.068	380.31
432.29	376.31
432.512	374.31
432.734	374.31
432.956	368.31
433.178	376.31
433.4	374.31
433.622	385.31
433.844	376.31
434.066	351.31
434.287	380.31
434.509	382.31
434.731	394.31
434.953	380.31
435.175	421.31
435.397	408.31
435.618	418.31
435.84	431.31
436.062	468.31
436.284	461.31
436.505	420.31
436.727	397.31
436.949	380.31
437.17	397.31
437.392	388.31
437.614	392.31
437.835	382.31
438.057	421.31
438.278	456.31
438.5	482.31
438.721	519.31
438.943	487.31
439.165	409.31
439.386	390.31
439.608	421.31
439.829	392.31
440.05	404.31
440.272	434.31
440.493	389.31
440.715	406.31
440.936	384.31
441.158	377.31
441.379	393.31
441.6	408.31
441.822	421.31
442.043	440.31
442.264	482.31
442.486	468.31
442.707	431.31
442.928	436.31
443.149	423.31
443.371	418.31
443.592	480.31
443.813	498.31
444.034	520.31
444.255	484.31
444.476	452.31
444.698	461.31
444.919	460.31
445.14	550.31
445.361	482.31
445.582	437.31
445.803	454.31
446.024	512.31
446.245	483.31
446.466	455.31
446.687	429.31
446.908	400.31
447.129	375.31
447.35	371.31
447.571	378.31
447.792	363.31
448.013	373.31
448.234	372.31
448.455	394.31
448.675	462.31
448.896	463.31
449.117	447.31
449.338	423.31
449.559	481.31
449.779	552.31
450	438.31
450.221	397.31
450.442	370.31
450.662	354.31
450.883	362.31
451.104	368.31
451.324	359.31
451.545	359.31
451.766	353.31
451.986	353.31
452.207	353.31
452.428	351.31
452.648	348.31
452.869	323.31
453.089	337.31
453.31	355.31
453.53	332.31
453.751	340.31
453.971	329.31
454.192	345.31
454.412	333.31
454.633	334.31
454.853	319.31
455.073	330.31
455.294	346.31
455.514	397.31
455.734	382.31
455.955	349.31
456.175	319.31
456.395	320.31
456.616	319.31
456.836	326.31
457.056	329.31
457.276	331.31
457.497	332.31
457.717	317.31
457.937	314.31
458.157	345.31
458.377	338.31
458.598	343.31
458.818	378.31
459.038	430.31
459.258	416.31
459.478	373.31
459.698	369.31
459.918	386.31
460.138	384.31
460.358	393.31
460.578	405.31
460.798	409.31
461.018	393.31
461.238	421.31
461.458	413.31
461.678	406.31
461.898	401.31
462.118	406.31
462.338	426.31
462.558	445.31
462.777	433.31
462.997	462.31
463.217	479.31
463.437	468.31
463.657	448.31
463.876	466.31
464.096	430.31
464.316	446.31
464.536	444.31
464.755	440.31
464.975	445.31
465.195	426.31
465.414	440.31
465.634	433.31
465.854	367.31
466.073	381.31
466.293	364.31
466.512	362.31
466.732	357.31
466.951	362.31
467.171	372.31
467.391	351.31
467.61	373.31
467.829	370.31
468.049	358.31
468.268	366.31
468.488	346.31
468.707	372.31
468.927	364.31
469.146	350.31
469.365	348.31
469.585	349.31
469.804	368.31
470.023	366.31
470.243	359.31
470.462	373.31
470.681	367.31
470.901	367.31
471.12	381.31
471.339	353.31
471.558	349.31
471.777	369.31
471.997	362.31
472.216	366.31
472.435	368.31
472.654	350.31
472.873	359.31
473.092	343.31
473.311	346.31
473.53	360.31
473.749	348.31
473.968	381.31
474.187	431.31
474.406	413.31
474.625	386.31
474.844	375.31
475.063	373.31
475.282	369.31
475.501	361.31
475.72	346.31
475.939	361.31
476.158	376.31
476.377	366.31
476.596	375.31
476.814	383.31
477.033	389.31
477.252	374.31
477.471	411.31
477.69	378.31
477.908	396.31
478.127	398.31
478.346	398.31
478.564	402.31
478.783	417.31
479.002	415.31
479.22	402.31
479.439	429.31
479.658	425.31
479.876	444.31
480.095	460.31
480.313	463.31
480.532	433.31
480.751	457.31
480.969	437.31
481.188	451.31
481.406	469.31
481.624	431.31
481.843	416.31
482.061	414.31
482.28	400.31
482.498	414.31
482.717	412.31
482.935	400.31
483.153	425.31
483.372	405.31
483.59	414.31
483.808	417.31
484.027	398.31
484.245	393.31
484.463	412.31
484.681	435.31
484.9	406.31
485.118	437.31
485.336	441.31
485.554	432.31
485.772	436.31
485.99	439.31
486.209	442.31
486.427	419.31
486.645	424.31
486.863	449.31
487.081	454.31
487.299	432.31
487.517	425.31
487.735	423.31
487.953	428.31
488.171	440.31
488.389	446.31
488.607	447.31
488.825	420.31
489.043	436.31
489.261	438.31
489.479	453.31
489.696	435.31
489.914	425.31
490.132	444.31
490.35	433.31
490.568	446.31
490.786	453.31
491.003	450.31
491.221	462.31
491.439	486.31
491.657	492.31
491.874	485.31
492.092	487.31
492.31	492.31
492.527	489.31
492.745	496.31
492.963	470.31
493.18	502.31
493.398	517.31
493.615	508.31
493.833	512.31
494.05	498.31
494.268	512.31
494.485	485.31
494.703	528.31
494.92	507.31
495.138	496.31
495.355	516.31
495.573	518.31
495.79	522.31
496.008	509.31
496.225	507.31
496.442	516.31
496.66	483.31
496.877	511.31
497.094	508.31
497.312	523.31
497.529	522.31
497.746	550.31
497.963	546.31
498.181	573.31
498.398	542.31
498.615	596.31
498.832	626.31
499.049	650.31
499.267	680.31
499.484	718.31
499.701	760.31
499.918	800.31
500.135	826.31
500.352	901.31
500.569	956.31
500.786	914.31
501.003	892.31
501.22	851.31
501.437	792.31
501.654	780.31
501.871	705.31
502.088	664.31
502.305	653.31
