Data from 1969.PennyLincolnUp.Lamp.En5.5.200Scan.071719.P1._HRD10591_14-53-52-971.txt Node
Date: Thu Jul 18 14:53:52 EDT 2019
User: cochatt
Spectrometer: HR+D1059
Trigger mode: 1
Integration Time (sec): 1.000000E-1
Scans to average: 1
Electric dark correction enabled: true
Nonlinearity correction enabled: false
Boxcar width: 0
XAxis mode: Wavelengths
Number of Pixels in Spectrum: 2048
>>>>>Begin Spectral Data<<<<<
223.165	-9.44
223.4	-9.44
223.635	-9.44
223.869	-20.44
224.104	-8.44
224.338	-12.44
224.573	-4.44
224.808	-16.44
225.042	-26.44
225.277	-5.44
225.511	-10.44
225.746	13.56
225.98	7.56
226.215	17.56
226.449	13.56
226.683	15.56
226.918	24.56
227.152	21.56
227.387	42.56
227.621	34.56
227.856	45.56
228.09	38.56
228.324	44.56
228.559	59.56
228.793	65.56
229.027	84.56
229.262	84.56
229.496	86.56
229.73	93.56
229.964	114.56
230.199	93.56
230.433	95.56
230.667	106.56
230.901	93.56
231.136	88.56
231.37	103.56
231.604	89.56
231.838	104.56
232.072	105.56
232.306	87.56
232.541	87.56
232.775	107.56
233.009	104.56
233.243	94.56
233.477	106.56
233.711	106.56
233.945	85.56
234.179	101.56
234.413	104.56
234.647	101.56
234.881	92.56
235.115	107.56
235.349	85.56
235.583	102.56
235.817	100.56
236.051	108.56
236.285	104.56
236.519	101.56
236.753	114.56
236.987	98.56
237.221	127.56
237.455	139.56
237.689	115.56
237.922	121.56
238.156	93.56
238.39	105.56
238.624	94.56
238.858	101.56
239.091	109.56
239.325	102.56
239.559	102.56
239.793	104.56
240.027	119.56
240.26	100.56
240.494	113.56
240.728	120.56
240.961	110.56
241.195	123.56
241.429	111.56
241.662	113.56
241.896	117.56
242.13	110.56
242.363	116.56
242.597	105.56
242.83	113.56
243.064	122.56
243.298	113.56
243.531	123.56
243.765	110.56
243.998	117.56
244.232	105.56
244.465	121.56
244.699	129.56
244.932	120.56
245.166	101.56
245.399	131.56
245.633	135.56
245.866	135.56
246.099	139.56
246.333	127.56
246.566	133.56
246.8	127.56
247.033	108.56
247.266	113.56
247.5	131.56
247.733	131.56
247.966	135.56
248.2	129.56
248.433	132.56
248.666	135.56
248.899	155.56
249.133	138.56
249.366	155.56
249.599	145.56
249.832	134.56
250.066	129.56
250.299	133.56
250.532	140.56
250.765	142.56
250.998	165.56
251.231	162.56
251.465	154.56
251.698	155.56
251.931	142.56
252.164	170.56
252.397	150.56
252.63	154.56
252.863	151.56
253.096	150.56
253.329	149.56
253.562	144.56
253.795	158.56
254.028	157.56
254.261	168.56
254.494	171.56
254.727	190.56
254.96	178.56
255.193	174.56
255.426	166.56
255.659	156.56
255.892	153.56
256.124	160.56
256.357	172.56
256.59	167.56
256.823	187.56
257.056	156.56
257.289	159.56
257.521	173.56
257.754	148.56
257.987	163.56
258.22	149.56
258.452	151.56
258.685	177.56
258.918	162.56
259.151	164.56
259.383	167.56
259.616	157.56
259.849	165.56
260.081	155.56
260.314	173.56
260.547	171.56
260.779	158.56
261.012	189.56
261.244	155.56
261.477	162.56
261.71	165.56
261.942	153.56
262.175	156.56
262.407	154.56
262.64	172.56
262.872	169.56
263.105	166.56
263.337	174.56
263.57	155.56
263.802	157.56
264.035	163.56
264.267	162.56
264.499	177.56
264.732	173.56
264.964	171.56
265.197	169.56
265.429	177.56
265.661	183.56
265.894	177.56
266.126	166.56
266.358	161.56
266.591	152.56
266.823	187.56
267.055	166.56
267.287	178.56
267.52	175.56
267.752	173.56
267.984	173.56
268.216	161.56
268.448	187.56
268.681	173.56
268.913	200.56
269.145	183.56
269.377	206.56
269.609	190.56
269.841	209.56
270.073	207.56
270.306	197.56
270.538	215.56
270.77	203.56
271.002	208.56
271.234	189.56
271.466	207.56
271.698	212.56
271.93	225.56
272.162	227.56
272.394	200.56
272.626	205.56
272.858	220.56
273.09	184.56
273.322	214.56
273.553	199.56
273.785	174.56
274.017	187.56
274.249	199.56
274.481	211.56
274.713	192.56
274.945	201.56
275.176	183.56
275.408	217.56
275.64	206.56
275.872	196.56
276.104	191.56
276.335	203.56
276.567	191.56
276.799	202.56
277.031	210.56
277.262	222.56
277.494	230.56
277.726	213.56
277.957	212.56
278.189	214.56
278.421	206.56
278.652	192.56
278.884	211.56
279.115	204.56
279.347	198.56
279.579	212.56
279.81	192.56
280.042	211.56
280.273	210.56
280.505	217.56
280.736	213.56
280.968	219.56
281.199	224.56
281.431	193.56
281.662	212.56
281.894	210.56
282.125	231.56
282.356	228.56
282.588	226.56
282.819	224.56
283.051	216.56
283.282	216.56
283.513	223.56
283.745	225.56
283.976	237.56
284.207	206.56
284.439	212.56
284.67	223.56
284.901	206.56
285.132	214.56
285.364	205.56
285.595	234.56
285.826	219.56
286.057	220.56
286.288	217.56
286.52	214.56
286.751	220.56
286.982	217.56
287.213	213.56
287.444	227.56
287.675	227.56
287.906	230.56
288.138	242.56
288.369	242.56
288.6	233.56
288.831	247.56
289.062	237.56
289.293	232.56
289.524	217.56
289.755	228.56
289.986	236.56
290.217	229.56
290.448	237.56
290.679	223.56
290.91	221.56
291.141	230.56
291.371	229.56
291.602	240.56
291.833	217.56
292.064	221.56
292.295	230.56
292.526	232.56
292.757	215.56
292.987	222.56
293.218	228.56
293.449	222.56
293.68	233.56
293.91	230.56
294.141	223.56
294.372	233.56
294.603	215.56
294.833	226.56
295.064	228.56
295.295	235.56
295.525	226.56
295.756	232.56
295.987	239.56
296.217	232.56
296.448	241.56
296.679	226.56
296.909	238.56
297.14	237.56
297.37	241.56
297.601	241.56
297.831	243.56
298.062	261.56
298.292	239.56
298.523	249.56
298.753	252.56
298.984	252.56
299.214	255.56
299.445	242.56
299.675	233.56
299.905	260.56
300.136	263.56
300.366	243.56
300.597	238.56
300.827	251.56
301.057	228.56
301.288	259.56
301.518	251.56
301.748	270.56
301.979	271.56
302.209	244.56
302.439	269.56
302.669	256.56
302.9	241.56
303.13	256.56
303.36	264.56
303.59	245.56
303.82	256.56
304.051	260.56
304.281	255.56
304.511	261.56
304.741	261.56
304.971	250.56
305.201	256.56
305.431	254.56
305.661	264.56
305.891	253.56
306.121	265.56
306.352	257.56
306.582	260.56
306.812	269.56
307.042	258.56
307.272	245.56
307.502	241.56
307.731	272.56
307.961	259.56
308.191	265.56
308.421	253.56
308.651	261.56
308.881	270.56
309.111	250.56
309.341	285.56
309.571	243.56
309.8	266.56
310.03	266.56
310.26	260.56
310.49	273.56
310.72	271.56
310.949	289.56
311.179	283.56
311.409	273.56
311.639	262.56
311.868	276.56
312.098	278.56
312.328	279.56
312.557	277.56
312.787	284.56
313.017	288.56
313.246	281.56
313.476	276.56
313.706	281.56
313.935	273.56
314.165	257.56
314.394	280.56
314.624	282.56
314.853	281.56
315.083	270.56
315.312	289.56
315.542	273.56
315.771	283.56
316.001	291.56
316.23	275.56
316.46	269.56
316.689	279.56
316.919	274.56
317.148	271.56
317.377	287.56
317.607	277.56
317.836	272.56
318.065	289.56
318.295	276.56
318.524	280.56
318.753	285.56
318.983	290.56
319.212	279.56
319.441	271.56
319.67	266.56
319.9	274.56
320.129	279.56
320.358	285.56
320.587	282.56
320.816	282.56
321.046	289.56
321.275	300.56
321.504	293.56
321.733	296.56
321.962	275.56
322.191	285.56
322.42	286.56
322.649	306.56
322.878	293.56
323.108	305.56
323.337	322.56
323.566	297.56
323.795	297.56
324.024	319.56
324.253	349.56
324.482	456.56
324.71	611.56
324.939	765.56
325.168	670.56
325.397	405.56
325.626	343.56
325.855	317.56
326.084	314.56
326.313	296.56
326.542	306.56
326.77	320.56
326.999	351.56
327.228	404.56
327.457	567.56
327.686	608.56
327.914	455.56
328.143	352.56
328.372	355.56
328.6	334.56
328.829	325.56
329.058	355.56
329.287	331.56
329.515	351.56
329.744	322.56
329.972	328.56
330.201	325.56
330.43	329.56
330.658	347.56
330.887	357.56
331.115	341.56
331.344	341.56
331.572	323.56
331.801	340.56
332.03	338.56
332.258	331.56
332.486	321.56
332.715	340.56
332.943	353.56
333.172	343.56
333.4	349.56
333.629	361.56
333.857	375.56
334.085	365.56
334.314	360.56
334.542	391.56
334.771	379.56
334.999	365.56
335.227	353.56
335.455	356.56
335.684	342.56
335.912	346.56
336.14	331.56
336.369	335.56
336.597	339.56
336.825	319.56
337.053	330.56
337.281	316.56
337.51	343.56
337.738	314.56
337.966	322.56
338.194	338.56
338.422	316.56
338.65	323.56
338.878	317.56
339.106	321.56
339.334	328.56
339.562	325.56
339.79	317.56
340.018	305.56
340.246	284.56
340.474	308.56
340.702	309.56
340.93	324.56
341.158	319.56
341.386	301.56
341.614	305.56
341.842	327.56
342.07	303.56
342.298	309.56
342.526	305.56
342.754	303.56
342.981	310.56
343.209	315.56
343.437	334.56
343.665	332.56
343.893	334.56
344.12	337.56
344.348	346.56
344.576	322.56
344.804	336.56
345.031	302.56
345.259	302.56
345.487	320.56
345.714	303.56
345.942	301.56
346.17	294.56
346.397	296.56
346.625	297.56
346.853	297.56
347.08	285.56
347.308	299.56
347.535	273.56
347.763	298.56
347.99	311.56
348.218	309.56
348.445	309.56
348.673	310.56
348.9	307.56
349.128	315.56
349.355	274.56
349.583	281.56
349.81	293.56
350.037	290.56
350.265	299.56
350.492	284.56
350.72	274.56
350.947	277.56
351.174	298.56
351.402	296.56
351.629	290.56
351.856	296.56
352.083	284.56
352.311	313.56
352.538	303.56
352.765	294.56
352.992	300.56
353.22	280.56
353.447	275.56
353.674	272.56
353.901	295.56
354.128	276.56
354.355	293.56
354.583	279.56
354.81	290.56
355.037	283.56
355.264	277.56
355.491	280.56
355.718	293.56
355.945	294.56
356.172	288.56
356.399	280.56
356.626	283.56
356.853	278.56
357.08	281.56
357.307	289.56
357.534	286.56
357.761	285.56
357.988	289.56
358.215	295.56
358.441	280.56
358.668	264.56
358.895	300.56
359.122	291.56
359.349	289.56
359.576	287.56
359.802	298.56
360.029	301.56
360.256	301.56
360.483	288.56
360.709	286.56
360.936	289.56
361.163	292.56
361.39	296.56
361.616	301.56
361.843	300.56
362.07	291.56
362.296	299.56
362.523	268.56
362.749	261.56
362.976	272.56
363.203	274.56
363.429	274.56
363.656	289.56
363.882	283.56
364.109	294.56
364.335	275.56
364.562	288.56
364.788	282.56
365.015	276.56
365.241	286.56
365.468	294.56
365.694	283.56
365.92	282.56
366.147	291.56
366.373	290.56
366.599	300.56
366.826	273.56
367.052	292.56
367.278	288.56
367.505	271.56
367.731	297.56
367.957	286.56
368.184	278.56
368.41	302.56
368.636	299.56
368.862	297.56
369.089	274.56
369.315	277.56
369.541	275.56
369.767	305.56
369.993	307.56
370.219	292.56
370.445	293.56
370.672	308.56
370.898	307.56
371.124	301.56
371.35	300.56
371.576	292.56
371.802	313.56
372.028	301.56
372.254	307.56
372.48	307.56
372.706	315.56
372.932	321.56
373.158	287.56
373.384	313.56
373.61	305.56
373.835	304.56
374.061	306.56
374.287	310.56
374.513	284.56
374.739	301.56
374.965	316.56
375.191	305.56
375.416	323.56
375.642	307.56
375.868	310.56
376.094	294.56
376.319	305.56
376.545	297.56
376.771	309.56
376.997	290.56
377.222	303.56
377.448	299.56
377.674	288.56
377.899	282.56
378.125	285.56
378.35	303.56
378.576	296.56
378.802	311.56
379.027	298.56
379.253	295.56
379.478	286.56
379.704	327.56
379.929	282.56
380.155	291.56
380.38	287.56
380.606	296.56
380.831	293.56
381.057	291.56
381.282	291.56
381.507	302.56
381.733	304.56
381.958	300.56
382.184	297.56
382.409	324.56
382.634	296.56
382.86	306.56
383.085	296.56
383.31	320.56
383.535	316.56
383.761	306.56
383.986	319.56
384.211	328.56
384.436	323.56
384.662	317.56
384.887	329.56
385.112	326.56
385.337	335.56
385.562	349.56
385.787	324.56
386.013	358.56
386.238	333.56
386.463	337.56
386.688	342.56
386.913	342.56
387.138	351.56
387.363	331.56
387.588	335.56
387.813	335.56
388.038	329.56
388.263	333.56
388.488	338.56
388.713	322.56
388.938	312.56
389.163	315.56
389.387	341.56
389.612	333.56
389.837	317.56
390.062	336.56
390.287	317.56
390.512	323.56
390.736	333.56
390.961	336.56
391.186	323.56
391.411	333.56
391.636	326.56
391.86	359.56
392.085	353.56
392.31	360.56
392.534	343.56
392.759	344.56
392.984	334.56
393.208	332.56
393.433	330.56
393.658	323.56
393.882	353.56
394.107	338.56
394.331	332.56
394.556	340.56
394.78	340.56
395.005	342.56
395.229	339.56
395.454	348.56
395.678	357.56
395.903	372.56
396.127	364.56
396.352	362.56
396.576	358.56
396.801	346.56
397.025	345.56
397.249	340.56
397.474	349.56
397.698	354.56
397.922	353.56
398.147	356.56
398.371	364.56
398.595	365.56
398.82	387.56
399.044	399.56
399.268	444.56
399.492	470.56
399.717	500.56
399.941	489.56
400.165	466.56
400.389	438.56
400.613	435.56
400.837	414.56
401.062	357.56
401.286	391.56
401.51	369.56
401.734	394.56
401.958	409.56
402.182	389.56
402.406	371.56
402.63	390.56
402.854	397.56
403.078	403.56
403.302	408.56
403.526	424.56
403.75	434.56
403.974	417.56
404.198	397.56
404.422	412.56
404.645	409.56
404.869	419.56
405.093	444.56
405.317	439.56
405.541	448.56
405.765	420.56
405.988	420.56
406.212	422.56
406.436	410.56
406.66	429.56
406.883	423.56
407.107	456.56
407.331	474.56
407.555	483.56
407.778	502.56
408.002	459.56
408.226	424.56
408.449	444.56
408.673	424.56
408.896	433.56
409.12	439.56
409.344	449.56
409.567	405.56
409.791	373.56
410.014	403.56
410.238	405.56
410.461	392.56
410.685	409.56
410.908	389.56
411.132	436.56
411.355	409.56
411.578	403.56
411.802	399.56
412.025	403.56
412.249	415.56
412.472	425.56
412.695	424.56
412.919	407.56
413.142	389.56
413.365	376.56
413.589	398.56
413.812	372.56
414.035	391.56
414.258	394.56
414.482	385.56
414.705	378.56
414.928	390.56
415.151	374.56
415.374	385.56
415.597	383.56
415.821	365.56
416.044	384.56
416.267	391.56
416.49	379.56
416.713	389.56
416.936	371.56
417.159	375.56
417.382	375.56
417.605	395.56
417.828	370.56
418.051	383.56
418.274	399.56
418.497	387.56
418.72	398.56
418.943	380.56
419.166	397.56
419.389	414.56
419.611	409.56
419.834	389.56
420.057	396.56
420.28	394.56
420.503	396.56
420.726	406.56
420.948	402.56
421.171	400.56
421.394	413.56
421.617	401.56
421.839	397.56
422.062	404.56
422.285	374.56
422.507	417.56
422.73	431.56
422.953	413.56
423.175	406.56
423.398	423.56
423.621	398.56
423.843	383.56
424.066	403.56
424.288	420.56
424.511	403.56
424.733	441.56
424.956	445.56
425.178	422.56
425.401	444.56
425.623	427.56
425.846	409.56
426.068	390.56
426.291	391.56
426.513	373.56
426.735	390.56
426.958	407.56
427.18	433.56
427.402	487.56
427.625	501.56
427.847	461.56
428.069	405.56
428.292	377.56
428.514	376.56
428.736	374.56
428.958	351.56
429.181	357.56
429.403	343.56
429.625	363.56
429.847	387.56
430.069	394.56
430.292	398.56
430.514	358.56
430.736	363.56
430.958	362.56
431.18	349.56
431.402	350.56
431.624	369.56
431.846	352.56
432.068	343.56
432.29	357.56
432.512	342.56
432.734	360.56
432.956	362.56
433.178	364.56
433.4	352.56
433.622	343.56
433.844	353.56
434.066	360.56
434.287	365.56
434.509	373.56
434.731	371.56
434.953	378.56
435.175	387.56
435.397	377.56
435.618	374.56
435.84	397.56
436.062	426.56
436.284	449.56
436.505	403.56
436.727	395.56
436.949	362.56
437.17	338.56
437.392	373.56
437.614	343.56
437.835	360.56
438.057	394.56
438.278	439.56
438.5	441.56
438.721	479.56
438.943	457.56
439.165	419.56
439.386	384.56
439.608	368.56
439.829	383.56
440.05	363.56
440.272	373.56
440.493	379.56
440.715	385.56
440.936	384.56
441.158	382.56
441.379	375.56
441.6	374.56
441.822	411.56
442.043	410.56
442.264	463.56
442.486	435.56
442.707	381.56
442.928	383.56
443.149	389.56
443.371	421.56
443.592	425.56
443.813	461.56
444.034	477.56
444.255	436.56
444.476	428.56
444.698	420.56
444.919	442.56
445.14	549.56
445.361	468.56
445.582	420.56
445.803	412.56
446.024	451.56
446.245	466.56
446.466	425.56
446.687	389.56
446.908	386.56
447.129	361.56
447.35	381.56
447.571	369.56
447.792	350.56
448.013	353.56
448.234	363.56
448.455	390.56
448.675	441.56
448.896	447.56
449.117	410.56
449.338	384.56
449.559	443.56
449.779	485.56
450	411.56
450.221	360.56
450.442	339.56
450.662	326.56
450.883	349.56
451.104	343.56
451.324	346.56
451.545	354.56
451.766	336.56
451.986	334.56
452.207	331.56
452.428	307.56
452.648	349.56
452.869	336.56
453.089	319.56
453.31	347.56
453.53	324.56
453.751	283.56
453.971	319.56
454.192	331.56
454.412	322.56
454.633	328.56
454.853	317.56
455.073	319.56
455.294	335.56
455.514	352.56
455.734	359.56
455.955	323.56
456.175	313.56
456.395	318.56
456.616	314.56
456.836	318.56
457.056	302.56
457.276	314.56
457.497	328.56
457.717	322.56
457.937	311.56
458.157	327.56
458.377	335.56
458.598	348.56
458.818	364.56
459.038	364.56
459.258	387.56
459.478	374.56
459.698	370.56
459.918	360.56
460.138	354.56
460.358	365.56
460.578	392.56
460.798	395.56
461.018	390.56
461.238	383.56
461.458	381.56
461.678	374.56
461.898	393.56
462.118	379.56
462.338	403.56
462.558	390.56
462.777	417.56
462.997	436.56
463.217	455.56
463.437	450.56
463.657	423.56
463.876	413.56
464.096	427.56
464.316	422.56
464.536	425.56
464.755	425.56
464.975	404.56
465.195	405.56
465.414	412.56
465.634	388.56
465.854	389.56
466.073	347.56
466.293	355.56
466.512	348.56
466.732	341.56
466.951	329.56
467.171	345.56
467.391	335.56
467.61	337.56
467.829	351.56
468.049	361.56
468.268	350.56
468.488	352.56
468.707	356.56
468.927	350.56
469.146	318.56
469.365	329.56
469.585	321.56
469.804	344.56
470.023	347.56
470.243	360.56
470.462	345.56
470.681	379.56
470.901	373.56
471.12	350.56
471.339	349.56
471.558	341.56
471.777	340.56
471.997	332.56
472.216	349.56
472.435	355.56
472.654	341.56
472.873	349.56
473.092	340.56
473.311	350.56
473.53	377.56
473.749	336.56
473.968	361.56
474.187	398.56
474.406	383.56
474.625	355.56
474.844	355.56
475.063	346.56
475.282	342.56
475.501	339.56
475.72	360.56
475.939	333.56
476.158	336.56
476.377	354.56
476.596	347.56
476.814	349.56
477.033	382.56
477.252	369.56
477.471	384.56
477.69	381.56
477.908	381.56
478.127	382.56
478.346	379.56
478.564	373.56
478.783	405.56
479.002	407.56
479.22	407.56
479.439	408.56
479.658	393.56
479.876	414.56
480.095	417.56
480.313	417.56
480.532	420.56
480.751	434.56
480.969	440.56
481.188	438.56
481.406	422.56
481.624	399.56
481.843	409.56
482.061	394.56
482.28	387.56
482.498	379.56
482.717	386.56
482.935	389.56
483.153	353.56
483.372	376.56
483.59	387.56
483.808	381.56
484.027	398.56
484.245	395.56
484.463	401.56
484.681	395.56
484.9	410.56
485.118	397.56
485.336	389.56
485.554	415.56
485.772	406.56
485.99	405.56
486.209	417.56
486.427	401.56
486.645	383.56
486.863	433.56
487.081	413.56
487.299	414.56
487.517	407.56
487.735	390.56
487.953	424.56
488.171	411.56
488.389	422.56
488.607	414.56
488.825	426.56
489.043	405.56
489.261	419.56
489.479	415.56
489.696	412.56
489.914	421.56
490.132	440.56
490.35	441.56
490.568	423.56
490.786	440.56
491.003	451.56
491.221	461.56
491.439	436.56
491.657	447.56
491.874	466.56
492.092	453.56
492.31	456.56
492.527	447.56
492.745	450.56
492.963	457.56
493.18	452.56
493.398	455.56
493.615	469.56
493.833	453.56
494.05	453.56
494.268	464.56
494.485	462.56
494.703	457.56
494.92	464.56
495.138	473.56
495.355	493.56
495.573	473.56
495.79	476.56
496.008	471.56
496.225	491.56
496.442	478.56
496.66	498.56
496.877	480.56
497.094	497.56
497.312	488.56
497.529	513.56
497.746	491.56
497.963	537.56
498.181	524.56
498.398	529.56
498.615	569.56
498.832	559.56
499.049	617.56
499.267	616.56
499.484	679.56
499.701	715.56
499.918	729.56
500.135	815.56
500.352	850.56
500.569	911.56
500.786	897.56
501.003	826.56
501.22	809.56
501.437	771.56
501.654	697.56
501.871	655.56
502.088	629.56
502.305	598.56
