Data from 1969.PennyLincolnUp.Lamp.En5.5.200Scan.071719.P1._HRD10591_14-54-14-971.txt Node
Date: Thu Jul 18 14:54:14 EDT 2019
User: cochatt
Spectrometer: HR+D1059
Trigger mode: 1
Integration Time (sec): 1.000000E-1
Scans to average: 1
Electric dark correction enabled: true
Nonlinearity correction enabled: false
Boxcar width: 0
XAxis mode: Wavelengths
Number of Pixels in Spectrum: 2048
>>>>>Begin Spectral Data<<<<<
223.165	-28
223.4	-28
223.635	-28
223.869	-13
224.104	-12
224.338	-10
224.573	-9
224.808	-8
225.042	-10
225.277	-12
225.511	-6
225.746	8
225.98	7
226.215	11
226.449	17
226.683	17
226.918	24
227.152	24
227.387	27
227.621	39
227.856	42
228.09	46
228.324	50
228.559	42
228.793	60
229.027	78
229.262	82
229.496	105
229.73	101
229.964	131
230.199	104
230.433	102
230.667	92
230.901	81
231.136	102
231.37	95
231.604	99
231.838	88
232.072	106
232.306	117
232.541	102
232.775	100
233.009	86
233.243	121
233.477	96
233.711	92
233.945	96
234.179	115
234.413	114
234.647	86
234.881	100
235.115	106
235.349	102
235.583	110
235.817	108
236.051	114
236.285	99
236.519	110
236.753	118
236.987	114
237.221	128
237.455	162
237.689	126
237.922	114
238.156	116
238.39	126
238.624	122
238.858	108
239.091	107
239.325	106
239.559	109
239.793	114
240.027	108
240.26	123
240.494	115
240.728	136
240.961	127
241.195	118
241.429	101
241.662	117
241.896	110
242.13	120
242.363	126
242.597	108
242.83	114
243.064	120
243.298	141
243.531	120
243.765	123
243.998	124
244.232	111
244.465	139
244.699	127
244.932	111
245.166	136
245.399	125
245.633	125
245.866	119
246.099	130
246.333	134
246.566	134
246.8	123
247.033	110
247.266	145
247.5	148
247.733	142
247.966	139
248.2	140
248.433	155
248.666	139
248.899	150
249.133	148
249.366	159
249.599	155
249.832	147
250.066	148
250.299	156
250.532	164
250.765	157
250.998	157
251.231	164
251.465	168
251.698	162
251.931	153
252.164	166
252.397	165
252.63	171
252.863	169
253.096	172
253.329	187
253.562	178
253.795	178
254.028	185
254.261	165
254.494	165
254.727	198
254.96	208
255.193	193
255.426	187
255.659	164
255.892	186
256.124	191
256.357	163
256.59	184
256.823	143
257.056	175
257.289	177
257.521	168
257.754	176
257.987	167
258.22	183
258.452	164
258.685	171
258.918	171
259.151	186
259.383	174
259.616	177
259.849	186
260.081	203
260.314	207
260.547	189
260.779	185
261.012	192
261.244	172
261.477	202
261.71	172
261.942	171
262.175	188
262.407	184
262.64	172
262.872	172
263.105	184
263.337	175
263.57	180
263.802	166
264.035	192
264.267	175
264.499	186
264.732	191
264.964	163
265.197	176
265.429	187
265.661	169
265.894	174
266.126	188
266.358	182
266.591	197
266.823	198
267.055	191
267.287	182
267.52	179
267.752	190
267.984	182
268.216	191
268.448	182
268.681	179
268.913	219
269.145	214
269.377	219
269.609	188
269.841	201
270.073	215
270.306	207
270.538	237
270.77	212
271.002	208
271.234	221
271.466	232
271.698	237
271.93	237
272.162	247
272.394	222
272.626	220
272.858	220
273.09	225
273.322	218
273.553	226
273.785	204
274.017	209
274.249	220
274.481	219
274.713	216
274.945	228
275.176	212
275.408	206
275.64	212
275.872	238
276.104	223
276.335	235
276.567	207
276.799	238
277.031	238
277.262	234
277.494	236
277.726	243
277.957	237
278.189	231
278.421	226
278.652	244
278.884	215
279.115	207
279.347	229
279.579	239
279.81	234
280.042	241
280.273	228
280.505	222
280.736	229
280.968	214
281.199	215
281.431	224
281.662	223
281.894	226
282.125	230
282.356	233
282.588	232
282.819	255
283.051	230
283.282	211
283.513	230
283.745	234
283.976	223
284.207	250
284.439	243
284.67	246
284.901	231
285.132	257
285.364	240
285.595	233
285.826	237
286.057	235
286.288	219
286.52	235
286.751	256
286.982	239
287.213	244
287.444	244
287.675	237
287.906	254
288.138	245
288.369	261
288.6	246
288.831	266
289.062	235
289.293	246
289.524	252
289.755	246
289.986	250
290.217	238
290.448	245
290.679	235
290.91	240
291.141	262
291.371	235
291.602	242
291.833	255
292.064	248
292.295	239
292.526	256
292.757	247
292.987	255
293.218	253
293.449	253
293.68	261
293.91	250
294.141	246
294.372	239
294.603	262
294.833	249
295.064	259
295.295	262
295.525	249
295.756	268
295.987	258
296.217	265
296.448	262
296.679	268
296.909	269
297.14	266
297.37	246
297.601	258
297.831	262
298.062	267
298.292	273
298.523	252
298.753	262
298.984	276
299.214	270
299.445	278
299.675	262
299.905	263
300.136	262
300.366	268
300.597	270
300.827	268
301.057	271
301.288	284
301.518	266
301.748	285
301.979	290
302.209	272
302.439	291
302.669	302
302.9	273
303.13	283
303.36	285
303.59	275
303.82	303
304.051	296
304.281	269
304.511	271
304.741	271
304.971	276
305.201	262
305.431	264
305.661	276
305.891	276
306.121	285
306.352	272
306.582	289
306.812	281
307.042	277
307.272	289
307.502	271
307.731	279
307.961	293
308.191	273
308.421	286
308.651	292
308.881	278
309.111	273
309.341	289
309.571	275
309.8	302
310.03	292
310.26	298
310.49	297
310.72	295
310.949	308
311.179	301
311.409	299
311.639	300
311.868	301
312.098	298
312.328	311
312.557	312
312.787	301
313.017	334
313.246	301
313.476	292
313.706	320
313.935	311
314.165	304
314.394	307
314.624	300
314.853	302
315.083	322
315.312	293
315.542	303
315.771	306
316.001	306
316.23	331
316.46	314
316.689	300
316.919	316
317.148	312
317.377	309
317.607	303
317.836	314
318.065	308
318.295	319
318.524	302
318.753	317
318.983	332
319.212	302
319.441	310
319.67	325
319.9	319
320.129	316
320.358	317
320.587	295
320.816	298
321.046	308
321.275	323
321.504	310
321.733	318
321.962	332
322.191	326
322.42	329
322.649	327
322.878	333
323.108	340
323.337	346
323.566	370
323.795	364
324.024	378
324.253	437
324.482	570
324.71	763
324.939	1020
325.168	828
325.397	506
325.626	392
325.855	358
326.084	365
326.313	360
326.542	366
326.77	395
326.999	414
327.228	545
327.457	695
327.686	770
327.914	550
328.143	429
328.372	407
328.6	395
328.829	387
329.058	397
329.287	392
329.515	380
329.744	364
329.972	363
330.201	370
330.43	406
330.658	397
330.887	404
331.115	403
331.344	388
331.572	370
331.801	356
332.03	366
332.258	365
332.486	376
332.715	386
332.943	388
333.172	388
333.4	400
333.629	404
333.857	396
334.085	387
334.314	418
334.542	438
334.771	460
334.999	424
335.227	404
335.455	391
335.684	383
335.912	377
336.14	372
336.369	367
336.597	373
336.825	365
337.053	355
337.281	357
337.51	372
337.738	381
337.966	359
338.194	367
338.422	351
338.65	359
338.878	354
339.106	341
339.334	362
339.562	336
339.79	345
340.018	346
340.246	356
340.474	332
340.702	355
340.93	348
341.158	333
341.386	327
341.614	343
341.842	356
342.07	352
342.298	345
342.526	334
342.754	335
342.981	350
343.209	333
343.437	347
343.665	353
343.893	381
344.12	364
344.348	370
344.576	358
344.804	346
345.031	357
345.259	356
345.487	351
345.714	353
345.942	341
346.17	331
346.397	344
346.625	364
346.853	328
347.08	321
347.308	314
347.535	308
347.763	313
347.99	325
348.218	314
348.445	352
348.673	331
348.9	319
349.128	333
349.355	317
349.583	326
349.81	330
350.037	300
350.265	320
350.492	322
350.72	331
350.947	336
351.174	336
351.402	330
351.629	334
351.856	325
352.083	316
352.311	336
352.538	324
352.765	335
352.992	321
353.22	335
353.447	333
353.674	325
353.901	314
354.128	314
354.355	325
354.583	319
354.81	316
355.037	306
355.264	307
355.491	301
355.718	320
355.945	324
356.172	322
356.399	302
356.626	292
356.853	320
357.08	298
357.307	315
357.534	342
357.761	317
357.988	301
358.215	323
358.441	303
358.668	311
358.895	312
359.122	316
359.349	319
359.576	309
359.802	342
360.029	333
360.256	339
360.483	340
360.709	340
360.936	327
361.163	332
361.39	322
361.616	342
361.843	311
362.07	341
362.296	317
362.523	310
362.749	334
362.976	334
363.203	351
363.429	303
363.656	327
363.882	320
364.109	307
364.335	310
364.562	320
364.788	342
365.015	320
365.241	314
365.468	309
365.694	308
365.92	327
366.147	325
366.373	328
366.599	298
366.826	330
367.052	309
367.278	319
367.505	311
367.731	311
367.957	323
368.184	308
368.41	322
368.636	308
368.862	307
369.089	340
369.315	333
369.541	329
369.767	312
369.993	315
370.219	329
370.445	329
370.672	334
370.898	327
371.124	326
371.35	324
371.576	342
371.802	324
372.028	320
372.254	336
372.48	334
372.706	333
372.932	348
373.158	348
373.384	318
373.61	328
373.835	325
374.061	344
374.287	332
374.513	318
374.739	334
374.965	354
375.191	338
375.416	349
375.642	331
375.868	330
376.094	314
376.319	335
376.545	322
376.771	321
376.997	336
377.222	331
377.448	318
377.674	324
377.899	314
378.125	332
378.35	332
378.576	320
378.802	306
379.027	331
379.253	310
379.478	336
379.704	320
379.929	329
380.155	330
380.38	319
380.606	336
380.831	322
381.057	335
381.282	324
381.507	308
381.733	329
381.958	338
382.184	327
382.409	322
382.634	327
382.86	343
383.085	341
383.31	340
383.535	345
383.761	334
383.986	338
384.211	346
384.436	369
384.662	359
384.887	355
385.112	357
385.337	352
385.562	351
385.787	356
386.013	356
386.238	350
386.463	374
386.688	370
386.913	346
387.138	376
387.363	386
387.588	335
387.813	363
388.038	363
388.263	367
388.488	363
388.713	352
388.938	359
389.163	365
389.387	360
389.612	354
389.837	358
390.062	354
390.287	357
390.512	352
390.736	366
390.961	362
391.186	382
391.411	366
391.636	374
391.86	371
392.085	386
392.31	374
392.534	398
392.759	387
392.984	366
393.208	382
393.433	372
393.658	367
393.882	359
394.107	366
394.331	357
394.556	394
394.78	357
395.005	362
395.229	379
395.454	386
395.678	380
395.903	400
396.127	412
396.352	390
396.576	375
396.801	386
397.025	367
397.249	387
397.474	386
397.698	391
397.922	403
398.147	415
398.371	412
398.595	420
398.82	439
399.044	454
399.268	462
399.492	523
399.717	539
399.941	554
400.165	544
400.389	502
400.613	464
400.837	463
401.062	446
401.286	427
401.51	443
401.734	395
401.958	434
402.182	429
402.406	430
402.63	447
402.854	440
403.078	423
403.302	452
403.526	468
403.75	463
403.974	445
404.198	462
404.422	452
404.645	450
404.869	465
405.093	474
405.317	484
405.541	484
405.765	470
405.988	448
406.212	455
406.436	484
406.66	477
406.883	464
407.107	508
407.331	510
407.555	557
407.778	536
408.002	527
408.226	491
408.449	485
408.673	471
408.896	472
409.12	495
409.344	481
409.567	447
409.791	438
410.014	427
410.238	450
410.461	438
410.685	444
410.908	442
411.132	480
411.355	484
411.578	454
411.802	429
412.025	431
412.249	448
412.472	461
412.695	458
412.919	474
413.142	439
413.365	430
413.589	442
413.812	413
414.035	416
414.258	408
414.482	413
414.705	408
414.928	427
415.151	414
415.374	407
415.597	410
415.821	395
416.044	421
416.267	428
416.49	404
416.713	411
416.936	413
417.159	414
417.382	411
417.605	393
417.828	425
418.051	432
418.274	434
418.497	422
418.72	399
418.943	410
419.166	435
419.389	463
419.611	444
419.834	441
420.057	436
420.28	439
420.503	421
420.726	439
420.948	427
421.171	443
421.394	465
421.617	440
421.839	423
422.062	430
422.285	441
422.507	462
422.73	480
422.953	488
423.175	430
423.398	469
423.621	411
423.843	468
424.066	459
424.288	446
424.511	468
424.733	469
424.956	509
425.178	501
425.401	482
425.623	506
425.846	448
426.068	410
426.291	414
426.513	429
426.735	431
426.958	463
427.18	491
427.402	571
427.625	591
427.847	513
428.069	443
428.292	431
428.514	396
428.736	400
428.958	407
429.181	401
429.403	420
429.625	401
429.847	404
430.069	436
430.292	447
430.514	396
430.736	395
430.958	406
431.18	382
431.402	404
431.624	388
431.846	387
432.068	399
432.29	382
432.512	380
432.734	404
432.956	386
433.178	396
433.4	395
433.622	386
433.844	400
434.066	395
434.287	391
434.509	387
434.731	403
434.953	418
435.175	414
435.397	435
435.618	425
435.84	450
436.062	498
436.284	525
436.505	457
436.727	416
436.949	397
437.17	385
437.392	393
437.614	399
437.835	416
438.057	443
438.278	498
438.5	498
438.721	537
438.943	520
439.165	441
439.386	408
439.608	434
439.829	427
440.05	412
440.272	448
440.493	431
440.715	417
440.936	415
441.158	416
441.379	414
441.6	416
441.822	447
442.043	466
442.264	480
442.486	516
442.707	457
442.928	436
443.149	444
443.371	468
443.592	472
443.813	550
444.034	551
444.255	496
444.476	440
444.698	463
444.919	463
445.14	591
445.361	520
445.582	457
445.803	482
446.024	547
446.245	524
446.466	490
446.687	446
446.908	419
447.129	412
447.35	404
447.571	400
447.792	388
448.013	398
448.234	391
448.455	421
448.675	477
448.896	516
449.117	468
449.338	447
449.559	535
449.779	580
450	457
450.221	424
450.442	382
450.662	381
450.883	385
451.104	391
451.324	376
451.545	372
451.766	369
451.986	376
452.207	358
452.428	351
452.648	357
452.869	348
453.089	375
453.31	365
453.53	358
453.751	354
453.971	359
454.192	366
454.412	360
454.633	365
454.853	357
455.073	350
455.294	378
455.514	406
455.734	371
455.955	342
456.175	330
456.395	342
456.616	347
456.836	336
457.056	329
457.276	337
457.497	337
457.717	336
457.937	358
458.157	354
458.377	361
458.598	355
458.818	391
459.038	429
459.258	448
459.478	408
459.698	374
459.918	410
460.138	385
460.358	420
460.578	415
460.798	422
461.018	410
461.238	414
461.458	424
461.678	403
461.898	396
462.118	426
462.338	443
462.558	440
462.777	452
462.997	457
463.217	486
463.437	520
463.657	485
463.876	475
464.096	442
464.316	454
464.536	461
464.755	467
464.975	442
465.195	459
465.414	476
465.634	427
465.854	383
466.073	389
466.293	393
466.512	382
466.732	370
466.951	378
467.171	376
467.391	392
467.61	367
467.829	378
468.049	374
468.268	373
468.488	373
468.707	352
468.927	356
469.146	351
469.365	348
469.585	367
469.804	373
470.023	363
470.243	358
470.462	396
470.681	374
470.901	400
471.12	401
471.339	390
471.558	380
471.777	370
471.997	378
472.216	394
472.435	385
472.654	380
472.873	386
473.092	377
473.311	361
473.53	376
473.749	380
473.968	392
474.187	452
474.406	437
474.625	398
474.844	360
475.063	374
475.282	380
475.501	380
475.72	386
475.939	396
476.158	378
476.377	377
476.596	384
476.814	379
477.033	392
477.252	379
477.471	408
477.69	405
477.908	421
478.127	399
478.346	414
478.564	416
478.783	435
479.002	446
479.22	423
479.439	429
479.658	464
479.876	462
480.095	458
480.313	495
480.532	482
480.751	463
480.969	475
481.188	478
481.406	494
481.624	450
481.843	448
482.061	428
482.28	430
482.498	418
482.717	423
482.935	420
483.153	437
483.372	422
483.59	422
483.808	442
484.027	431
484.245	404
484.463	402
484.681	430
484.9	432
485.118	450
485.336	431
485.554	442
485.772	450
485.99	435
486.209	422
486.427	439
486.645	472
486.863	451
487.081	451
487.299	434
487.517	449
487.735	463
487.953	440
488.171	438
488.389	459
488.607	456
488.825	450
489.043	442
489.261	450
489.479	456
489.696	454
489.914	462
490.132	470
490.35	464
490.568	472
490.786	453
491.003	495
491.221	485
491.439	491
491.657	495
491.874	525
492.092	510
492.31	500
492.527	501
492.745	534
492.963	525
493.18	522
493.398	540
493.615	526
493.833	547
494.05	538
494.268	520
494.485	524
494.703	522
494.92	536
495.138	496
495.355	523
495.573	518
495.79	529
496.008	522
496.225	552
496.442	524
496.66	533
496.877	537
497.094	546
497.312	546
497.529	541
497.746	574
497.963	564
498.181	586
498.398	606
498.615	609
498.832	639
499.049	652
499.267	678
499.484	739
499.701	771
499.918	793
500.135	874
500.352	973
500.569	982
500.786	918
501.003	898
501.22	903
501.437	818
501.654	753
501.871	728
502.088	706
502.305	650
502.522	615
502.739	626
502.956	584
503.172	584
503.389	551
503.606	572
503.823	570
504.04	540
504.256	562
504.473	567
504.69	541
504.907	548
505.123	525
505.34	521
505.557	499
505.773	508
505.99	511
506.207	518
506.423	504
506.64	491
506.856	506
507.073	500
507.289	475
507.506	495
507.722	474
507.939	506
508.155	484
508.372	477
508.588	456
508.805	462
509.021	469
509.238	470
509.454	436
509.67	451
509.887	443
510.103	453
510.319	438
510.536	468
510.752	683
510.968	585
511.184	469
511.401	426
511.617	435
511.833	440
512.049	432
512.265	432
512.481	415
512.698	447
512.914	424
513.13	431
513.346	422
513.562	423
513.778	427
513.994	438
514.21	430
514.426	447
514.642	476
514.858	470
515.074	484
515.29	542
515.506	694
515.721	616
515.937	485
516.153	457
516.369	463
516.585	460
516.801	466
517.016	472
517.232	490
517.448	501
517.664	492
517.879	504
518.095	512
518.311	501
518.527	469
518.742	474
518.958	456
519.173	458
519.389	456
519.605	445
519.82	440
520.036	446
520.251	466
520.467	446
520.682	444
520.898	432
521.113	444
521.329	472
521.544	499
521.76	572
521.975	869
522.19	838
522.406	508
522.621	451
522.836	420
523.052	394
523.267	387
523.482	394
523.698	407
523.913	375
524.128	372
524.343	389
524.559	378
524.774	372
524.989	379
525.204	375
525.419	378
525.634	368
525.849	358
526.064	395
526.28	382
526.495	354
526.71	362
526.925	378
527.14	372
527.355	360
527.57	379
527.785	374
527.999	359
528.214	368
528.429	368
528.644	378
528.859	382
529.074	372
529.289	396
529.503	394
529.718	392
529.933	377
530.148	375
530.363	367
530.577	363
530.792	363
531.007	347
531.221	371
531.436	378
531.651	361
531.865	364
532.08	371
532.295	345
532.509	351
532.724	363
532.938	351
533.153	347
533.367	370
533.582	363
533.796	365
534.011	339
534.225	365
534.44	349
534.654	363
534.868	358
535.083	375
535.297	358
535.511	355
535.726	366
535.94	362
536.154	342
536.369	359
536.583	343
536.797	365
537.011	341
537.225	329
537.44	357
537.654	336
537.868	345
538.082	346
538.296	332
538.51	347
538.724	356
538.938	349
539.153	343
539.367	333
539.581	341
539.795	351
540.009	340
540.222	336
540.436	338
540.65	338
540.864	351
541.078	333
541.292	348
541.506	361
541.72	347
541.934	368
542.147	340
542.361	343
542.575	335
542.789	340
543.002	336
543.216	335
543.43	327
543.644	349
543.857	350
544.071	349
544.285	344
544.498	333
544.712	370
544.925	350
545.139	342
545.352	348
545.566	345
545.779	348
545.993	352
546.206	354
546.42	323
546.633	348
546.847	341
547.06	343
547.274	349
547.487	356
547.7	349
547.914	365
548.127	356
548.34	361
548.554	340
548.767	335
548.98	348
549.193	360
549.407	331
549.62	350
549.833	350
550.046	344
550.259	349
550.473	348
550.686	344
550.899	343
551.112	343
551.325	349
551.538	346
551.751	352
551.964	329
552.177	334
552.39	346
552.603	347
552.816	361
553.029	354
553.242	384
553.455	365
553.667	382
553.88	368
554.093	351
554.306	370
554.519	348
554.732	363
554.944	340
555.157	339
555.37	341
555.583	323
555.795	334
556.008	311
556.221	317
556.433	312
556.646	326
556.859	303
557.071	322
557.284	318
557.496	309
557.709	315
557.921	304
558.134	314
558.346	313
558.559	301
558.771	315
558.984	308
559.196	314
559.409	327
559.621	314
559.833	306
560.046	303
560.258	294
560.47	310
560.683	306
560.895	295
561.107	296
561.32	311
561.532	312
561.744	300
561.956	303
562.168	296
562.381	312
562.593	298
562.805	312
563.017	309
563.229	321
563.441	307
563.653	303
563.865	296
