Data from 1969.PennyLincolnUp.Lamp.En5.5.200Scan.071719.P1._HRD10591_14-55-32-974.txt Node
Date: Thu Jul 18 14:55:32 EDT 2019
User: cochatt
Spectrometer: HR+D1059
Trigger mode: 1
Integration Time (sec): 1.000000E-1
Scans to average: 1
Electric dark correction enabled: true
Nonlinearity correction enabled: false
Boxcar width: 0
XAxis mode: Wavelengths
Number of Pixels in Spectrum: 2048
>>>>>Begin Spectral Data<<<<<
223.165	-6.56
223.4	-6.56
223.635	-6.56
223.869	-19.56
224.104	-18.56
224.338	-11.56
224.573	-22.56
224.808	-20.56
225.042	-7.56
225.277	-13.56
225.511	-5.56
225.746	1.44
225.98	14.44
226.215	7.44
226.449	21.44
226.683	25.44
226.918	32.44
227.152	23.44
227.387	34.44
227.621	18.44
227.856	50.44
228.09	46.44
228.324	51.44
228.559	51.44
228.793	56.44
229.027	81.44
229.262	85.44
229.496	79.44
229.73	90.44
229.964	112.44
230.199	89.44
230.433	88.44
230.667	90.44
230.901	101.44
231.136	102.44
231.37	104.44
231.604	93.44
231.838	95.44
232.072	87.44
232.306	110.44
232.541	93.44
232.775	99.44
233.009	114.44
233.243	90.44
233.477	93.44
233.711	118.44
233.945	98.44
234.179	100.44
234.413	114.44
234.647	106.44
234.881	96.44
235.115	104.44
235.349	99.44
235.583	104.44
235.817	102.44
236.051	113.44
236.285	117.44
236.519	114.44
236.753	93.44
236.987	115.44
237.221	133.44
237.455	157.44
237.689	134.44
237.922	118.44
238.156	117.44
238.39	119.44
238.624	109.44
238.858	104.44
239.091	112.44
239.325	115.44
239.559	117.44
239.793	101.44
240.027	120.44
240.26	118.44
240.494	123.44
240.728	138.44
240.961	119.44
241.195	128.44
241.429	110.44
241.662	103.44
241.896	119.44
242.13	117.44
242.363	124.44
242.597	120.44
242.83	131.44
243.064	126.44
243.298	135.44
243.531	112.44
243.765	119.44
243.998	122.44
244.232	129.44
244.465	127.44
244.699	129.44
244.932	122.44
245.166	139.44
245.399	114.44
245.633	118.44
245.866	118.44
246.099	122.44
246.333	120.44
246.566	142.44
246.8	135.44
247.033	129.44
247.266	130.44
247.5	135.44
247.733	151.44
247.966	139.44
248.2	132.44
248.433	127.44
248.666	140.44
248.899	149.44
249.133	166.44
249.366	178.44
249.599	163.44
249.832	128.44
250.066	145.44
250.299	151.44
250.532	143.44
250.765	178.44
250.998	171.44
251.231	167.44
251.465	161.44
251.698	162.44
251.931	160.44
252.164	164.44
252.397	158.44
252.63	166.44
252.863	171.44
253.096	177.44
253.329	187.44
253.562	181.44
253.795	154.44
254.028	157.44
254.261	168.44
254.494	177.44
254.727	195.44
254.96	209.44
255.193	199.44
255.426	187.44
255.659	189.44
255.892	181.44
256.124	179.44
256.357	192.44
256.59	185.44
256.823	174.44
257.056	186.44
257.289	169.44
257.521	188.44
257.754	177.44
257.987	161.44
258.22	167.44
258.452	177.44
258.685	189.44
258.918	173.44
259.151	166.44
259.383	173.44
259.616	180.44
259.849	179.44
260.081	192.44
260.314	202.44
260.547	210.44
260.779	195.44
261.012	180.44
261.244	187.44
261.477	188.44
261.71	171.44
261.942	184.44
262.175	159.44
262.407	177.44
262.64	167.44
262.872	178.44
263.105	184.44
263.337	179.44
263.57	160.44
263.802	175.44
264.035	187.44
264.267	193.44
264.499	178.44
264.732	164.44
264.964	179.44
265.197	191.44
265.429	192.44
265.661	174.44
265.894	181.44
266.126	159.44
266.358	185.44
266.591	175.44
266.823	201.44
267.055	187.44
267.287	192.44
267.52	181.44
267.752	182.44
267.984	181.44
268.216	191.44
268.448	189.44
268.681	206.44
268.913	234.44
269.145	226.44
269.377	214.44
269.609	213.44
269.841	214.44
270.073	220.44
270.306	218.44
270.538	228.44
270.77	234.44
271.002	246.44
271.234	227.44
271.466	241.44
271.698	237.44
271.93	224.44
272.162	258.44
272.394	253.44
272.626	236.44
272.858	228.44
273.09	243.44
273.322	233.44
273.553	222.44
273.785	207.44
274.017	208.44
274.249	226.44
274.481	203.44
274.713	214.44
274.945	227.44
275.176	228.44
275.408	238.44
275.64	222.44
275.872	210.44
276.104	231.44
276.335	209.44
276.567	233.44
276.799	226.44
277.031	235.44
277.262	249.44
277.494	257.44
277.726	240.44
277.957	241.44
278.189	227.44
278.421	230.44
278.652	236.44
278.884	221.44
279.115	219.44
279.347	213.44
279.579	223.44
279.81	219.44
280.042	246.44
280.273	238.44
280.505	216.44
280.736	223.44
280.968	228.44
281.199	220.44
281.431	224.44
281.662	238.44
281.894	237.44
282.125	219.44
282.356	227.44
282.588	240.44
282.819	247.44
283.051	241.44
283.282	229.44
283.513	232.44
283.745	240.44
283.976	243.44
284.207	243.44
284.439	248.44
284.67	253.44
284.901	239.44
285.132	271.44
285.364	248.44
285.595	248.44
285.826	250.44
286.057	240.44
286.288	241.44
286.52	258.44
286.751	219.44
286.982	238.44
287.213	234.44
287.444	277.44
287.675	242.44
287.906	253.44
288.138	254.44
288.369	253.44
288.6	253.44
288.831	243.44
289.062	248.44
289.293	265.44
289.524	261.44
289.755	253.44
289.986	234.44
290.217	251.44
290.448	242.44
290.679	245.44
290.91	254.44
291.141	257.44
291.371	252.44
291.602	240.44
291.833	255.44
292.064	249.44
292.295	255.44
292.526	241.44
292.757	243.44
292.987	270.44
293.218	255.44
293.449	243.44
293.68	255.44
293.91	246.44
294.141	237.44
294.372	254.44
294.603	240.44
294.833	268.44
295.064	259.44
295.295	267.44
295.525	264.44
295.756	263.44
295.987	266.44
296.217	269.44
296.448	275.44
296.679	263.44
296.909	259.44
297.14	257.44
297.37	257.44
297.601	262.44
297.831	266.44
298.062	267.44
298.292	262.44
298.523	276.44
298.753	274.44
298.984	258.44
299.214	275.44
299.445	291.44
299.675	271.44
299.905	275.44
300.136	273.44
300.366	268.44
300.597	275.44
300.827	286.44
301.057	283.44
301.288	287.44
301.518	272.44
301.748	276.44
301.979	291.44
302.209	273.44
302.439	302.44
302.669	277.44
302.9	271.44
303.13	275.44
303.36	284.44
303.59	281.44
303.82	307.44
304.051	290.44
304.281	293.44
304.511	272.44
304.741	287.44
304.971	283.44
305.201	283.44
305.431	283.44
305.661	283.44
305.891	289.44
306.121	296.44
306.352	310.44
306.582	292.44
306.812	278.44
307.042	272.44
307.272	278.44
307.502	274.44
307.731	291.44
307.961	293.44
308.191	278.44
308.421	298.44
308.651	295.44
308.881	296.44
309.111	293.44
309.341	281.44
309.571	295.44
309.8	303.44
310.03	292.44
310.26	296.44
310.49	311.44
310.72	306.44
310.949	341.44
311.179	323.44
311.409	311.44
311.639	308.44
311.868	305.44
312.098	297.44
312.328	316.44
312.557	314.44
312.787	312.44
313.017	332.44
313.246	329.44
313.476	319.44
313.706	306.44
313.935	337.44
314.165	321.44
314.394	340.44
314.624	313.44
314.853	338.44
315.083	305.44
315.312	323.44
315.542	314.44
315.771	295.44
316.001	312.44
316.23	309.44
316.46	295.44
316.689	313.44
316.919	321.44
317.148	320.44
317.377	324.44
317.607	312.44
317.836	321.44
318.065	306.44
318.295	303.44
318.524	302.44
318.753	303.44
318.983	312.44
319.212	315.44
319.441	325.44
319.67	320.44
319.9	306.44
320.129	306.44
320.358	312.44
320.587	306.44
320.816	320.44
321.046	325.44
321.275	320.44
321.504	333.44
321.733	325.44
321.962	342.44
322.191	328.44
322.42	344.44
322.649	346.44
322.878	331.44
323.108	339.44
323.337	387.44
323.566	365.44
323.795	369.44
324.024	384.44
324.253	464.44
324.482	591.44
324.71	844.44
324.939	1120.44
325.168	942.44
325.397	549.44
325.626	428.44
325.855	376.44
326.084	353.44
326.313	354.44
326.542	379.44
326.77	397.44
326.999	438.44
327.228	545.44
327.457	778.44
327.686	843.44
327.914	613.44
328.143	483.44
328.372	416.44
328.6	393.44
328.829	394.44
329.058	393.44
329.287	427.44
329.515	408.44
329.744	378.44
329.972	398.44
330.201	411.44
330.43	424.44
330.658	399.44
330.887	432.44
331.115	432.44
331.344	393.44
331.572	402.44
331.801	396.44
332.03	400.44
332.258	389.44
332.486	376.44
332.715	375.44
332.943	384.44
333.172	378.44
333.4	394.44
333.629	406.44
333.857	421.44
334.085	418.44
334.314	405.44
334.542	458.44
334.771	448.44
334.999	433.44
335.227	404.44
335.455	384.44
335.684	397.44
335.912	384.44
336.14	371.44
336.369	379.44
336.597	395.44
336.825	382.44
337.053	384.44
337.281	372.44
337.51	379.44
337.738	362.44
337.966	365.44
338.194	358.44
338.422	362.44
338.65	363.44
338.878	382.44
339.106	362.44
339.334	343.44
339.562	373.44
339.79	349.44
340.018	358.44
340.246	341.44
340.474	363.44
340.702	355.44
340.93	340.44
341.158	347.44
341.386	362.44
341.614	336.44
341.842	353.44
342.07	334.44
342.298	349.44
342.526	342.44
342.754	330.44
342.981	352.44
343.209	340.44
343.437	334.44
343.665	362.44
343.893	352.44
344.12	366.44
344.348	368.44
344.576	360.44
344.804	376.44
345.031	347.44
345.259	352.44
345.487	359.44
345.714	342.44
345.942	337.44
346.17	335.44
346.397	338.44
346.625	335.44
346.853	329.44
347.08	345.44
347.308	321.44
347.535	325.44
347.763	350.44
347.99	343.44
348.218	323.44
348.445	325.44
348.673	323.44
348.9	342.44
349.128	331.44
349.355	319.44
349.583	330.44
349.81	340.44
350.037	333.44
350.265	333.44
350.492	309.44
350.72	330.44
350.947	315.44
351.174	345.44
351.402	344.44
351.629	321.44
351.856	338.44
352.083	335.44
352.311	339.44
352.538	333.44
352.765	331.44
352.992	338.44
353.22	310.44
353.447	322.44
353.674	320.44
353.901	338.44
354.128	323.44
354.355	330.44
354.583	307.44
354.81	328.44
355.037	317.44
355.264	318.44
355.491	314.44
355.718	319.44
355.945	326.44
356.172	315.44
356.399	337.44
356.626	308.44
356.853	334.44
357.08	311.44
357.307	329.44
357.534	317.44
357.761	306.44
357.988	309.44
358.215	330.44
358.441	331.44
358.668	321.44
358.895	333.44
359.122	309.44
359.349	323.44
359.576	320.44
359.802	346.44
360.029	352.44
360.256	369.44
360.483	345.44
360.709	338.44
360.936	315.44
361.163	334.44
361.39	328.44
361.616	329.44
361.843	327.44
362.07	342.44
362.296	323.44
362.523	325.44
362.749	315.44
362.976	320.44
363.203	319.44
363.429	323.44
363.656	322.44
363.882	318.44
364.109	330.44
364.335	313.44
364.562	310.44
364.788	321.44
365.015	314.44
365.241	318.44
365.468	320.44
365.694	320.44
365.92	318.44
366.147	331.44
366.373	312.44
366.599	319.44
366.826	318.44
367.052	312.44
367.278	312.44
367.505	307.44
367.731	323.44
367.957	326.44
368.184	319.44
368.41	305.44
368.636	331.44
368.862	340.44
369.089	331.44
369.315	322.44
369.541	327.44
369.767	328.44
369.993	320.44
370.219	333.44
370.445	321.44
370.672	319.44
370.898	331.44
371.124	325.44
371.35	330.44
371.576	329.44
371.802	335.44
372.028	323.44
372.254	345.44
372.48	342.44
372.706	345.44
372.932	332.44
373.158	310.44
373.384	339.44
373.61	337.44
373.835	332.44
374.061	316.44
374.287	319.44
374.513	342.44
374.739	347.44
374.965	331.44
375.191	334.44
375.416	351.44
375.642	331.44
375.868	312.44
376.094	325.44
376.319	325.44
376.545	333.44
376.771	315.44
376.997	311.44
377.222	336.44
377.448	325.44
377.674	335.44
377.899	303.44
378.125	328.44
378.35	351.44
378.576	349.44
378.802	321.44
379.027	330.44
379.253	316.44
379.478	315.44
379.704	321.44
379.929	330.44
380.155	321.44
380.38	317.44
380.606	312.44
380.831	311.44
381.057	330.44
381.282	318.44
381.507	320.44
381.733	319.44
381.958	329.44
382.184	331.44
382.409	321.44
382.634	337.44
382.86	327.44
383.085	339.44
383.31	323.44
383.535	341.44
383.761	357.44
383.986	357.44
384.211	332.44
384.436	340.44
384.662	353.44
384.887	374.44
385.112	367.44
385.337	359.44
385.562	354.44
385.787	372.44
386.013	373.44
386.238	387.44
386.463	358.44
386.688	364.44
386.913	367.44
387.138	371.44
387.363	367.44
387.588	365.44
387.813	353.44
388.038	363.44
388.263	382.44
388.488	379.44
388.713	372.44
388.938	332.44
389.163	354.44
389.387	365.44
389.612	362.44
389.837	371.44
390.062	352.44
390.287	355.44
390.512	352.44
390.736	362.44
390.961	371.44
391.186	369.44
391.411	377.44
391.636	383.44
391.86	397.44
392.085	382.44
392.31	394.44
392.534	371.44
392.759	375.44
392.984	376.44
393.208	374.44
393.433	358.44
393.658	359.44
393.882	387.44
394.107	373.44
394.331	369.44
394.556	382.44
394.78	374.44
395.005	384.44
395.229	373.44
395.454	383.44
395.678	397.44
395.903	380.44
396.127	400.44
396.352	389.44
396.576	390.44
396.801	367.44
397.025	377.44
397.249	387.44
397.474	390.44
397.698	390.44
397.922	411.44
398.147	405.44
398.371	399.44
398.595	420.44
398.82	429.44
399.044	455.44
399.268	472.44
399.492	496.44
399.717	550.44
399.941	536.44
400.165	529.44
400.389	529.44
400.613	499.44
400.837	457.44
401.062	430.44
401.286	435.44
401.51	432.44
401.734	412.44
401.958	428.44
402.182	430.44
402.406	408.44
402.63	466.44
402.854	458.44
403.078	452.44
403.302	443.44
403.526	463.44
403.75	466.44
403.974	470.44
404.198	438.44
404.422	448.44
404.645	443.44
404.869	463.44
405.093	481.44
405.317	480.44
405.541	499.44
405.765	484.44
405.988	451.44
406.212	453.44
406.436	475.44
406.66	493.44
406.883	502.44
407.107	484.44
407.331	530.44
407.555	550.44
407.778	559.44
408.002	532.44
408.226	498.44
408.449	489.44
408.673	488.44
408.896	487.44
409.12	517.44
409.344	491.44
409.567	447.44
409.791	455.44
410.014	446.44
410.238	433.44
410.461	464.44
410.685	438.44
410.908	441.44
411.132	469.44
411.355	488.44
411.578	474.44
411.802	416.44
412.025	421.44
412.249	452.44
412.472	437.44
412.695	465.44
412.919	455.44
413.142	435.44
413.365	421.44
413.589	429.44
413.812	417.44
414.035	413.44
414.258	432.44
414.482	405.44
414.705	410.44
414.928	434.44
415.151	403.44
415.374	437.44
415.597	422.44
415.821	426.44
416.044	419.44
416.267	407.44
416.49	431.44
416.713	389.44
416.936	412.44
417.159	413.44
417.382	438.44
417.605	442.44
417.828	422.44
418.051	421.44
418.274	433.44
418.497	413.44
418.72	436.44
418.943	418.44
419.166	450.44
419.389	467.44
419.611	457.44
419.834	445.44
420.057	446.44
420.28	442.44
420.503	434.44
420.726	429.44
420.948	449.44
421.171	459.44
421.394	497.44
421.617	451.44
421.839	425.44
422.062	431.44
422.285	430.44
422.507	484.44
422.73	502.44
422.953	493.44
423.175	460.44
423.398	452.44
423.621	445.44
423.843	471.44
424.066	441.44
424.288	465.44
424.511	464.44
424.733	504.44
424.956	493.44
425.178	509.44
425.401	502.44
425.623	521.44
425.846	471.44
426.068	451.44
426.291	466.44
426.513	455.44
426.735	437.44
426.958	451.44
427.18	496.44
427.402	576.44
427.625	622.44
427.847	543.44
428.069	468.44
428.292	429.44
428.514	417.44
428.736	419.44
428.958	410.44
429.181	413.44
429.403	396.44
429.625	403.44
429.847	421.44
430.069	464.44
430.292	451.44
430.514	407.44
430.736	407.44
430.958	413.44
431.18	376.44
431.402	393.44
431.624	382.44
431.846	402.44
432.068	389.44
432.29	399.44
432.512	396.44
432.734	407.44
432.956	387.44
433.178	392.44
433.4	395.44
433.622	399.44
433.844	417.44
434.066	432.44
434.287	390.44
434.509	391.44
434.731	410.44
434.953	422.44
435.175	430.44
435.397	457.44
435.618	437.44
435.84	461.44
436.062	509.44
436.284	525.44
436.505	470.44
436.727	439.44
436.949	404.44
437.17	411.44
437.392	414.44
437.614	405.44
437.835	441.44
438.057	479.44
438.278	517.44
438.5	517.44
438.721	552.44
438.943	535.44
439.165	453.44
439.386	440.44
439.608	436.44
439.829	425.44
440.05	438.44
440.272	455.44
440.493	430.44
440.715	431.44
440.936	420.44
441.158	410.44
441.379	410.44
441.6	458.44
441.822	430.44
442.043	495.44
442.264	513.44
442.486	522.44
442.707	463.44
442.928	447.44
443.149	453.44
443.371	456.44
443.592	478.44
443.813	544.44
444.034	574.44
444.255	504.44
444.476	473.44
444.698	470.44
444.919	483.44
445.14	617.44
445.361	537.44
445.582	468.44
445.803	484.44
446.024	556.44
446.245	551.44
446.466	516.44
446.687	481.44
446.908	451.44
447.129	390.44
447.35	410.44
447.571	411.44
447.792	378.44
448.013	399.44
448.234	407.44
448.455	433.44
448.675	472.44
448.896	546.44
449.117	477.44
449.338	471.44
449.559	509.44
449.779	573.44
450	464.44
450.221	426.44
450.442	402.44
450.662	386.44
450.883	373.44
451.104	385.44
451.324	385.44
451.545	382.44
451.766	384.44
451.986	367.44
452.207	366.44
452.428	373.44
452.648	358.44
452.869	373.44
453.089	363.44
453.31	375.44
453.53	360.44
453.751	370.44
453.971	369.44
454.192	382.44
454.412	356.44
454.633	354.44
454.853	354.44
455.073	343.44
455.294	358.44
455.514	397.44
455.734	405.44
455.955	350.44
456.175	357.44
456.395	343.44
456.616	349.44
456.836	340.44
457.056	350.44
457.276	319.44
457.497	331.44
457.717	356.44
457.937	343.44
458.157	341.44
458.377	362.44
458.598	388.44
458.818	419.44
459.038	431.44
459.258	458.44
459.478	394.44
459.698	419.44
459.918	406.44
460.138	388.44
460.358	417.44
460.578	410.44
460.798	414.44
461.018	414.44
461.238	436.44
461.458	419.44
461.678	401.44
461.898	448.44
462.118	417.44
462.338	443.44
462.558	455.44
462.777	458.44
462.997	471.44
463.217	486.44
463.437	509.44
463.657	466.44
463.876	455.44
464.096	448.44
464.316	469.44
464.536	472.44
464.755	456.44
464.975	442.44
465.195	449.44
465.414	480.44
465.634	434.44
465.854	434.44
466.073	385.44
466.293	392.44
466.512	400.44
466.732	382.44
466.951	371.44
467.171	369.44
467.391	378.44
467.61	393.44
467.829	379.44
468.049	386.44
468.268	372.44
468.488	370.44
468.707	361.44
468.927	367.44
469.146	365.44
469.365	362.44
469.585	368.44
469.804	375.44
470.023	381.44
470.243	399.44
470.462	401.44
470.681	387.44
470.901	403.44
471.12	373.44
471.339	407.44
471.558	386.44
471.777	358.44
471.997	380.44
472.216	365.44
472.435	396.44
472.654	397.44
472.873	389.44
473.092	376.44
473.311	383.44
473.53	391.44
473.749	361.44
473.968	381.44
474.187	454.44
474.406	457.44
474.625	422.44
474.844	361.44
475.063	383.44
475.282	382.44
475.501	375.44
475.72	378.44
475.939	387.44
476.158	384.44
476.377	378.44
476.596	390.44
476.814	409.44
477.033	396.44
477.252	399.44
477.471	413.44
477.69	408.44
477.908	423.44
478.127	430.44
478.346	435.44
478.564	447.44
478.783	433.44
479.002	449.44
479.22	457.44
479.439	448.44
479.658	447.44
479.876	463.44
480.095	468.44
480.313	492.44
480.532	486.44
480.751	479.44
480.969	463.44
481.188	492.44
481.406	510.44
481.624	443.44
481.843	445.44
482.061	448.44
482.28	407.44
482.498	431.44
482.717	431.44
482.935	410.44
483.153	429.44
483.372	442.44
483.59	428.44
483.808	419.44
484.027	416.44
484.245	424.44
484.463	440.44
484.681	445.44
484.9	439.44
485.118	445.44
485.336	446.44
485.554	431.44
485.772	443.44
485.99	453.44
486.209	464.44
486.427	449.44
486.645	456.44
486.863	483.44
487.081	458.44
487.299	481.44
487.517	472.44
487.735	451.44
487.953	453.44
488.171	477.44
488.389	453.44
488.607	463.44
488.825	470.44
489.043	470.44
489.261	485.44
489.479	473.44
489.696	468.44
489.914	483.44
490.132	481.44
490.35	488.44
490.568	475.44
490.786	511.44
491.003	499.44
491.221	502.44
491.439	530.44
491.657	510.44
491.874	514.44
492.092	538.44
492.31	546.44
492.527	515.44
492.745	529.44
492.963	546.44
493.18	566.44
493.398	549.44
493.615	544.44
493.833	542.44
494.05	558.44
494.268	536.44
494.485	554.44
494.703	540.44
494.92	559.44
495.138	551.44
495.355	545.44
495.573	540.44
495.79	539.44
496.008	551.44
496.225	540.44
496.442	539.44
496.66	542.44
496.877	537.44
497.094	545.44
497.312	534.44
497.529	563.44
497.746	583.44
497.963	585.44
498.181	611.44
498.398	639.44
498.615	625.44
498.832	659.44
499.049	705.44
499.267	701.44
499.484	742.44
499.701	770.44
499.918	837.44
500.135	897.44
500.352	952.44
500.569	987.44
500.786	976.44
501.003	927.44
501.22	878.44
501.437	809.44
501.654	790.44
501.871	739.44
502.088	715.44
502.305	667.44
