Data from 1969.PennyLincolnUp.Lamp.En5.5.200Scan.071719.P1._HRD10591_14-56-09-974.txt Node
Date: Thu Jul 18 14:56:09 EDT 2019
User: cochatt
Spectrometer: HR+D1059
Trigger mode: 1
Integration Time (sec): 1.000000E-1
Scans to average: 1
Electric dark correction enabled: true
Nonlinearity correction enabled: false
Boxcar width: 0
XAxis mode: Wavelengths
Number of Pixels in Spectrum: 2048
>>>>>Begin Spectral Data<<<<<
223.165	-10.56
223.4	-10.56
223.635	-10.56
223.869	-12.56
224.104	-23.56
224.338	-4.56
224.573	-13.56
224.808	-3.56
225.042	-23.56
225.277	-15.56
225.511	0.44
225.746	9.44
225.98	10.44
226.215	-0.56
226.449	8.44
226.683	15.44
226.918	20.44
227.152	43.44
227.387	29.44
227.621	21.44
227.856	35.44
228.09	42.44
228.324	53.44
228.559	47.44
228.793	56.44
229.027	87.44
229.262	84.44
229.496	83.44
229.73	105.44
229.964	127.44
230.199	122.44
230.433	101.44
230.667	88.44
230.901	90.44
231.136	101.44
231.37	98.44
231.604	92.44
231.838	110.44
232.072	111.44
232.306	101.44
232.541	92.44
232.775	96.44
233.009	96.44
233.243	101.44
233.477	113.44
233.711	117.44
233.945	115.44
234.179	87.44
234.413	101.44
234.647	107.44
234.881	113.44
235.115	106.44
235.349	109.44
235.583	121.44
235.817	94.44
236.051	111.44
236.285	115.44
236.519	121.44
236.753	107.44
236.987	131.44
237.221	129.44
237.455	169.44
237.689	150.44
237.922	110.44
238.156	119.44
238.39	104.44
238.624	119.44
238.858	121.44
239.091	107.44
239.325	123.44
239.559	123.44
239.793	110.44
240.027	119.44
240.26	119.44
240.494	131.44
240.728	127.44
240.961	151.44
241.195	140.44
241.429	143.44
241.662	127.44
241.896	108.44
242.13	118.44
242.363	139.44
242.597	121.44
242.83	128.44
243.064	135.44
243.298	132.44
243.531	108.44
243.765	130.44
243.998	115.44
244.232	133.44
244.465	130.44
244.699	123.44
244.932	129.44
245.166	122.44
245.399	133.44
245.633	129.44
245.866	126.44
246.099	128.44
246.333	143.44
246.566	131.44
246.8	145.44
247.033	136.44
247.266	139.44
247.5	149.44
247.733	145.44
247.966	140.44
248.2	158.44
248.433	142.44
248.666	135.44
248.899	171.44
249.133	163.44
249.366	159.44
249.599	157.44
249.832	163.44
250.066	156.44
250.299	169.44
250.532	167.44
250.765	175.44
250.998	186.44
251.231	180.44
251.465	175.44
251.698	154.44
251.931	188.44
252.164	172.44
252.397	176.44
252.63	168.44
252.863	173.44
253.096	189.44
253.329	192.44
253.562	211.44
253.795	191.44
254.028	171.44
254.261	179.44
254.494	188.44
254.727	211.44
254.96	215.44
255.193	211.44
255.426	188.44
255.659	172.44
255.892	200.44
256.124	193.44
256.357	175.44
256.59	188.44
256.823	181.44
257.056	184.44
257.289	176.44
257.521	176.44
257.754	168.44
257.987	181.44
258.22	183.44
258.452	175.44
258.685	183.44
258.918	200.44
259.151	187.44
259.383	194.44
259.616	194.44
259.849	195.44
260.081	192.44
260.314	229.44
260.547	202.44
260.779	216.44
261.012	197.44
261.244	188.44
261.477	198.44
261.71	188.44
261.942	198.44
262.175	170.44
262.407	179.44
262.64	197.44
262.872	197.44
263.105	183.44
263.337	179.44
263.57	185.44
263.802	169.44
264.035	179.44
264.267	194.44
264.499	176.44
264.732	178.44
264.964	185.44
265.197	190.44
265.429	186.44
265.661	204.44
265.894	171.44
266.126	193.44
266.358	189.44
266.591	197.44
266.823	209.44
267.055	196.44
267.287	200.44
267.52	209.44
267.752	198.44
267.984	196.44
268.216	197.44
268.448	199.44
268.681	208.44
268.913	218.44
269.145	219.44
269.377	231.44
269.609	230.44
269.841	226.44
270.073	255.44
270.306	240.44
270.538	273.44
270.77	260.44
271.002	244.44
271.234	251.44
271.466	232.44
271.698	245.44
271.93	254.44
272.162	273.44
272.394	249.44
272.626	235.44
272.858	248.44
273.09	232.44
273.322	234.44
273.553	232.44
273.785	241.44
274.017	233.44
274.249	227.44
274.481	220.44
274.713	240.44
274.945	263.44
275.176	253.44
275.408	224.44
275.64	232.44
275.872	235.44
276.104	228.44
276.335	224.44
276.567	236.44
276.799	247.44
277.031	245.44
277.262	266.44
277.494	260.44
277.726	250.44
277.957	231.44
278.189	228.44
278.421	249.44
278.652	239.44
278.884	224.44
279.115	243.44
279.347	231.44
279.579	219.44
279.81	225.44
280.042	225.44
280.273	232.44
280.505	223.44
280.736	225.44
280.968	220.44
281.199	219.44
281.431	259.44
281.662	232.44
281.894	230.44
282.125	230.44
282.356	244.44
282.588	259.44
282.819	255.44
283.051	260.44
283.282	235.44
283.513	247.44
283.745	248.44
283.976	245.44
284.207	236.44
284.439	260.44
284.67	232.44
284.901	230.44
285.132	265.44
285.364	245.44
285.595	246.44
285.826	248.44
286.057	260.44
286.288	247.44
286.52	246.44
286.751	247.44
286.982	266.44
287.213	251.44
287.444	269.44
287.675	267.44
287.906	265.44
288.138	241.44
288.369	263.44
288.6	271.44
288.831	276.44
289.062	254.44
289.293	280.44
289.524	254.44
289.755	278.44
289.986	275.44
290.217	262.44
290.448	267.44
290.679	285.44
290.91	255.44
291.141	256.44
291.371	276.44
291.602	241.44
291.833	251.44
292.064	239.44
292.295	241.44
292.526	272.44
292.757	244.44
292.987	277.44
293.218	266.44
293.449	267.44
293.68	261.44
293.91	282.44
294.141	271.44
294.372	263.44
294.603	241.44
294.833	273.44
295.064	259.44
295.295	263.44
295.525	285.44
295.756	279.44
295.987	262.44
296.217	296.44
296.448	275.44
296.679	285.44
296.909	267.44
297.14	275.44
297.37	264.44
297.601	270.44
297.831	268.44
298.062	259.44
298.292	270.44
298.523	285.44
298.753	287.44
298.984	266.44
299.214	267.44
299.445	279.44
299.675	290.44
299.905	292.44
300.136	294.44
300.366	267.44
300.597	279.44
300.827	291.44
301.057	295.44
301.288	309.44
301.518	297.44
301.748	287.44
301.979	307.44
302.209	317.44
302.439	299.44
302.669	310.44
302.9	273.44
303.13	286.44
303.36	289.44
303.59	308.44
303.82	308.44
304.051	315.44
304.281	293.44
304.511	307.44
304.741	287.44
304.971	301.44
305.201	303.44
305.431	290.44
305.661	301.44
305.891	309.44
306.121	288.44
306.352	296.44
306.582	306.44
306.812	314.44
307.042	293.44
307.272	303.44
307.502	290.44
307.731	285.44
307.961	309.44
308.191	299.44
308.421	303.44
308.651	292.44
308.881	295.44
309.111	316.44
309.341	314.44
309.571	310.44
309.8	307.44
310.03	331.44
310.26	340.44
310.49	300.44
310.72	333.44
310.949	327.44
311.179	317.44
311.409	333.44
311.639	324.44
311.868	311.44
312.098	330.44
312.328	331.44
312.557	328.44
312.787	350.44
313.017	354.44
313.246	336.44
313.476	335.44
313.706	344.44
313.935	309.44
314.165	347.44
314.394	363.44
314.624	351.44
314.853	353.44
315.083	333.44
315.312	328.44
315.542	319.44
315.771	320.44
316.001	312.44
316.23	330.44
316.46	338.44
316.689	336.44
316.919	331.44
317.148	327.44
317.377	339.44
317.607	335.44
317.836	323.44
318.065	333.44
318.295	311.44
318.524	348.44
318.753	310.44
318.983	330.44
319.212	327.44
319.441	336.44
319.67	334.44
319.9	316.44
320.129	337.44
320.358	313.44
320.587	319.44
320.816	322.44
321.046	336.44
321.275	350.44
321.504	338.44
321.733	354.44
321.962	335.44
322.191	353.44
322.42	349.44
322.649	363.44
322.878	347.44
323.108	363.44
323.337	366.44
323.566	384.44
323.795	407.44
324.024	431.44
324.253	473.44
324.482	620.44
324.71	905.44
324.939	1194.44
325.168	995.44
325.397	599.44
325.626	418.44
325.855	396.44
326.084	404.44
326.313	385.44
326.542	392.44
326.77	403.44
326.999	481.44
327.228	591.44
327.457	841.44
327.686	890.44
327.914	633.44
328.143	481.44
328.372	444.44
328.6	444.44
328.829	428.44
329.058	445.44
329.287	459.44
329.515	412.44
329.744	398.44
329.972	398.44
330.201	428.44
330.43	432.44
330.658	452.44
330.887	466.44
331.115	449.44
331.344	413.44
331.572	395.44
331.801	404.44
332.03	401.44
332.258	398.44
332.486	395.44
332.715	391.44
332.943	404.44
333.172	419.44
333.4	414.44
333.629	435.44
333.857	450.44
334.085	451.44
334.314	433.44
334.542	491.44
334.771	464.44
334.999	456.44
335.227	422.44
335.455	423.44
335.684	395.44
335.912	407.44
336.14	386.44
336.369	386.44
336.597	396.44
336.825	402.44
337.053	393.44
337.281	381.44
337.51	384.44
337.738	392.44
337.966	368.44
338.194	394.44
338.422	405.44
338.65	371.44
338.878	360.44
339.106	373.44
339.334	359.44
339.562	375.44
339.79	375.44
340.018	387.44
340.246	381.44
340.474	371.44
340.702	364.44
340.93	357.44
341.158	345.44
341.386	344.44
341.614	372.44
341.842	379.44
342.07	370.44
342.298	348.44
342.526	347.44
342.754	347.44
342.981	360.44
343.209	351.44
343.437	360.44
343.665	369.44
343.893	391.44
344.12	393.44
344.348	393.44
344.576	390.44
344.804	378.44
345.031	381.44
345.259	373.44
345.487	374.44
345.714	359.44
345.942	355.44
346.17	340.44
346.397	331.44
346.625	330.44
346.853	344.44
347.08	332.44
347.308	359.44
347.535	357.44
347.763	359.44
347.99	356.44
348.218	337.44
348.445	354.44
348.673	341.44
348.9	356.44
349.128	329.44
349.355	324.44
349.583	340.44
349.81	336.44
350.037	340.44
350.265	333.44
350.492	334.44
350.72	335.44
350.947	337.44
351.174	339.44
351.402	353.44
351.629	348.44
351.856	360.44
352.083	352.44
352.311	342.44
352.538	349.44
352.765	363.44
352.992	328.44
353.22	339.44
353.447	332.44
353.674	337.44
353.901	333.44
354.128	324.44
354.355	325.44
354.583	335.44
354.81	322.44
355.037	339.44
355.264	335.44
355.491	332.44
355.718	335.44
355.945	337.44
356.172	327.44
356.399	314.44
356.626	336.44
356.853	344.44
357.08	321.44
357.307	341.44
357.534	333.44
357.761	324.44
357.988	339.44
358.215	341.44
358.441	311.44
358.668	325.44
358.895	317.44
359.122	331.44
359.349	345.44
359.576	335.44
359.802	376.44
360.029	375.44
360.256	365.44
360.483	355.44
360.709	329.44
360.936	344.44
361.163	338.44
361.39	349.44
361.616	339.44
361.843	348.44
362.07	356.44
362.296	345.44
362.523	363.44
362.749	355.44
362.976	344.44
363.203	352.44
363.429	312.44
363.656	331.44
363.882	330.44
364.109	327.44
364.335	321.44
364.562	343.44
364.788	326.44
365.015	331.44
365.241	353.44
365.468	334.44
365.694	346.44
365.92	345.44
366.147	323.44
366.373	327.44
366.599	335.44
366.826	317.44
367.052	329.44
367.278	341.44
367.505	321.44
367.731	330.44
367.957	327.44
368.184	330.44
368.41	324.44
368.636	345.44
368.862	331.44
369.089	356.44
369.315	331.44
369.541	339.44
369.767	341.44
369.993	344.44
370.219	330.44
370.445	304.44
370.672	354.44
370.898	337.44
371.124	324.44
371.35	352.44
371.576	341.44
371.802	334.44
372.028	329.44
372.254	340.44
372.48	347.44
372.706	342.44
372.932	341.44
373.158	336.44
373.384	370.44
373.61	356.44
373.835	341.44
374.061	343.44
374.287	349.44
374.513	337.44
374.739	348.44
374.965	367.44
375.191	356.44
375.416	351.44
375.642	368.44
375.868	329.44
376.094	355.44
376.319	343.44
376.545	333.44
376.771	351.44
376.997	317.44
377.222	336.44
377.448	355.44
377.674	352.44
377.899	335.44
378.125	356.44
378.35	329.44
378.576	335.44
378.802	319.44
379.027	334.44
379.253	340.44
379.478	327.44
379.704	339.44
379.929	356.44
380.155	340.44
380.38	343.44
380.606	331.44
380.831	351.44
381.057	347.44
381.282	331.44
381.507	333.44
381.733	344.44
381.958	337.44
382.184	337.44
382.409	358.44
382.634	360.44
382.86	343.44
383.085	353.44
383.31	363.44
383.535	358.44
383.761	353.44
383.986	377.44
384.211	363.44
384.436	364.44
384.662	393.44
384.887	383.44
385.112	364.44
385.337	371.44
385.562	381.44
385.787	364.44
386.013	381.44
386.238	386.44
386.463	379.44
386.688	370.44
386.913	368.44
387.138	395.44
387.363	369.44
387.588	386.44
387.813	375.44
388.038	367.44
388.263	368.44
388.488	364.44
388.713	374.44
388.938	369.44
389.163	376.44
389.387	365.44
389.612	383.44
389.837	368.44
390.062	368.44
390.287	372.44
390.512	360.44
390.736	356.44
390.961	375.44
391.186	383.44
391.411	393.44
391.636	380.44
391.86	401.44
392.085	397.44
392.31	408.44
392.534	374.44
392.759	406.44
392.984	403.44
393.208	371.44
393.433	403.44
393.658	380.44
393.882	371.44
394.107	383.44
394.331	387.44
394.556	384.44
394.78	358.44
395.005	380.44
395.229	383.44
395.454	394.44
395.678	409.44
395.903	414.44
396.127	385.44
396.352	400.44
396.576	382.44
396.801	388.44
397.025	374.44
397.249	386.44
397.474	401.44
397.698	389.44
397.922	404.44
398.147	387.44
398.371	422.44
398.595	423.44
398.82	427.44
399.044	431.44
399.268	484.44
399.492	537.44
399.717	556.44
399.941	567.44
400.165	548.44
400.389	541.44
400.613	484.44
400.837	445.44
401.062	452.44
401.286	448.44
401.51	434.44
401.734	444.44
401.958	449.44
402.182	437.44
402.406	446.44
402.63	458.44
402.854	473.44
403.078	460.44
403.302	465.44
403.526	463.44
403.75	489.44
403.974	460.44
404.198	460.44
404.422	469.44
404.645	477.44
404.869	459.44
405.093	496.44
405.317	521.44
405.541	521.44
405.765	484.44
405.988	481.44
406.212	485.44
406.436	506.44
406.66	520.44
406.883	507.44
407.107	520.44
407.331	539.44
407.555	591.44
407.778	578.44
408.002	532.44
408.226	517.44
408.449	513.44
408.673	501.44
408.896	508.44
409.12	513.44
409.344	529.44
409.567	485.44
409.791	473.44
410.014	460.44
410.238	455.44
410.461	470.44
410.685	463.44
410.908	458.44
411.132	483.44
411.355	461.44
411.578	473.44
411.802	445.44
412.025	447.44
412.249	433.44
412.472	469.44
412.695	488.44
412.919	475.44
413.142	460.44
413.365	427.44
413.589	460.44
413.812	438.44
414.035	450.44
414.258	439.44
414.482	443.44
414.705	430.44
414.928	447.44
415.151	420.44
415.374	425.44
415.597	425.44
415.821	410.44
416.044	452.44
416.267	435.44
416.49	397.44
416.713	418.44
416.936	442.44
417.159	444.44
417.382	440.44
417.605	419.44
417.828	444.44
418.051	470.44
418.274	466.44
418.497	465.44
418.72	466.44
418.943	439.44
419.166	447.44
419.389	472.44
419.611	482.44
419.834	453.44
420.057	453.44
420.28	468.44
420.503	470.44
420.726	463.44
420.948	435.44
421.171	476.44
421.394	484.44
421.617	472.44
421.839	435.44
422.062	445.44
422.285	454.44
422.507	491.44
422.73	541.44
422.953	503.44
423.175	474.44
423.398	485.44
423.621	465.44
423.843	481.44
424.066	481.44
424.288	473.44
424.511	486.44
424.733	513.44
424.956	545.44
425.178	552.44
425.401	535.44
425.623	522.44
425.846	478.44
426.068	443.44
426.291	450.44
426.513	434.44
426.735	456.44
426.958	490.44
427.18	532.44
427.402	608.44
427.625	636.44
427.847	563.44
428.069	495.44
428.292	472.44
428.514	451.44
428.736	424.44
428.958	441.44
429.181	421.44
429.403	411.44
429.625	409.44
429.847	432.44
430.069	478.44
430.292	453.44
430.514	415.44
430.736	390.44
430.958	423.44
431.18	414.44
431.402	424.44
431.624	413.44
431.846	407.44
432.068	395.44
432.29	399.44
432.512	382.44
432.734	425.44
432.956	406.44
433.178	422.44
433.4	439.44
433.622	438.44
433.844	419.44
434.066	403.44
434.287	398.44
434.509	405.44
434.731	430.44
434.953	446.44
435.175	471.44
435.397	459.44
435.618	456.44
435.84	480.44
436.062	515.44
436.284	552.44
436.505	480.44
436.727	454.44
436.949	419.44
437.17	423.44
437.392	417.44
437.614	432.44
437.835	422.44
438.057	493.44
438.278	542.44
438.5	555.44
438.721	581.44
438.943	576.44
439.165	488.44
439.386	447.44
439.608	442.44
439.829	434.44
440.05	468.44
440.272	490.44
440.493	461.44
440.715	453.44
440.936	426.44
441.158	418.44
441.379	443.44
441.6	445.44
441.822	460.44
442.043	493.44
442.264	520.44
442.486	536.44
442.707	492.44
442.928	459.44
443.149	474.44
443.371	488.44
443.592	523.44
443.813	556.44
444.034	566.44
444.255	519.44
444.476	485.44
444.698	509.44
444.919	510.44
445.14	601.44
445.361	547.44
445.582	497.44
445.803	544.44
446.024	579.44
446.245	565.44
446.466	529.44
446.687	470.44
446.908	449.44
447.129	432.44
447.35	430.44
447.571	410.44
447.792	415.44
448.013	427.44
448.234	411.44
448.455	453.44
448.675	521.44
448.896	584.44
449.117	515.44
449.338	457.44
449.559	531.44
449.779	617.44
450	479.44
450.221	408.44
450.442	406.44
450.662	387.44
450.883	392.44
451.104	439.44
451.324	418.44
451.545	387.44
451.766	395.44
451.986	396.44
452.207	367.44
452.428	388.44
452.648	381.44
452.869	375.44
453.089	368.44
453.31	389.44
453.53	383.44
453.751	360.44
453.971	372.44
454.192	377.44
454.412	383.44
454.633	364.44
454.853	357.44
455.073	359.44
455.294	375.44
455.514	417.44
455.734	400.44
455.955	373.44
456.175	357.44
456.395	361.44
456.616	352.44
456.836	376.44
457.056	361.44
457.276	348.44
457.497	356.44
457.717	378.44
457.937	365.44
458.157	365.44
458.377	374.44
458.598	391.44
458.818	421.44
459.038	456.44
459.258	476.44
459.478	441.44
459.698	403.44
459.918	417.44
460.138	434.44
460.358	428.44
460.578	427.44
460.798	446.44
461.018	455.44
461.238	411.44
461.458	421.44
461.678	437.44
461.898	453.44
462.118	424.44
462.338	456.44
462.558	486.44
462.777	490.44
462.997	506.44
463.217	511.44
463.437	505.44
463.657	492.44
463.876	467.44
464.096	480.44
464.316	467.44
464.536	470.44
464.755	480.44
464.975	472.44
465.195	479.44
465.414	499.44
465.634	458.44
465.854	421.44
466.073	407.44
466.293	412.44
466.512	404.44
466.732	390.44
466.951	387.44
467.171	383.44
467.391	385.44
467.61	402.44
467.829	387.44
468.049	404.44
468.268	390.44
468.488	395.44
468.707	397.44
468.927	392.44
469.146	395.44
469.365	373.44
469.585	396.44
469.804	393.44
470.023	408.44
470.243	410.44
470.462	416.44
470.681	424.44
470.901	436.44
471.12	417.44
471.339	412.44
471.558	399.44
471.777	403.44
471.997	390.44
472.216	395.44
472.435	427.44
472.654	411.44
472.873	386.44
473.092	399.44
473.311	381.44
473.53	377.44
473.749	387.44
473.968	427.44
474.187	480.44
474.406	493.44
474.625	429.44
474.844	402.44
475.063	385.44
475.282	384.44
475.501	388.44
475.72	373.44
475.939	392.44
476.158	400.44
476.377	410.44
476.596	382.44
476.814	412.44
477.033	417.44
477.252	417.44
477.471	413.44
477.69	432.44
477.908	444.44
478.127	447.44
478.346	437.44
478.564	451.44
478.783	453.44
479.002	457.44
479.22	462.44
479.439	465.44
479.658	464.44
479.876	456.44
480.095	499.44
480.313	519.44
480.532	500.44
480.751	493.44
480.969	503.44
481.188	518.44
481.406	549.44
481.624	499.44
481.843	472.44
482.061	457.44
482.28	441.44
482.498	451.44
482.717	456.44
482.935	458.44
483.153	452.44
483.372	441.44
483.59	448.44
483.808	439.44
484.027	453.44
484.245	436.44
484.463	462.44
484.681	447.44
484.9	457.44
485.118	478.44
485.336	451.44
485.554	461.44
485.772	466.44
485.99	472.44
486.209	468.44
486.427	451.44
486.645	468.44
486.863	485.44
487.081	486.44
487.299	477.44
487.517	486.44
487.735	483.44
487.953	485.44
488.171	483.44
488.389	481.44
488.607	489.44
488.825	488.44
489.043	481.44
489.261	470.44
489.479	487.44
489.696	500.44
489.914	481.44
490.132	481.44
490.35	487.44
490.568	498.44
490.786	521.44
491.003	519.44
491.221	526.44
491.439	521.44
491.657	539.44
491.874	551.44
492.092	539.44
492.31	588.44
492.527	543.44
492.745	574.44
492.963	569.44
493.18	566.44
493.398	557.44
493.615	554.44
493.833	563.44
494.05	580.44
494.268	572.44
494.485	566.44
494.703	586.44
494.92	577.44
495.138	586.44
495.355	568.44
495.573	578.44
495.79	575.44
496.008	584.44
496.225	576.44
496.442	565.44
496.66	579.44
496.877	567.44
497.094	557.44
497.312	571.44
497.529	571.44
497.746	601.44
497.963	593.44
498.181	621.44
498.398	617.44
498.615	661.44
498.832	679.44
499.049	715.44
499.267	722.44
499.484	786.44
499.701	834.44
499.918	863.44
500.135	935.44
500.352	997.44
500.569	1040.44
500.786	1015.44
501.003	977.44
501.22	926.44
501.437	869.44
501.654	819.44
501.871	761.44
502.088	732.44
