Data from 1969.PennyLincolnUp.Lamp.En5.5.200Scan.071719.P1._HRD10591_14-56-21-972.txt Node
Date: Thu Jul 18 14:56:21 EDT 2019
User: cochatt
Spectrometer: HR+D1059
Trigger mode: 1
Integration Time (sec): 1.000000E-1
Scans to average: 1
Electric dark correction enabled: true
Nonlinearity correction enabled: false
Boxcar width: 0
XAxis mode: Wavelengths
Number of Pixels in Spectrum: 2048
>>>>>Begin Spectral Data<<<<<
223.165	4.88
223.4	4.88
223.635	4.88
223.869	-14.12
224.104	-25.12
224.338	2.88
224.573	-21.12
224.808	-15.12
225.042	-8.12
225.277	-12.12
225.511	-10.12
225.746	-6.12
225.98	12.88
226.215	24.88
226.449	12.88
226.683	-2.12
226.918	25.88
227.152	29.88
227.387	35.88
227.621	19.88
227.856	55.88
228.09	42.88
228.324	54.88
228.559	52.88
228.793	67.88
229.027	78.88
229.262	96.88
229.496	86.88
229.73	101.88
229.964	125.88
230.199	120.88
230.433	88.88
230.667	129.88
230.901	124.88
231.136	102.88
231.37	82.88
231.604	106.88
231.838	100.88
232.072	94.88
232.306	116.88
232.541	112.88
232.775	121.88
233.009	94.88
233.243	103.88
233.477	113.88
233.711	104.88
233.945	111.88
234.179	114.88
234.413	108.88
234.647	100.88
234.881	113.88
235.115	99.88
235.349	116.88
235.583	108.88
235.817	118.88
236.051	118.88
236.285	123.88
236.519	116.88
236.753	121.88
236.987	112.88
237.221	150.88
237.455	184.88
237.689	136.88
237.922	115.88
238.156	114.88
238.39	115.88
238.624	122.88
238.858	109.88
239.091	116.88
239.325	110.88
239.559	119.88
239.793	120.88
240.027	128.88
240.26	131.88
240.494	133.88
240.728	123.88
240.961	138.88
241.195	116.88
241.429	122.88
241.662	110.88
241.896	127.88
242.13	116.88
242.363	112.88
242.597	128.88
242.83	133.88
243.064	130.88
243.298	114.88
243.531	114.88
243.765	119.88
243.998	128.88
244.232	138.88
244.465	120.88
244.699	126.88
244.932	113.88
245.166	113.88
245.399	128.88
245.633	143.88
245.866	123.88
246.099	125.88
246.333	123.88
246.566	116.88
246.8	133.88
247.033	148.88
247.266	142.88
247.5	141.88
247.733	140.88
247.966	153.88
248.2	144.88
248.433	150.88
248.666	152.88
248.899	159.88
249.133	173.88
249.366	159.88
249.599	166.88
249.832	164.88
250.066	148.88
250.299	178.88
250.532	164.88
250.765	192.88
250.998	174.88
251.231	188.88
251.465	190.88
251.698	180.88
251.931	179.88
252.164	160.88
252.397	159.88
252.63	171.88
252.863	176.88
253.096	185.88
253.329	181.88
253.562	175.88
253.795	189.88
254.028	178.88
254.261	187.88
254.494	197.88
254.727	200.88
254.96	230.88
255.193	213.88
255.426	203.88
255.659	183.88
255.892	181.88
256.124	193.88
256.357	194.88
256.59	186.88
256.823	179.88
257.056	185.88
257.289	173.88
257.521	182.88
257.754	178.88
257.987	179.88
258.22	181.88
258.452	174.88
258.685	181.88
258.918	182.88
259.151	185.88
259.383	196.88
259.616	196.88
259.849	194.88
260.081	189.88
260.314	221.88
260.547	215.88
260.779	210.88
261.012	208.88
261.244	191.88
261.477	189.88
261.71	192.88
261.942	194.88
262.175	196.88
262.407	200.88
262.64	173.88
262.872	198.88
263.105	187.88
263.337	200.88
263.57	188.88
263.802	185.88
264.035	184.88
264.267	196.88
264.499	193.88
264.732	172.88
264.964	186.88
265.197	190.88
265.429	179.88
265.661	205.88
265.894	198.88
266.126	178.88
266.358	189.88
266.591	194.88
266.823	196.88
267.055	190.88
267.287	207.88
267.52	192.88
267.752	185.88
267.984	204.88
268.216	198.88
268.448	193.88
268.681	203.88
268.913	235.88
269.145	234.88
269.377	244.88
269.609	243.88
269.841	225.88
270.073	234.88
270.306	250.88
270.538	258.88
270.77	255.88
271.002	256.88
271.234	238.88
271.466	241.88
271.698	256.88
271.93	263.88
272.162	260.88
272.394	262.88
272.626	253.88
272.858	242.88
273.09	224.88
273.322	229.88
273.553	228.88
273.785	221.88
274.017	225.88
274.249	240.88
274.481	218.88
274.713	236.88
274.945	239.88
275.176	212.88
275.408	222.88
275.64	240.88
275.872	232.88
276.104	229.88
276.335	224.88
276.567	247.88
276.799	260.88
277.031	260.88
277.262	262.88
277.494	266.88
277.726	249.88
277.957	244.88
278.189	241.88
278.421	242.88
278.652	247.88
278.884	243.88
279.115	247.88
279.347	230.88
279.579	250.88
279.81	227.88
280.042	245.88
280.273	218.88
280.505	239.88
280.736	254.88
280.968	243.88
281.199	225.88
281.431	253.88
281.662	249.88
281.894	246.88
282.125	257.88
282.356	260.88
282.588	260.88
282.819	258.88
283.051	254.88
283.282	257.88
283.513	266.88
283.745	248.88
283.976	256.88
284.207	245.88
284.439	266.88
284.67	260.88
284.901	256.88
285.132	243.88
285.364	262.88
285.595	248.88
285.826	241.88
286.057	259.88
286.288	257.88
286.52	264.88
286.751	266.88
286.982	265.88
287.213	253.88
287.444	256.88
287.675	252.88
287.906	265.88
288.138	272.88
288.369	260.88
288.6	269.88
288.831	284.88
289.062	262.88
289.293	263.88
289.524	249.88
289.755	259.88
289.986	264.88
290.217	251.88
290.448	261.88
290.679	264.88
290.91	276.88
291.141	273.88
291.371	254.88
291.602	263.88
291.833	286.88
292.064	270.88
292.295	270.88
292.526	262.88
292.757	269.88
292.987	274.88
293.218	266.88
293.449	261.88
293.68	292.88
293.91	262.88
294.141	266.88
294.372	260.88
294.603	247.88
294.833	258.88
295.064	272.88
295.295	261.88
295.525	276.88
295.756	265.88
295.987	278.88
296.217	277.88
296.448	291.88
296.679	256.88
296.909	276.88
297.14	282.88
297.37	272.88
297.601	273.88
297.831	278.88
298.062	291.88
298.292	285.88
298.523	298.88
298.753	285.88
298.984	276.88
299.214	269.88
299.445	285.88
299.675	282.88
299.905	278.88
300.136	280.88
300.366	285.88
300.597	284.88
300.827	279.88
301.057	285.88
301.288	296.88
301.518	295.88
301.748	293.88
301.979	303.88
302.209	306.88
302.439	303.88
302.669	282.88
302.9	296.88
303.13	291.88
303.36	301.88
303.59	299.88
303.82	295.88
304.051	298.88
304.281	305.88
304.511	269.88
304.741	306.88
304.971	302.88
305.201	292.88
305.431	282.88
305.661	285.88
305.891	290.88
306.121	294.88
306.352	285.88
306.582	305.88
306.812	299.88
307.042	296.88
307.272	300.88
307.502	293.88
307.731	293.88
307.961	295.88
308.191	285.88
308.421	294.88
308.651	298.88
308.881	294.88
309.111	306.88
309.341	299.88
309.571	304.88
309.8	321.88
310.03	316.88
310.26	305.88
310.49	331.88
310.72	326.88
310.949	320.88
311.179	323.88
311.409	327.88
311.639	334.88
311.868	308.88
312.098	304.88
312.328	335.88
312.557	325.88
312.787	341.88
313.017	353.88
313.246	294.88
313.476	313.88
313.706	336.88
313.935	337.88
314.165	334.88
314.394	350.88
314.624	348.88
314.853	337.88
315.083	336.88
315.312	341.88
315.542	295.88
315.771	316.88
316.001	331.88
316.23	316.88
316.46	329.88
316.689	345.88
316.919	335.88
317.148	325.88
317.377	344.88
317.607	341.88
317.836	329.88
318.065	329.88
318.295	317.88
318.524	343.88
318.753	326.88
318.983	304.88
319.212	305.88
319.441	321.88
319.67	331.88
319.9	333.88
320.129	342.88
320.358	321.88
320.587	327.88
320.816	334.88
321.046	340.88
321.275	338.88
321.504	348.88
321.733	341.88
321.962	343.88
322.191	342.88
322.42	374.88
322.649	364.88
322.878	378.88
323.108	382.88
323.337	362.88
323.566	387.88
323.795	405.88
324.024	421.88
324.253	487.88
324.482	664.88
324.71	915.88
324.939	1243.88
325.168	1042.88
325.397	579.88
325.626	448.88
325.855	389.88
326.084	404.88
326.313	389.88
326.542	386.88
326.77	430.88
326.999	468.88
327.228	631.88
327.457	852.88
327.686	940.88
327.914	663.88
328.143	501.88
328.372	458.88
328.6	448.88
328.829	426.88
329.058	440.88
329.287	444.88
329.515	437.88
329.744	394.88
329.972	405.88
330.201	446.88
330.43	450.88
330.658	442.88
330.887	476.88
331.115	473.88
331.344	418.88
331.572	401.88
331.801	411.88
332.03	408.88
332.258	402.88
332.486	398.88
332.715	387.88
332.943	389.88
333.172	416.88
333.4	407.88
333.629	418.88
333.857	434.88
334.085	442.88
334.314	442.88
334.542	441.88
334.771	469.88
334.999	457.88
335.227	409.88
335.455	426.88
335.684	395.88
335.912	392.88
336.14	377.88
336.369	387.88
336.597	402.88
336.825	409.88
337.053	405.88
337.281	390.88
337.51	379.88
337.738	390.88
337.966	365.88
338.194	373.88
338.422	383.88
338.65	373.88
338.878	382.88
339.106	377.88
339.334	371.88
339.562	368.88
339.79	375.88
340.018	378.88
340.246	382.88
340.474	367.88
340.702	361.88
340.93	354.88
341.158	379.88
341.386	353.88
341.614	370.88
341.842	370.88
342.07	359.88
342.298	372.88
342.526	340.88
342.754	349.88
342.981	357.88
343.209	360.88
343.437	371.88
343.665	382.88
343.893	388.88
344.12	398.88
344.348	393.88
344.576	381.88
344.804	382.88
345.031	387.88
345.259	381.88
345.487	370.88
345.714	363.88
345.942	363.88
346.17	359.88
346.397	343.88
346.625	355.88
346.853	352.88
347.08	342.88
347.308	353.88
347.535	370.88
347.763	363.88
347.99	365.88
348.218	354.88
348.445	356.88
348.673	348.88
348.9	372.88
349.128	335.88
349.355	363.88
349.583	350.88
349.81	333.88
350.037	341.88
350.265	342.88
350.492	329.88
350.72	341.88
350.947	335.88
351.174	362.88
351.402	345.88
351.629	344.88
351.856	334.88
352.083	337.88
352.311	367.88
352.538	346.88
352.765	354.88
352.992	349.88
353.22	361.88
353.447	353.88
353.674	343.88
353.901	343.88
354.128	316.88
354.355	341.88
354.583	333.88
354.81	326.88
355.037	321.88
355.264	336.88
355.491	329.88
355.718	340.88
355.945	338.88
356.172	338.88
356.399	316.88
356.626	330.88
356.853	340.88
357.08	330.88
357.307	321.88
357.534	337.88
357.761	336.88
357.988	339.88
358.215	317.88
358.441	348.88
358.668	327.88
358.895	340.88
359.122	316.88
359.349	327.88
359.576	357.88
359.802	341.88
360.029	361.88
360.256	384.88
360.483	362.88
360.709	348.88
360.936	341.88
361.163	337.88
361.39	339.88
361.616	355.88
361.843	337.88
362.07	340.88
362.296	338.88
362.523	333.88
362.749	334.88
362.976	332.88
363.203	364.88
363.429	347.88
363.656	328.88
363.882	318.88
364.109	322.88
364.335	345.88
364.562	322.88
364.788	332.88
365.015	327.88
365.241	337.88
365.468	314.88
365.694	326.88
365.92	363.88
366.147	333.88
366.373	345.88
366.599	318.88
366.826	322.88
367.052	338.88
367.278	330.88
367.505	347.88
367.731	334.88
367.957	329.88
368.184	335.88
368.41	349.88
368.636	335.88
368.862	344.88
369.089	334.88
369.315	346.88
369.541	323.88
369.767	337.88
369.993	335.88
370.219	341.88
370.445	341.88
370.672	323.88
370.898	339.88
371.124	350.88
371.35	349.88
371.576	338.88
371.802	337.88
372.028	360.88
372.254	349.88
372.48	356.88
372.706	365.88
372.932	366.88
373.158	340.88
373.384	332.88
373.61	334.88
373.835	344.88
374.061	354.88
374.287	351.88
374.513	333.88
374.739	363.88
374.965	357.88
375.191	366.88
375.416	363.88
375.642	356.88
375.868	358.88
376.094	345.88
376.319	346.88
376.545	346.88
376.771	353.88
376.997	337.88
377.222	350.88
377.448	331.88
377.674	338.88
377.899	325.88
378.125	321.88
378.35	348.88
378.576	346.88
378.802	331.88
379.027	348.88
379.253	340.88
379.478	339.88
379.704	329.88
379.929	330.88
380.155	330.88
380.38	331.88
380.606	335.88
380.831	337.88
381.057	348.88
381.282	337.88
381.507	332.88
381.733	331.88
381.958	345.88
382.184	334.88
382.409	355.88
382.634	340.88
382.86	348.88
383.085	349.88
383.31	340.88
383.535	346.88
383.761	362.88
383.986	365.88
384.211	355.88
384.436	368.88
384.662	350.88
384.887	380.88
385.112	380.88
385.337	374.88
385.562	372.88
385.787	389.88
386.013	408.88
386.238	399.88
386.463	379.88
386.688	371.88
386.913	384.88
387.138	375.88
387.363	378.88
387.588	380.88
387.813	375.88
388.038	367.88
388.263	359.88
388.488	373.88
388.713	376.88
388.938	378.88
389.163	384.88
389.387	395.88
389.612	351.88
389.837	375.88
390.062	384.88
390.287	385.88
390.512	378.88
390.736	374.88
390.961	373.88
391.186	376.88
391.411	402.88
391.636	401.88
391.86	400.88
392.085	413.88
392.31	398.88
392.534	401.88
392.759	398.88
392.984	384.88
393.208	372.88
393.433	382.88
393.658	369.88
393.882	370.88
394.107	376.88
394.331	377.88
394.556	376.88
394.78	402.88
395.005	380.88
395.229	395.88
395.454	398.88
395.678	407.88
395.903	386.88
396.127	419.88
396.352	400.88
396.576	404.88
396.801	405.88
397.025	404.88
397.249	391.88
397.474	402.88
397.698	408.88
397.922	417.88
398.147	432.88
398.371	429.88
398.595	441.88
398.82	444.88
399.044	458.88
399.268	491.88
399.492	532.88
399.717	561.88
399.941	576.88
400.165	535.88
400.389	545.88
400.613	484.88
400.837	466.88
401.062	463.88
401.286	458.88
401.51	436.88
401.734	434.88
401.958	430.88
402.182	458.88
402.406	472.88
402.63	465.88
402.854	470.88
403.078	459.88
403.302	477.88
403.526	479.88
403.75	473.88
403.974	470.88
404.198	471.88
404.422	481.88
404.645	473.88
404.869	467.88
405.093	480.88
405.317	509.88
405.541	554.88
405.765	488.88
405.988	499.88
406.212	496.88
406.436	512.88
406.66	525.88
406.883	497.88
407.107	512.88
407.331	551.88
407.555	610.88
407.778	585.88
408.002	542.88
408.226	522.88
408.449	500.88
408.673	485.88
408.896	514.88
409.12	514.88
409.344	507.88
409.567	461.88
409.791	488.88
410.014	460.88
410.238	443.88
410.461	470.88
410.685	488.88
410.908	464.88
411.132	486.88
411.355	487.88
411.578	475.88
411.802	476.88
412.025	449.88
412.249	472.88
412.472	458.88
412.695	475.88
412.919	483.88
413.142	461.88
413.365	450.88
413.589	450.88
413.812	438.88
414.035	433.88
414.258	421.88
414.482	426.88
414.705	438.88
414.928	440.88
415.151	440.88
415.374	415.88
415.597	448.88
415.821	440.88
416.044	418.88
416.267	453.88
416.49	410.88
416.713	441.88
416.936	438.88
417.159	441.88
417.382	422.88
417.605	440.88
417.828	458.88
418.051	445.88
418.274	462.88
418.497	434.88
418.72	457.88
418.943	445.88
419.166	474.88
419.389	480.88
419.611	480.88
419.834	468.88
420.057	471.88
420.28	440.88
420.503	439.88
420.726	453.88
420.948	455.88
421.171	480.88
421.394	479.88
421.617	455.88
421.839	456.88
422.062	456.88
422.285	447.88
422.507	483.88
422.73	554.88
422.953	532.88
423.175	470.88
423.398	491.88
423.621	464.88
423.843	467.88
424.066	521.88
424.288	510.88
424.511	480.88
424.733	500.88
424.956	557.88
425.178	541.88
425.401	522.88
425.623	541.88
425.846	475.88
426.068	460.88
426.291	453.88
426.513	454.88
426.735	460.88
426.958	496.88
427.18	524.88
427.402	608.88
427.625	623.88
427.847	577.88
428.069	488.88
428.292	498.88
428.514	445.88
428.736	410.88
428.958	440.88
429.181	419.88
429.403	404.88
429.625	416.88
429.847	453.88
430.069	465.88
430.292	492.88
430.514	436.88
430.736	410.88
430.958	420.88
431.18	430.88
431.402	411.88
431.624	411.88
431.846	396.88
432.068	407.88
432.29	403.88
432.512	430.88
432.734	430.88
432.956	413.88
433.178	393.88
433.4	418.88
433.622	398.88
433.844	401.88
434.066	383.88
434.287	421.88
434.509	418.88
434.731	427.88
434.953	455.88
435.175	437.88
435.397	469.88
435.618	467.88
435.84	489.88
436.062	532.88
436.284	547.88
436.505	486.88
436.727	451.88
436.949	456.88
437.17	435.88
437.392	419.88
437.614	418.88
437.835	437.88
438.057	503.88
438.278	549.88
438.5	550.88
438.721	589.88
438.943	559.88
439.165	465.88
439.386	451.88
439.608	440.88
439.829	455.88
440.05	470.88
440.272	477.88
440.493	459.88
440.715	453.88
440.936	439.88
441.158	435.88
441.379	438.88
441.6	459.88
441.822	467.88
442.043	487.88
442.264	541.88
442.486	553.88
442.707	513.88
442.928	477.88
443.149	485.88
443.371	498.88
443.592	491.88
443.813	561.88
444.034	566.88
444.255	491.88
444.476	475.88
444.698	484.88
444.919	513.88
445.14	576.88
445.361	530.88
445.582	496.88
445.803	526.88
446.024	576.88
446.245	594.88
446.466	523.88
446.687	465.88
446.908	464.88
447.129	419.88
447.35	404.88
447.571	406.88
447.792	417.88
448.013	393.88
448.234	415.88
448.455	456.88
448.675	535.88
448.896	578.88
449.117	496.88
449.338	500.88
449.559	534.88
449.779	609.88
450	508.88
450.221	468.88
450.442	419.88
450.662	401.88
450.883	389.88
451.104	405.88
451.324	405.88
451.545	397.88
451.766	408.88
451.986	360.88
452.207	390.88
452.428	367.88
452.648	391.88
452.869	396.88
453.089	379.88
453.31	386.88
453.53	380.88
453.751	378.88
453.971	397.88
454.192	398.88
454.412	392.88
454.633	358.88
454.853	375.88
455.073	376.88
455.294	401.88
455.514	438.88
455.734	411.88
455.955	366.88
456.175	364.88
456.395	358.88
456.616	347.88
456.836	373.88
457.056	375.88
457.276	352.88
457.497	362.88
457.717	365.88
457.937	361.88
458.157	359.88
458.377	376.88
458.598	370.88
458.818	425.88
459.038	482.88
459.258	469.88
459.478	411.88
459.698	427.88
459.918	420.88
460.138	419.88
460.358	441.88
460.578	432.88
460.798	437.88
461.018	446.88
461.238	446.88
461.458	437.88
461.678	439.88
461.898	458.88
462.118	450.88
462.338	466.88
462.558	474.88
462.777	460.88
462.997	514.88
463.217	535.88
463.437	532.88
463.657	487.88
463.876	473.88
464.096	470.88
464.316	476.88
464.536	486.88
464.755	473.88
464.975	452.88
465.195	473.88
465.414	516.88
465.634	466.88
465.854	450.88
466.073	427.88
466.293	395.88
466.512	411.88
466.732	411.88
466.951	420.88
467.171	399.88
467.391	391.88
467.61	405.88
467.829	403.88
468.049	374.88
468.268	417.88
468.488	400.88
468.707	388.88
468.927	395.88
469.146	377.88
469.365	397.88
469.585	404.88
469.804	398.88
470.023	418.88
470.243	419.88
470.462	399.88
470.681	413.88
470.901	421.88
471.12	413.88
471.339	381.88
471.558	413.88
471.777	407.88
471.997	408.88
472.216	393.88
472.435	417.88
472.654	393.88
472.873	383.88
473.092	392.88
473.311	401.88
473.53	412.88
473.749	413.88
473.968	406.88
474.187	472.88
474.406	500.88
474.625	434.88
474.844	408.88
475.063	405.88
475.282	373.88
475.501	377.88
475.72	397.88
475.939	385.88
476.158	420.88
476.377	393.88
476.596	424.88
476.814	405.88
477.033	408.88
477.252	403.88
477.471	425.88
477.69	440.88
477.908	427.88
478.127	442.88
478.346	454.88
478.564	463.88
478.783	451.88
479.002	448.88
479.22	440.88
479.439	459.88
479.658	473.88
479.876	480.88
480.095	490.88
480.313	517.88
480.532	516.88
480.751	488.88
480.969	492.88
481.188	520.88
481.406	546.88
481.624	493.88
481.843	460.88
482.061	463.88
482.28	460.88
482.498	452.88
482.717	449.88
482.935	429.88
483.153	469.88
483.372	448.88
483.59	444.88
483.808	443.88
484.027	472.88
484.245	463.88
484.463	453.88
484.681	491.88
484.9	450.88
485.118	461.88
485.336	436.88
485.554	462.88
485.772	478.88
485.99	468.88
486.209	449.88
486.427	461.88
486.645	483.88
486.863	497.88
487.081	491.88
487.299	491.88
487.517	472.88
487.735	490.88
487.953	469.88
488.171	486.88
488.389	488.88
488.607	475.88
488.825	483.88
489.043	482.88
489.261	500.88
489.479	482.88
489.696	488.88
489.914	494.88
490.132	495.88
490.35	516.88
490.568	507.88
490.786	511.88
491.003	542.88
491.221	523.88
491.439	536.88
491.657	548.88
491.874	561.88
492.092	549.88
492.31	561.88
492.527	557.88
492.745	550.88
492.963	545.88
493.18	573.88
493.398	578.88
493.615	565.88
493.833	560.88
494.05	561.88
494.268	586.88
494.485	570.88
494.703	576.88
494.92	561.88
495.138	593.88
495.355	593.88
495.573	576.88
495.79	586.88
496.008	572.88
496.225	577.88
496.442	604.88
496.66	587.88
496.877	566.88
497.094	580.88
497.312	595.88
497.529	602.88
497.746	594.88
497.963	629.88
498.181	640.88
498.398	638.88
498.615	670.88
498.832	667.88
499.049	713.88
499.267	747.88
499.484	800.88
499.701	855.88
499.918	876.88
500.135	904.88
500.352	1001.88
500.569	1001.88
500.786	988.88
501.003	968.88
501.22	928.88
501.437	881.88
501.654	830.88
501.871	805.88
502.088	754.88
