Data from 1969.PennyLincolnUp.Lamp.En5.5.200Scan.071719.P1._HRD10591_14-54-32-972.txt Node
Date: Thu Jul 18 14:54:32 EDT 2019
User: cochatt
Spectrometer: HR+D1059
Trigger mode: 1
Integration Time (sec): 1.000000E-1
Scans to average: 1
Electric dark correction enabled: true
Nonlinearity correction enabled: false
Boxcar width: 0
XAxis mode: Wavelengths
Number of Pixels in Spectrum: 2048
>>>>>Begin Spectral Data<<<<<
223.165	-0.31
223.4	-0.31
223.635	-0.31
223.869	-22.31
224.104	-21.31
224.338	-20.31
224.573	-6.31
224.808	-26.31
225.042	0.69
225.277	-10.31
225.511	1.69
225.746	4.69
225.98	11.69
226.215	8.69
226.449	6.69
226.683	18.69
226.918	25.69
227.152	28.69
227.387	32.69
227.621	39.69
227.856	53.69
228.09	51.69
228.324	51.69
228.559	56.69
228.793	61.69
229.027	85.69
229.262	90.69
229.496	97.69
229.73	104.69
229.964	113.69
230.199	98.69
230.433	101.69
230.667	96.69
230.901	95.69
231.136	103.69
231.37	94.69
231.604	109.69
231.838	102.69
232.072	103.69
232.306	105.69
232.541	105.69
232.775	107.69
233.009	108.69
233.243	106.69
233.477	107.69
233.711	95.69
233.945	105.69
234.179	107.69
234.413	127.69
234.647	98.69
234.881	107.69
235.115	105.69
235.349	98.69
235.583	115.69
235.817	119.69
236.051	122.69
236.285	115.69
236.519	105.69
236.753	91.69
236.987	125.69
237.221	144.69
237.455	161.69
237.689	137.69
237.922	112.69
238.156	110.69
238.39	110.69
238.624	129.69
238.858	119.69
239.091	97.69
239.325	117.69
239.559	106.69
239.793	120.69
240.027	125.69
240.26	130.69
240.494	139.69
240.728	129.69
240.961	131.69
241.195	125.69
241.429	116.69
241.662	128.69
241.896	132.69
242.13	110.69
242.363	130.69
242.597	122.69
242.83	116.69
243.064	127.69
243.298	118.69
243.531	115.69
243.765	124.69
243.998	115.69
244.232	120.69
244.465	131.69
244.699	131.69
244.932	117.69
245.166	122.69
245.399	137.69
245.633	131.69
245.866	119.69
246.099	124.69
246.333	131.69
246.566	123.69
246.8	124.69
247.033	136.69
247.266	148.69
247.5	141.69
247.733	147.69
247.966	145.69
248.2	136.69
248.433	149.69
248.666	169.69
248.899	148.69
249.133	159.69
249.366	156.69
249.599	157.69
249.832	127.69
250.066	150.69
250.299	143.69
250.532	152.69
250.765	167.69
250.998	188.69
251.231	195.69
251.465	178.69
251.698	167.69
251.931	167.69
252.164	185.69
252.397	159.69
252.63	166.69
252.863	166.69
253.096	179.69
253.329	183.69
253.562	181.69
253.795	186.69
254.028	170.69
254.261	175.69
254.494	191.69
254.727	209.69
254.96	227.69
255.193	195.69
255.426	194.69
255.659	182.69
255.892	186.69
256.124	191.69
256.357	208.69
256.59	184.69
256.823	167.69
257.056	160.69
257.289	177.69
257.521	182.69
257.754	181.69
257.987	178.69
258.22	176.69
258.452	165.69
258.685	181.69
258.918	198.69
259.151	170.69
259.383	167.69
259.616	175.69
259.849	182.69
260.081	198.69
260.314	205.69
260.547	206.69
260.779	204.69
261.012	184.69
261.244	180.69
261.477	197.69
261.71	202.69
261.942	204.69
262.175	175.69
262.407	186.69
262.64	173.69
262.872	183.69
263.105	183.69
263.337	183.69
263.57	176.69
263.802	200.69
264.035	191.69
264.267	185.69
264.499	180.69
264.732	186.69
264.964	201.69
265.197	189.69
265.429	192.69
265.661	190.69
265.894	194.69
266.126	200.69
266.358	170.69
266.591	187.69
266.823	185.69
267.055	179.69
267.287	200.69
267.52	203.69
267.752	167.69
267.984	200.69
268.216	195.69
268.448	198.69
268.681	203.69
268.913	202.69
269.145	206.69
269.377	216.69
269.609	228.69
269.841	210.69
270.073	222.69
270.306	224.69
270.538	243.69
270.77	231.69
271.002	237.69
271.234	216.69
271.466	240.69
271.698	249.69
271.93	252.69
272.162	243.69
272.394	255.69
272.626	234.69
272.858	223.69
273.09	207.69
273.322	216.69
273.553	201.69
273.785	207.69
274.017	220.69
274.249	241.69
274.481	232.69
274.713	215.69
274.945	222.69
275.176	219.69
275.408	223.69
275.64	212.69
275.872	218.69
276.104	221.69
276.335	213.69
276.567	222.69
276.799	232.69
277.031	235.69
277.262	250.69
277.494	256.69
277.726	238.69
277.957	239.69
278.189	224.69
278.421	222.69
278.652	235.69
278.884	242.69
279.115	217.69
279.347	232.69
279.579	219.69
279.81	239.69
280.042	232.69
280.273	235.69
280.505	245.69
280.736	249.69
280.968	244.69
281.199	237.69
281.431	235.69
281.662	213.69
281.894	243.69
282.125	235.69
282.356	233.69
282.588	241.69
282.819	268.69
283.051	245.69
283.282	265.69
283.513	234.69
283.745	251.69
283.976	253.69
284.207	247.69
284.439	235.69
284.67	244.69
284.901	231.69
285.132	237.69
285.364	254.69
285.595	245.69
285.826	241.69
286.057	235.69
286.288	235.69
286.52	255.69
286.751	252.69
286.982	244.69
287.213	259.69
287.444	245.69
287.675	259.69
287.906	248.69
288.138	255.69
288.369	248.69
288.6	249.69
288.831	262.69
289.062	253.69
289.293	259.69
289.524	223.69
289.755	270.69
289.986	268.69
290.217	243.69
290.448	251.69
290.679	261.69
290.91	260.69
291.141	257.69
291.371	241.69
291.602	251.69
291.833	260.69
292.064	262.69
292.295	270.69
292.526	232.69
292.757	248.69
292.987	249.69
293.218	267.69
293.449	271.69
293.68	254.69
293.91	250.69
294.141	251.69
294.372	258.69
294.603	257.69
294.833	262.69
295.064	268.69
295.295	254.69
295.525	232.69
295.756	276.69
295.987	263.69
296.217	273.69
296.448	276.69
296.679	277.69
296.909	256.69
297.14	273.69
297.37	248.69
297.601	264.69
297.831	269.69
298.062	266.69
298.292	281.69
298.523	291.69
298.753	265.69
298.984	268.69
299.214	268.69
299.445	264.69
299.675	277.69
299.905	276.69
300.136	287.69
300.366	277.69
300.597	290.69
300.827	298.69
301.057	298.69
301.288	276.69
301.518	282.69
301.748	281.69
301.979	281.69
302.209	297.69
302.439	309.69
302.669	297.69
302.9	289.69
303.13	319.69
303.36	286.69
303.59	282.69
303.82	286.69
304.051	289.69
304.281	294.69
304.511	278.69
304.741	294.69
304.971	290.69
305.201	285.69
305.431	286.69
305.661	295.69
305.891	293.69
306.121	272.69
306.352	275.69
306.582	265.69
306.812	277.69
307.042	295.69
307.272	292.69
307.502	276.69
307.731	280.69
307.961	268.69
308.191	291.69
308.421	297.69
308.651	284.69
308.881	288.69
309.111	291.69
309.341	284.69
309.571	287.69
309.8	293.69
310.03	298.69
310.26	304.69
310.49	327.69
310.72	304.69
310.949	308.69
311.179	297.69
311.409	293.69
311.639	311.69
311.868	325.69
312.098	315.69
312.328	334.69
312.557	302.69
312.787	335.69
313.017	311.69
313.246	299.69
313.476	320.69
313.706	329.69
313.935	312.69
314.165	313.69
314.394	338.69
314.624	314.69
314.853	332.69
315.083	326.69
315.312	308.69
315.542	307.69
315.771	315.69
316.001	305.69
316.23	313.69
316.46	298.69
316.689	316.69
316.919	323.69
317.148	294.69
317.377	321.69
317.607	332.69
317.836	324.69
318.065	323.69
318.295	320.69
318.524	309.69
318.753	318.69
318.983	305.69
319.212	318.69
319.441	315.69
319.67	328.69
319.9	332.69
320.129	328.69
320.358	313.69
320.587	317.69
320.816	322.69
321.046	325.69
321.275	335.69
321.504	335.69
321.733	326.69
321.962	329.69
322.191	332.69
322.42	348.69
322.649	348.69
322.878	347.69
323.108	331.69
323.337	359.69
323.566	350.69
323.795	369.69
324.024	385.69
324.253	439.69
324.482	572.69
324.71	812.69
324.939	1040.69
325.168	899.69
325.397	509.69
325.626	398.69
325.855	376.69
326.084	363.69
326.313	377.69
326.542	371.69
326.77	378.69
326.999	419.69
327.228	539.69
327.457	760.69
327.686	820.69
327.914	579.69
328.143	461.69
328.372	441.69
328.6	412.69
328.829	399.69
329.058	411.69
329.287	411.69
329.515	413.69
329.744	380.69
329.972	377.69
330.201	377.69
330.43	406.69
330.658	424.69
330.887	432.69
331.115	421.69
331.344	392.69
331.572	371.69
331.801	383.69
332.03	379.69
332.258	358.69
332.486	364.69
332.715	365.69
332.943	389.69
333.172	413.69
333.4	388.69
333.629	400.69
333.857	433.69
334.085	432.69
334.314	419.69
334.542	451.69
334.771	463.69
334.999	412.69
335.227	419.69
335.455	390.69
335.684	376.69
335.912	376.69
336.14	392.69
336.369	377.69
336.597	381.69
336.825	400.69
337.053	364.69
337.281	369.69
337.51	380.69
337.738	375.69
337.966	369.69
338.194	349.69
338.422	378.69
338.65	359.69
338.878	353.69
339.106	345.69
339.334	372.69
339.562	359.69
339.79	347.69
340.018	359.69
340.246	379.69
340.474	346.69
340.702	363.69
340.93	341.69
341.158	355.69
341.386	358.69
341.614	376.69
341.842	359.69
342.07	344.69
342.298	342.69
342.526	348.69
342.754	343.69
342.981	337.69
343.209	379.69
343.437	368.69
343.665	371.69
343.893	382.69
344.12	374.69
344.348	383.69
344.576	366.69
344.804	360.69
345.031	356.69
345.259	363.69
345.487	338.69
345.714	352.69
345.942	348.69
346.17	323.69
346.397	340.69
346.625	342.69
346.853	342.69
347.08	330.69
347.308	331.69
347.535	335.69
347.763	319.69
347.99	348.69
348.218	332.69
348.445	339.69
348.673	341.69
348.9	350.69
349.128	329.69
349.355	312.69
349.583	330.69
349.81	326.69
350.037	309.69
350.265	327.69
350.492	342.69
350.72	336.69
350.947	335.69
351.174	333.69
351.402	329.69
351.629	324.69
351.856	322.69
352.083	323.69
352.311	348.69
352.538	344.69
352.765	329.69
352.992	332.69
353.22	330.69
353.447	337.69
353.674	348.69
353.901	337.69
354.128	321.69
354.355	312.69
354.583	319.69
354.81	329.69
355.037	335.69
355.264	311.69
355.491	333.69
355.718	307.69
355.945	321.69
356.172	309.69
356.399	329.69
356.626	338.69
356.853	319.69
357.08	305.69
357.307	312.69
357.534	323.69
357.761	323.69
357.988	314.69
358.215	328.69
358.441	319.69
358.668	317.69
358.895	323.69
359.122	334.69
359.349	328.69
359.576	337.69
359.802	329.69
360.029	349.69
360.256	335.69
360.483	346.69
360.709	313.69
360.936	327.69
361.163	347.69
361.39	335.69
361.616	336.69
361.843	341.69
362.07	316.69
362.296	332.69
362.523	330.69
362.749	329.69
362.976	314.69
363.203	324.69
363.429	341.69
363.656	321.69
363.882	313.69
364.109	336.69
364.335	323.69
364.562	325.69
364.788	337.69
365.015	317.69
365.241	328.69
365.468	336.69
365.694	325.69
365.92	327.69
366.147	309.69
366.373	319.69
366.599	326.69
366.826	325.69
367.052	307.69
367.278	320.69
367.505	329.69
367.731	336.69
367.957	327.69
368.184	335.69
368.41	312.69
368.636	326.69
368.862	338.69
369.089	320.69
369.315	325.69
369.541	341.69
369.767	322.69
369.993	328.69
370.219	333.69
370.445	333.69
370.672	331.69
370.898	327.69
371.124	341.69
371.35	342.69
371.576	326.69
371.802	337.69
372.028	335.69
372.254	318.69
372.48	331.69
372.706	333.69
372.932	339.69
373.158	323.69
373.384	338.69
373.61	361.69
373.835	334.69
374.061	340.69
374.287	328.69
374.513	331.69
374.739	332.69
374.965	353.69
375.191	351.69
375.416	349.69
375.642	360.69
375.868	327.69
376.094	346.69
376.319	335.69
376.545	344.69
376.771	329.69
376.997	321.69
377.222	335.69
377.448	329.69
377.674	330.69
377.899	315.69
378.125	327.69
378.35	322.69
378.576	319.69
378.802	331.69
379.027	333.69
379.253	334.69
379.478	328.69
379.704	334.69
379.929	330.69
380.155	325.69
380.38	320.69
380.606	307.69
380.831	325.69
381.057	330.69
381.282	302.69
381.507	334.69
381.733	335.69
381.958	323.69
382.184	323.69
382.409	347.69
382.634	364.69
382.86	345.69
383.085	330.69
383.31	329.69
383.535	347.69
383.761	363.69
383.986	357.69
384.211	348.69
384.436	352.69
384.662	361.69
384.887	358.69
385.112	361.69
385.337	374.69
385.562	359.69
385.787	365.69
386.013	385.69
386.238	365.69
386.463	359.69
386.688	366.69
386.913	335.69
387.138	358.69
387.363	365.69
387.588	352.69
387.813	361.69
388.038	363.69
388.263	370.69
388.488	359.69
388.713	367.69
388.938	363.69
389.163	364.69
389.387	376.69
389.612	366.69
389.837	366.69
390.062	364.69
390.287	355.69
390.512	347.69
390.736	325.69
390.961	365.69
391.186	369.69
391.411	378.69
391.636	381.69
391.86	381.69
392.085	377.69
392.31	383.69
392.534	395.69
392.759	407.69
392.984	367.69
393.208	373.69
393.433	393.69
393.658	347.69
393.882	382.69
394.107	379.69
394.331	392.69
394.556	387.69
394.78	385.69
395.005	381.69
395.229	380.69
395.454	388.69
395.678	387.69
395.903	373.69
396.127	397.69
396.352	407.69
396.576	385.69
396.801	354.69
397.025	383.69
397.249	391.69
397.474	400.69
397.698	408.69
397.922	408.69
398.147	403.69
398.371	415.69
398.595	406.69
398.82	411.69
399.044	461.69
399.268	467.69
399.492	529.69
399.717	555.69
399.941	526.69
400.165	523.69
400.389	517.69
400.613	476.69
400.837	447.69
401.062	465.69
401.286	453.69
401.51	420.69
401.734	424.69
401.958	431.69
402.182	443.69
402.406	451.69
402.63	444.69
402.854	451.69
403.078	457.69
403.302	462.69
403.526	457.69
403.75	448.69
403.974	486.69
404.198	453.69
404.422	479.69
404.645	469.69
404.869	468.69
405.093	461.69
405.317	505.69
405.541	506.69
405.765	459.69
405.988	470.69
406.212	477.69
406.436	487.69
406.66	481.69
406.883	484.69
407.107	498.69
407.331	519.69
407.555	576.69
407.778	548.69
408.002	508.69
408.226	481.69
408.449	500.69
408.673	482.69
408.896	485.69
409.12	508.69
409.344	500.69
409.567	459.69
409.791	456.69
410.014	453.69
410.238	432.69
410.461	424.69
410.685	461.69
410.908	432.69
411.132	474.69
411.355	498.69
411.578	463.69
411.802	459.69
412.025	443.69
412.249	460.69
412.472	463.69
412.695	463.69
412.919	460.69
413.142	444.69
413.365	416.69
413.589	428.69
413.812	419.69
414.035	448.69
414.258	414.69
414.482	432.69
414.705	429.69
414.928	438.69
415.151	420.69
415.374	412.69
415.597	414.69
415.821	418.69
416.044	399.69
416.267	425.69
416.49	421.69
416.713	414.69
416.936	435.69
417.159	413.69
417.382	419.69
417.605	439.69
417.828	440.69
418.051	442.69
418.274	447.69
418.497	424.69
418.72	439.69
418.943	435.69
419.166	456.69
419.389	451.69
419.611	462.69
419.834	441.69
420.057	441.69
420.28	436.69
420.503	432.69
420.726	433.69
420.948	424.69
421.171	429.69
421.394	469.69
421.617	419.69
421.839	432.69
422.062	441.69
422.285	435.69
422.507	476.69
422.73	527.69
422.953	493.69
423.175	467.69
423.398	462.69
423.621	461.69
423.843	481.69
424.066	459.69
424.288	458.69
424.511	456.69
424.733	494.69
424.956	534.69
425.178	504.69
425.401	498.69
425.623	509.69
425.846	455.69
426.068	421.69
426.291	416.69
426.513	437.69
426.735	440.69
426.958	471.69
427.18	470.69
427.402	552.69
427.625	595.69
427.847	527.69
428.069	462.69
428.292	425.69
428.514	421.69
428.736	388.69
428.958	406.69
429.181	378.69
429.403	394.69
429.625	382.69
429.847	427.69
430.069	464.69
430.292	456.69
430.514	412.69
430.736	398.69
430.958	415.69
431.18	381.69
431.402	389.69
431.624	388.69
431.846	388.69
432.068	401.69
432.29	402.69
432.512	391.69
432.734	413.69
432.956	393.69
433.178	394.69
433.4	404.69
433.622	402.69
433.844	396.69
434.066	417.69
434.287	381.69
434.509	408.69
434.731	429.69
434.953	432.69
435.175	431.69
435.397	454.69
435.618	462.69
435.84	477.69
436.062	495.69
436.284	525.69
436.505	468.69
436.727	440.69
436.949	426.69
437.17	405.69
437.392	412.69
437.614	409.69
437.835	424.69
438.057	484.69
438.278	513.69
438.5	514.69
438.721	552.69
438.943	518.69
439.165	446.69
439.386	415.69
439.608	414.69
439.829	419.69
440.05	447.69
440.272	461.69
440.493	445.69
440.715	448.69
440.936	426.69
441.158	441.69
441.379	425.69
441.6	445.69
441.822	454.69
442.043	472.69
442.264	489.69
442.486	512.69
442.707	477.69
442.928	464.69
443.149	457.69
443.371	461.69
443.592	501.69
443.813	557.69
444.034	576.69
444.255	488.69
444.476	476.69
444.698	479.69
444.919	485.69
445.14	559.69
445.361	534.69
445.582	469.69
445.803	487.69
446.024	547.69
446.245	531.69
446.466	519.69
446.687	461.69
446.908	435.69
447.129	413.69
447.35	413.69
447.571	396.69
447.792	402.69
448.013	390.69
448.234	406.69
448.455	408.69
448.675	512.69
448.896	554.69
449.117	468.69
449.338	453.69
449.559	526.69
449.779	567.69
450	474.69
450.221	398.69
450.442	409.69
450.662	393.69
450.883	390.69
451.104	389.69
451.324	373.69
451.545	381.69
451.766	378.69
451.986	368.69
452.207	364.69
452.428	365.69
452.648	368.69
452.869	364.69
453.089	361.69
453.31	382.69
453.53	361.69
453.751	337.69
453.971	364.69
454.192	364.69
454.412	363.69
454.633	333.69
454.853	363.69
455.073	365.69
455.294	360.69
455.514	423.69
455.734	415.69
455.955	348.69
456.175	352.69
456.395	341.69
456.616	344.69
456.836	364.69
457.056	341.69
457.276	341.69
457.497	350.69
457.717	349.69
457.937	352.69
458.157	332.69
458.377	368.69
458.598	386.69
458.818	405.69
459.038	427.69
459.258	442.69
459.478	401.69
459.698	388.69
459.918	420.69
460.138	430.69
460.358	416.69
460.578	413.69
460.798	416.69
461.018	436.69
461.238	419.69
461.458	421.69
461.678	418.69
461.898	416.69
462.118	435.69
462.338	437.69
462.558	450.69
462.777	458.69
462.997	486.69
463.217	517.69
463.437	475.69
463.657	469.69
463.876	477.69
464.096	473.69
464.316	468.69
464.536	462.69
464.755	463.69
464.975	451.69
465.195	463.69
465.414	480.69
465.634	427.69
465.854	407.69
466.073	395.69
466.293	406.69
466.512	415.69
466.732	349.69
466.951	372.69
467.171	379.69
467.391	371.69
467.61	390.69
467.829	382.69
468.049	387.69
468.268	381.69
468.488	377.69
468.707	384.69
468.927	367.69
469.146	372.69
469.365	371.69
469.585	374.69
469.804	380.69
470.023	381.69
470.243	385.69
470.462	404.69
470.681	415.69
470.901	388.69
471.12	381.69
471.339	389.69
471.558	375.69
471.777	407.69
471.997	377.69
472.216	381.69
472.435	405.69
472.654	389.69
472.873	347.69
473.092	387.69
473.311	371.69
473.53	352.69
473.749	385.69
473.968	411.69
474.187	444.69
474.406	447.69
474.625	397.69
474.844	392.69
475.063	375.69
475.282	383.69
475.501	378.69
475.72	384.69
475.939	383.69
476.158	373.69
476.377	408.69
476.596	405.69
476.814	398.69
477.033	380.69
477.252	406.69
477.471	389.69
477.69	411.69
477.908	429.69
478.127	427.69
478.346	416.69
478.564	401.69
478.783	437.69
479.002	440.69
479.22	444.69
479.439	452.69
479.658	455.69
479.876	457.69
480.095	474.69
480.313	476.69
480.532	464.69
480.751	488.69
480.969	475.69
481.188	503.69
481.406	515.69
481.624	478.69
481.843	439.69
482.061	419.69
482.28	440.69
482.498	433.69
482.717	422.69
482.935	422.69
483.153	432.69
483.372	457.69
483.59	446.69
483.808	419.69
484.027	445.69
484.245	446.69
484.463	436.69
484.681	457.69
484.9	465.69
485.118	428.69
485.336	416.69
485.554	438.69
485.772	436.69
485.99	441.69
486.209	449.69
486.427	432.69
486.645	444.69
486.863	493.69
487.081	481.69
487.299	453.69
487.517	470.69
487.735	452.69
487.953	454.69
488.171	476.69
488.389	467.69
488.607	439.69
488.825	455.69
489.043	465.69
489.261	455.69
489.479	454.69
489.696	465.69
489.914	465.69
490.132	476.69
490.35	477.69
490.568	501.69
490.786	487.69
491.003	499.69
491.221	489.69
491.439	519.69
491.657	507.69
491.874	527.69
492.092	531.69
492.31	550.69
492.527	532.69
492.745	523.69
492.963	532.69
493.18	530.69
493.398	554.69
493.615	552.69
493.833	556.69
494.05	540.69
494.268	535.69
494.485	502.69
494.703	543.69
494.92	552.69
495.138	552.69
495.355	543.69
495.573	547.69
495.79	539.69
496.008	529.69
496.225	554.69
496.442	549.69
496.66	549.69
496.877	543.69
497.094	544.69
497.312	540.69
497.529	575.69
497.746	583.69
497.963	598.69
498.181	599.69
498.398	636.69
498.615	607.69
498.832	633.69
499.049	675.69
499.267	699.69
499.484	739.69
499.701	787.69
499.918	844.69
500.135	905.69
500.352	971.69
500.569	982.69
500.786	935.69
501.003	923.69
501.22	886.69
501.437	797.69
501.654	764.69
501.871	761.69
502.088	725.69
502.305	649.69
