Data from 1969.PennyLincolnUp.Lamp.En5.5.200Scan.071719.P1._HRD10591_14-54-43-972.txt Node
Date: Thu Jul 18 14:54:43 EDT 2019
User: cochatt
Spectrometer: HR+D1059
Trigger mode: 1
Integration Time (sec): 1.000000E-1
Scans to average: 1
Electric dark correction enabled: true
Nonlinearity correction enabled: false
Boxcar width: 0
XAxis mode: Wavelengths
Number of Pixels in Spectrum: 2048
>>>>>Begin Spectral Data<<<<<
223.165	-10.12
223.4	-10.12
223.635	-10.12
223.869	-20.12
224.104	-23.12
224.338	-18.12
224.573	-2.12
224.808	-21.12
225.042	-2.12
225.277	-7.12
225.511	-5.12
225.746	-4.12
225.98	17.88
226.215	0.88
226.449	8.88
226.683	25.88
226.918	34.88
227.152	24.88
227.387	44.88
227.621	54.88
227.856	47.88
228.09	38.88
228.324	54.88
228.559	61.88
228.793	49.88
229.027	71.88
229.262	98.88
229.496	96.88
229.73	106.88
229.964	113.88
230.199	93.88
230.433	106.88
230.667	98.88
230.901	99.88
231.136	106.88
231.37	113.88
231.604	100.88
231.838	110.88
232.072	103.88
232.306	120.88
232.541	110.88
232.775	93.88
233.009	111.88
233.243	112.88
233.477	108.88
233.711	104.88
233.945	116.88
234.179	113.88
234.413	109.88
234.647	97.88
234.881	106.88
235.115	113.88
235.349	107.88
235.583	117.88
235.817	114.88
236.051	126.88
236.285	125.88
236.519	117.88
236.753	109.88
236.987	116.88
237.221	144.88
237.455	169.88
237.689	131.88
237.922	119.88
238.156	121.88
238.39	121.88
238.624	111.88
238.858	116.88
239.091	108.88
239.325	116.88
239.559	103.88
239.793	108.88
240.027	120.88
240.26	128.88
240.494	127.88
240.728	139.88
240.961	138.88
241.195	122.88
241.429	118.88
241.662	119.88
241.896	126.88
242.13	120.88
242.363	118.88
242.597	132.88
242.83	109.88
243.064	118.88
243.298	119.88
243.531	132.88
243.765	127.88
243.998	118.88
244.232	122.88
244.465	125.88
244.699	131.88
244.932	132.88
245.166	132.88
245.399	132.88
245.633	139.88
245.866	147.88
246.099	130.88
246.333	105.88
246.566	124.88
246.8	129.88
247.033	145.88
247.266	131.88
247.5	140.88
247.733	152.88
247.966	144.88
248.2	154.88
248.433	146.88
248.666	153.88
248.899	164.88
249.133	171.88
249.366	152.88
249.599	152.88
249.832	142.88
250.066	156.88
250.299	156.88
250.532	161.88
250.765	169.88
250.998	173.88
251.231	187.88
251.465	164.88
251.698	162.88
251.931	172.88
252.164	161.88
252.397	164.88
252.63	159.88
252.863	169.88
253.096	173.88
253.329	177.88
253.562	177.88
253.795	180.88
254.028	182.88
254.261	182.88
254.494	185.88
254.727	205.88
254.96	219.88
255.193	207.88
255.426	196.88
255.659	185.88
255.892	192.88
256.124	197.88
256.357	199.88
256.59	195.88
256.823	185.88
257.056	167.88
257.289	183.88
257.521	177.88
257.754	172.88
257.987	175.88
258.22	187.88
258.452	157.88
258.685	184.88
258.918	174.88
259.151	184.88
259.383	189.88
259.616	172.88
259.849	184.88
260.081	202.88
260.314	207.88
260.547	207.88
260.779	189.88
261.012	209.88
261.244	186.88
261.477	205.88
261.71	193.88
261.942	195.88
262.175	193.88
262.407	171.88
262.64	190.88
262.872	195.88
263.105	189.88
263.337	194.88
263.57	175.88
263.802	167.88
264.035	171.88
264.267	197.88
264.499	173.88
264.732	181.88
264.964	180.88
265.197	184.88
265.429	199.88
265.661	175.88
265.894	186.88
266.126	190.88
266.358	182.88
266.591	180.88
266.823	197.88
267.055	199.88
267.287	204.88
267.52	196.88
267.752	196.88
267.984	197.88
268.216	205.88
268.448	208.88
268.681	207.88
268.913	200.88
269.145	230.88
269.377	218.88
269.609	234.88
269.841	224.88
270.073	221.88
270.306	249.88
270.538	246.88
270.77	245.88
271.002	235.88
271.234	220.88
271.466	220.88
271.698	237.88
271.93	236.88
272.162	238.88
272.394	246.88
272.626	237.88
272.858	219.88
273.09	219.88
273.322	239.88
273.553	217.88
273.785	223.88
274.017	217.88
274.249	222.88
274.481	228.88
274.713	216.88
274.945	226.88
275.176	216.88
275.408	214.88
275.64	230.88
275.872	219.88
276.104	215.88
276.335	225.88
276.567	225.88
276.799	229.88
277.031	251.88
277.262	250.88
277.494	261.88
277.726	248.88
277.957	237.88
278.189	236.88
278.421	233.88
278.652	239.88
278.884	242.88
279.115	240.88
279.347	228.88
279.579	224.88
279.81	246.88
280.042	233.88
280.273	221.88
280.505	229.88
280.736	244.88
280.968	230.88
281.199	240.88
281.431	215.88
281.662	240.88
281.894	240.88
282.125	245.88
282.356	234.88
282.588	238.88
282.819	243.88
283.051	238.88
283.282	233.88
283.513	236.88
283.745	242.88
283.976	233.88
284.207	233.88
284.439	242.88
284.67	254.88
284.901	241.88
285.132	260.88
285.364	247.88
285.595	256.88
285.826	233.88
286.057	242.88
286.288	264.88
286.52	253.88
286.751	244.88
286.982	239.88
287.213	256.88
287.444	237.88
287.675	260.88
287.906	255.88
288.138	255.88
288.369	268.88
288.6	260.88
288.831	257.88
289.062	249.88
289.293	262.88
289.524	253.88
289.755	250.88
289.986	260.88
290.217	248.88
290.448	260.88
290.679	270.88
290.91	282.88
291.141	263.88
291.371	246.88
291.602	254.88
291.833	266.88
292.064	240.88
292.295	248.88
292.526	260.88
292.757	262.88
292.987	275.88
293.218	249.88
293.449	276.88
293.68	265.88
293.91	248.88
294.141	270.88
294.372	269.88
294.603	278.88
294.833	242.88
295.064	264.88
295.295	254.88
295.525	250.88
295.756	266.88
295.987	270.88
296.217	265.88
296.448	277.88
296.679	266.88
296.909	256.88
297.14	257.88
297.37	275.88
297.601	279.88
297.831	272.88
298.062	273.88
298.292	296.88
298.523	285.88
298.753	265.88
298.984	279.88
299.214	257.88
299.445	266.88
299.675	282.88
299.905	296.88
300.136	291.88
300.366	275.88
300.597	264.88
300.827	297.88
301.057	286.88
301.288	282.88
301.518	289.88
301.748	281.88
301.979	280.88
302.209	284.88
302.439	288.88
302.669	278.88
302.9	279.88
303.13	287.88
303.36	284.88
303.59	270.88
303.82	281.88
304.051	288.88
304.281	288.88
304.511	289.88
304.741	287.88
304.971	286.88
305.201	286.88
305.431	272.88
305.661	297.88
305.891	292.88
306.121	287.88
306.352	271.88
306.582	295.88
306.812	270.88
307.042	288.88
307.272	298.88
307.502	282.88
307.731	279.88
307.961	288.88
308.191	301.88
308.421	297.88
308.651	277.88
308.881	278.88
309.111	292.88
309.341	312.88
309.571	311.88
309.8	311.88
310.03	280.88
310.26	312.88
310.49	305.88
310.72	301.88
310.949	312.88
311.179	305.88
311.409	311.88
311.639	305.88
311.868	289.88
312.098	296.88
312.328	304.88
312.557	311.88
312.787	322.88
313.017	330.88
313.246	317.88
313.476	294.88
313.706	311.88
313.935	310.88
314.165	329.88
314.394	333.88
314.624	311.88
314.853	324.88
315.083	314.88
315.312	313.88
315.542	329.88
315.771	324.88
316.001	320.88
316.23	314.88
316.46	329.88
316.689	312.88
316.919	318.88
317.148	321.88
317.377	326.88
317.607	308.88
317.836	304.88
318.065	303.88
318.295	321.88
318.524	318.88
318.753	313.88
318.983	336.88
319.212	312.88
319.441	324.88
319.67	319.88
319.9	316.88
320.129	338.88
320.358	322.88
320.587	314.88
320.816	330.88
321.046	332.88
321.275	313.88
321.504	308.88
321.733	326.88
321.962	324.88
322.191	328.88
322.42	319.88
322.649	344.88
322.878	322.88
323.108	344.88
323.337	363.88
323.566	376.88
323.795	381.88
324.024	392.88
324.253	449.88
324.482	568.88
324.71	837.88
324.939	1090.88
325.168	893.88
325.397	497.88
325.626	398.88
325.855	384.88
326.084	366.88
326.313	362.88
326.542	356.88
326.77	384.88
326.999	422.88
327.228	548.88
327.457	722.88
327.686	819.88
327.914	576.88
328.143	450.88
328.372	404.88
328.6	407.88
328.829	398.88
329.058	390.88
329.287	406.88
329.515	393.88
329.744	381.88
329.972	398.88
330.201	375.88
330.43	410.88
330.658	427.88
330.887	432.88
331.115	419.88
331.344	370.88
331.572	374.88
331.801	391.88
332.03	388.88
332.258	392.88
332.486	374.88
332.715	380.88
332.943	380.88
333.172	405.88
333.4	408.88
333.629	422.88
333.857	398.88
334.085	408.88
334.314	438.88
334.542	433.88
334.771	455.88
334.999	400.88
335.227	390.88
335.455	393.88
335.684	400.88
335.912	389.88
336.14	384.88
336.369	374.88
336.597	375.88
336.825	383.88
337.053	389.88
337.281	356.88
337.51	365.88
337.738	361.88
337.966	374.88
338.194	402.88
338.422	357.88
338.65	350.88
338.878	358.88
339.106	362.88
339.334	344.88
339.562	345.88
339.79	336.88
340.018	338.88
340.246	351.88
340.474	349.88
340.702	379.88
340.93	349.88
341.158	363.88
341.386	341.88
341.614	359.88
341.842	340.88
342.07	346.88
342.298	354.88
342.526	336.88
342.754	344.88
342.981	350.88
343.209	345.88
343.437	376.88
343.665	369.88
343.893	388.88
344.12	375.88
344.348	375.88
344.576	360.88
344.804	380.88
345.031	367.88
345.259	374.88
345.487	347.88
345.714	351.88
345.942	335.88
346.17	338.88
346.397	342.88
346.625	343.88
346.853	327.88
347.08	326.88
347.308	333.88
347.535	333.88
347.763	352.88
347.99	343.88
348.218	333.88
348.445	356.88
348.673	337.88
348.9	349.88
349.128	326.88
349.355	302.88
349.583	334.88
349.81	345.88
350.037	333.88
350.265	330.88
350.492	319.88
350.72	342.88
350.947	324.88
351.174	321.88
351.402	342.88
351.629	350.88
351.856	344.88
352.083	341.88
352.311	355.88
352.538	341.88
352.765	324.88
352.992	347.88
353.22	331.88
353.447	320.88
353.674	325.88
353.901	344.88
354.128	335.88
354.355	330.88
354.583	298.88
354.81	312.88
355.037	314.88
355.264	315.88
355.491	330.88
355.718	320.88
355.945	326.88
356.172	310.88
356.399	318.88
356.626	304.88
356.853	301.88
357.08	319.88
357.307	329.88
357.534	313.88
357.761	333.88
357.988	333.88
358.215	315.88
358.441	331.88
358.668	312.88
358.895	319.88
359.122	310.88
359.349	332.88
359.576	324.88
359.802	329.88
360.029	351.88
360.256	356.88
360.483	342.88
360.709	331.88
360.936	346.88
361.163	326.88
361.39	345.88
361.616	329.88
361.843	324.88
362.07	337.88
362.296	315.88
362.523	332.88
362.749	310.88
362.976	324.88
363.203	322.88
363.429	331.88
363.656	315.88
363.882	325.88
364.109	308.88
364.335	330.88
364.562	318.88
364.788	311.88
365.015	330.88
365.241	321.88
365.468	327.88
365.694	318.88
365.92	328.88
366.147	312.88
366.373	332.88
366.599	325.88
366.826	316.88
367.052	304.88
367.278	338.88
367.505	318.88
367.731	331.88
367.957	332.88
368.184	313.88
368.41	324.88
368.636	336.88
368.862	350.88
369.089	326.88
369.315	324.88
369.541	329.88
369.767	334.88
369.993	322.88
370.219	330.88
370.445	317.88
370.672	330.88
370.898	334.88
371.124	317.88
371.35	329.88
371.576	321.88
371.802	319.88
372.028	296.88
372.254	321.88
372.48	328.88
372.706	327.88
372.932	340.88
373.158	349.88
373.384	351.88
373.61	319.88
373.835	319.88
374.061	332.88
374.287	315.88
374.513	330.88
374.739	357.88
374.965	338.88
375.191	360.88
375.416	359.88
375.642	340.88
375.868	364.88
376.094	317.88
376.319	331.88
376.545	314.88
376.771	324.88
376.997	344.88
377.222	333.88
377.448	326.88
377.674	335.88
377.899	335.88
378.125	342.88
378.35	332.88
378.576	327.88
378.802	341.88
379.027	317.88
379.253	331.88
379.478	341.88
379.704	309.88
379.929	310.88
380.155	362.88
380.38	336.88
380.606	344.88
380.831	346.88
381.057	319.88
381.282	333.88
381.507	318.88
381.733	331.88
381.958	344.88
382.184	353.88
382.409	321.88
382.634	326.88
382.86	343.88
383.085	330.88
383.31	335.88
383.535	362.88
383.761	336.88
383.986	346.88
384.211	346.88
384.436	355.88
384.662	351.88
384.887	363.88
385.112	380.88
385.337	366.88
385.562	367.88
385.787	355.88
386.013	362.88
386.238	363.88
386.463	369.88
386.688	364.88
386.913	362.88
387.138	366.88
387.363	354.88
387.588	377.88
387.813	367.88
388.038	355.88
388.263	376.88
388.488	370.88
388.713	378.88
388.938	359.88
389.163	359.88
389.387	364.88
389.612	335.88
389.837	361.88
390.062	343.88
390.287	368.88
390.512	361.88
390.736	379.88
390.961	380.88
391.186	381.88
391.411	362.88
391.636	371.88
391.86	383.88
392.085	405.88
392.31	394.88
392.534	392.88
392.759	396.88
392.984	401.88
393.208	356.88
393.433	392.88
393.658	381.88
393.882	361.88
394.107	369.88
394.331	374.88
394.556	388.88
394.78	370.88
395.005	372.88
395.229	383.88
395.454	406.88
395.678	390.88
395.903	416.88
396.127	404.88
396.352	389.88
396.576	383.88
396.801	391.88
397.025	369.88
397.249	386.88
397.474	400.88
397.698	391.88
397.922	406.88
398.147	403.88
398.371	403.88
398.595	413.88
398.82	412.88
399.044	453.88
399.268	464.88
399.492	520.88
399.717	548.88
399.941	564.88
400.165	542.88
400.389	508.88
400.613	474.88
400.837	421.88
401.062	432.88
401.286	442.88
401.51	424.88
401.734	422.88
401.958	430.88
402.182	427.88
402.406	436.88
402.63	462.88
402.854	430.88
403.078	440.88
403.302	455.88
403.526	441.88
403.75	446.88
403.974	486.88
404.198	443.88
404.422	472.88
404.645	466.88
404.869	460.88
405.093	479.88
405.317	510.88
405.541	504.88
405.765	477.88
405.988	454.88
406.212	466.88
406.436	472.88
406.66	466.88
406.883	463.88
407.107	495.88
407.331	546.88
407.555	561.88
407.778	550.88
408.002	528.88
408.226	518.88
408.449	486.88
408.673	472.88
408.896	488.88
409.12	502.88
409.344	490.88
409.567	460.88
409.791	425.88
410.014	429.88
410.238	453.88
410.461	457.88
410.685	450.88
410.908	461.88
411.132	463.88
411.355	472.88
411.578	464.88
411.802	449.88
412.025	431.88
412.249	441.88
412.472	455.88
412.695	449.88
412.919	448.88
413.142	433.88
413.365	438.88
413.589	440.88
413.812	429.88
414.035	423.88
414.258	412.88
414.482	417.88
414.705	426.88
414.928	425.88
415.151	408.88
415.374	436.88
415.597	422.88
415.821	404.88
416.044	425.88
416.267	399.88
416.49	433.88
416.713	411.88
416.936	417.88
417.159	416.88
417.382	433.88
417.605	424.88
417.828	414.88
418.051	444.88
418.274	432.88
418.497	413.88
418.72	429.88
418.943	438.88
419.166	444.88
419.389	438.88
419.611	468.88
419.834	444.88
420.057	443.88
420.28	429.88
420.503	442.88
420.726	432.88
420.948	410.88
421.171	458.88
421.394	492.88
421.617	432.88
421.839	418.88
422.062	444.88
422.285	428.88
422.507	477.88
422.73	515.88
422.953	462.88
423.175	448.88
423.398	449.88
423.621	460.88
423.843	475.88
424.066	445.88
424.288	462.88
424.511	465.88
424.733	513.88
424.956	515.88
425.178	523.88
425.401	491.88
425.623	500.88
425.846	460.88
426.068	447.88
426.291	437.88
426.513	441.88
426.735	438.88
426.958	481.88
427.18	495.88
427.402	552.88
427.625	590.88
427.847	512.88
428.069	481.88
428.292	451.88
428.514	398.88
428.736	428.88
428.958	410.88
429.181	422.88
429.403	390.88
429.625	409.88
429.847	444.88
430.069	463.88
430.292	431.88
430.514	384.88
430.736	397.88
430.958	406.88
431.18	410.88
431.402	402.88
431.624	418.88
431.846	382.88
432.068	394.88
432.29	403.88
432.512	388.88
432.734	398.88
432.956	395.88
433.178	386.88
433.4	417.88
433.622	401.88
433.844	402.88
434.066	400.88
434.287	372.88
434.509	401.88
434.731	420.88
434.953	408.88
435.175	432.88
435.397	448.88
435.618	446.88
435.84	446.88
436.062	505.88
436.284	496.88
436.505	464.88
436.727	440.88
436.949	391.88
437.17	396.88
437.392	389.88
437.614	401.88
437.835	426.88
438.057	446.88
438.278	511.88
438.5	502.88
438.721	534.88
438.943	540.88
439.165	442.88
439.386	438.88
439.608	441.88
439.829	439.88
440.05	413.88
440.272	430.88
440.493	463.88
440.715	420.88
440.936	434.88
441.158	432.88
441.379	449.88
441.6	430.88
441.822	433.88
442.043	459.88
442.264	505.88
442.486	516.88
442.707	460.88
442.928	434.88
443.149	444.88
443.371	456.88
443.592	500.88
443.813	535.88
444.034	561.88
444.255	492.88
444.476	484.88
444.698	464.88
444.919	463.88
445.14	582.88
445.361	542.88
445.582	487.88
445.803	507.88
446.024	534.88
446.245	546.88
446.466	496.88
446.687	450.88
446.908	430.88
447.129	404.88
447.35	378.88
447.571	389.88
447.792	392.88
448.013	386.88
448.234	412.88
448.455	410.88
448.675	482.88
448.896	508.88
449.117	459.88
449.338	455.88
449.559	503.88
449.779	553.88
450	487.88
450.221	415.88
450.442	392.88
450.662	388.88
450.883	384.88
451.104	393.88
451.324	390.88
451.545	392.88
451.766	372.88
451.986	353.88
452.207	357.88
452.428	366.88
452.648	367.88
452.869	357.88
453.089	384.88
453.31	376.88
453.53	386.88
453.751	365.88
453.971	353.88
454.192	368.88
454.412	380.88
454.633	368.88
454.853	345.88
455.073	356.88
455.294	369.88
455.514	415.88
455.734	382.88
455.955	360.88
456.175	345.88
456.395	343.88
456.616	352.88
456.836	352.88
457.056	349.88
457.276	335.88
457.497	353.88
457.717	343.88
457.937	359.88
458.157	364.88
458.377	348.88
458.598	364.88
458.818	376.88
459.038	439.88
459.258	480.88
459.478	431.88
459.698	402.88
459.918	393.88
460.138	400.88
460.358	418.88
460.578	425.88
460.798	454.88
461.018	449.88
461.238	423.88
461.458	432.88
461.678	413.88
461.898	442.88
462.118	432.88
462.338	429.88
462.558	453.88
462.777	444.88
462.997	488.88
463.217	493.88
463.437	488.88
463.657	461.88
463.876	448.88
464.096	471.88
464.316	470.88
464.536	455.88
464.755	444.88
464.975	447.88
465.195	434.88
465.414	462.88
465.634	440.88
465.854	410.88
466.073	411.88
466.293	391.88
466.512	387.88
466.732	378.88
466.951	397.88
467.171	365.88
467.391	378.88
467.61	400.88
467.829	380.88
468.049	384.88
468.268	401.88
468.488	381.88
468.707	366.88
468.927	380.88
469.146	381.88
469.365	399.88
469.585	382.88
469.804	378.88
470.023	386.88
470.243	389.88
470.462	400.88
470.681	392.88
470.901	390.88
471.12	393.88
471.339	394.88
471.558	379.88
471.777	381.88
471.997	381.88
472.216	390.88
472.435	416.88
472.654	397.88
472.873	394.88
473.092	380.88
473.311	366.88
473.53	359.88
473.749	374.88
473.968	406.88
474.187	457.88
474.406	461.88
474.625	402.88
474.844	381.88
475.063	388.88
475.282	384.88
475.501	395.88
475.72	380.88
475.939	378.88
476.158	361.88
476.377	392.88
476.596	386.88
476.814	398.88
477.033	393.88
477.252	397.88
477.471	397.88
477.69	418.88
477.908	416.88
478.127	423.88
478.346	417.88
478.564	427.88
478.783	422.88
479.002	451.88
479.22	430.88
479.439	447.88
479.658	460.88
479.876	456.88
480.095	445.88
480.313	476.88
480.532	475.88
480.751	474.88
480.969	480.88
481.188	490.88
481.406	518.88
481.624	474.88
481.843	458.88
482.061	458.88
482.28	440.88
482.498	443.88
482.717	436.88
482.935	432.88
483.153	418.88
483.372	415.88
483.59	431.88
483.808	443.88
484.027	430.88
484.245	426.88
484.463	455.88
484.681	431.88
484.9	433.88
485.118	445.88
485.336	456.88
485.554	450.88
485.772	446.88
485.99	430.88
486.209	449.88
486.427	459.88
486.645	434.88
486.863	479.88
487.081	456.88
487.299	454.88
487.517	472.88
487.735	459.88
487.953	459.88
488.171	474.88
488.389	468.88
488.607	466.88
488.825	461.88
489.043	464.88
489.261	469.88
489.479	458.88
489.696	454.88
489.914	483.88
490.132	487.88
490.35	461.88
490.568	486.88
490.786	511.88
491.003	500.88
491.221	522.88
491.439	521.88
491.657	508.88
491.874	505.88
492.092	509.88
492.31	534.88
492.527	524.88
492.745	538.88
492.963	528.88
493.18	548.88
493.398	541.88
493.615	524.88
493.833	556.88
494.05	546.88
494.268	546.88
494.485	551.88
494.703	542.88
494.92	530.88
495.138	555.88
495.355	535.88
495.573	525.88
495.79	549.88
496.008	524.88
496.225	536.88
496.442	568.88
496.66	534.88
496.877	540.88
497.094	565.88
497.312	548.88
497.529	587.88
497.746	574.88
497.963	594.88
498.181	617.88
498.398	638.88
498.615	632.88
498.832	677.88
499.049	659.88
499.267	714.88
499.484	726.88
499.701	786.88
499.918	828.88
500.135	882.88
500.352	961.88
500.569	973.88
500.786	975.88
501.003	933.88
501.22	862.88
501.437	833.88
501.654	793.88
501.871	750.88
502.088	714.88
