Data from 1969.PennyLincolnUp.Lamp.En5.5.200Scan.071719.P1._HRD10591_14-54-08-971.txt Node
Date: Thu Jul 18 14:54:08 EDT 2019
User: cochatt
Spectrometer: HR+D1059
Trigger mode: 1
Integration Time (sec): 1.000000E-1
Scans to average: 1
Electric dark correction enabled: true
Nonlinearity correction enabled: false
Boxcar width: 0
XAxis mode: Wavelengths
Number of Pixels in Spectrum: 2048
>>>>>Begin Spectral Data<<<<<
223.165	-17.5
223.4	-17.5
223.635	-17.5
223.869	-16.5
224.104	-11.5
224.338	-17.5
224.573	-13.5
224.808	-4.5
225.042	-14.5
225.277	-10.5
225.511	-2.5
225.746	-4.5
225.98	4.5
226.215	7.5
226.449	15.5
226.683	30.5
226.918	33.5
227.152	21.5
227.387	30.5
227.621	26.5
227.856	38.5
228.09	39.5
228.324	44.5
228.559	58.5
228.793	54.5
229.027	72.5
229.262	85.5
229.496	79.5
229.73	87.5
229.964	118.5
230.199	93.5
230.433	92.5
230.667	101.5
230.901	84.5
231.136	100.5
231.37	103.5
231.604	107.5
231.838	102.5
232.072	98.5
232.306	98.5
232.541	97.5
232.775	102.5
233.009	105.5
233.243	106.5
233.477	94.5
233.711	113.5
233.945	113.5
234.179	109.5
234.413	100.5
234.647	98.5
234.881	107.5
235.115	99.5
235.349	101.5
235.583	97.5
235.817	117.5
236.051	115.5
236.285	98.5
236.519	101.5
236.753	106.5
236.987	111.5
237.221	131.5
237.455	167.5
237.689	117.5
237.922	121.5
238.156	101.5
238.39	118.5
238.624	94.5
238.858	111.5
239.091	114.5
239.325	121.5
239.559	122.5
239.793	109.5
240.027	102.5
240.26	113.5
240.494	137.5
240.728	122.5
240.961	117.5
241.195	118.5
241.429	126.5
241.662	115.5
241.896	112.5
242.13	111.5
242.363	125.5
242.597	119.5
242.83	117.5
243.064	129.5
243.298	107.5
243.531	110.5
243.765	124.5
243.998	131.5
244.232	113.5
244.465	118.5
244.699	127.5
244.932	132.5
245.166	115.5
245.399	130.5
245.633	131.5
245.866	127.5
246.099	126.5
246.333	130.5
246.566	133.5
246.8	131.5
247.033	129.5
247.266	124.5
247.5	135.5
247.733	131.5
247.966	144.5
248.2	145.5
248.433	135.5
248.666	139.5
248.899	149.5
249.133	151.5
249.366	156.5
249.599	163.5
249.832	144.5
250.066	157.5
250.299	155.5
250.532	150.5
250.765	167.5
250.998	165.5
251.231	167.5
251.465	159.5
251.698	162.5
251.931	156.5
252.164	156.5
252.397	153.5
252.63	162.5
252.863	169.5
253.096	174.5
253.329	167.5
253.562	177.5
253.795	166.5
254.028	167.5
254.261	168.5
254.494	175.5
254.727	183.5
254.96	195.5
255.193	179.5
255.426	156.5
255.659	168.5
255.892	158.5
256.124	181.5
256.357	186.5
256.59	176.5
256.823	179.5
257.056	160.5
257.289	158.5
257.521	158.5
257.754	165.5
257.987	166.5
258.22	169.5
258.452	151.5
258.685	149.5
258.918	175.5
259.151	163.5
259.383	176.5
259.616	164.5
259.849	171.5
260.081	180.5
260.314	179.5
260.547	198.5
260.779	175.5
261.012	163.5
261.244	187.5
261.477	170.5
261.71	185.5
261.942	161.5
262.175	175.5
262.407	177.5
262.64	162.5
262.872	169.5
263.105	177.5
263.337	159.5
263.57	179.5
263.802	173.5
264.035	166.5
264.267	164.5
264.499	171.5
264.732	145.5
264.964	187.5
265.197	167.5
265.429	180.5
265.661	159.5
265.894	177.5
266.126	181.5
266.358	183.5
266.591	169.5
266.823	176.5
267.055	171.5
267.287	191.5
267.52	181.5
267.752	181.5
267.984	196.5
268.216	183.5
268.448	183.5
268.681	186.5
268.913	198.5
269.145	203.5
269.377	208.5
269.609	223.5
269.841	209.5
270.073	204.5
270.306	211.5
270.538	224.5
270.77	223.5
271.002	241.5
271.234	206.5
271.466	220.5
271.698	208.5
271.93	225.5
272.162	216.5
272.394	223.5
272.626	211.5
272.858	214.5
273.09	213.5
273.322	218.5
273.553	200.5
273.785	198.5
274.017	206.5
274.249	202.5
274.481	185.5
274.713	206.5
274.945	200.5
275.176	213.5
275.408	199.5
275.64	207.5
275.872	216.5
276.104	221.5
276.335	193.5
276.567	211.5
276.799	219.5
277.031	228.5
277.262	231.5
277.494	222.5
277.726	213.5
277.957	216.5
278.189	217.5
278.421	205.5
278.652	214.5
278.884	217.5
279.115	220.5
279.347	227.5
279.579	222.5
279.81	214.5
280.042	205.5
280.273	212.5
280.505	213.5
280.736	211.5
280.968	184.5
281.199	220.5
281.431	211.5
281.662	214.5
281.894	212.5
282.125	222.5
282.356	227.5
282.588	234.5
282.819	220.5
283.051	220.5
283.282	237.5
283.513	246.5
283.745	228.5
283.976	239.5
284.207	229.5
284.439	226.5
284.67	234.5
284.901	221.5
285.132	238.5
285.364	233.5
285.595	231.5
285.826	233.5
286.057	230.5
286.288	240.5
286.52	232.5
286.751	234.5
286.982	221.5
287.213	223.5
287.444	252.5
287.675	236.5
287.906	246.5
288.138	255.5
288.369	237.5
288.6	233.5
288.831	247.5
289.062	235.5
289.293	257.5
289.524	247.5
289.755	225.5
289.986	241.5
290.217	228.5
290.448	228.5
290.679	250.5
290.91	245.5
291.141	216.5
291.371	229.5
291.602	247.5
291.833	232.5
292.064	237.5
292.295	250.5
292.526	227.5
292.757	228.5
292.987	233.5
293.218	237.5
293.449	244.5
293.68	236.5
293.91	225.5
294.141	228.5
294.372	242.5
294.603	246.5
294.833	254.5
295.064	268.5
295.295	236.5
295.525	236.5
295.756	257.5
295.987	243.5
296.217	264.5
296.448	256.5
296.679	241.5
296.909	233.5
297.14	259.5
297.37	248.5
297.601	253.5
297.831	239.5
298.062	262.5
298.292	255.5
298.523	243.5
298.753	258.5
298.984	262.5
299.214	252.5
299.445	263.5
299.675	245.5
299.905	257.5
300.136	267.5
300.366	252.5
300.597	271.5
300.827	267.5
301.057	259.5
301.288	269.5
301.518	273.5
301.748	251.5
301.979	261.5
302.209	266.5
302.439	278.5
302.669	280.5
302.9	278.5
303.13	262.5
303.36	279.5
303.59	271.5
303.82	277.5
304.051	290.5
304.281	275.5
304.511	259.5
304.741	262.5
304.971	257.5
305.201	264.5
305.431	270.5
305.661	278.5
305.891	285.5
306.121	270.5
306.352	270.5
306.582	284.5
306.812	273.5
307.042	254.5
307.272	270.5
307.502	254.5
307.731	281.5
307.961	267.5
308.191	278.5
308.421	263.5
308.651	282.5
308.881	275.5
309.111	285.5
309.341	276.5
309.571	302.5
309.8	288.5
310.03	272.5
310.26	303.5
310.49	283.5
310.72	284.5
310.949	283.5
311.179	287.5
311.409	281.5
311.639	287.5
311.868	301.5
312.098	287.5
312.328	263.5
312.557	317.5
312.787	306.5
313.017	297.5
313.246	287.5
313.476	272.5
313.706	307.5
313.935	293.5
314.165	316.5
314.394	309.5
314.624	309.5
314.853	309.5
315.083	301.5
315.312	309.5
315.542	297.5
315.771	286.5
316.001	298.5
316.23	303.5
316.46	300.5
316.689	301.5
316.919	281.5
317.148	299.5
317.377	308.5
317.607	300.5
317.836	268.5
318.065	307.5
318.295	308.5
318.524	304.5
318.753	293.5
318.983	309.5
319.212	297.5
319.441	287.5
319.67	299.5
319.9	301.5
320.129	300.5
320.358	313.5
320.587	310.5
320.816	324.5
321.046	320.5
321.275	317.5
321.504	326.5
321.733	306.5
321.962	303.5
322.191	309.5
322.42	321.5
322.649	324.5
322.878	326.5
323.108	309.5
323.337	322.5
323.566	335.5
323.795	338.5
324.024	357.5
324.253	409.5
324.482	513.5
324.71	719.5
324.939	942.5
325.168	760.5
325.397	463.5
325.626	380.5
325.855	356.5
326.084	339.5
326.313	324.5
326.542	343.5
326.77	378.5
326.999	403.5
327.228	480.5
327.457	647.5
327.686	730.5
327.914	508.5
328.143	387.5
328.372	360.5
328.6	366.5
328.829	357.5
329.058	373.5
329.287	369.5
329.515	372.5
329.744	359.5
329.972	366.5
330.201	355.5
330.43	375.5
330.658	376.5
330.887	374.5
331.115	372.5
331.344	364.5
331.572	342.5
331.801	342.5
332.03	349.5
332.258	362.5
332.486	362.5
332.715	359.5
332.943	354.5
333.172	383.5
333.4	383.5
333.629	388.5
333.857	382.5
334.085	392.5
334.314	419.5
334.542	405.5
334.771	413.5
334.999	373.5
335.227	380.5
335.455	362.5
335.684	384.5
335.912	367.5
336.14	355.5
336.369	345.5
336.597	373.5
336.825	363.5
337.053	356.5
337.281	339.5
337.51	348.5
337.738	352.5
337.966	346.5
338.194	339.5
338.422	362.5
338.65	333.5
338.878	326.5
339.106	338.5
339.334	343.5
339.562	342.5
339.79	327.5
340.018	330.5
340.246	336.5
340.474	331.5
340.702	323.5
340.93	333.5
341.158	318.5
341.386	337.5
341.614	321.5
341.842	339.5
342.07	305.5
342.298	321.5
342.526	329.5
342.754	306.5
342.981	322.5
343.209	326.5
343.437	347.5
343.665	374.5
343.893	357.5
344.12	357.5
344.348	365.5
344.576	357.5
344.804	343.5
345.031	347.5
345.259	349.5
345.487	327.5
345.714	337.5
345.942	315.5
346.17	322.5
346.397	313.5
346.625	315.5
346.853	315.5
347.08	307.5
347.308	319.5
347.535	336.5
347.763	322.5
347.99	342.5
348.218	318.5
348.445	330.5
348.673	318.5
348.9	303.5
349.128	315.5
349.355	322.5
349.583	309.5
349.81	329.5
350.037	296.5
350.265	309.5
350.492	299.5
350.72	313.5
350.947	296.5
351.174	326.5
351.402	307.5
351.629	302.5
351.856	319.5
352.083	308.5
352.311	301.5
352.538	319.5
352.765	324.5
352.992	307.5
353.22	303.5
353.447	309.5
353.674	298.5
353.901	297.5
354.128	294.5
354.355	299.5
354.583	302.5
354.81	296.5
355.037	298.5
355.264	312.5
355.491	303.5
355.718	289.5
355.945	300.5
356.172	298.5
356.399	291.5
356.626	301.5
356.853	300.5
357.08	299.5
357.307	291.5
357.534	287.5
357.761	297.5
357.988	288.5
358.215	285.5
358.441	311.5
358.668	291.5
358.895	305.5
359.122	305.5
359.349	314.5
359.576	326.5
359.802	308.5
360.029	339.5
360.256	350.5
360.483	316.5
360.709	302.5
360.936	318.5
361.163	305.5
361.39	312.5
361.616	309.5
361.843	298.5
362.07	281.5
362.296	320.5
362.523	308.5
362.749	319.5
362.976	312.5
363.203	316.5
363.429	294.5
363.656	298.5
363.882	316.5
364.109	300.5
364.335	296.5
364.562	306.5
364.788	311.5
365.015	305.5
365.241	324.5
365.468	329.5
365.694	319.5
365.92	327.5
366.147	313.5
366.373	305.5
366.599	304.5
366.826	297.5
367.052	296.5
367.278	291.5
367.505	294.5
367.731	305.5
367.957	303.5
368.184	330.5
368.41	302.5
368.636	304.5
368.862	335.5
369.089	311.5
369.315	294.5
369.541	305.5
369.767	313.5
369.993	297.5
370.219	310.5
370.445	311.5
370.672	300.5
370.898	307.5
371.124	293.5
371.35	303.5
371.576	310.5
371.802	296.5
372.028	308.5
372.254	312.5
372.48	312.5
372.706	299.5
372.932	318.5
373.158	315.5
373.384	319.5
373.61	315.5
373.835	304.5
374.061	311.5
374.287	329.5
374.513	316.5
374.739	318.5
374.965	337.5
375.191	332.5
375.416	341.5
375.642	326.5
375.868	312.5
376.094	327.5
376.319	338.5
376.545	331.5
376.771	315.5
376.997	308.5
377.222	319.5
377.448	307.5
377.674	306.5
377.899	323.5
378.125	312.5
378.35	317.5
378.576	315.5
378.802	325.5
379.027	310.5
379.253	315.5
379.478	326.5
379.704	305.5
379.929	313.5
380.155	309.5
380.38	306.5
380.606	315.5
380.831	316.5
381.057	311.5
381.282	299.5
381.507	311.5
381.733	321.5
381.958	321.5
382.184	321.5
382.409	297.5
382.634	314.5
382.86	331.5
383.085	345.5
383.31	327.5
383.535	313.5
383.761	330.5
383.986	333.5
384.211	341.5
384.436	330.5
384.662	332.5
384.887	358.5
385.112	342.5
385.337	340.5
385.562	346.5
385.787	353.5
386.013	359.5
386.238	355.5
386.463	358.5
386.688	355.5
386.913	339.5
387.138	335.5
387.363	338.5
387.588	337.5
387.813	337.5
388.038	353.5
388.263	341.5
388.488	338.5
388.713	352.5
388.938	343.5
389.163	350.5
389.387	357.5
389.612	322.5
389.837	357.5
390.062	348.5
390.287	347.5
390.512	337.5
390.736	340.5
390.961	342.5
391.186	364.5
391.411	365.5
391.636	375.5
391.86	363.5
392.085	366.5
392.31	382.5
392.534	377.5
392.759	371.5
392.984	350.5
393.208	351.5
393.433	369.5
393.658	339.5
393.882	349.5
394.107	342.5
394.331	365.5
394.556	367.5
394.78	351.5
395.005	331.5
395.229	354.5
395.454	359.5
395.678	374.5
395.903	369.5
396.127	370.5
396.352	375.5
396.576	352.5
396.801	373.5
397.025	362.5
397.249	375.5
397.474	368.5
397.698	389.5
397.922	391.5
398.147	380.5
398.371	392.5
398.595	398.5
398.82	396.5
399.044	434.5
399.268	437.5
399.492	487.5
399.717	527.5
399.941	526.5
400.165	497.5
400.389	501.5
400.613	466.5
400.837	429.5
401.062	421.5
401.286	418.5
401.51	390.5
401.734	397.5
401.958	407.5
402.182	405.5
402.406	414.5
402.63	427.5
402.854	436.5
403.078	419.5
403.302	423.5
403.526	406.5
403.75	444.5
403.974	455.5
404.198	442.5
404.422	449.5
404.645	443.5
404.869	434.5
405.093	446.5
405.317	467.5
405.541	451.5
405.765	461.5
405.988	453.5
406.212	454.5
406.436	443.5
406.66	470.5
406.883	443.5
407.107	477.5
407.331	491.5
407.555	527.5
407.778	525.5
408.002	486.5
408.226	479.5
408.449	467.5
408.673	442.5
408.896	467.5
409.12	466.5
409.344	456.5
409.567	442.5
409.791	424.5
410.014	436.5
410.238	403.5
410.461	422.5
410.685	424.5
410.908	436.5
411.132	436.5
411.355	459.5
411.578	461.5
411.802	428.5
412.025	413.5
412.249	441.5
412.472	447.5
412.695	462.5
412.919	426.5
413.142	410.5
413.365	419.5
413.589	422.5
413.812	398.5
414.035	398.5
414.258	396.5
414.482	416.5
414.705	404.5
414.928	406.5
415.151	401.5
415.374	400.5
415.597	387.5
415.821	411.5
416.044	393.5
416.267	383.5
416.49	395.5
416.713	406.5
416.936	385.5
417.159	404.5
417.382	390.5
417.605	407.5
417.828	420.5
418.051	397.5
418.274	408.5
418.497	399.5
418.72	406.5
418.943	381.5
419.166	429.5
419.389	427.5
419.611	450.5
419.834	449.5
420.057	419.5
420.28	417.5
420.503	407.5
420.726	418.5
420.948	404.5
421.171	425.5
421.394	446.5
421.617	405.5
421.839	418.5
422.062	413.5
422.285	419.5
422.507	455.5
422.73	469.5
422.953	477.5
423.175	435.5
423.398	430.5
423.621	417.5
423.843	437.5
424.066	453.5
424.288	421.5
424.511	436.5
424.733	483.5
424.956	487.5
425.178	491.5
425.401	483.5
425.623	486.5
425.846	440.5
426.068	406.5
426.291	419.5
426.513	388.5
426.735	399.5
426.958	454.5
427.18	477.5
427.402	533.5
427.625	547.5
427.847	490.5
428.069	449.5
428.292	429.5
428.514	398.5
428.736	379.5
428.958	382.5
429.181	394.5
429.403	357.5
429.625	391.5
429.847	401.5
430.069	438.5
430.292	427.5
430.514	388.5
430.736	369.5
430.958	372.5
431.18	367.5
431.402	351.5
431.624	366.5
431.846	379.5
432.068	381.5
432.29	396.5
432.512	389.5
432.734	387.5
432.956	373.5
433.178	398.5
433.4	372.5
433.622	381.5
433.844	390.5
434.066	375.5
434.287	374.5
434.509	378.5
434.731	371.5
434.953	395.5
435.175	415.5
435.397	408.5
435.618	394.5
435.84	439.5
436.062	476.5
436.284	495.5
436.505	431.5
436.727	386.5
436.949	396.5
437.17	360.5
437.392	367.5
437.614	385.5
437.835	393.5
438.057	442.5
438.278	465.5
438.5	471.5
438.721	523.5
438.943	481.5
439.165	417.5
439.386	389.5
439.608	402.5
439.829	396.5
440.05	421.5
440.272	419.5
440.493	425.5
440.715	386.5
440.936	414.5
441.158	405.5
441.379	393.5
441.6	415.5
441.822	408.5
442.043	452.5
442.264	473.5
442.486	479.5
442.707	438.5
442.928	439.5
443.149	441.5
443.371	447.5
443.592	449.5
443.813	511.5
444.034	545.5
444.255	451.5
444.476	452.5
444.698	462.5
444.919	457.5
445.14	574.5
445.361	501.5
445.582	456.5
445.803	487.5
446.024	505.5
446.245	499.5
446.466	454.5
446.687	422.5
446.908	407.5
447.129	388.5
447.35	390.5
447.571	388.5
447.792	374.5
448.013	375.5
448.234	384.5
448.455	412.5
448.675	445.5
448.896	506.5
449.117	452.5
449.338	441.5
449.559	494.5
449.779	535.5
450	429.5
450.221	381.5
450.442	373.5
450.662	350.5
450.883	353.5
451.104	364.5
451.324	364.5
451.545	363.5
451.766	350.5
451.986	367.5
452.207	378.5
452.428	365.5
452.648	348.5
452.869	345.5
453.089	345.5
453.31	356.5
453.53	354.5
453.751	337.5
453.971	356.5
454.192	341.5
454.412	322.5
454.633	332.5
454.853	333.5
455.073	353.5
455.294	350.5
455.514	385.5
455.734	356.5
455.955	348.5
456.175	339.5
456.395	320.5
456.616	328.5
456.836	329.5
457.056	325.5
457.276	328.5
457.497	331.5
457.717	328.5
457.937	353.5
458.157	350.5
458.377	353.5
458.598	350.5
458.818	354.5
459.038	406.5
459.258	425.5
459.478	381.5
459.698	375.5
459.918	382.5
460.138	387.5
460.358	406.5
460.578	407.5
460.798	391.5
461.018	397.5
461.238	399.5
461.458	400.5
461.678	409.5
461.898	400.5
462.118	406.5
462.338	427.5
462.558	435.5
462.777	456.5
462.997	460.5
463.217	472.5
463.437	473.5
463.657	425.5
463.876	441.5
464.096	454.5
464.316	440.5
464.536	454.5
464.755	420.5
464.975	439.5
465.195	425.5
465.414	458.5
465.634	393.5
465.854	375.5
466.073	369.5
466.293	359.5
466.512	377.5
466.732	356.5
466.951	362.5
467.171	358.5
467.391	347.5
467.61	354.5
467.829	358.5
468.049	365.5
468.268	358.5
468.488	365.5
468.707	365.5
468.927	367.5
469.146	346.5
469.365	364.5
469.585	353.5
469.804	359.5
470.023	359.5
470.243	366.5
470.462	389.5
470.681	386.5
470.901	363.5
471.12	374.5
471.339	375.5
471.558	383.5
471.777	385.5
471.997	391.5
472.216	383.5
472.435	359.5
472.654	345.5
472.873	363.5
473.092	364.5
473.311	358.5
473.53	347.5
473.749	367.5
473.968	381.5
474.187	433.5
474.406	417.5
474.625	358.5
474.844	353.5
475.063	369.5
475.282	353.5
475.501	376.5
475.72	350.5
475.939	355.5
476.158	348.5
476.377	355.5
476.596	369.5
476.814	375.5
477.033	363.5
477.252	376.5
477.471	399.5
477.69	390.5
477.908	395.5
478.127	404.5
478.346	397.5
478.564	421.5
478.783	423.5
479.002	427.5
479.22	428.5
479.439	433.5
479.658	417.5
479.876	411.5
480.095	437.5
480.313	446.5
480.532	447.5
480.751	442.5
480.969	431.5
481.188	469.5
481.406	459.5
481.624	438.5
481.843	441.5
482.061	422.5
482.28	397.5
482.498	405.5
482.717	399.5
482.935	399.5
483.153	412.5
483.372	400.5
483.59	417.5
483.808	427.5
484.027	403.5
484.245	410.5
484.463	413.5
484.681	400.5
484.9	402.5
485.118	451.5
485.336	422.5
485.554	421.5
485.772	389.5
485.99	422.5
486.209	413.5
486.427	415.5
486.645	432.5
486.863	418.5
487.081	423.5
487.299	445.5
487.517	430.5
487.735	426.5
487.953	427.5
488.171	436.5
488.389	451.5
488.607	420.5
488.825	457.5
489.043	460.5
489.261	437.5
489.479	431.5
489.696	452.5
489.914	431.5
490.132	419.5
490.35	444.5
490.568	465.5
490.786	441.5
491.003	473.5
491.221	447.5
491.439	471.5
491.657	456.5
491.874	493.5
492.092	491.5
492.31	510.5
492.527	484.5
492.745	480.5
492.963	517.5
493.18	489.5
493.398	510.5
493.615	498.5
493.833	519.5
494.05	499.5
494.268	505.5
494.485	500.5
494.703	497.5
494.92	522.5
495.138	489.5
495.355	492.5
495.573	506.5
495.79	499.5
496.008	479.5
496.225	487.5
496.442	514.5
496.66	523.5
496.877	516.5
497.094	538.5
497.312	537.5
497.529	526.5
497.746	553.5
497.963	518.5
498.181	567.5
498.398	556.5
498.615	590.5
498.832	616.5
499.049	638.5
499.267	652.5
499.484	693.5
499.701	757.5
499.918	790.5
500.135	857.5
500.352	876.5
500.569	929.5
500.786	919.5
501.003	888.5
501.22	829.5
501.437	783.5
501.654	754.5
501.871	709.5
502.088	687.5
502.305	648.5
502.522	589.5
502.739	582.5
502.956	575.5
503.172	551.5
503.389	555.5
503.606	547.5
503.823	541.5
504.04	544.5
504.256	542.5
504.473	531.5
504.69	518.5
504.907	550.5
505.123	533.5
505.34	526.5
505.557	470.5
505.773	484.5
505.99	481.5
506.207	474.5
506.423	467.5
506.64	472.5
506.856	469.5
507.073	456.5
507.289	461.5
507.506	436.5
507.722	457.5
507.939	454.5
508.155	435.5
508.372	440.5
508.588	430.5
508.805	452.5
509.021	420.5
509.238	450.5
509.454	447.5
509.67	448.5
509.887	446.5
510.103	431.5
510.319	438.5
510.536	475.5
510.752	652.5
510.968	554.5
511.184	437.5
511.401	401.5
511.617	409.5
511.833	394.5
512.049	395.5
512.265	403.5
512.481	404.5
512.698	411.5
512.914	424.5
513.13	417.5
513.346	410.5
513.562	403.5
513.778	402.5
513.994	407.5
514.21	407.5
514.426	418.5
514.642	435.5
514.858	458.5
515.074	455.5
515.29	501.5
515.506	639.5
515.721	572.5
515.937	470.5
516.153	444.5
516.369	436.5
516.585	443.5
516.801	469.5
517.016	457.5
517.232	449.5
517.448	483.5
517.664	483.5
517.879	477.5
518.095	489.5
518.311	469.5
518.527	467.5
518.742	458.5
518.958	451.5
519.173	429.5
519.389	450.5
519.605	419.5
519.82	447.5
520.036	445.5
