Data from 1969.PennyLincolnUp.Lamp.En5.5.200Scan.071719.P1._HRD10591_14-54-56-972.txt Node
Date: Thu Jul 18 14:54:56 EDT 2019
User: cochatt
Spectrometer: HR+D1059
Trigger mode: 1
Integration Time (sec): 1.000000E-1
Scans to average: 1
Electric dark correction enabled: true
Nonlinearity correction enabled: false
Boxcar width: 0
XAxis mode: Wavelengths
Number of Pixels in Spectrum: 2048
>>>>>Begin Spectral Data<<<<<
223.165	-19.38
223.4	-19.38
223.635	-19.38
223.869	2.62
224.104	-28.38
224.338	-10.38
224.573	-32.38
224.808	-18.38
225.042	-11.38
225.277	-9.38
225.511	0.62
225.746	2.62
225.98	21.62
226.215	21.62
226.449	25.62
226.683	11.62
226.918	24.62
227.152	18.62
227.387	29.62
227.621	35.62
227.856	44.62
228.09	41.62
228.324	43.62
228.559	53.62
228.793	62.62
229.027	92.62
229.262	89.62
229.496	103.62
229.73	93.62
229.964	130.62
230.199	103.62
230.433	88.62
230.667	87.62
230.901	108.62
231.136	96.62
231.37	101.62
231.604	110.62
231.838	114.62
232.072	101.62
232.306	102.62
232.541	106.62
232.775	109.62
233.009	91.62
233.243	100.62
233.477	109.62
233.711	98.62
233.945	89.62
234.179	98.62
234.413	94.62
234.647	117.62
234.881	100.62
235.115	106.62
235.349	98.62
235.583	97.62
235.817	105.62
236.051	117.62
236.285	113.62
236.519	96.62
236.753	114.62
236.987	108.62
237.221	136.62
237.455	157.62
237.689	142.62
237.922	142.62
238.156	122.62
238.39	115.62
238.624	112.62
238.858	106.62
239.091	126.62
239.325	119.62
239.559	115.62
239.793	117.62
240.027	116.62
240.26	103.62
240.494	128.62
240.728	127.62
240.961	122.62
241.195	117.62
241.429	109.62
241.662	126.62
241.896	117.62
242.13	117.62
242.363	115.62
242.597	116.62
242.83	124.62
243.064	125.62
243.298	132.62
243.531	125.62
243.765	134.62
243.998	131.62
244.232	119.62
244.465	115.62
244.699	117.62
244.932	134.62
245.166	136.62
245.399	126.62
245.633	122.62
245.866	147.62
246.099	134.62
246.333	143.62
246.566	134.62
246.8	132.62
247.033	133.62
247.266	128.62
247.5	144.62
247.733	135.62
247.966	143.62
248.2	151.62
248.433	149.62
248.666	151.62
248.899	155.62
249.133	172.62
249.366	181.62
249.599	168.62
249.832	148.62
250.066	154.62
250.299	164.62
250.532	169.62
250.765	172.62
250.998	189.62
251.231	175.62
251.465	162.62
251.698	166.62
251.931	168.62
252.164	151.62
252.397	183.62
252.63	171.62
252.863	148.62
253.096	176.62
253.329	185.62
253.562	181.62
253.795	181.62
254.028	191.62
254.261	178.62
254.494	186.62
254.727	199.62
254.96	225.62
255.193	213.62
255.426	176.62
255.659	186.62
255.892	189.62
256.124	183.62
256.357	197.62
256.59	183.62
256.823	180.62
257.056	170.62
257.289	168.62
257.521	184.62
257.754	184.62
257.987	192.62
258.22	173.62
258.452	176.62
258.685	173.62
258.918	158.62
259.151	193.62
259.383	189.62
259.616	172.62
259.849	198.62
260.081	182.62
260.314	198.62
260.547	205.62
260.779	197.62
261.012	187.62
261.244	179.62
261.477	172.62
261.71	178.62
261.942	176.62
262.175	188.62
262.407	187.62
262.64	197.62
262.872	167.62
263.105	185.62
263.337	182.62
263.57	172.62
263.802	188.62
264.035	197.62
264.267	181.62
264.499	186.62
264.732	169.62
264.964	172.62
265.197	189.62
265.429	179.62
265.661	194.62
265.894	184.62
266.126	193.62
266.358	188.62
266.591	192.62
266.823	195.62
267.055	189.62
267.287	202.62
267.52	202.62
267.752	190.62
267.984	188.62
268.216	182.62
268.448	192.62
268.681	181.62
268.913	202.62
269.145	233.62
269.377	225.62
269.609	216.62
269.841	209.62
270.073	230.62
270.306	233.62
270.538	268.62
270.77	256.62
271.002	241.62
271.234	227.62
271.466	247.62
271.698	242.62
271.93	236.62
272.162	265.62
272.394	252.62
272.626	241.62
272.858	225.62
273.09	230.62
273.322	229.62
273.553	218.62
273.785	227.62
274.017	230.62
274.249	205.62
274.481	204.62
274.713	216.62
274.945	214.62
275.176	221.62
275.408	218.62
275.64	215.62
275.872	219.62
276.104	231.62
276.335	216.62
276.567	217.62
276.799	234.62
277.031	246.62
277.262	267.62
277.494	257.62
277.726	260.62
277.957	232.62
278.189	232.62
278.421	234.62
278.652	239.62
278.884	214.62
279.115	242.62
279.347	209.62
279.579	230.62
279.81	211.62
280.042	233.62
280.273	216.62
280.505	231.62
280.736	235.62
280.968	233.62
281.199	224.62
281.431	212.62
281.662	207.62
281.894	249.62
282.125	242.62
282.356	225.62
282.588	256.62
282.819	245.62
283.051	248.62
283.282	243.62
283.513	251.62
283.745	234.62
283.976	235.62
284.207	248.62
284.439	251.62
284.67	253.62
284.901	224.62
285.132	237.62
285.364	238.62
285.595	236.62
285.826	231.62
286.057	250.62
286.288	256.62
286.52	252.62
286.751	246.62
286.982	253.62
287.213	251.62
287.444	244.62
287.675	241.62
287.906	258.62
288.138	282.62
288.369	280.62
288.6	262.62
288.831	246.62
289.062	243.62
289.293	256.62
289.524	260.62
289.755	252.62
289.986	258.62
290.217	264.62
290.448	247.62
290.679	243.62
290.91	250.62
291.141	254.62
291.371	236.62
291.602	263.62
291.833	254.62
292.064	265.62
292.295	253.62
292.526	252.62
292.757	262.62
292.987	258.62
293.218	234.62
293.449	253.62
293.68	259.62
293.91	265.62
294.141	245.62
294.372	253.62
294.603	256.62
294.833	248.62
295.064	262.62
295.295	260.62
295.525	268.62
295.756	285.62
295.987	267.62
296.217	268.62
296.448	276.62
296.679	260.62
296.909	276.62
297.14	261.62
297.37	268.62
297.601	277.62
297.831	264.62
298.062	265.62
298.292	286.62
298.523	275.62
298.753	268.62
298.984	259.62
299.214	278.62
299.445	277.62
299.675	269.62
299.905	291.62
300.136	269.62
300.366	276.62
300.597	275.62
300.827	275.62
301.057	285.62
301.288	282.62
301.518	300.62
301.748	299.62
301.979	292.62
302.209	279.62
302.439	286.62
302.669	295.62
302.9	277.62
303.13	288.62
303.36	302.62
303.59	283.62
303.82	287.62
304.051	290.62
304.281	295.62
304.511	288.62
304.741	287.62
304.971	279.62
305.201	272.62
305.431	295.62
305.661	282.62
305.891	270.62
306.121	292.62
306.352	308.62
306.582	296.62
306.812	287.62
307.042	293.62
307.272	286.62
307.502	296.62
307.731	274.62
307.961	300.62
308.191	288.62
308.421	294.62
308.651	276.62
308.881	290.62
309.111	280.62
309.341	294.62
309.571	295.62
309.8	296.62
310.03	299.62
310.26	298.62
310.49	310.62
310.72	301.62
310.949	325.62
311.179	297.62
311.409	314.62
311.639	313.62
311.868	299.62
312.098	331.62
312.328	305.62
312.557	319.62
312.787	320.62
313.017	322.62
313.246	307.62
313.476	309.62
313.706	313.62
313.935	324.62
314.165	325.62
314.394	322.62
314.624	309.62
314.853	332.62
315.083	308.62
315.312	316.62
315.542	300.62
315.771	290.62
316.001	303.62
316.23	314.62
316.46	314.62
316.689	321.62
316.919	307.62
317.148	316.62
317.377	322.62
317.607	311.62
317.836	322.62
318.065	323.62
318.295	316.62
318.524	331.62
318.753	296.62
318.983	315.62
319.212	320.62
319.441	302.62
319.67	329.62
319.9	306.62
320.129	313.62
320.358	309.62
320.587	329.62
320.816	317.62
321.046	316.62
321.275	308.62
321.504	323.62
321.733	324.62
321.962	315.62
322.191	337.62
322.42	324.62
322.649	347.62
322.878	353.62
323.108	360.62
323.337	369.62
323.566	378.62
323.795	373.62
324.024	406.62
324.253	449.62
324.482	596.62
324.71	841.62
324.939	1108.62
325.168	912.62
325.397	548.62
325.626	428.62
325.855	379.62
326.084	376.62
326.313	365.62
326.542	357.62
326.77	370.62
326.999	446.62
327.228	581.62
327.457	752.62
327.686	862.62
327.914	619.62
328.143	466.62
328.372	428.62
328.6	427.62
328.829	405.62
329.058	426.62
329.287	420.62
329.515	404.62
329.744	380.62
329.972	394.62
330.201	401.62
330.43	403.62
330.658	442.62
330.887	443.62
331.115	440.62
331.344	387.62
331.572	360.62
331.801	372.62
332.03	357.62
332.258	388.62
332.486	383.62
332.715	387.62
332.943	395.62
333.172	384.62
333.4	392.62
333.629	401.62
333.857	429.62
334.085	422.62
334.314	421.62
334.542	449.62
334.771	451.62
334.999	438.62
335.227	408.62
335.455	410.62
335.684	393.62
335.912	390.62
336.14	384.62
336.369	393.62
336.597	389.62
336.825	376.62
337.053	388.62
337.281	363.62
337.51	374.62
337.738	370.62
337.966	382.62
338.194	354.62
338.422	363.62
338.65	352.62
338.878	373.62
339.106	368.62
339.334	360.62
339.562	354.62
339.79	361.62
340.018	356.62
340.246	368.62
340.474	368.62
340.702	352.62
340.93	370.62
341.158	344.62
341.386	332.62
341.614	360.62
341.842	349.62
342.07	363.62
342.298	357.62
342.526	349.62
342.754	331.62
342.981	363.62
343.209	357.62
343.437	332.62
343.665	362.62
343.893	395.62
344.12	400.62
344.348	380.62
344.576	371.62
344.804	351.62
345.031	372.62
345.259	372.62
345.487	365.62
345.714	346.62
345.942	328.62
346.17	341.62
346.397	330.62
346.625	331.62
346.853	309.62
347.08	343.62
347.308	333.62
347.535	348.62
347.763	345.62
347.99	341.62
348.218	351.62
348.445	360.62
348.673	348.62
348.9	342.62
349.128	355.62
349.355	323.62
349.583	327.62
349.81	336.62
350.037	330.62
350.265	338.62
350.492	341.62
350.72	340.62
350.947	326.62
351.174	336.62
351.402	350.62
351.629	346.62
351.856	355.62
352.083	329.62
352.311	353.62
352.538	358.62
352.765	317.62
352.992	337.62
353.22	331.62
353.447	327.62
353.674	331.62
353.901	320.62
354.128	330.62
354.355	306.62
354.583	317.62
354.81	314.62
355.037	333.62
355.264	322.62
355.491	307.62
355.718	331.62
355.945	337.62
356.172	324.62
356.399	334.62
356.626	306.62
356.853	326.62
357.08	315.62
357.307	316.62
357.534	314.62
357.761	317.62
357.988	328.62
358.215	322.62
358.441	313.62
358.668	310.62
358.895	339.62
359.122	329.62
359.349	309.62
359.576	340.62
359.802	327.62
360.029	360.62
360.256	352.62
360.483	346.62
360.709	321.62
360.936	344.62
361.163	336.62
361.39	337.62
361.616	308.62
361.843	324.62
362.07	330.62
362.296	353.62
362.523	326.62
362.749	339.62
362.976	320.62
363.203	311.62
363.429	317.62
363.656	355.62
363.882	315.62
364.109	328.62
364.335	337.62
364.562	329.62
364.788	331.62
365.015	328.62
365.241	319.62
365.468	330.62
365.694	334.62
365.92	318.62
366.147	327.62
366.373	328.62
366.599	336.62
366.826	318.62
367.052	324.62
367.278	323.62
367.505	331.62
367.731	317.62
367.957	315.62
368.184	311.62
368.41	339.62
368.636	335.62
368.862	337.62
369.089	317.62
369.315	305.62
369.541	315.62
369.767	321.62
369.993	342.62
370.219	318.62
370.445	343.62
370.672	345.62
370.898	324.62
371.124	315.62
371.35	329.62
371.576	339.62
371.802	324.62
372.028	333.62
372.254	321.62
372.48	337.62
372.706	340.62
372.932	329.62
373.158	347.62
373.384	345.62
373.61	340.62
373.835	343.62
374.061	340.62
374.287	316.62
374.513	339.62
374.739	331.62
374.965	342.62
375.191	349.62
375.416	347.62
375.642	337.62
375.868	339.62
376.094	339.62
376.319	316.62
376.545	339.62
376.771	340.62
376.997	358.62
377.222	322.62
377.448	325.62
377.674	318.62
377.899	320.62
378.125	325.62
378.35	333.62
378.576	328.62
378.802	324.62
379.027	331.62
379.253	329.62
379.478	319.62
379.704	305.62
379.929	345.62
380.155	309.62
380.38	316.62
380.606	314.62
380.831	330.62
381.057	331.62
381.282	320.62
381.507	344.62
381.733	326.62
381.958	309.62
382.184	337.62
382.409	355.62
382.634	339.62
382.86	361.62
383.085	344.62
383.31	324.62
383.535	352.62
383.761	375.62
383.986	354.62
384.211	338.62
384.436	337.62
384.662	377.62
384.887	369.62
385.112	366.62
385.337	366.62
385.562	381.62
385.787	372.62
386.013	378.62
386.238	368.62
386.463	359.62
386.688	364.62
386.913	388.62
387.138	375.62
387.363	379.62
387.588	364.62
387.813	373.62
388.038	364.62
388.263	352.62
388.488	370.62
388.713	354.62
388.938	360.62
389.163	358.62
389.387	368.62
389.612	372.62
389.837	380.62
390.062	358.62
390.287	364.62
390.512	357.62
390.736	361.62
390.961	365.62
391.186	372.62
391.411	372.62
391.636	369.62
391.86	392.62
392.085	411.62
392.31	383.62
392.534	368.62
392.759	398.62
392.984	378.62
393.208	373.62
393.433	371.62
393.658	368.62
393.882	386.62
394.107	374.62
394.331	382.62
394.556	384.62
394.78	366.62
395.005	379.62
395.229	355.62
395.454	390.62
395.678	401.62
395.903	384.62
396.127	392.62
396.352	392.62
396.576	381.62
396.801	372.62
397.025	376.62
397.249	380.62
397.474	389.62
397.698	388.62
397.922	415.62
398.147	418.62
398.371	423.62
398.595	428.62
398.82	433.62
399.044	445.62
399.268	470.62
399.492	529.62
399.717	560.62
399.941	565.62
400.165	545.62
400.389	505.62
400.613	461.62
400.837	452.62
401.062	452.62
401.286	429.62
401.51	430.62
401.734	414.62
401.958	417.62
402.182	419.62
402.406	447.62
402.63	436.62
402.854	457.62
403.078	459.62
403.302	446.62
403.526	461.62
403.75	458.62
403.974	452.62
404.198	439.62
404.422	474.62
404.645	471.62
404.869	471.62
405.093	477.62
405.317	489.62
405.541	528.62
405.765	494.62
405.988	467.62
406.212	487.62
406.436	490.62
406.66	493.62
406.883	496.62
407.107	493.62
407.331	522.62
407.555	547.62
407.778	575.62
408.002	522.62
408.226	487.62
408.449	527.62
408.673	482.62
408.896	500.62
409.12	523.62
409.344	498.62
409.567	441.62
409.791	450.62
410.014	462.62
410.238	463.62
410.461	459.62
410.685	430.62
410.908	438.62
411.132	471.62
411.355	476.62
411.578	458.62
411.802	449.62
412.025	450.62
412.249	452.62
412.472	466.62
412.695	466.62
412.919	478.62
413.142	467.62
413.365	438.62
413.589	430.62
413.812	403.62
414.035	419.62
414.258	426.62
414.482	440.62
414.705	425.62
414.928	433.62
415.151	425.62
415.374	436.62
415.597	421.62
415.821	417.62
416.044	409.62
416.267	418.62
416.49	442.62
416.713	420.62
416.936	429.62
417.159	408.62
417.382	419.62
417.605	440.62
417.828	418.62
418.051	433.62
418.274	439.62
418.497	390.62
418.72	445.62
418.943	433.62
419.166	427.62
419.389	460.62
419.611	453.62
419.834	428.62
420.057	471.62
420.28	443.62
420.503	446.62
420.726	443.62
420.948	433.62
421.171	462.62
421.394	455.62
421.617	426.62
421.839	427.62
422.062	444.62
422.285	434.62
422.507	476.62
422.73	519.62
422.953	478.62
423.175	455.62
423.398	436.62
423.621	436.62
423.843	461.62
424.066	457.62
424.288	468.62
424.511	470.62
424.733	500.62
424.956	550.62
425.178	492.62
425.401	508.62
425.623	515.62
425.846	458.62
426.068	432.62
426.291	439.62
426.513	421.62
426.735	422.62
426.958	467.62
427.18	494.62
427.402	578.62
427.625	612.62
427.847	546.62
428.069	474.62
428.292	453.62
428.514	411.62
428.736	404.62
428.958	418.62
429.181	401.62
429.403	423.62
429.625	396.62
429.847	437.62
430.069	459.62
430.292	436.62
430.514	414.62
430.736	399.62
430.958	393.62
431.18	384.62
431.402	398.62
431.624	380.62
431.846	406.62
432.068	378.62
432.29	400.62
432.512	405.62
432.734	418.62
432.956	387.62
433.178	406.62
433.4	407.62
433.622	415.62
433.844	401.62
434.066	371.62
434.287	387.62
434.509	426.62
434.731	419.62
434.953	426.62
435.175	436.62
435.397	416.62
435.618	432.62
435.84	446.62
436.062	503.62
436.284	531.62
436.505	474.62
436.727	435.62
436.949	402.62
437.17	401.62
437.392	418.62
437.614	406.62
437.835	426.62
438.057	463.62
438.278	543.62
438.5	519.62
438.721	555.62
438.943	530.62
439.165	465.62
439.386	433.62
439.608	417.62
439.829	440.62
440.05	456.62
440.272	462.62
440.493	447.62
440.715	428.62
440.936	413.62
441.158	417.62
441.379	406.62
441.6	443.62
441.822	432.62
442.043	446.62
442.264	517.62
442.486	502.62
442.707	463.62
442.928	432.62
443.149	446.62
443.371	450.62
443.592	514.62
443.813	522.62
444.034	557.62
444.255	505.62
444.476	494.62
444.698	479.62
444.919	464.62
445.14	573.62
445.361	496.62
445.582	470.62
445.803	490.62
446.024	532.62
446.245	512.62
446.466	489.62
446.687	451.62
446.908	420.62
447.129	396.62
447.35	397.62
447.571	395.62
447.792	393.62
448.013	386.62
448.234	412.62
448.455	441.62
448.675	507.62
448.896	549.62
449.117	457.62
449.338	467.62
449.559	547.62
449.779	561.62
450	469.62
450.221	420.62
450.442	399.62
450.662	396.62
450.883	407.62
451.104	419.62
451.324	390.62
451.545	390.62
451.766	377.62
451.986	374.62
452.207	359.62
452.428	386.62
452.648	388.62
452.869	353.62
453.089	364.62
453.31	384.62
453.53	369.62
453.751	372.62
453.971	384.62
454.192	387.62
454.412	356.62
454.633	357.62
454.853	374.62
455.073	391.62
455.294	353.62
455.514	410.62
455.734	395.62
455.955	364.62
456.175	334.62
456.395	327.62
456.616	331.62
456.836	361.62
457.056	359.62
457.276	348.62
457.497	366.62
457.717	347.62
457.937	363.62
458.157	360.62
458.377	365.62
458.598	358.62
458.818	393.62
459.038	438.62
459.258	440.62
459.478	409.62
459.698	397.62
459.918	379.62
460.138	425.62
460.358	426.62
460.578	433.62
460.798	429.62
461.018	421.62
461.238	419.62
461.458	413.62
461.678	425.62
461.898	415.62
462.118	402.62
462.338	434.62
462.558	456.62
462.777	467.62
462.997	496.62
463.217	496.62
463.437	493.62
463.657	490.62
463.876	476.62
464.096	457.62
464.316	464.62
464.536	462.62
464.755	463.62
464.975	442.62
465.195	453.62
465.414	481.62
465.634	428.62
465.854	409.62
466.073	404.62
466.293	412.62
466.512	374.62
466.732	387.62
466.951	378.62
467.171	372.62
467.391	389.62
467.61	408.62
467.829	380.62
468.049	398.62
468.268	385.62
468.488	395.62
468.707	356.62
468.927	346.62
469.146	363.62
469.365	380.62
469.585	377.62
469.804	399.62
470.023	382.62
470.243	385.62
470.462	385.62
470.681	405.62
470.901	412.62
471.12	388.62
471.339	386.62
471.558	373.62
471.777	384.62
471.997	372.62
472.216	384.62
472.435	424.62
472.654	403.62
472.873	379.62
473.092	382.62
473.311	395.62
473.53	381.62
473.749	390.62
473.968	392.62
474.187	446.62
474.406	468.62
474.625	418.62
474.844	377.62
475.063	390.62
475.282	386.62
475.501	376.62
475.72	403.62
475.939	393.62
476.158	395.62
476.377	398.62
476.596	406.62
476.814	384.62
477.033	396.62
477.252	394.62
477.471	403.62
477.69	412.62
477.908	415.62
478.127	423.62
478.346	409.62
478.564	439.62
478.783	435.62
479.002	446.62
479.22	452.62
479.439	455.62
479.658	457.62
479.876	478.62
480.095	464.62
480.313	504.62
480.532	469.62
480.751	461.62
480.969	466.62
481.188	493.62
481.406	521.62
481.624	483.62
481.843	448.62
482.061	458.62
482.28	444.62
482.498	419.62
482.717	424.62
482.935	438.62
483.153	434.62
483.372	453.62
483.59	439.62
483.808	438.62
484.027	429.62
484.245	434.62
484.463	424.62
484.681	467.62
484.9	457.62
485.118	449.62
485.336	450.62
485.554	444.62
485.772	450.62
485.99	466.62
486.209	430.62
486.427	457.62
486.645	444.62
486.863	462.62
487.081	463.62
487.299	457.62
487.517	453.62
487.735	471.62
487.953	460.62
488.171	467.62
488.389	469.62
488.607	444.62
488.825	454.62
489.043	454.62
489.261	453.62
489.479	476.62
489.696	460.62
489.914	493.62
490.132	490.62
490.35	475.62
490.568	480.62
490.786	495.62
491.003	497.62
491.221	531.62
491.439	508.62
491.657	516.62
491.874	503.62
492.092	510.62
492.31	541.62
492.527	544.62
492.745	529.62
492.963	516.62
493.18	545.62
493.398	527.62
493.615	527.62
493.833	564.62
494.05	553.62
494.268	545.62
494.485	529.62
494.703	534.62
494.92	547.62
495.138	546.62
495.355	537.62
495.573	549.62
495.79	551.62
496.008	532.62
496.225	536.62
496.442	541.62
496.66	564.62
496.877	565.62
497.094	549.62
497.312	565.62
497.529	577.62
497.746	574.62
497.963	599.62
498.181	620.62
498.398	626.62
498.615	634.62
498.832	685.62
499.049	688.62
499.267	690.62
499.484	744.62
499.701	806.62
499.918	847.62
500.135	896.62
500.352	966.62
500.569	974.62
500.786	976.62
501.003	938.62
501.22	865.62
501.437	842.62
501.654	776.62
501.871	737.62
502.088	714.62
