Data from 1969.PennyLincolnUp.Lamp.En5.5.200Scan.071719.P1._HRD10591_14-55-04-972.txt Node
Date: Thu Jul 18 14:55:04 EDT 2019
User: cochatt
Spectrometer: HR+D1059
Trigger mode: 1
Integration Time (sec): 1.000000E-1
Scans to average: 1
Electric dark correction enabled: true
Nonlinearity correction enabled: false
Boxcar width: 0
XAxis mode: Wavelengths
Number of Pixels in Spectrum: 2048
>>>>>Begin Spectral Data<<<<<
223.165	-29.75
223.4	-29.75
223.635	-29.75
223.869	-7.75
224.104	-2.75
224.338	-17.75
224.573	-18.75
224.808	-16.75
225.042	0.25
225.277	-16.75
225.511	-3.75
225.746	-7.75
225.98	18.25
226.215	1.25
226.449	10.25
226.683	28.25
226.918	26.25
227.152	37.25
227.387	48.25
227.621	50.25
227.856	34.25
228.09	50.25
228.324	31.25
228.559	41.25
228.793	62.25
229.027	92.25
229.262	104.25
229.496	86.25
229.73	92.25
229.964	117.25
230.199	124.25
230.433	112.25
230.667	99.25
230.901	97.25
231.136	107.25
231.37	99.25
231.604	106.25
231.838	100.25
232.072	108.25
232.306	105.25
232.541	117.25
232.775	109.25
233.009	116.25
233.243	120.25
233.477	105.25
233.711	97.25
233.945	102.25
234.179	101.25
234.413	104.25
234.647	120.25
234.881	99.25
235.115	126.25
235.349	110.25
235.583	116.25
235.817	114.25
236.051	108.25
236.285	120.25
236.519	106.25
236.753	107.25
236.987	133.25
237.221	136.25
237.455	144.25
237.689	123.25
237.922	118.25
238.156	111.25
238.39	115.25
238.624	105.25
238.858	102.25
239.091	125.25
239.325	106.25
239.559	109.25
239.793	113.25
240.027	118.25
240.26	132.25
240.494	126.25
240.728	122.25
240.961	124.25
241.195	123.25
241.429	137.25
241.662	134.25
241.896	107.25
242.13	114.25
242.363	121.25
242.597	112.25
242.83	126.25
243.064	122.25
243.298	109.25
243.531	117.25
243.765	115.25
243.998	125.25
244.232	121.25
244.465	114.25
244.699	125.25
244.932	119.25
245.166	128.25
245.399	116.25
245.633	120.25
245.866	132.25
246.099	132.25
246.333	129.25
246.566	135.25
246.8	128.25
247.033	135.25
247.266	145.25
247.5	143.25
247.733	141.25
247.966	144.25
248.2	141.25
248.433	138.25
248.666	140.25
248.899	156.25
249.133	160.25
249.366	173.25
249.599	143.25
249.832	150.25
250.066	156.25
250.299	164.25
250.532	155.25
250.765	164.25
250.998	170.25
251.231	184.25
251.465	177.25
251.698	151.25
251.931	168.25
252.164	150.25
252.397	172.25
252.63	153.25
252.863	150.25
253.096	152.25
253.329	182.25
253.562	168.25
253.795	169.25
254.028	199.25
254.261	166.25
254.494	205.25
254.727	203.25
254.96	204.25
255.193	212.25
255.426	186.25
255.659	181.25
255.892	185.25
256.124	203.25
256.357	204.25
256.59	189.25
256.823	197.25
257.056	182.25
257.289	181.25
257.521	168.25
257.754	170.25
257.987	176.25
258.22	177.25
258.452	155.25
258.685	170.25
258.918	159.25
259.151	183.25
259.383	180.25
259.616	183.25
259.849	188.25
260.081	194.25
260.314	205.25
260.547	196.25
260.779	198.25
261.012	182.25
261.244	195.25
261.477	199.25
261.71	194.25
261.942	194.25
262.175	193.25
262.407	185.25
262.64	184.25
262.872	169.25
263.105	182.25
263.337	172.25
263.57	182.25
263.802	182.25
264.035	179.25
264.267	184.25
264.499	173.25
264.732	188.25
264.964	174.25
265.197	188.25
265.429	179.25
265.661	194.25
265.894	196.25
266.126	192.25
266.358	174.25
266.591	192.25
266.823	199.25
267.055	180.25
267.287	193.25
267.52	183.25
267.752	209.25
267.984	201.25
268.216	199.25
268.448	200.25
268.681	210.25
268.913	206.25
269.145	225.25
269.377	214.25
269.609	221.25
269.841	214.25
270.073	226.25
270.306	237.25
270.538	238.25
270.77	263.25
271.002	241.25
271.234	226.25
271.466	242.25
271.698	259.25
271.93	232.25
272.162	242.25
272.394	262.25
272.626	257.25
272.858	227.25
273.09	222.25
273.322	217.25
273.553	228.25
273.785	217.25
274.017	221.25
274.249	220.25
274.481	217.25
274.713	218.25
274.945	212.25
275.176	215.25
275.408	226.25
275.64	231.25
275.872	221.25
276.104	231.25
276.335	205.25
276.567	220.25
276.799	225.25
277.031	246.25
277.262	263.25
277.494	258.25
277.726	256.25
277.957	244.25
278.189	247.25
278.421	236.25
278.652	221.25
278.884	231.25
279.115	221.25
279.347	221.25
279.579	233.25
279.81	245.25
280.042	219.25
280.273	233.25
280.505	226.25
280.736	239.25
280.968	222.25
281.199	222.25
281.431	212.25
281.662	226.25
281.894	235.25
282.125	235.25
282.356	234.25
282.588	261.25
282.819	262.25
283.051	244.25
283.282	220.25
283.513	253.25
283.745	220.25
283.976	244.25
284.207	223.25
284.439	250.25
284.67	227.25
284.901	246.25
285.132	256.25
285.364	261.25
285.595	248.25
285.826	233.25
286.057	244.25
286.288	243.25
286.52	256.25
286.751	258.25
286.982	256.25
287.213	258.25
287.444	235.25
287.675	257.25
287.906	256.25
288.138	268.25
288.369	237.25
288.6	261.25
288.831	260.25
289.062	249.25
289.293	243.25
289.524	241.25
289.755	236.25
289.986	235.25
290.217	264.25
290.448	262.25
290.679	247.25
290.91	261.25
291.141	243.25
291.371	238.25
291.602	266.25
291.833	272.25
292.064	247.25
292.295	245.25
292.526	270.25
292.757	246.25
292.987	252.25
293.218	266.25
293.449	246.25
293.68	241.25
293.91	237.25
294.141	247.25
294.372	255.25
294.603	250.25
294.833	250.25
295.064	265.25
295.295	266.25
295.525	251.25
295.756	279.25
295.987	262.25
296.217	273.25
296.448	265.25
296.679	269.25
296.909	270.25
297.14	258.25
297.37	268.25
297.601	279.25
297.831	258.25
298.062	282.25
298.292	268.25
298.523	264.25
298.753	291.25
298.984	266.25
299.214	277.25
299.445	265.25
299.675	260.25
299.905	270.25
300.136	278.25
300.366	269.25
300.597	279.25
300.827	280.25
301.057	269.25
301.288	284.25
301.518	279.25
301.748	302.25
301.979	314.25
302.209	311.25
302.439	291.25
302.669	277.25
302.9	279.25
303.13	285.25
303.36	296.25
303.59	278.25
303.82	306.25
304.051	311.25
304.281	276.25
304.511	288.25
304.741	288.25
304.971	284.25
305.201	290.25
305.431	292.25
305.661	287.25
305.891	283.25
306.121	284.25
306.352	283.25
306.582	307.25
306.812	283.25
307.042	275.25
307.272	278.25
307.502	274.25
307.731	288.25
307.961	297.25
308.191	270.25
308.421	294.25
308.651	297.25
308.881	294.25
309.111	275.25
309.341	293.25
309.571	315.25
309.8	314.25
310.03	312.25
310.26	311.25
310.49	307.25
310.72	311.25
310.949	322.25
311.179	318.25
311.409	302.25
311.639	281.25
311.868	302.25
312.098	302.25
312.328	322.25
312.557	316.25
312.787	312.25
313.017	332.25
313.246	323.25
313.476	310.25
313.706	324.25
313.935	329.25
314.165	310.25
314.394	305.25
314.624	307.25
314.853	306.25
315.083	315.25
315.312	320.25
315.542	293.25
315.771	306.25
316.001	315.25
316.23	319.25
316.46	324.25
316.689	321.25
316.919	300.25
317.148	317.25
317.377	312.25
317.607	307.25
317.836	299.25
318.065	298.25
318.295	307.25
318.524	309.25
318.753	321.25
318.983	314.25
319.212	321.25
319.441	329.25
319.67	326.25
319.9	327.25
320.129	325.25
320.358	298.25
320.587	298.25
320.816	326.25
321.046	312.25
321.275	319.25
321.504	334.25
321.733	342.25
321.962	332.25
322.191	341.25
322.42	326.25
322.649	355.25
322.878	337.25
323.108	358.25
323.337	354.25
323.566	377.25
323.795	388.25
324.024	406.25
324.253	457.25
324.482	593.25
324.71	841.25
324.939	1114.25
325.168	912.25
325.397	522.25
325.626	402.25
325.855	365.25
326.084	374.25
326.313	376.25
326.542	376.25
326.77	391.25
326.999	452.25
327.228	546.25
327.457	748.25
327.686	810.25
327.914	594.25
328.143	444.25
328.372	403.25
328.6	401.25
328.829	408.25
329.058	408.25
329.287	414.25
329.515	390.25
329.744	361.25
329.972	405.25
330.201	401.25
330.43	427.25
330.658	432.25
330.887	446.25
331.115	405.25
331.344	392.25
331.572	388.25
331.801	376.25
332.03	390.25
332.258	405.25
332.486	411.25
332.715	384.25
332.943	400.25
333.172	397.25
333.4	404.25
333.629	412.25
333.857	406.25
334.085	449.25
334.314	425.25
334.542	460.25
334.771	465.25
334.999	420.25
335.227	403.25
335.455	393.25
335.684	383.25
335.912	384.25
336.14	388.25
336.369	392.25
336.597	379.25
336.825	380.25
337.053	376.25
337.281	390.25
337.51	369.25
337.738	359.25
337.966	368.25
338.194	363.25
338.422	384.25
338.65	368.25
338.878	372.25
339.106	364.25
339.334	346.25
339.562	357.25
339.79	368.25
340.018	373.25
340.246	371.25
340.474	351.25
340.702	367.25
340.93	355.25
341.158	345.25
341.386	361.25
341.614	354.25
341.842	358.25
342.07	357.25
342.298	346.25
342.526	366.25
342.754	336.25
342.981	350.25
343.209	349.25
343.437	347.25
343.665	373.25
343.893	370.25
344.12	362.25
344.348	376.25
344.576	380.25
344.804	381.25
345.031	374.25
345.259	362.25
345.487	358.25
345.714	341.25
345.942	336.25
346.17	340.25
346.397	352.25
346.625	348.25
346.853	344.25
347.08	334.25
347.308	346.25
347.535	353.25
347.763	341.25
347.99	363.25
348.218	341.25
348.445	351.25
348.673	356.25
348.9	312.25
349.128	349.25
349.355	328.25
349.583	339.25
349.81	338.25
350.037	328.25
350.265	334.25
350.492	331.25
350.72	328.25
350.947	336.25
351.174	350.25
351.402	337.25
351.629	325.25
351.856	345.25
352.083	328.25
352.311	341.25
352.538	356.25
352.765	346.25
352.992	338.25
353.22	349.25
353.447	340.25
353.674	321.25
353.901	327.25
354.128	338.25
354.355	317.25
354.583	318.25
354.81	328.25
355.037	320.25
355.264	322.25
355.491	319.25
355.718	331.25
355.945	318.25
356.172	307.25
356.399	320.25
356.626	324.25
356.853	323.25
357.08	323.25
357.307	339.25
357.534	337.25
357.761	326.25
357.988	310.25
358.215	292.25
358.441	320.25
358.668	300.25
358.895	328.25
359.122	341.25
359.349	339.25
359.576	328.25
359.802	357.25
360.029	353.25
360.256	378.25
360.483	352.25
360.709	331.25
360.936	319.25
361.163	334.25
361.39	333.25
361.616	330.25
361.843	360.25
362.07	328.25
362.296	342.25
362.523	346.25
362.749	328.25
362.976	317.25
363.203	323.25
363.429	308.25
363.656	323.25
363.882	323.25
364.109	324.25
364.335	327.25
364.562	322.25
364.788	337.25
365.015	336.25
365.241	312.25
365.468	329.25
365.694	341.25
365.92	323.25
366.147	330.25
366.373	322.25
366.599	328.25
366.826	321.25
367.052	310.25
367.278	301.25
367.505	322.25
367.731	334.25
367.957	304.25
368.184	320.25
368.41	345.25
368.636	340.25
368.862	337.25
369.089	330.25
369.315	329.25
369.541	337.25
369.767	333.25
369.993	322.25
370.219	315.25
370.445	324.25
370.672	316.25
370.898	326.25
371.124	333.25
371.35	337.25
371.576	330.25
371.802	339.25
372.028	351.25
372.254	339.25
372.48	327.25
372.706	334.25
372.932	341.25
373.158	357.25
373.384	323.25
373.61	328.25
373.835	350.25
374.061	329.25
374.287	337.25
374.513	331.25
374.739	363.25
374.965	393.25
375.191	349.25
375.416	346.25
375.642	347.25
375.868	342.25
376.094	334.25
376.319	312.25
376.545	340.25
376.771	338.25
376.997	331.25
377.222	325.25
377.448	339.25
377.674	324.25
377.899	323.25
378.125	330.25
378.35	324.25
378.576	345.25
378.802	339.25
379.027	334.25
379.253	334.25
379.478	331.25
379.704	337.25
379.929	334.25
380.155	322.25
380.38	336.25
380.606	345.25
380.831	329.25
381.057	335.25
381.282	339.25
381.507	345.25
381.733	338.25
381.958	328.25
382.184	350.25
382.409	329.25
382.634	340.25
382.86	339.25
383.085	352.25
383.31	345.25
383.535	349.25
383.761	368.25
383.986	351.25
384.211	362.25
384.436	373.25
384.662	364.25
384.887	369.25
385.112	350.25
385.337	374.25
385.562	370.25
385.787	380.25
386.013	377.25
386.238	375.25
386.463	385.25
386.688	371.25
386.913	375.25
387.138	361.25
387.363	375.25
387.588	338.25
387.813	366.25
388.038	368.25
388.263	366.25
388.488	357.25
388.713	384.25
388.938	368.25
389.163	361.25
389.387	356.25
389.612	366.25
389.837	364.25
390.062	364.25
390.287	371.25
390.512	348.25
390.736	363.25
390.961	378.25
391.186	382.25
391.411	376.25
391.636	383.25
391.86	385.25
392.085	394.25
392.31	393.25
392.534	384.25
392.759	391.25
392.984	376.25
393.208	371.25
393.433	378.25
393.658	374.25
393.882	364.25
394.107	371.25
394.331	366.25
394.556	370.25
394.78	368.25
395.005	385.25
395.229	399.25
395.454	393.25
395.678	398.25
395.903	394.25
396.127	408.25
396.352	399.25
396.576	387.25
396.801	395.25
397.025	379.25
397.249	379.25
397.474	403.25
397.698	405.25
397.922	386.25
398.147	403.25
398.371	398.25
398.595	419.25
398.82	400.25
399.044	465.25
399.268	489.25
399.492	515.25
399.717	562.25
399.941	548.25
400.165	544.25
400.389	509.25
400.613	468.25
400.837	464.25
401.062	434.25
401.286	437.25
401.51	416.25
401.734	425.25
401.958	460.25
402.182	440.25
402.406	446.25
402.63	438.25
402.854	466.25
403.078	445.25
403.302	458.25
403.526	465.25
403.75	450.25
403.974	453.25
404.198	472.25
404.422	471.25
404.645	481.25
404.869	462.25
405.093	500.25
405.317	496.25
405.541	504.25
405.765	485.25
405.988	483.25
406.212	490.25
406.436	473.25
406.66	504.25
406.883	496.25
407.107	509.25
407.331	536.25
407.555	584.25
407.778	579.25
408.002	544.25
408.226	474.25
408.449	490.25
408.673	494.25
408.896	497.25
409.12	501.25
409.344	477.25
409.567	448.25
409.791	461.25
410.014	455.25
410.238	457.25
410.461	436.25
410.685	471.25
410.908	466.25
411.132	465.25
411.355	487.25
411.578	470.25
411.802	436.25
412.025	455.25
412.249	449.25
412.472	465.25
412.695	512.25
412.919	456.25
413.142	455.25
413.365	451.25
413.589	426.25
413.812	427.25
414.035	408.25
414.258	429.25
414.482	420.25
414.705	442.25
414.928	436.25
415.151	419.25
415.374	434.25
415.597	407.25
415.821	421.25
416.044	406.25
416.267	418.25
416.49	418.25
416.713	424.25
416.936	416.25
417.159	413.25
417.382	428.25
417.605	411.25
417.828	437.25
418.051	426.25
418.274	445.25
418.497	434.25
418.72	439.25
418.943	440.25
419.166	438.25
419.389	469.25
419.611	448.25
419.834	451.25
420.057	454.25
420.28	458.25
420.503	417.25
420.726	428.25
420.948	429.25
421.171	475.25
421.394	478.25
421.617	448.25
421.839	434.25
422.062	445.25
422.285	420.25
422.507	442.25
422.73	503.25
422.953	483.25
423.175	461.25
423.398	460.25
423.621	456.25
423.843	477.25
424.066	477.25
424.288	458.25
424.511	474.25
424.733	503.25
424.956	529.25
425.178	507.25
425.401	503.25
425.623	517.25
425.846	459.25
426.068	425.25
426.291	443.25
426.513	442.25
426.735	443.25
426.958	471.25
427.18	496.25
427.402	601.25
427.625	601.25
427.847	541.25
428.069	474.25
428.292	463.25
428.514	414.25
428.736	419.25
428.958	432.25
429.181	410.25
429.403	406.25
429.625	427.25
429.847	428.25
430.069	468.25
430.292	458.25
430.514	402.25
430.736	409.25
430.958	402.25
431.18	392.25
431.402	375.25
431.624	380.25
431.846	393.25
432.068	388.25
432.29	386.25
432.512	395.25
432.734	404.25
432.956	390.25
433.178	407.25
433.4	406.25
433.622	384.25
433.844	390.25
434.066	390.25
434.287	399.25
434.509	406.25
434.731	409.25
434.953	421.25
435.175	435.25
435.397	439.25
435.618	448.25
435.84	454.25
436.062	500.25
436.284	543.25
436.505	468.25
436.727	436.25
436.949	430.25
437.17	410.25
437.392	403.25
437.614	421.25
437.835	434.25
438.057	459.25
438.278	511.25
438.5	529.25
438.721	557.25
438.943	537.25
439.165	449.25
439.386	416.25
439.608	428.25
439.829	433.25
440.05	430.25
440.272	433.25
440.493	445.25
440.715	438.25
440.936	429.25
441.158	418.25
441.379	425.25
441.6	453.25
441.822	456.25
442.043	480.25
442.264	518.25
442.486	516.25
442.707	479.25
442.928	441.25
443.149	453.25
443.371	457.25
443.592	481.25
443.813	518.25
444.034	570.25
444.255	497.25
444.476	475.25
444.698	484.25
444.919	500.25
445.14	576.25
445.361	534.25
445.582	466.25
445.803	504.25
446.024	569.25
446.245	555.25
446.466	500.25
446.687	454.25
446.908	441.25
447.129	419.25
447.35	396.25
447.571	397.25
447.792	407.25
448.013	422.25
448.234	407.25
448.455	426.25
448.675	514.25
448.896	549.25
449.117	477.25
449.338	450.25
449.559	526.25
449.779	546.25
450	472.25
450.221	415.25
450.442	398.25
450.662	381.25
450.883	388.25
451.104	386.25
451.324	382.25
451.545	374.25
451.766	383.25
451.986	363.25
452.207	356.25
452.428	360.25
452.648	363.25
452.869	369.25
453.089	374.25
453.31	378.25
453.53	371.25
453.751	366.25
453.971	368.25
454.192	374.25
454.412	365.25
454.633	348.25
454.853	372.25
455.073	378.25
455.294	381.25
455.514	414.25
455.734	394.25
455.955	365.25
456.175	341.25
456.395	355.25
456.616	345.25
456.836	346.25
457.056	344.25
457.276	340.25
457.497	345.25
457.717	333.25
457.937	363.25
458.157	335.25
458.377	362.25
458.598	362.25
458.818	407.25
459.038	462.25
459.258	442.25
459.478	418.25
459.698	414.25
459.918	400.25
460.138	419.25
460.358	436.25
460.578	424.25
460.798	425.25
461.018	417.25
461.238	424.25
461.458	419.25
461.678	406.25
461.898	438.25
462.118	430.25
462.338	440.25
462.558	459.25
462.777	464.25
462.997	474.25
463.217	486.25
463.437	511.25
463.657	489.25
463.876	477.25
464.096	461.25
464.316	459.25
464.536	476.25
464.755	459.25
464.975	458.25
465.195	444.25
465.414	489.25
465.634	445.25
465.854	424.25
466.073	414.25
466.293	406.25
466.512	399.25
466.732	408.25
466.951	394.25
467.171	376.25
467.391	406.25
467.61	383.25
467.829	378.25
468.049	394.25
468.268	379.25
468.488	362.25
468.707	369.25
468.927	374.25
469.146	368.25
469.365	398.25
469.585	382.25
469.804	378.25
470.023	404.25
470.243	381.25
470.462	381.25
470.681	409.25
470.901	393.25
471.12	396.25
471.339	378.25
471.558	392.25
471.777	383.25
471.997	379.25
472.216	361.25
472.435	427.25
472.654	391.25
472.873	356.25
473.092	370.25
473.311	372.25
473.53	381.25
473.749	388.25
473.968	402.25
474.187	474.25
474.406	463.25
474.625	412.25
474.844	369.25
475.063	387.25
475.282	398.25
475.501	380.25
475.72	392.25
475.939	366.25
476.158	387.25
476.377	404.25
476.596	402.25
476.814	414.25
477.033	412.25
477.252	426.25
477.471	424.25
477.69	427.25
477.908	444.25
478.127	423.25
478.346	427.25
478.564	419.25
478.783	443.25
479.002	440.25
479.22	443.25
479.439	452.25
479.658	445.25
479.876	463.25
480.095	457.25
480.313	500.25
480.532	479.25
480.751	474.25
480.969	489.25
481.188	491.25
481.406	524.25
481.624	485.25
481.843	438.25
482.061	468.25
482.28	454.25
482.498	430.25
482.717	434.25
482.935	420.25
483.153	432.25
483.372	429.25
483.59	434.25
483.808	421.25
484.027	452.25
484.245	429.25
484.463	457.25
484.681	452.25
484.9	444.25
485.118	461.25
485.336	441.25
485.554	459.25
485.772	465.25
485.99	463.25
486.209	472.25
486.427	450.25
486.645	455.25
486.863	480.25
487.081	473.25
487.299	453.25
487.517	485.25
487.735	467.25
487.953	486.25
488.171	477.25
488.389	467.25
488.607	458.25
488.825	483.25
489.043	460.25
489.261	478.25
489.479	468.25
489.696	454.25
489.914	470.25
490.132	492.25
490.35	497.25
490.568	500.25
490.786	504.25
491.003	490.25
491.221	516.25
491.439	535.25
491.657	524.25
491.874	525.25
492.092	517.25
492.31	538.25
492.527	538.25
492.745	545.25
492.963	536.25
493.18	538.25
493.398	512.25
493.615	566.25
493.833	539.25
494.05	547.25
494.268	573.25
494.485	543.25
494.703	549.25
494.92	561.25
495.138	558.25
495.355	575.25
495.573	550.25
495.79	555.25
496.008	544.25
496.225	538.25
496.442	554.25
496.66	542.25
496.877	554.25
497.094	566.25
497.312	571.25
497.529	556.25
497.746	581.25
497.963	587.25
498.181	603.25
498.398	639.25
498.615	617.25
498.832	634.25
499.049	683.25
499.267	706.25
499.484	770.25
499.701	774.25
499.918	831.25
500.135	891.25
500.352	949.25
500.569	992.25
500.786	995.25
501.003	949.25
501.22	862.25
501.437	834.25
501.654	787.25
501.871	727.25
502.088	699.25
