Data from 1969.PennyLincolnUp.Lamp.En5.5.200Scan.071719.P1._HRD10591_14-55-24-973.txt Node
Date: Thu Jul 18 14:55:24 EDT 2019
User: cochatt
Spectrometer: HR+D1059
Trigger mode: 1
Integration Time (sec): 1.000000E-1
Scans to average: 1
Electric dark correction enabled: true
Nonlinearity correction enabled: false
Boxcar width: 0
XAxis mode: Wavelengths
Number of Pixels in Spectrum: 2048
>>>>>Begin Spectral Data<<<<<
223.165	-19.25
223.4	-19.25
223.635	-19.25
223.869	-22.25
224.104	-21.25
224.338	-10.25
224.573	-4.25
224.808	-29.25
225.042	-17.25
225.277	-14.25
225.511	6.75
225.746	8.75
225.98	-3.25
226.215	22.75
226.449	8.75
226.683	31.75
226.918	33.75
227.152	28.75
227.387	33.75
227.621	26.75
227.856	45.75
228.09	63.75
228.324	61.75
228.559	61.75
228.793	54.75
229.027	92.75
229.262	94.75
229.496	101.75
229.73	111.75
229.964	126.75
230.199	114.75
230.433	96.75
230.667	100.75
230.901	90.75
231.136	76.75
231.37	90.75
231.604	90.75
231.838	105.75
232.072	100.75
232.306	108.75
232.541	95.75
232.775	80.75
233.009	92.75
233.243	109.75
233.477	100.75
233.711	101.75
233.945	106.75
234.179	115.75
234.413	102.75
234.647	99.75
234.881	122.75
235.115	93.75
235.349	110.75
235.583	116.75
235.817	106.75
236.051	100.75
236.285	108.75
236.519	115.75
236.753	115.75
236.987	138.75
237.221	146.75
237.455	172.75
237.689	133.75
237.922	118.75
238.156	109.75
238.39	117.75
238.624	108.75
238.858	108.75
239.091	95.75
239.325	114.75
239.559	116.75
239.793	120.75
240.027	120.75
240.26	121.75
240.494	129.75
240.728	126.75
240.961	119.75
241.195	118.75
241.429	122.75
241.662	124.75
241.896	113.75
242.13	119.75
242.363	119.75
242.597	121.75
242.83	121.75
243.064	119.75
243.298	134.75
243.531	126.75
243.765	120.75
243.998	134.75
244.232	117.75
244.465	124.75
244.699	124.75
244.932	133.75
245.166	125.75
245.399	132.75
245.633	132.75
245.866	110.75
246.099	137.75
246.333	139.75
246.566	126.75
246.8	141.75
247.033	136.75
247.266	147.75
247.5	150.75
247.733	143.75
247.966	135.75
248.2	157.75
248.433	157.75
248.666	147.75
248.899	146.75
249.133	149.75
249.366	140.75
249.599	148.75
249.832	155.75
250.066	137.75
250.299	151.75
250.532	142.75
250.765	158.75
250.998	177.75
251.231	181.75
251.465	181.75
251.698	158.75
251.931	159.75
252.164	154.75
252.397	174.75
252.63	156.75
252.863	156.75
253.096	176.75
253.329	168.75
253.562	184.75
253.795	186.75
254.028	174.75
254.261	193.75
254.494	192.75
254.727	214.75
254.96	214.75
255.193	200.75
255.426	193.75
255.659	178.75
255.892	187.75
256.124	181.75
256.357	188.75
256.59	180.75
256.823	174.75
257.056	179.75
257.289	179.75
257.521	169.75
257.754	179.75
257.987	163.75
258.22	176.75
258.452	172.75
258.685	174.75
258.918	195.75
259.151	174.75
259.383	186.75
259.616	182.75
259.849	181.75
260.081	193.75
260.314	196.75
260.547	211.75
260.779	189.75
261.012	201.75
261.244	177.75
261.477	191.75
261.71	186.75
261.942	190.75
262.175	202.75
262.407	188.75
262.64	174.75
262.872	178.75
263.105	182.75
263.337	180.75
263.57	175.75
263.802	183.75
264.035	168.75
264.267	183.75
264.499	179.75
264.732	190.75
264.964	175.75
265.197	163.75
265.429	178.75
265.661	175.75
265.894	190.75
266.126	193.75
266.358	192.75
266.591	181.75
266.823	200.75
267.055	212.75
267.287	207.75
267.52	194.75
267.752	193.75
267.984	204.75
268.216	205.75
268.448	198.75
268.681	186.75
268.913	217.75
269.145	227.75
269.377	225.75
269.609	228.75
269.841	210.75
270.073	214.75
270.306	230.75
270.538	237.75
270.77	242.75
271.002	241.75
271.234	236.75
271.466	239.75
271.698	234.75
271.93	262.75
272.162	242.75
272.394	246.75
272.626	235.75
272.858	231.75
273.09	216.75
273.322	232.75
273.553	223.75
273.785	213.75
274.017	219.75
274.249	233.75
274.481	211.75
274.713	233.75
274.945	231.75
275.176	229.75
275.408	220.75
275.64	221.75
275.872	219.75
276.104	229.75
276.335	221.75
276.567	230.75
276.799	241.75
277.031	267.75
277.262	263.75
277.494	260.75
277.726	249.75
277.957	249.75
278.189	250.75
278.421	226.75
278.652	216.75
278.884	227.75
279.115	206.75
279.347	213.75
279.579	232.75
279.81	217.75
280.042	222.75
280.273	227.75
280.505	219.75
280.736	218.75
280.968	219.75
281.199	230.75
281.431	232.75
281.662	231.75
281.894	228.75
282.125	233.75
282.356	243.75
282.588	239.75
282.819	236.75
283.051	233.75
283.282	230.75
283.513	238.75
283.745	246.75
283.976	230.75
284.207	246.75
284.439	238.75
284.67	251.75
284.901	256.75
285.132	253.75
285.364	226.75
285.595	257.75
285.826	236.75
286.057	235.75
286.288	231.75
286.52	232.75
286.751	241.75
286.982	245.75
287.213	260.75
287.444	257.75
287.675	252.75
287.906	253.75
288.138	260.75
288.369	265.75
288.6	249.75
288.831	246.75
289.062	261.75
289.293	257.75
289.524	266.75
289.755	262.75
289.986	268.75
290.217	262.75
290.448	261.75
290.679	241.75
290.91	253.75
291.141	272.75
291.371	253.75
291.602	270.75
291.833	255.75
292.064	265.75
292.295	264.75
292.526	261.75
292.757	276.75
292.987	229.75
293.218	241.75
293.449	249.75
293.68	255.75
293.91	265.75
294.141	246.75
294.372	246.75
294.603	246.75
294.833	254.75
295.064	265.75
295.295	241.75
295.525	250.75
295.756	269.75
295.987	253.75
296.217	281.75
296.448	279.75
296.679	248.75
296.909	271.75
297.14	277.75
297.37	278.75
297.601	261.75
297.831	264.75
298.062	251.75
298.292	260.75
298.523	283.75
298.753	273.75
298.984	264.75
299.214	278.75
299.445	272.75
299.675	260.75
299.905	301.75
300.136	275.75
300.366	270.75
300.597	281.75
300.827	267.75
301.057	278.75
301.288	277.75
301.518	271.75
301.748	303.75
301.979	292.75
302.209	297.75
302.439	290.75
302.669	299.75
302.9	282.75
303.13	294.75
303.36	282.75
303.59	287.75
303.82	295.75
304.051	290.75
304.281	295.75
304.511	279.75
304.741	279.75
304.971	282.75
305.201	302.75
305.431	314.75
305.661	279.75
305.891	276.75
306.121	284.75
306.352	293.75
306.582	266.75
306.812	286.75
307.042	271.75
307.272	287.75
307.502	286.75
307.731	293.75
307.961	280.75
308.191	282.75
308.421	276.75
308.651	308.75
308.881	302.75
309.111	279.75
309.341	287.75
309.571	305.75
309.8	301.75
310.03	307.75
310.26	309.75
310.49	301.75
310.72	318.75
310.949	298.75
311.179	329.75
311.409	289.75
311.639	297.75
311.868	288.75
312.098	300.75
312.328	315.75
312.557	307.75
312.787	322.75
313.017	320.75
313.246	334.75
313.476	298.75
313.706	293.75
313.935	321.75
314.165	314.75
314.394	348.75
314.624	335.75
314.853	311.75
315.083	295.75
315.312	326.75
315.542	320.75
315.771	305.75
316.001	307.75
316.23	324.75
316.46	297.75
316.689	314.75
316.919	315.75
317.148	311.75
317.377	332.75
317.607	318.75
317.836	309.75
318.065	309.75
318.295	302.75
318.524	324.75
318.753	318.75
318.983	286.75
319.212	320.75
319.441	329.75
319.67	308.75
319.9	336.75
320.129	314.75
320.358	299.75
320.587	304.75
320.816	327.75
321.046	327.75
321.275	319.75
321.504	327.75
321.733	334.75
321.962	318.75
322.191	332.75
322.42	315.75
322.649	327.75
322.878	341.75
323.108	342.75
323.337	367.75
323.566	386.75
323.795	351.75
324.024	387.75
324.253	443.75
324.482	590.75
324.71	813.75
324.939	1101.75
325.168	912.75
325.397	531.75
325.626	423.75
325.855	377.75
326.084	377.75
326.313	381.75
326.542	374.75
326.77	402.75
326.999	443.75
327.228	550.75
327.457	751.75
327.686	820.75
327.914	602.75
328.143	449.75
328.372	429.75
328.6	420.75
328.829	399.75
329.058	393.75
329.287	438.75
329.515	403.75
329.744	362.75
329.972	378.75
330.201	394.75
330.43	434.75
330.658	430.75
330.887	450.75
331.115	424.75
331.344	359.75
331.572	377.75
331.801	385.75
332.03	370.75
332.258	388.75
332.486	378.75
332.715	382.75
332.943	390.75
333.172	419.75
333.4	398.75
333.629	394.75
333.857	424.75
334.085	390.75
334.314	440.75
334.542	455.75
334.771	455.75
334.999	436.75
335.227	409.75
335.455	397.75
335.684	390.75
335.912	368.75
336.14	386.75
336.369	389.75
336.597	378.75
336.825	382.75
337.053	376.75
337.281	365.75
337.51	369.75
337.738	372.75
337.966	384.75
338.194	368.75
338.422	361.75
338.65	357.75
338.878	351.75
339.106	385.75
339.334	360.75
339.562	349.75
339.79	365.75
340.018	358.75
340.246	361.75
340.474	351.75
340.702	341.75
340.93	357.75
341.158	356.75
341.386	355.75
341.614	357.75
341.842	358.75
342.07	352.75
342.298	340.75
342.526	339.75
342.754	348.75
342.981	348.75
343.209	357.75
343.437	353.75
343.665	384.75
343.893	381.75
344.12	383.75
344.348	382.75
344.576	365.75
344.804	364.75
345.031	366.75
345.259	367.75
345.487	355.75
345.714	358.75
345.942	337.75
346.17	336.75
346.397	345.75
346.625	318.75
346.853	332.75
347.08	316.75
347.308	326.75
347.535	345.75
347.763	332.75
347.99	334.75
348.218	332.75
348.445	341.75
348.673	343.75
348.9	345.75
349.128	350.75
349.355	317.75
349.583	340.75
349.81	308.75
350.037	310.75
350.265	313.75
350.492	332.75
350.72	329.75
350.947	326.75
351.174	331.75
351.402	350.75
351.629	344.75
351.856	358.75
352.083	350.75
352.311	356.75
352.538	335.75
352.765	314.75
352.992	350.75
353.22	321.75
353.447	332.75
353.674	353.75
353.901	327.75
354.128	329.75
354.355	311.75
354.583	317.75
354.81	323.75
355.037	330.75
355.264	328.75
355.491	317.75
355.718	316.75
355.945	317.75
356.172	316.75
356.399	314.75
356.626	329.75
356.853	328.75
357.08	326.75
357.307	301.75
357.534	311.75
357.761	312.75
357.988	314.75
358.215	314.75
358.441	298.75
358.668	312.75
358.895	312.75
359.122	324.75
359.349	341.75
359.576	319.75
359.802	343.75
360.029	354.75
360.256	348.75
360.483	343.75
360.709	325.75
360.936	333.75
361.163	308.75
361.39	334.75
361.616	333.75
361.843	332.75
362.07	321.75
362.296	322.75
362.523	340.75
362.749	317.75
362.976	322.75
363.203	325.75
363.429	331.75
363.656	302.75
363.882	314.75
364.109	322.75
364.335	320.75
364.562	302.75
364.788	320.75
365.015	313.75
365.241	312.75
365.468	324.75
365.694	318.75
365.92	330.75
366.147	345.75
366.373	341.75
366.599	318.75
366.826	318.75
367.052	321.75
367.278	319.75
367.505	326.75
367.731	321.75
367.957	323.75
368.184	326.75
368.41	300.75
368.636	339.75
368.862	323.75
369.089	332.75
369.315	340.75
369.541	320.75
369.767	340.75
369.993	323.75
370.219	308.75
370.445	321.75
370.672	323.75
370.898	329.75
371.124	325.75
371.35	336.75
371.576	314.75
371.802	319.75
372.028	329.75
372.254	322.75
372.48	327.75
372.706	341.75
372.932	338.75
373.158	330.75
373.384	316.75
373.61	335.75
373.835	322.75
374.061	334.75
374.287	331.75
374.513	331.75
374.739	343.75
374.965	351.75
375.191	329.75
375.416	345.75
375.642	322.75
375.868	361.75
376.094	347.75
376.319	316.75
376.545	339.75
376.771	321.75
376.997	314.75
377.222	322.75
377.448	332.75
377.674	319.75
377.899	337.75
378.125	342.75
378.35	317.75
378.576	305.75
378.802	329.75
379.027	330.75
379.253	346.75
379.478	330.75
379.704	335.75
379.929	321.75
380.155	327.75
380.38	337.75
380.606	332.75
380.831	317.75
381.057	334.75
381.282	357.75
381.507	318.75
381.733	326.75
381.958	332.75
382.184	332.75
382.409	326.75
382.634	333.75
382.86	348.75
383.085	331.75
383.31	335.75
383.535	348.75
383.761	348.75
383.986	344.75
384.211	355.75
384.436	363.75
384.662	373.75
384.887	353.75
385.112	364.75
385.337	371.75
385.562	364.75
385.787	364.75
386.013	353.75
386.238	375.75
386.463	382.75
386.688	392.75
386.913	366.75
387.138	366.75
387.363	367.75
387.588	381.75
387.813	376.75
388.038	355.75
388.263	354.75
388.488	358.75
388.713	375.75
388.938	359.75
389.163	359.75
389.387	354.75
389.612	371.75
389.837	348.75
390.062	350.75
390.287	339.75
390.512	369.75
390.736	371.75
390.961	378.75
391.186	371.75
391.411	371.75
391.636	388.75
391.86	384.75
392.085	397.75
392.31	395.75
392.534	383.75
392.759	382.75
392.984	372.75
393.208	358.75
393.433	364.75
393.658	371.75
393.882	349.75
394.107	376.75
394.331	385.75
394.556	382.75
394.78	382.75
395.005	399.75
395.229	389.75
395.454	404.75
395.678	384.75
395.903	382.75
396.127	399.75
396.352	380.75
396.576	363.75
396.801	371.75
397.025	360.75
397.249	381.75
397.474	385.75
397.698	397.75
397.922	386.75
398.147	418.75
398.371	409.75
398.595	411.75
398.82	424.75
399.044	429.75
399.268	475.75
399.492	520.75
399.717	572.75
399.941	566.75
400.165	516.75
400.389	520.75
400.613	470.75
400.837	447.75
401.062	433.75
401.286	419.75
401.51	424.75
401.734	410.75
401.958	416.75
402.182	438.75
402.406	425.75
402.63	455.75
402.854	469.75
403.078	464.75
403.302	449.75
403.526	447.75
403.75	457.75
403.974	463.75
404.198	454.75
404.422	467.75
404.645	461.75
404.869	465.75
405.093	472.75
405.317	477.75
405.541	521.75
405.765	476.75
405.988	466.75
406.212	469.75
406.436	492.75
406.66	503.75
406.883	501.75
407.107	500.75
407.331	525.75
407.555	567.75
407.778	553.75
408.002	499.75
408.226	477.75
408.449	486.75
408.673	472.75
408.896	518.75
409.12	488.75
409.344	483.75
409.567	462.75
409.791	469.75
410.014	451.75
410.238	419.75
410.461	464.75
410.685	450.75
410.908	444.75
411.132	473.75
411.355	502.75
411.578	474.75
411.802	458.75
412.025	445.75
412.249	441.75
412.472	463.75
412.695	479.75
412.919	483.75
413.142	470.75
413.365	437.75
413.589	439.75
413.812	424.75
414.035	448.75
414.258	437.75
414.482	417.75
414.705	419.75
414.928	418.75
415.151	407.75
415.374	398.75
415.597	412.75
415.821	435.75
416.044	430.75
416.267	427.75
416.49	435.75
416.713	412.75
416.936	431.75
417.159	405.75
417.382	418.75
417.605	426.75
417.828	415.75
418.051	452.75
418.274	431.75
418.497	407.75
418.72	426.75
418.943	422.75
419.166	447.75
419.389	462.75
419.611	463.75
419.834	461.75
420.057	446.75
420.28	447.75
420.503	436.75
420.726	422.75
420.948	440.75
421.171	449.75
421.394	493.75
421.617	455.75
421.839	440.75
422.062	437.75
422.285	423.75
422.507	470.75
422.73	502.75
422.953	511.75
423.175	434.75
423.398	447.75
423.621	450.75
423.843	448.75
424.066	482.75
424.288	465.75
424.511	453.75
424.733	513.75
424.956	520.75
425.178	503.75
425.401	523.75
425.623	528.75
425.846	446.75
426.068	437.75
426.291	438.75
426.513	452.75
426.735	454.75
426.958	476.75
427.18	489.75
427.402	585.75
427.625	606.75
427.847	540.75
428.069	477.75
428.292	466.75
428.514	412.75
428.736	418.75
428.958	424.75
429.181	401.75
429.403	397.75
429.625	395.75
429.847	405.75
430.069	454.75
430.292	446.75
430.514	406.75
430.736	409.75
430.958	418.75
431.18	381.75
431.402	413.75
431.624	355.75
431.846	380.75
432.068	394.75
432.29	388.75
432.512	407.75
432.734	401.75
432.956	397.75
433.178	394.75
433.4	396.75
433.622	382.75
433.844	415.75
434.066	399.75
434.287	389.75
434.509	418.75
434.731	393.75
434.953	421.75
435.175	439.75
435.397	427.75
435.618	438.75
435.84	433.75
436.062	477.75
436.284	515.75
436.505	463.75
436.727	441.75
436.949	420.75
437.17	388.75
437.392	386.75
437.614	402.75
437.835	419.75
438.057	476.75
438.278	521.75
438.5	509.75
438.721	574.75
438.943	537.75
439.165	437.75
439.386	442.75
439.608	450.75
439.829	432.75
440.05	444.75
440.272	465.75
440.493	418.75
440.715	407.75
440.936	414.75
441.158	410.75
441.379	413.75
441.6	439.75
441.822	446.75
442.043	477.75
442.264	508.75
442.486	517.75
442.707	471.75
442.928	441.75
443.149	454.75
443.371	469.75
443.592	486.75
443.813	537.75
444.034	534.75
444.255	506.75
444.476	478.75
444.698	478.75
444.919	475.75
445.14	572.75
445.361	510.75
445.582	466.75
445.803	508.75
446.024	541.75
446.245	537.75
446.466	489.75
446.687	445.75
446.908	421.75
447.129	413.75
447.35	407.75
447.571	387.75
447.792	383.75
448.013	403.75
448.234	422.75
448.455	427.75
448.675	484.75
448.896	573.75
449.117	466.75
449.338	441.75
449.559	527.75
449.779	570.75
450	463.75
450.221	385.75
450.442	379.75
450.662	395.75
450.883	394.75
451.104	384.75
451.324	392.75
451.545	395.75
451.766	358.75
451.986	367.75
452.207	353.75
452.428	368.75
452.648	352.75
452.869	372.75
453.089	364.75
453.31	387.75
453.53	377.75
453.751	372.75
453.971	357.75
454.192	372.75
454.412	371.75
454.633	365.75
454.853	347.75
455.073	372.75
455.294	361.75
455.514	396.75
455.734	373.75
455.955	356.75
456.175	353.75
456.395	349.75
456.616	322.75
456.836	351.75
457.056	336.75
457.276	327.75
457.497	347.75
457.717	329.75
457.937	345.75
458.157	375.75
458.377	361.75
458.598	376.75
458.818	393.75
459.038	448.75
459.258	441.75
459.478	437.75
459.698	406.75
459.918	389.75
460.138	400.75
460.358	411.75
460.578	408.75
460.798	417.75
461.018	438.75
461.238	436.75
461.458	428.75
461.678	412.75
461.898	431.75
462.118	442.75
462.338	424.75
462.558	443.75
462.777	451.75
462.997	483.75
463.217	502.75
463.437	489.75
463.657	459.75
463.876	459.75
464.096	476.75
464.316	454.75
464.536	459.75
464.755	445.75
464.975	440.75
465.195	454.75
465.414	471.75
465.634	434.75
465.854	421.75
466.073	409.75
466.293	391.75
466.512	374.75
466.732	396.75
466.951	392.75
467.171	366.75
467.391	387.75
467.61	389.75
467.829	398.75
468.049	399.75
468.268	375.75
468.488	378.75
468.707	371.75
468.927	374.75
469.146	373.75
469.365	358.75
469.585	367.75
469.804	385.75
470.023	397.75
470.243	411.75
470.462	387.75
470.681	396.75
470.901	418.75
471.12	383.75
471.339	389.75
471.558	367.75
471.777	375.75
471.997	384.75
472.216	377.75
472.435	402.75
472.654	383.75
472.873	381.75
473.092	372.75
473.311	381.75
473.53	378.75
473.749	385.75
473.968	409.75
474.187	444.75
474.406	472.75
474.625	414.75
474.844	392.75
475.063	369.75
475.282	364.75
475.501	379.75
475.72	377.75
475.939	370.75
476.158	388.75
476.377	382.75
476.596	396.75
476.814	391.75
477.033	383.75
477.252	388.75
477.471	426.75
477.69	376.75
477.908	414.75
478.127	420.75
478.346	436.75
478.564	431.75
478.783	446.75
479.002	445.75
479.22	450.75
479.439	462.75
479.658	451.75
479.876	466.75
480.095	457.75
480.313	456.75
480.532	477.75
480.751	478.75
480.969	497.75
481.188	505.75
481.406	518.75
481.624	467.75
481.843	435.75
482.061	429.75
482.28	459.75
482.498	422.75
482.717	413.75
482.935	415.75
483.153	413.75
483.372	446.75
483.59	434.75
483.808	447.75
484.027	456.75
484.245	428.75
484.463	430.75
484.681	453.75
484.9	433.75
485.118	429.75
485.336	437.75
485.554	439.75
485.772	438.75
485.99	449.75
486.209	460.75
486.427	467.75
486.645	459.75
486.863	449.75
487.081	436.75
487.299	440.75
487.517	465.75
487.735	455.75
487.953	458.75
488.171	453.75
488.389	479.75
488.607	454.75
488.825	463.75
489.043	454.75
489.261	469.75
489.479	467.75
489.696	447.75
489.914	478.75
490.132	470.75
490.35	485.75
490.568	471.75
490.786	500.75
491.003	493.75
491.221	501.75
491.439	499.75
491.657	515.75
491.874	527.75
492.092	534.75
492.31	524.75
492.527	538.75
492.745	511.75
492.963	548.75
493.18	552.75
493.398	539.75
493.615	527.75
493.833	570.75
494.05	515.75
494.268	541.75
494.485	544.75
494.703	550.75
494.92	547.75
495.138	533.75
495.355	536.75
495.573	537.75
495.79	504.75
496.008	538.75
496.225	546.75
496.442	552.75
496.66	543.75
496.877	526.75
497.094	561.75
497.312	540.75
497.529	565.75
497.746	551.75
497.963	577.75
498.181	601.75
498.398	615.75
498.615	590.75
498.832	651.75
499.049	675.75
499.267	698.75
499.484	742.75
499.701	793.75
499.918	825.75
500.135	889.75
500.352	948.75
500.569	963.75
500.786	976.75
501.003	932.75
501.22	895.75
501.437	823.75
501.654	793.75
501.871	781.75
502.088	667.75
