Data from 1969.PennyLincolnUp.Lamp.En5.5.200Scan.071719.P1._HRD10591_14-54-11-971.txt Node
Date: Thu Jul 18 14:54:11 EDT 2019
User: cochatt
Spectrometer: HR+D1059
Trigger mode: 1
Integration Time (sec): 1.000000E-1
Scans to average: 1
Electric dark correction enabled: true
Nonlinearity correction enabled: false
Boxcar width: 0
XAxis mode: Wavelengths
Number of Pixels in Spectrum: 2048
>>>>>Begin Spectral Data<<<<<
223.165	-5.62
223.4	-5.62
223.635	-5.62
223.869	-23.62
224.104	-20.62
224.338	-16.62
224.573	-19.62
224.808	-10.62
225.042	-15.62
225.277	-5.62
225.511	7.38
225.746	-8.62
225.98	-0.62
226.215	13.38
226.449	17.38
226.683	26.38
226.918	31.38
227.152	31.38
227.387	29.38
227.621	35.38
227.856	43.38
228.09	44.38
228.324	41.38
228.559	61.38
228.793	70.38
229.027	94.38
229.262	89.38
229.496	93.38
229.73	96.38
229.964	117.38
230.199	108.38
230.433	95.38
230.667	101.38
230.901	95.38
231.136	92.38
231.37	110.38
231.604	102.38
231.838	94.38
232.072	88.38
232.306	109.38
232.541	110.38
232.775	114.38
233.009	92.38
233.243	99.38
233.477	113.38
233.711	106.38
233.945	114.38
234.179	105.38
234.413	106.38
234.647	109.38
234.881	95.38
235.115	96.38
235.349	109.38
235.583	110.38
235.817	108.38
236.051	107.38
236.285	103.38
236.519	109.38
236.753	116.38
236.987	132.38
237.221	138.38
237.455	157.38
237.689	140.38
237.922	122.38
238.156	96.38
238.39	107.38
238.624	107.38
238.858	95.38
239.091	105.38
239.325	111.38
239.559	109.38
239.793	124.38
240.027	131.38
240.26	127.38
240.494	111.38
240.728	123.38
240.961	125.38
241.195	130.38
241.429	114.38
241.662	119.38
241.896	114.38
242.13	119.38
242.363	125.38
242.597	108.38
242.83	136.38
243.064	122.38
243.298	120.38
243.531	126.38
243.765	137.38
243.998	118.38
244.232	117.38
244.465	124.38
244.699	126.38
244.932	116.38
245.166	119.38
245.399	128.38
245.633	121.38
245.866	140.38
246.099	134.38
246.333	140.38
246.566	152.38
246.8	132.38
247.033	128.38
247.266	138.38
247.5	136.38
247.733	138.38
247.966	142.38
248.2	138.38
248.433	155.38
248.666	138.38
248.899	146.38
249.133	155.38
249.366	148.38
249.599	148.38
249.832	134.38
250.066	139.38
250.299	148.38
250.532	166.38
250.765	158.38
250.998	174.38
251.231	175.38
251.465	159.38
251.698	159.38
251.931	171.38
252.164	165.38
252.397	155.38
252.63	159.38
252.863	176.38
253.096	175.38
253.329	164.38
253.562	170.38
253.795	171.38
254.028	167.38
254.261	184.38
254.494	186.38
254.727	195.38
254.96	198.38
255.193	198.38
255.426	187.38
255.659	171.38
255.892	185.38
256.124	167.38
256.357	179.38
256.59	198.38
256.823	168.38
257.056	180.38
257.289	171.38
257.521	179.38
257.754	170.38
257.987	182.38
258.22	177.38
258.452	166.38
258.685	166.38
258.918	140.38
259.151	159.38
259.383	171.38
259.616	180.38
259.849	178.38
260.081	174.38
260.314	198.38
260.547	206.38
260.779	175.38
261.012	189.38
261.244	180.38
261.477	199.38
261.71	159.38
261.942	172.38
262.175	187.38
262.407	172.38
262.64	176.38
262.872	188.38
263.105	180.38
263.337	181.38
263.57	173.38
263.802	178.38
264.035	182.38
264.267	169.38
264.499	174.38
264.732	170.38
264.964	176.38
265.197	178.38
265.429	171.38
265.661	177.38
265.894	180.38
266.126	178.38
266.358	187.38
266.591	190.38
266.823	172.38
267.055	190.38
267.287	186.38
267.52	195.38
267.752	185.38
267.984	198.38
268.216	188.38
268.448	203.38
268.681	206.38
268.913	201.38
269.145	196.38
269.377	213.38
269.609	220.38
269.841	210.38
270.073	211.38
270.306	214.38
270.538	230.38
270.77	225.38
271.002	237.38
271.234	223.38
271.466	251.38
271.698	228.38
271.93	230.38
272.162	236.38
272.394	248.38
272.626	216.38
272.858	234.38
273.09	216.38
273.322	229.38
273.553	210.38
273.785	224.38
274.017	219.38
274.249	200.38
274.481	222.38
274.713	213.38
274.945	230.38
275.176	217.38
275.408	207.38
275.64	207.38
275.872	219.38
276.104	210.38
276.335	202.38
276.567	222.38
276.799	216.38
277.031	251.38
277.262	253.38
277.494	258.38
277.726	243.38
277.957	209.38
278.189	229.38
278.421	219.38
278.652	205.38
278.884	230.38
279.115	220.38
279.347	229.38
279.579	221.38
279.81	202.38
280.042	223.38
280.273	227.38
280.505	256.38
280.736	221.38
280.968	221.38
281.199	217.38
281.431	236.38
281.662	230.38
281.894	238.38
282.125	238.38
282.356	231.38
282.588	250.38
282.819	228.38
283.051	227.38
283.282	208.38
283.513	230.38
283.745	239.38
283.976	218.38
284.207	239.38
284.439	238.38
284.67	245.38
284.901	238.38
285.132	250.38
285.364	238.38
285.595	240.38
285.826	237.38
286.057	258.38
286.288	223.38
286.52	251.38
286.751	230.38
286.982	242.38
287.213	254.38
287.444	227.38
287.675	250.38
287.906	262.38
288.138	241.38
288.369	258.38
288.6	268.38
288.831	248.38
289.062	244.38
289.293	267.38
289.524	229.38
289.755	247.38
289.986	239.38
290.217	235.38
290.448	253.38
290.679	265.38
290.91	236.38
291.141	261.38
291.371	240.38
291.602	227.38
291.833	250.38
292.064	239.38
292.295	244.38
292.526	257.38
292.757	268.38
292.987	255.38
293.218	259.38
293.449	239.38
293.68	238.38
293.91	231.38
294.141	246.38
294.372	233.38
294.603	254.38
294.833	268.38
295.064	261.38
295.295	237.38
295.525	254.38
295.756	258.38
295.987	256.38
296.217	258.38
296.448	253.38
296.679	262.38
296.909	262.38
297.14	261.38
297.37	252.38
297.601	250.38
297.831	254.38
298.062	264.38
298.292	261.38
298.523	278.38
298.753	258.38
298.984	267.38
299.214	262.38
299.445	271.38
299.675	251.38
299.905	279.38
300.136	263.38
300.366	280.38
300.597	264.38
300.827	265.38
301.057	260.38
301.288	278.38
301.518	268.38
301.748	280.38
301.979	272.38
302.209	279.38
302.439	277.38
302.669	276.38
302.9	269.38
303.13	269.38
303.36	287.38
303.59	288.38
303.82	278.38
304.051	287.38
304.281	288.38
304.511	283.38
304.741	287.38
304.971	275.38
305.201	301.38
305.431	290.38
305.661	263.38
305.891	283.38
306.121	270.38
306.352	270.38
306.582	276.38
306.812	285.38
307.042	282.38
307.272	272.38
307.502	272.38
307.731	261.38
307.961	291.38
308.191	296.38
308.421	279.38
308.651	277.38
308.881	277.38
309.111	282.38
309.341	262.38
309.571	290.38
309.8	303.38
310.03	300.38
310.26	288.38
310.49	292.38
310.72	285.38
310.949	318.38
311.179	300.38
311.409	292.38
311.639	310.38
311.868	296.38
312.098	295.38
312.328	312.38
312.557	304.38
312.787	331.38
313.017	313.38
313.246	315.38
313.476	320.38
313.706	308.38
313.935	302.38
314.165	300.38
314.394	331.38
314.624	312.38
314.853	300.38
315.083	296.38
315.312	301.38
315.542	305.38
315.771	307.38
316.001	310.38
316.23	319.38
316.46	306.38
316.689	306.38
316.919	301.38
317.148	302.38
317.377	311.38
317.607	301.38
317.836	304.38
318.065	304.38
318.295	302.38
318.524	307.38
318.753	315.38
318.983	299.38
319.212	295.38
319.441	316.38
319.67	318.38
319.9	315.38
320.129	303.38
320.358	315.38
320.587	315.38
320.816	306.38
321.046	327.38
321.275	307.38
321.504	311.38
321.733	311.38
321.962	336.38
322.191	336.38
322.42	330.38
322.649	316.38
322.878	358.38
323.108	329.38
323.337	349.38
323.566	334.38
323.795	375.38
324.024	390.38
324.253	429.38
324.482	559.38
324.71	751.38
324.939	1005.38
325.168	863.38
325.397	491.38
325.626	381.38
325.855	362.38
326.084	356.38
326.313	352.38
326.542	332.38
326.77	371.38
326.999	407.38
327.228	523.38
327.457	717.38
327.686	763.38
327.914	548.38
328.143	446.38
328.372	403.38
328.6	398.38
328.829	375.38
329.058	382.38
329.287	386.38
329.515	374.38
329.744	384.38
329.972	357.38
330.201	383.38
330.43	392.38
330.658	424.38
330.887	415.38
331.115	403.38
331.344	382.38
331.572	388.38
331.801	370.38
332.03	372.38
332.258	371.38
332.486	363.38
332.715	375.38
332.943	351.38
333.172	367.38
333.4	399.38
333.629	408.38
333.857	418.38
334.085	421.38
334.314	385.38
334.542	436.38
334.771	415.38
334.999	401.38
335.227	400.38
335.455	394.38
335.684	358.38
335.912	391.38
336.14	362.38
336.369	374.38
336.597	374.38
336.825	383.38
337.053	371.38
337.281	353.38
337.51	376.38
337.738	366.38
337.966	359.38
338.194	355.38
338.422	341.38
338.65	344.38
338.878	351.38
339.106	331.38
339.334	343.38
339.562	355.38
339.79	336.38
340.018	351.38
340.246	354.38
340.474	377.38
340.702	342.38
340.93	352.38
341.158	357.38
341.386	356.38
341.614	342.38
341.842	346.38
342.07	330.38
342.298	339.38
342.526	341.38
342.754	347.38
342.981	335.38
343.209	339.38
343.437	356.38
343.665	357.38
343.893	379.38
344.12	374.38
344.348	351.38
344.576	363.38
344.804	342.38
345.031	354.38
345.259	342.38
345.487	345.38
345.714	333.38
345.942	348.38
346.17	333.38
346.397	350.38
346.625	336.38
346.853	321.38
347.08	317.38
347.308	320.38
347.535	336.38
347.763	328.38
347.99	345.38
348.218	346.38
348.445	336.38
348.673	346.38
348.9	349.38
349.128	336.38
349.355	324.38
349.583	319.38
349.81	328.38
350.037	312.38
350.265	328.38
350.492	316.38
350.72	318.38
350.947	308.38
351.174	332.38
351.402	315.38
351.629	322.38
351.856	339.38
352.083	338.38
352.311	317.38
352.538	328.38
352.765	324.38
352.992	325.38
353.22	324.38
353.447	321.38
353.674	333.38
353.901	321.38
354.128	309.38
354.355	320.38
354.583	310.38
354.81	317.38
355.037	291.38
355.264	304.38
355.491	301.38
355.718	306.38
355.945	319.38
356.172	316.38
356.399	295.38
356.626	298.38
356.853	301.38
357.08	329.38
357.307	337.38
357.534	316.38
357.761	308.38
357.988	304.38
358.215	303.38
358.441	324.38
358.668	324.38
358.895	316.38
359.122	322.38
359.349	317.38
359.576	328.38
359.802	314.38
360.029	343.38
360.256	343.38
360.483	341.38
360.709	325.38
360.936	326.38
361.163	336.38
361.39	318.38
361.616	312.38
361.843	335.38
362.07	325.38
362.296	308.38
362.523	334.38
362.749	314.38
362.976	296.38
363.203	308.38
363.429	308.38
363.656	307.38
363.882	310.38
364.109	304.38
364.335	312.38
364.562	326.38
364.788	297.38
365.015	310.38
365.241	306.38
365.468	323.38
365.694	313.38
365.92	318.38
366.147	317.38
366.373	324.38
366.599	320.38
366.826	294.38
367.052	299.38
367.278	310.38
367.505	298.38
367.731	305.38
367.957	308.38
368.184	306.38
368.41	325.38
368.636	324.38
368.862	333.38
369.089	329.38
369.315	300.38
369.541	299.38
369.767	298.38
369.993	320.38
370.219	322.38
370.445	325.38
370.672	309.38
370.898	338.38
371.124	326.38
371.35	312.38
371.576	306.38
371.802	328.38
372.028	331.38
372.254	321.38
372.48	317.38
372.706	320.38
372.932	330.38
373.158	324.38
373.384	316.38
373.61	325.38
373.835	342.38
374.061	320.38
374.287	313.38
374.513	334.38
374.739	318.38
374.965	322.38
375.191	360.38
375.416	327.38
375.642	331.38
375.868	333.38
376.094	320.38
376.319	318.38
376.545	329.38
376.771	335.38
376.997	338.38
377.222	320.38
377.448	304.38
377.674	328.38
377.899	315.38
378.125	297.38
378.35	309.38
378.576	339.38
378.802	318.38
379.027	329.38
379.253	303.38
379.478	327.38
379.704	310.38
379.929	320.38
380.155	312.38
380.38	306.38
380.606	321.38
380.831	319.38
381.057	315.38
381.282	319.38
381.507	325.38
381.733	344.38
381.958	332.38
382.184	327.38
382.409	314.38
382.634	354.38
382.86	330.38
383.085	326.38
383.31	334.38
383.535	348.38
383.761	351.38
383.986	336.38
384.211	358.38
384.436	355.38
384.662	357.38
384.887	366.38
385.112	329.38
385.337	348.38
385.562	365.38
385.787	377.38
386.013	380.38
386.238	371.38
386.463	366.38
386.688	374.38
386.913	367.38
387.138	367.38
387.363	375.38
387.588	358.38
387.813	358.38
388.038	361.38
388.263	362.38
388.488	359.38
388.713	373.38
388.938	353.38
389.163	364.38
389.387	358.38
389.612	344.38
389.837	359.38
390.062	350.38
390.287	348.38
390.512	357.38
390.736	350.38
390.961	357.38
391.186	374.38
391.411	377.38
391.636	375.38
391.86	388.38
392.085	382.38
392.31	380.38
392.534	370.38
392.759	365.38
392.984	366.38
393.208	374.38
393.433	367.38
393.658	378.38
393.882	366.38
394.107	346.38
394.331	380.38
394.556	366.38
394.78	382.38
395.005	387.38
395.229	382.38
395.454	389.38
395.678	378.38
395.903	395.38
396.127	375.38
396.352	372.38
396.576	376.38
396.801	368.38
397.025	376.38
397.249	377.38
397.474	395.38
397.698	373.38
397.922	392.38
398.147	395.38
398.371	421.38
398.595	424.38
398.82	415.38
399.044	455.38
399.268	455.38
399.492	492.38
399.717	543.38
399.941	536.38
400.165	531.38
400.389	508.38
400.613	441.38
400.837	427.38
401.062	434.38
401.286	416.38
401.51	396.38
401.734	417.38
401.958	429.38
402.182	418.38
402.406	443.38
402.63	420.38
402.854	436.38
403.078	443.38
403.302	440.38
403.526	446.38
403.75	448.38
403.974	458.38
404.198	441.38
404.422	450.38
404.645	455.38
404.869	464.38
405.093	479.38
405.317	477.38
405.541	504.38
405.765	479.38
405.988	454.38
406.212	477.38
406.436	477.38
406.66	480.38
406.883	467.38
407.107	486.38
407.331	542.38
407.555	549.38
407.778	542.38
408.002	517.38
408.226	494.38
408.449	487.38
408.673	481.38
408.896	476.38
409.12	483.38
409.344	471.38
409.567	450.38
409.791	444.38
410.014	435.38
410.238	440.38
410.461	446.38
410.685	455.38
410.908	436.38
411.132	461.38
411.355	479.38
411.578	469.38
411.802	446.38
412.025	430.38
412.249	464.38
412.472	460.38
412.695	477.38
412.919	472.38
413.142	450.38
413.365	424.38
413.589	416.38
413.812	405.38
414.035	397.38
414.258	418.38
414.482	410.38
414.705	420.38
414.928	411.38
415.151	422.38
415.374	425.38
415.597	400.38
415.821	401.38
416.044	409.38
416.267	416.38
416.49	413.38
416.713	420.38
416.936	396.38
417.159	407.38
417.382	394.38
417.605	437.38
417.828	444.38
418.051	421.38
418.274	442.38
418.497	397.38
418.72	414.38
418.943	410.38
419.166	435.38
419.389	430.38
419.611	434.38
419.834	433.38
420.057	423.38
420.28	421.38
420.503	415.38
420.726	421.38
420.948	416.38
421.171	420.38
421.394	475.38
421.617	440.38
421.839	407.38
422.062	438.38
422.285	432.38
422.507	460.38
422.73	484.38
422.953	479.38
423.175	452.38
423.398	425.38
423.621	455.38
423.843	423.38
424.066	467.38
424.288	454.38
424.511	445.38
424.733	479.38
424.956	514.38
425.178	489.38
425.401	514.38
425.623	491.38
425.846	445.38
426.068	429.38
426.291	429.38
426.513	405.38
426.735	418.38
426.958	457.38
427.18	483.38
427.402	534.38
427.625	574.38
427.847	495.38
428.069	465.38
428.292	460.38
428.514	415.38
428.736	396.38
428.958	390.38
429.181	390.38
429.403	378.38
429.625	415.38
429.847	420.38
430.069	436.38
430.292	434.38
430.514	395.38
430.736	410.38
430.958	396.38
431.18	364.38
431.402	363.38
431.624	399.38
431.846	383.38
432.068	394.38
432.29	389.38
432.512	382.38
432.734	396.38
432.956	368.38
433.178	388.38
433.4	381.38
433.622	374.38
433.844	397.38
434.066	390.38
434.287	378.38
434.509	395.38
434.731	414.38
434.953	438.38
435.175	418.38
435.397	440.38
435.618	444.38
435.84	449.38
436.062	476.38
436.284	527.38
436.505	430.38
436.727	419.38
436.949	413.38
437.17	401.38
437.392	387.38
437.614	386.38
437.835	419.38
438.057	459.38
438.278	504.38
438.5	497.38
438.721	535.38
438.943	505.38
439.165	435.38
439.386	410.38
439.608	410.38
439.829	432.38
440.05	451.38
440.272	426.38
440.493	400.38
440.715	413.38
440.936	406.38
441.158	402.38
441.379	415.38
441.6	414.38
441.822	437.38
442.043	448.38
442.264	491.38
442.486	503.38
442.707	465.38
442.928	448.38
443.149	430.38
443.371	462.38
443.592	469.38
443.813	540.38
444.034	536.38
444.255	459.38
444.476	468.38
444.698	470.38
444.919	464.38
445.14	607.38
445.361	546.38
445.582	469.38
445.803	462.38
446.024	538.38
446.245	539.38
446.466	494.38
446.687	438.38
446.908	406.38
447.129	400.38
447.35	406.38
447.571	385.38
447.792	392.38
448.013	382.38
448.234	408.38
448.455	430.38
448.675	462.38
448.896	534.38
449.117	454.38
449.338	444.38
449.559	471.38
449.779	555.38
450	453.38
450.221	394.38
450.442	394.38
450.662	359.38
450.883	380.38
451.104	380.38
451.324	379.38
451.545	377.38
451.766	352.38
451.986	352.38
452.207	363.38
452.428	357.38
452.648	370.38
452.869	367.38
453.089	349.38
453.31	357.38
453.53	374.38
453.751	359.38
453.971	358.38
454.192	373.38
454.412	374.38
454.633	347.38
454.853	340.38
455.073	348.38
455.294	349.38
455.514	394.38
455.734	386.38
455.955	342.38
456.175	348.38
456.395	332.38
456.616	326.38
456.836	340.38
457.056	328.38
457.276	309.38
457.497	346.38
457.717	352.38
457.937	332.38
458.157	361.38
458.377	335.38
458.598	359.38
458.818	396.38
459.038	460.38
459.258	435.38
459.478	384.38
459.698	382.38
459.918	414.38
460.138	398.38
460.358	416.38
460.578	412.38
460.798	388.38
461.018	406.38
461.238	402.38
461.458	436.38
461.678	410.38
461.898	415.38
462.118	412.38
462.338	434.38
462.558	443.38
462.777	444.38
462.997	480.38
463.217	500.38
463.437	484.38
463.657	467.38
463.876	468.38
464.096	450.38
464.316	443.38
464.536	447.38
464.755	439.38
464.975	455.38
465.195	460.38
465.414	480.38
465.634	417.38
465.854	395.38
466.073	371.38
466.293	365.38
466.512	380.38
466.732	372.38
466.951	384.38
467.171	377.38
467.391	380.38
467.61	390.38
467.829	374.38
468.049	370.38
468.268	375.38
468.488	345.38
468.707	371.38
468.927	367.38
469.146	354.38
469.365	375.38
469.585	380.38
469.804	360.38
470.023	400.38
470.243	373.38
470.462	385.38
470.681	410.38
470.901	399.38
471.12	387.38
471.339	384.38
471.558	389.38
471.777	371.38
471.997	382.38
472.216	375.38
472.435	407.38
472.654	388.38
472.873	370.38
473.092	362.38
473.311	374.38
473.53	364.38
473.749	399.38
473.968	400.38
474.187	440.38
474.406	442.38
474.625	394.38
474.844	375.38
475.063	347.38
475.282	368.38
475.501	371.38
475.72	368.38
475.939	358.38
476.158	384.38
476.377	383.38
476.596	376.38
476.814	383.38
477.033	384.38
477.252	383.38
477.471	384.38
477.69	379.38
477.908	423.38
478.127	409.38
478.346	432.38
478.564	410.38
478.783	418.38
479.002	440.38
479.22	415.38
479.439	454.38
479.658	460.38
479.876	455.38
480.095	438.38
480.313	479.38
480.532	482.38
480.751	458.38
480.969	475.38
481.188	499.38
481.406	494.38
481.624	458.38
481.843	438.38
482.061	419.38
482.28	425.38
482.498	411.38
482.717	417.38
482.935	416.38
483.153	400.38
483.372	401.38
483.59	440.38
483.808	425.38
484.027	447.38
484.245	419.38
484.463	406.38
484.681	431.38
484.9	434.38
485.118	436.38
485.336	431.38
485.554	429.38
485.772	446.38
485.99	419.38
486.209	429.38
486.427	438.38
486.645	472.38
486.863	454.38
487.081	454.38
487.299	465.38
487.517	472.38
487.735	437.38
487.953	460.38
488.171	442.38
488.389	452.38
488.607	455.38
488.825	453.38
489.043	462.38
489.261	470.38
489.479	446.38
489.696	448.38
489.914	465.38
490.132	456.38
490.35	462.38
490.568	459.38
490.786	484.38
491.003	485.38
491.221	489.38
491.439	489.38
491.657	493.38
491.874	504.38
492.092	516.38
492.31	504.38
492.527	481.38
492.745	524.38
492.963	536.38
493.18	532.38
493.398	525.38
493.615	522.38
493.833	526.38
494.05	534.38
494.268	523.38
494.485	530.38
494.703	526.38
494.92	507.38
495.138	520.38
495.355	524.38
495.573	523.38
495.79	516.38
496.008	542.38
496.225	526.38
496.442	520.38
496.66	523.38
496.877	538.38
497.094	531.38
497.312	550.38
497.529	545.38
497.746	547.38
497.963	558.38
498.181	592.38
498.398	598.38
498.615	630.38
498.832	627.38
499.049	668.38
499.267	695.38
499.484	730.38
499.701	786.38
499.918	816.38
500.135	877.38
500.352	940.38
500.569	962.38
500.786	958.38
501.003	917.38
501.22	855.38
501.437	830.38
501.654	759.38
501.871	717.38
502.088	712.38
