Data from 1969.PennyLincolnUp.Lamp.En5.5.200Scan.071719.P1._HRD10591_14-54-37-972.txt Node
Date: Thu Jul 18 14:54:37 EDT 2019
User: cochatt
Spectrometer: HR+D1059
Trigger mode: 1
Integration Time (sec): 1.000000E-1
Scans to average: 1
Electric dark correction enabled: true
Nonlinearity correction enabled: false
Boxcar width: 0
XAxis mode: Wavelengths
Number of Pixels in Spectrum: 2048
>>>>>Begin Spectral Data<<<<<
223.165	-0.94
223.4	-0.94
223.635	-0.94
223.869	-13.94
224.104	-26.94
224.338	-13.94
224.573	-24.94
224.808	-5.94
225.042	3.06
225.277	-15.94
225.511	4.06
225.746	-8.94
225.98	3.06
226.215	19.06
226.449	3.06
226.683	18.06
226.918	31.06
227.152	30.06
227.387	39.06
227.621	30.06
227.856	31.06
228.09	31.06
228.324	47.06
228.559	58.06
228.793	54.06
229.027	89.06
229.262	73.06
229.496	98.06
229.73	95.06
229.964	124.06
230.199	103.06
230.433	104.06
230.667	94.06
230.901	93.06
231.136	93.06
231.37	91.06
231.604	99.06
231.838	95.06
232.072	94.06
232.306	93.06
232.541	88.06
232.775	90.06
233.009	96.06
233.243	104.06
233.477	119.06
233.711	106.06
233.945	99.06
234.179	103.06
234.413	103.06
234.647	102.06
234.881	79.06
235.115	107.06
235.349	101.06
235.583	102.06
235.817	111.06
236.051	94.06
236.285	104.06
236.519	104.06
236.753	107.06
236.987	119.06
237.221	126.06
237.455	159.06
237.689	132.06
237.922	122.06
238.156	106.06
238.39	109.06
238.624	91.06
238.858	95.06
239.091	115.06
239.325	101.06
239.559	123.06
239.793	108.06
240.027	113.06
240.26	116.06
240.494	107.06
240.728	124.06
240.961	133.06
241.195	117.06
241.429	122.06
241.662	123.06
241.896	119.06
242.13	130.06
242.363	129.06
242.597	125.06
242.83	129.06
243.064	120.06
243.298	115.06
243.531	102.06
243.765	113.06
243.998	129.06
244.232	133.06
244.465	116.06
244.699	134.06
244.932	112.06
245.166	112.06
245.399	106.06
245.633	133.06
245.866	120.06
246.099	128.06
246.333	138.06
246.566	114.06
246.8	141.06
247.033	123.06
247.266	136.06
247.5	138.06
247.733	128.06
247.966	123.06
248.2	146.06
248.433	149.06
248.666	147.06
248.899	150.06
249.133	159.06
249.366	163.06
249.599	160.06
249.832	148.06
250.066	160.06
250.299	146.06
250.532	163.06
250.765	167.06
250.998	179.06
251.231	191.06
251.465	164.06
251.698	160.06
251.931	156.06
252.164	158.06
252.397	167.06
252.63	175.06
252.863	175.06
253.096	175.06
253.329	167.06
253.562	172.06
253.795	185.06
254.028	170.06
254.261	173.06
254.494	193.06
254.727	171.06
254.96	198.06
255.193	204.06
255.426	192.06
255.659	187.06
255.892	186.06
256.124	180.06
256.357	178.06
256.59	182.06
256.823	161.06
257.056	185.06
257.289	159.06
257.521	164.06
257.754	172.06
257.987	194.06
258.22	174.06
258.452	159.06
258.685	181.06
258.918	169.06
259.151	177.06
259.383	177.06
259.616	177.06
259.849	182.06
260.081	187.06
260.314	201.06
260.547	210.06
260.779	177.06
261.012	194.06
261.244	200.06
261.477	200.06
261.71	182.06
261.942	167.06
262.175	165.06
262.407	179.06
262.64	161.06
262.872	176.06
263.105	176.06
263.337	179.06
263.57	178.06
263.802	177.06
264.035	176.06
264.267	183.06
264.499	179.06
264.732	189.06
264.964	178.06
265.197	186.06
265.429	177.06
265.661	169.06
265.894	164.06
266.126	170.06
266.358	185.06
266.591	189.06
266.823	185.06
267.055	207.06
267.287	186.06
267.52	183.06
267.752	200.06
267.984	207.06
268.216	185.06
268.448	196.06
268.681	196.06
268.913	202.06
269.145	209.06
269.377	224.06
269.609	219.06
269.841	202.06
270.073	219.06
270.306	225.06
270.538	235.06
270.77	238.06
271.002	242.06
271.234	225.06
271.466	228.06
271.698	222.06
271.93	243.06
272.162	231.06
272.394	240.06
272.626	233.06
272.858	226.06
273.09	221.06
273.322	225.06
273.553	216.06
273.785	220.06
274.017	215.06
274.249	210.06
274.481	216.06
274.713	219.06
274.945	229.06
275.176	213.06
275.408	226.06
275.64	218.06
275.872	213.06
276.104	222.06
276.335	219.06
276.567	203.06
276.799	223.06
277.031	234.06
277.262	238.06
277.494	257.06
277.726	252.06
277.957	213.06
278.189	227.06
278.421	223.06
278.652	230.06
278.884	216.06
279.115	225.06
279.347	218.06
279.579	224.06
279.81	223.06
280.042	215.06
280.273	216.06
280.505	232.06
280.736	230.06
280.968	225.06
281.199	227.06
281.431	231.06
281.662	229.06
281.894	213.06
282.125	233.06
282.356	236.06
282.588	252.06
282.819	247.06
283.051	249.06
283.282	228.06
283.513	237.06
283.745	239.06
283.976	226.06
284.207	247.06
284.439	244.06
284.67	222.06
284.901	231.06
285.132	242.06
285.364	229.06
285.595	235.06
285.826	252.06
286.057	239.06
286.288	240.06
286.52	241.06
286.751	245.06
286.982	243.06
287.213	242.06
287.444	236.06
287.675	262.06
287.906	269.06
288.138	249.06
288.369	265.06
288.6	241.06
288.831	249.06
289.062	250.06
289.293	250.06
289.524	248.06
289.755	252.06
289.986	253.06
290.217	247.06
290.448	235.06
290.679	261.06
290.91	252.06
291.141	253.06
291.371	249.06
291.602	240.06
291.833	240.06
292.064	259.06
292.295	241.06
292.526	262.06
292.757	241.06
292.987	233.06
293.218	242.06
293.449	239.06
293.68	248.06
293.91	248.06
294.141	262.06
294.372	261.06
294.603	248.06
294.833	263.06
295.064	253.06
295.295	254.06
295.525	247.06
295.756	261.06
295.987	248.06
296.217	263.06
296.448	275.06
296.679	270.06
296.909	265.06
297.14	259.06
297.37	271.06
297.601	265.06
297.831	266.06
298.062	279.06
298.292	263.06
298.523	262.06
298.753	260.06
298.984	260.06
299.214	276.06
299.445	268.06
299.675	264.06
299.905	276.06
300.136	277.06
300.366	268.06
300.597	264.06
300.827	275.06
301.057	280.06
301.288	271.06
301.518	269.06
301.748	293.06
301.979	294.06
302.209	284.06
302.439	279.06
302.669	269.06
302.9	287.06
303.13	272.06
303.36	269.06
303.59	279.06
303.82	277.06
304.051	277.06
304.281	283.06
304.511	268.06
304.741	274.06
304.971	284.06
305.201	269.06
305.431	282.06
305.661	256.06
305.891	268.06
306.121	283.06
306.352	269.06
306.582	276.06
306.812	281.06
307.042	292.06
307.272	284.06
307.502	284.06
307.731	286.06
307.961	295.06
308.191	291.06
308.421	287.06
308.651	292.06
308.881	295.06
309.111	277.06
309.341	295.06
309.571	284.06
309.8	284.06
310.03	307.06
310.26	304.06
310.49	290.06
310.72	298.06
310.949	299.06
311.179	305.06
311.409	304.06
311.639	317.06
311.868	317.06
312.098	319.06
312.328	299.06
312.557	326.06
312.787	326.06
313.017	335.06
313.246	305.06
313.476	316.06
313.706	340.06
313.935	303.06
314.165	319.06
314.394	301.06
314.624	330.06
314.853	313.06
315.083	320.06
315.312	309.06
315.542	301.06
315.771	297.06
316.001	313.06
316.23	297.06
316.46	307.06
316.689	317.06
316.919	295.06
317.148	303.06
317.377	303.06
317.607	301.06
317.836	309.06
318.065	307.06
318.295	331.06
318.524	303.06
318.753	321.06
318.983	294.06
319.212	291.06
319.441	298.06
319.67	315.06
319.9	319.06
320.129	302.06
320.358	303.06
320.587	318.06
320.816	317.06
321.046	311.06
321.275	332.06
321.504	307.06
321.733	320.06
321.962	319.06
322.191	326.06
322.42	341.06
322.649	339.06
322.878	360.06
323.108	347.06
323.337	346.06
323.566	362.06
323.795	381.06
324.024	377.06
324.253	445.06
324.482	562.06
324.71	827.06
324.939	1066.06
325.168	872.06
325.397	524.06
325.626	412.06
325.855	369.06
326.084	367.06
326.313	364.06
326.542	387.06
326.77	405.06
326.999	428.06
327.228	529.06
327.457	728.06
327.686	814.06
327.914	564.06
328.143	440.06
328.372	411.06
328.6	404.06
328.829	383.06
329.058	383.06
329.287	417.06
329.515	373.06
329.744	376.06
329.972	369.06
330.201	385.06
330.43	396.06
330.658	410.06
330.887	419.06
331.115	421.06
331.344	391.06
331.572	385.06
331.801	385.06
332.03	381.06
332.258	370.06
332.486	370.06
332.715	364.06
332.943	398.06
333.172	375.06
333.4	394.06
333.629	390.06
333.857	419.06
334.085	399.06
334.314	393.06
334.542	449.06
334.771	454.06
334.999	387.06
335.227	400.06
335.455	389.06
335.684	388.06
335.912	368.06
336.14	367.06
336.369	383.06
336.597	376.06
336.825	377.06
337.053	376.06
337.281	361.06
337.51	376.06
337.738	371.06
337.966	349.06
338.194	366.06
338.422	348.06
338.65	361.06
338.878	357.06
339.106	350.06
339.334	340.06
339.562	355.06
339.79	337.06
340.018	349.06
340.246	343.06
340.474	347.06
340.702	341.06
340.93	337.06
341.158	336.06
341.386	344.06
341.614	320.06
341.842	349.06
342.07	341.06
342.298	345.06
342.526	337.06
342.754	338.06
342.981	362.06
343.209	352.06
343.437	354.06
343.665	356.06
343.893	407.06
344.12	377.06
344.348	363.06
344.576	365.06
344.804	357.06
345.031	364.06
345.259	353.06
345.487	368.06
345.714	353.06
345.942	338.06
346.17	341.06
346.397	341.06
346.625	332.06
346.853	336.06
347.08	327.06
347.308	344.06
347.535	318.06
347.763	351.06
347.99	324.06
348.218	305.06
348.445	329.06
348.673	339.06
348.9	333.06
349.128	332.06
349.355	329.06
349.583	315.06
349.81	307.06
350.037	315.06
350.265	308.06
350.492	332.06
350.72	321.06
350.947	329.06
351.174	333.06
351.402	339.06
351.629	331.06
351.856	317.06
352.083	331.06
352.311	327.06
352.538	331.06
352.765	326.06
352.992	323.06
353.22	327.06
353.447	327.06
353.674	318.06
353.901	328.06
354.128	305.06
354.355	305.06
354.583	318.06
354.81	310.06
355.037	300.06
355.264	321.06
355.491	305.06
355.718	320.06
355.945	315.06
356.172	317.06
356.399	313.06
356.626	313.06
356.853	312.06
357.08	295.06
357.307	311.06
357.534	324.06
357.761	322.06
357.988	293.06
358.215	323.06
358.441	299.06
358.668	328.06
358.895	327.06
359.122	341.06
359.349	331.06
359.576	323.06
359.802	339.06
360.029	343.06
360.256	324.06
360.483	345.06
360.709	321.06
360.936	326.06
361.163	319.06
361.39	328.06
361.616	311.06
361.843	323.06
362.07	319.06
362.296	327.06
362.523	339.06
362.749	329.06
362.976	303.06
363.203	309.06
363.429	332.06
363.656	324.06
363.882	318.06
364.109	295.06
364.335	321.06
364.562	300.06
364.788	317.06
365.015	313.06
365.241	320.06
365.468	319.06
365.694	322.06
365.92	317.06
366.147	320.06
366.373	304.06
366.599	306.06
366.826	297.06
367.052	310.06
367.278	309.06
367.505	316.06
367.731	329.06
367.957	308.06
368.184	312.06
368.41	331.06
368.636	347.06
368.862	319.06
369.089	313.06
369.315	309.06
369.541	328.06
369.767	305.06
369.993	317.06
370.219	332.06
370.445	327.06
370.672	319.06
370.898	306.06
371.124	325.06
371.35	310.06
371.576	311.06
371.802	329.06
372.028	331.06
372.254	333.06
372.48	329.06
372.706	338.06
372.932	344.06
373.158	325.06
373.384	334.06
373.61	320.06
373.835	333.06
374.061	324.06
374.287	347.06
374.513	323.06
374.739	335.06
374.965	325.06
375.191	336.06
375.416	344.06
375.642	332.06
375.868	334.06
376.094	346.06
376.319	330.06
376.545	326.06
376.771	326.06
376.997	331.06
377.222	310.06
377.448	313.06
377.674	309.06
377.899	323.06
378.125	315.06
378.35	340.06
378.576	307.06
378.802	328.06
379.027	324.06
379.253	308.06
379.478	316.06
379.704	305.06
379.929	320.06
380.155	331.06
380.38	310.06
380.606	334.06
380.831	318.06
381.057	333.06
381.282	323.06
381.507	319.06
381.733	314.06
381.958	329.06
382.184	321.06
382.409	322.06
382.634	327.06
382.86	345.06
383.085	335.06
383.31	336.06
383.535	347.06
383.761	330.06
383.986	360.06
384.211	332.06
384.436	353.06
384.662	337.06
384.887	354.06
385.112	351.06
385.337	353.06
385.562	356.06
385.787	347.06
386.013	379.06
386.238	372.06
386.463	345.06
386.688	364.06
386.913	369.06
387.138	375.06
387.363	369.06
387.588	352.06
387.813	359.06
388.038	338.06
388.263	360.06
388.488	363.06
388.713	362.06
388.938	357.06
389.163	360.06
389.387	363.06
389.612	358.06
389.837	364.06
390.062	352.06
390.287	377.06
390.512	342.06
390.736	339.06
390.961	338.06
391.186	359.06
391.411	367.06
391.636	369.06
391.86	381.06
392.085	370.06
392.31	370.06
392.534	370.06
392.759	361.06
392.984	363.06
393.208	376.06
393.433	385.06
393.658	372.06
393.882	347.06
394.107	346.06
394.331	369.06
394.556	362.06
394.78	367.06
395.005	390.06
395.229	395.06
395.454	379.06
395.678	371.06
395.903	384.06
396.127	412.06
396.352	389.06
396.576	378.06
396.801	376.06
397.025	364.06
397.249	375.06
397.474	395.06
397.698	362.06
397.922	396.06
398.147	395.06
398.371	414.06
398.595	403.06
398.82	407.06
399.044	444.06
399.268	449.06
399.492	505.06
399.717	526.06
399.941	535.06
400.165	536.06
400.389	499.06
400.613	469.06
400.837	449.06
401.062	439.06
401.286	422.06
401.51	428.06
401.734	421.06
401.958	441.06
402.182	413.06
402.406	441.06
402.63	428.06
402.854	427.06
403.078	434.06
403.302	422.06
403.526	441.06
403.75	460.06
403.974	456.06
404.198	469.06
404.422	459.06
404.645	445.06
404.869	455.06
405.093	491.06
405.317	491.06
405.541	493.06
405.765	477.06
405.988	447.06
406.212	475.06
406.436	467.06
406.66	491.06
406.883	452.06
407.107	485.06
407.331	521.06
407.555	561.06
407.778	543.06
408.002	504.06
408.226	491.06
408.449	480.06
408.673	471.06
408.896	495.06
409.12	509.06
409.344	480.06
409.567	452.06
409.791	451.06
410.014	447.06
410.238	435.06
410.461	431.06
410.685	448.06
410.908	449.06
411.132	452.06
411.355	481.06
411.578	454.06
411.802	428.06
412.025	407.06
412.249	426.06
412.472	453.06
412.695	476.06
412.919	456.06
413.142	422.06
413.365	420.06
413.589	421.06
413.812	412.06
414.035	403.06
414.258	411.06
414.482	432.06
414.705	420.06
414.928	411.06
415.151	412.06
415.374	419.06
415.597	426.06
415.821	387.06
416.044	407.06
416.267	395.06
416.49	404.06
416.713	411.06
416.936	400.06
417.159	416.06
417.382	422.06
417.605	410.06
417.828	398.06
418.051	436.06
418.274	426.06
418.497	431.06
418.72	421.06
418.943	423.06
419.166	437.06
419.389	423.06
419.611	439.06
419.834	419.06
420.057	448.06
420.28	437.06
420.503	406.06
420.726	420.06
420.948	423.06
421.171	439.06
421.394	444.06
421.617	416.06
421.839	438.06
422.062	420.06
422.285	427.06
422.507	464.06
422.73	511.06
422.953	479.06
423.175	438.06
423.398	444.06
423.621	449.06
423.843	463.06
424.066	441.06
424.288	449.06
424.511	455.06
424.733	482.06
424.956	524.06
425.178	492.06
425.401	492.06
425.623	496.06
425.846	457.06
426.068	428.06
426.291	424.06
426.513	425.06
426.735	413.06
426.958	463.06
427.18	497.06
427.402	548.06
427.625	597.06
427.847	520.06
428.069	480.06
428.292	435.06
428.514	431.06
428.736	386.06
428.958	413.06
429.181	392.06
429.403	403.06
429.625	393.06
429.847	415.06
430.069	440.06
430.292	441.06
430.514	407.06
430.736	377.06
430.958	385.06
431.18	391.06
431.402	380.06
431.624	387.06
431.846	404.06
432.068	375.06
432.29	379.06
432.512	399.06
432.734	403.06
432.956	406.06
433.178	395.06
433.4	383.06
433.622	417.06
433.844	385.06
434.066	386.06
434.287	390.06
434.509	400.06
434.731	413.06
434.953	413.06
435.175	427.06
435.397	424.06
435.618	436.06
435.84	449.06
436.062	475.06
436.284	500.06
436.505	457.06
436.727	431.06
436.949	405.06
437.17	407.06
437.392	381.06
437.614	433.06
437.835	412.06
438.057	460.06
438.278	520.06
438.5	510.06
438.721	550.06
438.943	531.06
439.165	451.06
439.386	421.06
439.608	432.06
439.829	417.06
440.05	420.06
440.272	453.06
440.493	438.06
440.715	408.06
440.936	418.06
441.158	401.06
441.379	396.06
441.6	416.06
441.822	430.06
442.043	469.06
442.264	511.06
442.486	487.06
442.707	443.06
442.928	419.06
443.149	459.06
443.371	471.06
443.592	481.06
443.813	536.06
444.034	556.06
444.255	482.06
444.476	466.06
444.698	467.06
444.919	474.06
445.14	557.06
445.361	507.06
445.582	468.06
445.803	503.06
446.024	536.06
446.245	518.06
446.466	478.06
446.687	442.06
446.908	409.06
447.129	395.06
447.35	384.06
447.571	384.06
447.792	375.06
448.013	383.06
448.234	401.06
448.455	432.06
448.675	490.06
448.896	525.06
449.117	467.06
449.338	467.06
449.559	500.06
449.779	588.06
450	464.06
450.221	407.06
450.442	383.06
450.662	376.06
450.883	385.06
451.104	383.06
451.324	402.06
451.545	374.06
451.766	369.06
451.986	365.06
452.207	361.06
452.428	353.06
452.648	343.06
452.869	363.06
453.089	369.06
453.31	379.06
453.53	370.06
453.751	351.06
453.971	343.06
454.192	355.06
454.412	333.06
454.633	334.06
454.853	333.06
455.073	341.06
455.294	368.06
455.514	401.06
455.734	384.06
455.955	372.06
456.175	332.06
456.395	346.06
456.616	349.06
456.836	320.06
457.056	327.06
457.276	309.06
457.497	344.06
457.717	347.06
457.937	323.06
458.157	353.06
458.377	348.06
458.598	354.06
458.818	387.06
459.038	453.06
459.258	433.06
459.478	407.06
459.698	380.06
459.918	399.06
460.138	401.06
460.358	402.06
460.578	418.06
460.798	425.06
461.018	408.06
461.238	413.06
461.458	401.06
461.678	414.06
461.898	433.06
462.118	432.06
462.338	450.06
462.558	458.06
462.777	445.06
462.997	472.06
463.217	466.06
463.437	492.06
463.657	452.06
463.876	452.06
464.096	465.06
464.316	448.06
464.536	464.06
464.755	459.06
464.975	446.06
465.195	433.06
465.414	483.06
465.634	445.06
465.854	398.06
466.073	385.06
466.293	396.06
466.512	370.06
466.732	380.06
466.951	371.06
467.171	375.06
467.391	369.06
467.61	383.06
467.829	376.06
468.049	371.06
468.268	360.06
468.488	375.06
468.707	361.06
468.927	377.06
469.146	363.06
469.365	370.06
469.585	364.06
469.804	361.06
470.023	391.06
470.243	383.06
470.462	361.06
470.681	392.06
470.901	399.06
471.12	373.06
471.339	389.06
471.558	373.06
471.777	377.06
471.997	375.06
472.216	379.06
472.435	412.06
472.654	384.06
472.873	364.06
473.092	376.06
473.311	369.06
473.53	348.06
473.749	385.06
473.968	405.06
474.187	461.06
474.406	441.06
474.625	397.06
474.844	387.06
475.063	365.06
475.282	373.06
475.501	359.06
475.72	388.06
475.939	374.06
476.158	372.06
476.377	361.06
476.596	407.06
476.814	382.06
477.033	394.06
477.252	399.06
477.471	348.06
477.69	397.06
477.908	400.06
478.127	403.06
478.346	414.06
478.564	428.06
478.783	447.06
479.002	433.06
479.22	440.06
479.439	444.06
479.658	439.06
479.876	423.06
480.095	444.06
480.313	466.06
480.532	487.06
480.751	464.06
480.969	471.06
481.188	476.06
481.406	509.06
481.624	461.06
481.843	431.06
482.061	426.06
482.28	437.06
482.498	427.06
482.717	416.06
482.935	440.06
483.153	405.06
483.372	412.06
483.59	406.06
483.808	424.06
484.027	420.06
484.245	442.06
484.463	426.06
484.681	430.06
484.9	424.06
485.118	438.06
485.336	431.06
485.554	451.06
485.772	444.06
485.99	447.06
486.209	441.06
486.427	439.06
486.645	438.06
486.863	463.06
487.081	452.06
487.299	438.06
487.517	460.06
487.735	443.06
487.953	435.06
488.171	443.06
488.389	458.06
488.607	464.06
488.825	451.06
489.043	466.06
489.261	461.06
489.479	463.06
489.696	446.06
489.914	479.06
490.132	453.06
490.35	466.06
490.568	480.06
490.786	487.06
491.003	492.06
491.221	488.06
491.439	532.06
491.657	497.06
491.874	534.06
492.092	521.06
492.31	533.06
492.527	515.06
492.745	523.06
492.963	522.06
493.18	536.06
493.398	544.06
493.615	541.06
493.833	541.06
494.05	522.06
494.268	537.06
494.485	523.06
494.703	523.06
494.92	519.06
495.138	514.06
495.355	547.06
495.573	524.06
495.79	551.06
496.008	520.06
496.225	515.06
496.442	543.06
496.66	529.06
496.877	534.06
497.094	570.06
497.312	522.06
497.529	541.06
497.746	566.06
497.963	590.06
498.181	592.06
498.398	594.06
498.615	598.06
498.832	632.06
499.049	662.06
499.267	672.06
499.484	719.06
499.701	784.06
499.918	821.06
500.135	885.06
500.352	966.06
500.569	957.06
500.786	955.06
501.003	914.06
501.22	886.06
501.437	833.06
501.654	787.06
501.871	745.06
502.088	699.06
502.305	659.06
