Data from 1969.PennyLincolnUp.Lamp.En5.5.200Scan.071719.P1._HRD10591_14-54-24-972.txt Node
Date: Thu Jul 18 14:54:24 EDT 2019
User: cochatt
Spectrometer: HR+D1059
Trigger mode: 1
Integration Time (sec): 1.000000E-1
Scans to average: 1
Electric dark correction enabled: true
Nonlinearity correction enabled: false
Boxcar width: 0
XAxis mode: Wavelengths
Number of Pixels in Spectrum: 2048
>>>>>Begin Spectral Data<<<<<
223.165	-12.88
223.4	-12.88
223.635	-12.88
223.869	-25.88
224.104	-22.88
224.338	-15.88
224.573	-16.88
224.808	-18.88
225.042	-3.88
225.277	10.12
225.511	-12.88
225.746	19.12
225.98	17.12
226.215	13.12
226.449	17.12
226.683	4.12
226.918	24.12
227.152	25.12
227.387	40.12
227.621	34.12
227.856	43.12
228.09	48.12
228.324	47.12
228.559	65.12
228.793	67.12
229.027	87.12
229.262	73.12
229.496	90.12
229.73	98.12
229.964	102.12
230.199	100.12
230.433	100.12
230.667	95.12
230.901	90.12
231.136	96.12
231.37	88.12
231.604	102.12
231.838	94.12
232.072	103.12
232.306	103.12
232.541	111.12
232.775	94.12
233.009	111.12
233.243	86.12
233.477	93.12
233.711	87.12
233.945	100.12
234.179	98.12
234.413	94.12
234.647	103.12
234.881	98.12
235.115	99.12
235.349	97.12
235.583	100.12
235.817	98.12
236.051	100.12
236.285	111.12
236.519	112.12
236.753	105.12
236.987	113.12
237.221	136.12
237.455	160.12
237.689	136.12
237.922	119.12
238.156	114.12
238.39	112.12
238.624	105.12
238.858	114.12
239.091	123.12
239.325	102.12
239.559	101.12
239.793	113.12
240.027	109.12
240.26	124.12
240.494	129.12
240.728	119.12
240.961	113.12
241.195	128.12
241.429	104.12
241.662	107.12
241.896	122.12
242.13	109.12
242.363	123.12
242.597	111.12
242.83	123.12
243.064	115.12
243.298	114.12
243.531	122.12
243.765	100.12
243.998	108.12
244.232	118.12
244.465	121.12
244.699	129.12
244.932	119.12
245.166	125.12
245.399	95.12
245.633	109.12
245.866	119.12
246.099	120.12
246.333	134.12
246.566	136.12
246.8	135.12
247.033	123.12
247.266	147.12
247.5	140.12
247.733	133.12
247.966	139.12
248.2	148.12
248.433	142.12
248.666	132.12
248.899	154.12
249.133	148.12
249.366	157.12
249.599	147.12
249.832	145.12
250.066	152.12
250.299	147.12
250.532	159.12
250.765	168.12
250.998	172.12
251.231	182.12
251.465	163.12
251.698	147.12
251.931	147.12
252.164	134.12
252.397	171.12
252.63	153.12
252.863	160.12
253.096	176.12
253.329	181.12
253.562	179.12
253.795	165.12
254.028	169.12
254.261	163.12
254.494	171.12
254.727	179.12
254.96	191.12
255.193	206.12
255.426	187.12
255.659	161.12
255.892	179.12
256.124	174.12
256.357	181.12
256.59	165.12
256.823	164.12
257.056	176.12
257.289	153.12
257.521	167.12
257.754	184.12
257.987	166.12
258.22	179.12
258.452	175.12
258.685	146.12
258.918	161.12
259.151	172.12
259.383	166.12
259.616	168.12
259.849	180.12
260.081	186.12
260.314	183.12
260.547	180.12
260.779	171.12
261.012	183.12
261.244	180.12
261.477	179.12
261.71	187.12
261.942	180.12
262.175	174.12
262.407	188.12
262.64	181.12
262.872	173.12
263.105	184.12
263.337	180.12
263.57	171.12
263.802	181.12
264.035	177.12
264.267	182.12
264.499	187.12
264.732	179.12
264.964	167.12
265.197	168.12
265.429	183.12
265.661	173.12
265.894	152.12
266.126	170.12
266.358	175.12
266.591	174.12
266.823	181.12
267.055	179.12
267.287	191.12
267.52	179.12
267.752	184.12
267.984	186.12
268.216	200.12
268.448	180.12
268.681	193.12
268.913	181.12
269.145	202.12
269.377	215.12
269.609	221.12
269.841	205.12
270.073	213.12
270.306	220.12
270.538	241.12
270.77	207.12
271.002	216.12
271.234	209.12
271.466	232.12
271.698	219.12
271.93	234.12
272.162	223.12
272.394	222.12
272.626	234.12
272.858	219.12
273.09	211.12
273.322	224.12
273.553	207.12
273.785	216.12
274.017	215.12
274.249	226.12
274.481	219.12
274.713	202.12
274.945	208.12
275.176	204.12
275.408	207.12
275.64	204.12
275.872	208.12
276.104	221.12
276.335	212.12
276.567	211.12
276.799	215.12
277.031	242.12
277.262	227.12
277.494	235.12
277.726	240.12
277.957	223.12
278.189	215.12
278.421	227.12
278.652	232.12
278.884	195.12
279.115	228.12
279.347	211.12
279.579	207.12
279.81	233.12
280.042	211.12
280.273	202.12
280.505	230.12
280.736	216.12
280.968	221.12
281.199	215.12
281.431	219.12
281.662	227.12
281.894	224.12
282.125	230.12
282.356	233.12
282.588	245.12
282.819	243.12
283.051	236.12
283.282	221.12
283.513	226.12
283.745	233.12
283.976	219.12
284.207	241.12
284.439	223.12
284.67	219.12
284.901	239.12
285.132	212.12
285.364	229.12
285.595	223.12
285.826	218.12
286.057	225.12
286.288	227.12
286.52	226.12
286.751	208.12
286.982	257.12
287.213	216.12
287.444	236.12
287.675	260.12
287.906	247.12
288.138	245.12
288.369	239.12
288.6	262.12
288.831	244.12
289.062	232.12
289.293	251.12
289.524	242.12
289.755	232.12
289.986	237.12
290.217	262.12
290.448	251.12
290.679	251.12
290.91	233.12
291.141	237.12
291.371	244.12
291.602	241.12
291.833	228.12
292.064	236.12
292.295	256.12
292.526	252.12
292.757	250.12
292.987	253.12
293.218	241.12
293.449	255.12
293.68	264.12
293.91	249.12
294.141	243.12
294.372	260.12
294.603	262.12
294.833	259.12
295.064	247.12
295.295	253.12
295.525	249.12
295.756	252.12
295.987	251.12
296.217	257.12
296.448	268.12
296.679	267.12
296.909	266.12
297.14	255.12
297.37	259.12
297.601	233.12
297.831	269.12
298.062	253.12
298.292	266.12
298.523	276.12
298.753	268.12
298.984	283.12
299.214	271.12
299.445	283.12
299.675	266.12
299.905	269.12
300.136	253.12
300.366	267.12
300.597	276.12
300.827	276.12
301.057	280.12
301.288	277.12
301.518	279.12
301.748	269.12
301.979	293.12
302.209	284.12
302.439	289.12
302.669	270.12
302.9	285.12
303.13	292.12
303.36	276.12
303.59	269.12
303.82	280.12
304.051	272.12
304.281	278.12
304.511	285.12
304.741	271.12
304.971	277.12
305.201	269.12
305.431	258.12
305.661	291.12
305.891	267.12
306.121	257.12
306.352	274.12
306.582	265.12
306.812	273.12
307.042	283.12
307.272	272.12
307.502	289.12
307.731	277.12
307.961	265.12
308.191	280.12
308.421	274.12
308.651	289.12
308.881	277.12
309.111	262.12
309.341	279.12
309.571	270.12
309.8	297.12
310.03	286.12
310.26	275.12
310.49	282.12
310.72	303.12
310.949	311.12
311.179	313.12
311.409	279.12
311.639	288.12
311.868	286.12
312.098	311.12
312.328	298.12
312.557	300.12
312.787	307.12
313.017	319.12
313.246	292.12
313.476	303.12
313.706	303.12
313.935	288.12
314.165	307.12
314.394	313.12
314.624	327.12
314.853	300.12
315.083	307.12
315.312	303.12
315.542	313.12
315.771	300.12
316.001	316.12
316.23	269.12
316.46	300.12
316.689	291.12
316.919	309.12
317.148	298.12
317.377	321.12
317.607	307.12
317.836	287.12
318.065	291.12
318.295	298.12
318.524	301.12
318.753	307.12
318.983	294.12
319.212	305.12
319.441	299.12
319.67	298.12
319.9	297.12
320.129	309.12
320.358	287.12
320.587	303.12
320.816	312.12
321.046	303.12
321.275	320.12
321.504	293.12
321.733	321.12
321.962	309.12
322.191	328.12
322.42	316.12
322.649	327.12
322.878	324.12
323.108	330.12
323.337	343.12
323.566	333.12
323.795	346.12
324.024	371.12
324.253	404.12
324.482	543.12
324.71	762.12
324.939	982.12
325.168	837.12
325.397	503.12
325.626	381.12
325.855	340.12
326.084	344.12
326.313	368.12
326.542	363.12
326.77	369.12
326.999	401.12
327.228	490.12
327.457	655.12
327.686	750.12
327.914	545.12
328.143	424.12
328.372	402.12
328.6	375.12
328.829	365.12
329.058	395.12
329.287	383.12
329.515	360.12
329.744	357.12
329.972	370.12
330.201	363.12
330.43	380.12
330.658	415.12
330.887	401.12
331.115	413.12
331.344	374.12
331.572	355.12
331.801	369.12
332.03	360.12
332.258	367.12
332.486	379.12
332.715	358.12
332.943	365.12
333.172	375.12
333.4	385.12
333.629	396.12
333.857	404.12
334.085	393.12
334.314	412.12
334.542	430.12
334.771	413.12
334.999	404.12
335.227	385.12
335.455	383.12
335.684	364.12
335.912	374.12
336.14	370.12
336.369	362.12
336.597	376.12
336.825	341.12
337.053	348.12
337.281	354.12
337.51	353.12
337.738	348.12
337.966	364.12
338.194	355.12
338.422	338.12
338.65	336.12
338.878	359.12
339.106	344.12
339.334	341.12
339.562	354.12
339.79	340.12
340.018	335.12
340.246	344.12
340.474	327.12
340.702	324.12
340.93	343.12
341.158	336.12
341.386	351.12
341.614	335.12
341.842	336.12
342.07	336.12
342.298	336.12
342.526	332.12
342.754	314.12
342.981	339.12
343.209	328.12
343.437	336.12
343.665	355.12
343.893	371.12
344.12	359.12
344.348	368.12
344.576	373.12
344.804	355.12
345.031	358.12
345.259	337.12
345.487	317.12
345.714	342.12
345.942	324.12
346.17	307.12
346.397	300.12
346.625	320.12
346.853	318.12
347.08	327.12
347.308	306.12
347.535	328.12
347.763	331.12
347.99	319.12
348.218	332.12
348.445	321.12
348.673	319.12
348.9	332.12
349.128	332.12
349.355	317.12
349.583	323.12
349.81	327.12
350.037	295.12
350.265	339.12
350.492	303.12
350.72	322.12
350.947	301.12
351.174	315.12
351.402	306.12
351.629	320.12
351.856	313.12
352.083	327.12
352.311	307.12
352.538	308.12
352.765	305.12
352.992	313.12
353.22	323.12
353.447	298.12
353.674	297.12
353.901	301.12
354.128	321.12
354.355	309.12
354.583	292.12
354.81	316.12
355.037	302.12
355.264	294.12
355.491	294.12
355.718	293.12
355.945	309.12
356.172	316.12
356.399	298.12
356.626	316.12
356.853	298.12
357.08	313.12
357.307	330.12
357.534	313.12
357.761	298.12
357.988	307.12
358.215	306.12
358.441	308.12
358.668	292.12
358.895	311.12
359.122	315.12
359.349	299.12
359.576	310.12
359.802	318.12
360.029	332.12
360.256	330.12
360.483	345.12
360.709	322.12
360.936	308.12
361.163	313.12
361.39	320.12
361.616	335.12
361.843	327.12
362.07	303.12
362.296	320.12
362.523	319.12
362.749	311.12
362.976	311.12
363.203	314.12
363.429	316.12
363.656	323.12
363.882	306.12
364.109	316.12
364.335	297.12
364.562	307.12
364.788	313.12
365.015	311.12
365.241	314.12
365.468	311.12
365.694	303.12
365.92	330.12
366.147	294.12
366.373	321.12
366.599	323.12
366.826	303.12
367.052	311.12
367.278	306.12
367.505	311.12
367.731	308.12
367.957	311.12
368.184	307.12
368.41	307.12
368.636	313.12
368.862	311.12
369.089	328.12
369.315	319.12
369.541	330.12
369.767	321.12
369.993	316.12
370.219	320.12
370.445	313.12
370.672	313.12
370.898	317.12
371.124	324.12
371.35	318.12
371.576	317.12
371.802	297.12
372.028	325.12
372.254	316.12
372.48	320.12
372.706	317.12
372.932	331.12
373.158	312.12
373.384	325.12
373.61	321.12
373.835	323.12
374.061	304.12
374.287	329.12
374.513	333.12
374.739	320.12
374.965	336.12
375.191	330.12
375.416	332.12
375.642	313.12
375.868	320.12
376.094	336.12
376.319	311.12
376.545	319.12
376.771	309.12
376.997	307.12
377.222	315.12
377.448	306.12
377.674	311.12
377.899	317.12
378.125	326.12
378.35	324.12
378.576	316.12
378.802	320.12
379.027	321.12
379.253	302.12
379.478	298.12
379.704	317.12
379.929	329.12
380.155	329.12
380.38	313.12
380.606	318.12
380.831	315.12
381.057	317.12
381.282	327.12
381.507	317.12
381.733	320.12
381.958	323.12
382.184	339.12
382.409	323.12
382.634	325.12
382.86	313.12
383.085	330.12
383.31	343.12
383.535	330.12
383.761	320.12
383.986	342.12
384.211	339.12
384.436	339.12
384.662	349.12
384.887	352.12
385.112	355.12
385.337	346.12
385.562	347.12
385.787	354.12
386.013	377.12
386.238	353.12
386.463	357.12
386.688	351.12
386.913	347.12
387.138	355.12
387.363	354.12
387.588	346.12
387.813	359.12
388.038	359.12
388.263	342.12
388.488	340.12
388.713	358.12
388.938	345.12
389.163	349.12
389.387	351.12
389.612	364.12
389.837	344.12
390.062	344.12
390.287	345.12
390.512	360.12
390.736	359.12
390.961	360.12
391.186	360.12
391.411	350.12
391.636	371.12
391.86	358.12
392.085	383.12
392.31	383.12
392.534	370.12
392.759	366.12
392.984	347.12
393.208	379.12
393.433	369.12
393.658	366.12
393.882	342.12
394.107	354.12
394.331	375.12
394.556	373.12
394.78	361.12
395.005	381.12
395.229	364.12
395.454	364.12
395.678	382.12
395.903	379.12
396.127	390.12
396.352	394.12
396.576	378.12
396.801	357.12
397.025	361.12
397.249	376.12
397.474	387.12
397.698	395.12
397.922	387.12
398.147	381.12
398.371	401.12
398.595	403.12
398.82	408.12
399.044	435.12
399.268	457.12
399.492	485.12
399.717	528.12
399.941	538.12
400.165	524.12
400.389	489.12
400.613	464.12
400.837	418.12
401.062	417.12
401.286	429.12
401.51	420.12
401.734	404.12
401.958	426.12
402.182	432.12
402.406	417.12
402.63	444.12
402.854	432.12
403.078	414.12
403.302	437.12
403.526	434.12
403.75	444.12
403.974	442.12
404.198	436.12
404.422	458.12
404.645	428.12
404.869	431.12
405.093	471.12
405.317	455.12
405.541	484.12
405.765	468.12
405.988	473.12
406.212	443.12
406.436	458.12
406.66	472.12
406.883	453.12
407.107	479.12
407.331	510.12
407.555	539.12
407.778	533.12
408.002	485.12
408.226	452.12
408.449	447.12
408.673	454.12
408.896	486.12
409.12	493.12
409.344	466.12
409.567	421.12
409.791	447.12
410.014	428.12
410.238	423.12
410.461	413.12
410.685	437.12
410.908	422.12
411.132	469.12
411.355	449.12
411.578	441.12
411.802	426.12
412.025	427.12
412.249	427.12
412.472	447.12
412.695	439.12
412.919	456.12
413.142	421.12
413.365	412.12
413.589	404.12
413.812	423.12
414.035	409.12
414.258	378.12
414.482	407.12
414.705	418.12
414.928	387.12
415.151	402.12
415.374	392.12
415.597	415.12
415.821	407.12
416.044	407.12
416.267	401.12
416.49	399.12
416.713	387.12
416.936	414.12
417.159	398.12
417.382	392.12
417.605	403.12
417.828	416.12
418.051	396.12
418.274	407.12
418.497	407.12
418.72	422.12
418.943	409.12
419.166	441.12
419.389	451.12
419.611	455.12
419.834	427.12
420.057	413.12
420.28	449.12
420.503	421.12
420.726	421.12
420.948	442.12
421.171	439.12
421.394	435.12
421.617	423.12
421.839	407.12
422.062	424.12
422.285	409.12
422.507	453.12
422.73	473.12
422.953	480.12
423.175	438.12
423.398	436.12
423.621	424.12
423.843	462.12
424.066	437.12
424.288	448.12
424.511	433.12
424.733	464.12
424.956	517.12
425.178	491.12
425.401	474.12
425.623	504.12
425.846	431.12
426.068	420.12
426.291	427.12
426.513	409.12
426.735	384.12
426.958	440.12
427.18	466.12
427.402	532.12
427.625	568.12
427.847	517.12
428.069	462.12
428.292	436.12
428.514	387.12
428.736	395.12
428.958	425.12
429.181	394.12
429.403	382.12
429.625	401.12
429.847	411.12
430.069	403.12
430.292	424.12
430.514	376.12
430.736	384.12
430.958	377.12
431.18	365.12
431.402	371.12
431.624	356.12
431.846	356.12
432.068	370.12
432.29	377.12
432.512	403.12
432.734	383.12
432.956	373.12
433.178	391.12
433.4	384.12
433.622	399.12
433.844	362.12
434.066	369.12
434.287	396.12
434.509	373.12
434.731	385.12
434.953	392.12
435.175	421.12
435.397	407.12
435.618	434.12
435.84	455.12
436.062	463.12
436.284	513.12
436.505	437.12
436.727	423.12
436.949	405.12
437.17	394.12
437.392	398.12
437.614	389.12
437.835	409.12
438.057	456.12
438.278	474.12
438.5	488.12
438.721	550.12
438.943	521.12
439.165	420.12
439.386	406.12
439.608	420.12
439.829	388.12
440.05	402.12
440.272	437.12
440.493	433.12
440.715	417.12
440.936	412.12
441.158	393.12
441.379	403.12
441.6	407.12
441.822	418.12
442.043	432.12
442.264	484.12
442.486	509.12
442.707	464.12
442.928	426.12
443.149	410.12
443.371	456.12
443.592	462.12
443.813	512.12
444.034	533.12
444.255	470.12
444.476	443.12
444.698	444.12
444.919	460.12
445.14	557.12
445.361	470.12
445.582	460.12
445.803	479.12
446.024	506.12
446.245	518.12
446.466	476.12
446.687	393.12
446.908	406.12
447.129	389.12
447.35	389.12
447.571	381.12
447.792	384.12
448.013	373.12
448.234	388.12
448.455	387.12
448.675	479.12
448.896	520.12
449.117	449.12
449.338	443.12
449.559	491.12
449.779	546.12
450	439.12
450.221	387.12
450.442	374.12
450.662	373.12
450.883	385.12
451.104	391.12
451.324	375.12
451.545	358.12
451.766	362.12
451.986	360.12
452.207	336.12
452.428	343.12
452.648	336.12
452.869	331.12
453.089	358.12
453.31	355.12
453.53	349.12
453.751	324.12
453.971	343.12
454.192	337.12
454.412	364.12
454.633	369.12
454.853	355.12
455.073	346.12
455.294	349.12
455.514	390.12
455.734	387.12
455.955	337.12
456.175	330.12
456.395	327.12
456.616	311.12
456.836	332.12
457.056	341.12
457.276	329.12
457.497	318.12
457.717	340.12
457.937	351.12
458.157	332.12
458.377	352.12
458.598	368.12
458.818	393.12
459.038	401.12
459.258	428.12
459.478	388.12
459.698	384.12
459.918	394.12
460.138	377.12
460.358	391.12
460.578	409.12
460.798	436.12
461.018	409.12
461.238	403.12
461.458	414.12
461.678	385.12
461.898	406.12
462.118	417.12
462.338	425.12
462.558	433.12
462.777	452.12
462.997	457.12
463.217	479.12
463.437	474.12
463.657	463.12
463.876	441.12
464.096	453.12
464.316	437.12
464.536	441.12
464.755	459.12
464.975	435.12
465.195	450.12
465.414	452.12
465.634	435.12
465.854	396.12
466.073	383.12
466.293	392.12
466.512	389.12
466.732	360.12
466.951	356.12
467.171	365.12
467.391	380.12
467.61	385.12
467.829	371.12
468.049	391.12
468.268	361.12
468.488	372.12
468.707	373.12
468.927	354.12
469.146	356.12
469.365	361.12
469.585	359.12
469.804	386.12
470.023	374.12
470.243	375.12
470.462	398.12
470.681	393.12
470.901	381.12
471.12	370.12
471.339	381.12
471.558	363.12
471.777	352.12
471.997	369.12
472.216	353.12
472.435	379.12
472.654	369.12
472.873	374.12
473.092	353.12
473.311	356.12
473.53	365.12
473.749	363.12
473.968	399.12
474.187	431.12
474.406	423.12
474.625	376.12
474.844	367.12
475.063	380.12
475.282	365.12
475.501	372.12
475.72	359.12
475.939	360.12
476.158	381.12
476.377	389.12
476.596	383.12
476.814	372.12
477.033	357.12
477.252	389.12
477.471	399.12
477.69	397.12
477.908	388.12
478.127	426.12
478.346	421.12
478.564	426.12
478.783	403.12
479.002	403.12
479.22	412.12
479.439	416.12
479.658	420.12
479.876	459.12
480.095	447.12
480.313	461.12
480.532	448.12
480.751	456.12
480.969	456.12
481.188	459.12
481.406	466.12
481.624	443.12
481.843	431.12
482.061	415.12
482.28	418.12
482.498	432.12
482.717	424.12
482.935	393.12
483.153	421.12
483.372	429.12
483.59	419.12
483.808	431.12
484.027	412.12
484.245	420.12
484.463	410.12
484.681	425.12
484.9	407.12
485.118	439.12
485.336	429.12
485.554	432.12
485.772	453.12
485.99	438.12
486.209	447.12
486.427	439.12
486.645	448.12
486.863	448.12
487.081	455.12
487.299	423.12
487.517	425.12
487.735	457.12
487.953	451.12
488.171	441.12
488.389	451.12
488.607	428.12
488.825	433.12
489.043	449.12
489.261	465.12
489.479	466.12
489.696	438.12
489.914	433.12
490.132	459.12
490.35	452.12
490.568	458.12
490.786	448.12
491.003	481.12
491.221	500.12
491.439	480.12
491.657	488.12
491.874	480.12
492.092	501.12
492.31	515.12
492.527	531.12
492.745	524.12
492.963	521.12
493.18	493.12
493.398	523.12
493.615	524.12
493.833	548.12
494.05	516.12
494.268	522.12
494.485	532.12
494.703	485.12
494.92	499.12
495.138	512.12
495.355	516.12
495.573	528.12
495.79	525.12
496.008	509.12
496.225	511.12
496.442	509.12
496.66	549.12
496.877	515.12
497.094	533.12
497.312	539.12
497.529	533.12
497.746	544.12
497.963	559.12
498.181	561.12
498.398	571.12
498.615	614.12
498.832	609.12
499.049	664.12
499.267	677.12
499.484	693.12
499.701	743.12
499.918	818.12
500.135	886.12
500.352	912.12
500.569	978.12
500.786	937.12
501.003	877.12
501.22	838.12
501.437	792.12
501.654	774.12
501.871	733.12
502.088	679.12
502.305	645.12
