Data from 1969.PennyLincolnUp.Lamp.En5.5.200Scan.071719.P1._HRD10591_14-54-55-972.txt Node
Date: Thu Jul 18 14:54:55 EDT 2019
User: cochatt
Spectrometer: HR+D1059
Trigger mode: 1
Integration Time (sec): 1.000000E-1
Scans to average: 1
Electric dark correction enabled: true
Nonlinearity correction enabled: false
Boxcar width: 0
XAxis mode: Wavelengths
Number of Pixels in Spectrum: 2048
>>>>>Begin Spectral Data<<<<<
223.165	-16.94
223.4	-16.94
223.635	-16.94
223.869	-29.94
224.104	-13.94
224.338	-12.94
224.573	-11.94
224.808	-19.94
225.042	-2.94
225.277	-12.94
225.511	-3.94
225.746	10.06
225.98	-5.94
226.215	8.06
226.449	12.06
226.683	30.06
226.918	37.06
227.152	34.06
227.387	35.06
227.621	36.06
227.856	40.06
228.09	44.06
228.324	37.06
228.559	53.06
228.793	55.06
229.027	66.06
229.262	90.06
229.496	92.06
229.73	94.06
229.964	106.06
230.199	101.06
230.433	77.06
230.667	96.06
230.901	87.06
231.136	92.06
231.37	99.06
231.604	90.06
231.838	98.06
232.072	107.06
232.306	98.06
232.541	92.06
232.775	99.06
233.009	98.06
233.243	106.06
233.477	95.06
233.711	113.06
233.945	98.06
234.179	97.06
234.413	105.06
234.647	116.06
234.881	107.06
235.115	105.06
235.349	109.06
235.583	102.06
235.817	120.06
236.051	122.06
236.285	108.06
236.519	91.06
236.753	104.06
236.987	116.06
237.221	141.06
237.455	152.06
237.689	140.06
237.922	141.06
238.156	111.06
238.39	117.06
238.624	105.06
238.858	114.06
239.091	108.06
239.325	116.06
239.559	101.06
239.793	117.06
240.027	117.06
240.26	109.06
240.494	121.06
240.728	127.06
240.961	122.06
241.195	123.06
241.429	108.06
241.662	125.06
241.896	129.06
242.13	117.06
242.363	105.06
242.597	135.06
242.83	122.06
243.064	119.06
243.298	121.06
243.531	118.06
243.765	126.06
243.998	122.06
244.232	126.06
244.465	128.06
244.699	127.06
244.932	135.06
245.166	125.06
245.399	121.06
245.633	116.06
245.866	119.06
246.099	123.06
246.333	143.06
246.566	124.06
246.8	128.06
247.033	141.06
247.266	138.06
247.5	139.06
247.733	145.06
247.966	134.06
248.2	148.06
248.433	143.06
248.666	135.06
248.899	150.06
249.133	157.06
249.366	178.06
249.599	157.06
249.832	143.06
250.066	136.06
250.299	152.06
250.532	157.06
250.765	157.06
250.998	171.06
251.231	147.06
251.465	182.06
251.698	160.06
251.931	149.06
252.164	164.06
252.397	150.06
252.63	159.06
252.863	158.06
253.096	183.06
253.329	170.06
253.562	175.06
253.795	184.06
254.028	177.06
254.261	166.06
254.494	183.06
254.727	206.06
254.96	188.06
255.193	202.06
255.426	191.06
255.659	175.06
255.892	189.06
256.124	180.06
256.357	173.06
256.59	181.06
256.823	172.06
257.056	192.06
257.289	168.06
257.521	164.06
257.754	166.06
257.987	158.06
258.22	184.06
258.452	168.06
258.685	166.06
258.918	170.06
259.151	168.06
259.383	168.06
259.616	184.06
259.849	182.06
260.081	197.06
260.314	193.06
260.547	190.06
260.779	205.06
261.012	183.06
261.244	186.06
261.477	168.06
261.71	177.06
261.942	172.06
262.175	192.06
262.407	181.06
262.64	181.06
262.872	164.06
263.105	180.06
263.337	182.06
263.57	170.06
263.802	170.06
264.035	185.06
264.267	163.06
264.499	185.06
264.732	211.06
264.964	190.06
265.197	169.06
265.429	172.06
265.661	173.06
265.894	177.06
266.126	190.06
266.358	187.06
266.591	183.06
266.823	179.06
267.055	189.06
267.287	188.06
267.52	193.06
267.752	196.06
267.984	194.06
268.216	197.06
268.448	185.06
268.681	201.06
268.913	202.06
269.145	207.06
269.377	218.06
269.609	205.06
269.841	216.06
270.073	215.06
270.306	230.06
270.538	235.06
270.77	244.06
271.002	230.06
271.234	233.06
271.466	232.06
271.698	231.06
271.93	251.06
272.162	257.06
272.394	238.06
272.626	225.06
272.858	212.06
273.09	208.06
273.322	200.06
273.553	201.06
273.785	210.06
274.017	218.06
274.249	201.06
274.481	214.06
274.713	230.06
274.945	213.06
275.176	205.06
275.408	210.06
275.64	230.06
275.872	207.06
276.104	233.06
276.335	209.06
276.567	213.06
276.799	225.06
277.031	229.06
277.262	250.06
277.494	259.06
277.726	249.06
277.957	239.06
278.189	210.06
278.421	205.06
278.652	213.06
278.884	232.06
279.115	229.06
279.347	207.06
279.579	231.06
279.81	210.06
280.042	211.06
280.273	219.06
280.505	224.06
280.736	224.06
280.968	221.06
281.199	213.06
281.431	225.06
281.662	232.06
281.894	219.06
282.125	214.06
282.356	227.06
282.588	249.06
282.819	246.06
283.051	238.06
283.282	226.06
283.513	236.06
283.745	233.06
283.976	250.06
284.207	232.06
284.439	220.06
284.67	219.06
284.901	233.06
285.132	234.06
285.364	232.06
285.595	261.06
285.826	247.06
286.057	244.06
286.288	243.06
286.52	246.06
286.751	230.06
286.982	237.06
287.213	257.06
287.444	245.06
287.675	260.06
287.906	251.06
288.138	250.06
288.369	269.06
288.6	270.06
288.831	247.06
289.062	247.06
289.293	248.06
289.524	257.06
289.755	232.06
289.986	249.06
290.217	233.06
290.448	237.06
290.679	269.06
290.91	254.06
291.141	258.06
291.371	253.06
291.602	260.06
291.833	237.06
292.064	257.06
292.295	257.06
292.526	249.06
292.757	259.06
292.987	251.06
293.218	251.06
293.449	260.06
293.68	262.06
293.91	255.06
294.141	251.06
294.372	248.06
294.603	249.06
294.833	250.06
295.064	254.06
295.295	262.06
295.525	273.06
295.756	237.06
295.987	263.06
296.217	263.06
296.448	283.06
296.679	261.06
296.909	264.06
297.14	257.06
297.37	259.06
297.601	262.06
297.831	266.06
298.062	258.06
298.292	268.06
298.523	256.06
298.753	263.06
298.984	280.06
299.214	268.06
299.445	278.06
299.675	261.06
299.905	277.06
300.136	262.06
300.366	271.06
300.597	281.06
300.827	270.06
301.057	284.06
301.288	278.06
301.518	299.06
301.748	271.06
301.979	287.06
302.209	270.06
302.439	276.06
302.669	265.06
302.9	273.06
303.13	293.06
303.36	294.06
303.59	280.06
303.82	281.06
304.051	276.06
304.281	294.06
304.511	257.06
304.741	281.06
304.971	250.06
305.201	290.06
305.431	282.06
305.661	293.06
305.891	272.06
306.121	267.06
306.352	271.06
306.582	276.06
306.812	277.06
307.042	283.06
307.272	274.06
307.502	276.06
307.731	292.06
307.961	281.06
308.191	276.06
308.421	301.06
308.651	281.06
308.881	276.06
309.111	279.06
309.341	259.06
309.571	270.06
309.8	289.06
310.03	308.06
310.26	301.06
310.49	313.06
310.72	307.06
310.949	305.06
311.179	306.06
311.409	293.06
311.639	308.06
311.868	301.06
312.098	311.06
312.328	286.06
312.557	303.06
312.787	298.06
313.017	290.06
313.246	318.06
313.476	297.06
313.706	311.06
313.935	298.06
314.165	336.06
314.394	322.06
314.624	306.06
314.853	305.06
315.083	301.06
315.312	315.06
315.542	293.06
315.771	311.06
316.001	305.06
316.23	300.06
316.46	317.06
316.689	308.06
316.919	308.06
317.148	323.06
317.377	323.06
317.607	325.06
317.836	296.06
318.065	303.06
318.295	314.06
318.524	315.06
318.753	301.06
318.983	276.06
319.212	318.06
319.441	300.06
319.67	312.06
319.9	310.06
320.129	296.06
320.358	317.06
320.587	309.06
320.816	299.06
321.046	318.06
321.275	299.06
321.504	317.06
321.733	300.06
321.962	327.06
322.191	318.06
322.42	318.06
322.649	328.06
322.878	333.06
323.108	349.06
323.337	341.06
323.566	362.06
323.795	359.06
324.024	399.06
324.253	437.06
324.482	566.06
324.71	789.06
324.939	1015.06
325.168	875.06
325.397	473.06
325.626	402.06
325.855	389.06
326.084	361.06
326.313	359.06
326.542	355.06
326.77	379.06
326.999	438.06
327.228	529.06
327.457	695.06
327.686	786.06
327.914	564.06
328.143	433.06
328.372	399.06
328.6	396.06
328.829	376.06
329.058	370.06
329.287	413.06
329.515	373.06
329.744	357.06
329.972	343.06
330.201	387.06
330.43	416.06
330.658	401.06
330.887	422.06
331.115	417.06
331.344	381.06
331.572	363.06
331.801	359.06
332.03	341.06
332.258	372.06
332.486	352.06
332.715	373.06
332.943	388.06
333.172	393.06
333.4	409.06
333.629	375.06
333.857	405.06
334.085	402.06
334.314	408.06
334.542	419.06
334.771	430.06
334.999	404.06
335.227	404.06
335.455	376.06
335.684	365.06
335.912	376.06
336.14	369.06
336.369	365.06
336.597	364.06
336.825	371.06
337.053	363.06
337.281	351.06
337.51	360.06
337.738	374.06
337.966	363.06
338.194	369.06
338.422	363.06
338.65	361.06
338.878	346.06
339.106	346.06
339.334	344.06
339.562	346.06
339.79	354.06
340.018	351.06
340.246	342.06
340.474	334.06
340.702	337.06
340.93	344.06
341.158	345.06
341.386	330.06
341.614	338.06
341.842	335.06
342.07	343.06
342.298	329.06
342.526	330.06
342.754	341.06
342.981	334.06
343.209	331.06
343.437	361.06
343.665	355.06
343.893	355.06
344.12	393.06
344.348	373.06
344.576	362.06
344.804	349.06
345.031	357.06
345.259	345.06
345.487	342.06
345.714	313.06
345.942	326.06
346.17	311.06
346.397	318.06
346.625	324.06
346.853	321.06
347.08	315.06
347.308	321.06
347.535	323.06
347.763	346.06
347.99	336.06
348.218	328.06
348.445	343.06
348.673	317.06
348.9	339.06
349.128	345.06
349.355	327.06
349.583	324.06
349.81	310.06
350.037	317.06
350.265	322.06
350.492	313.06
350.72	316.06
350.947	324.06
351.174	328.06
351.402	323.06
351.629	318.06
351.856	291.06
352.083	325.06
352.311	320.06
352.538	306.06
352.765	338.06
352.992	328.06
353.22	313.06
353.447	312.06
353.674	306.06
353.901	322.06
354.128	311.06
354.355	308.06
354.583	332.06
354.81	327.06
355.037	305.06
355.264	299.06
355.491	328.06
355.718	300.06
355.945	332.06
356.172	301.06
356.399	298.06
356.626	306.06
356.853	313.06
357.08	291.06
357.307	325.06
357.534	319.06
357.761	297.06
357.988	301.06
358.215	312.06
358.441	312.06
358.668	323.06
358.895	319.06
359.122	324.06
359.349	323.06
359.576	331.06
359.802	320.06
360.029	320.06
360.256	361.06
360.483	342.06
360.709	323.06
360.936	330.06
361.163	338.06
361.39	326.06
361.616	328.06
361.843	318.06
362.07	301.06
362.296	315.06
362.523	331.06
362.749	324.06
362.976	329.06
363.203	318.06
363.429	309.06
363.656	298.06
363.882	325.06
364.109	318.06
364.335	303.06
364.562	301.06
364.788	311.06
365.015	307.06
365.241	305.06
365.468	293.06
365.694	316.06
365.92	325.06
366.147	332.06
366.373	309.06
366.599	311.06
366.826	322.06
367.052	311.06
367.278	311.06
367.505	328.06
367.731	305.06
367.957	305.06
368.184	301.06
368.41	302.06
368.636	335.06
368.862	331.06
369.089	326.06
369.315	310.06
369.541	324.06
369.767	317.06
369.993	310.06
370.219	317.06
370.445	325.06
370.672	334.06
370.898	322.06
371.124	317.06
371.35	334.06
371.576	317.06
371.802	314.06
372.028	326.06
372.254	337.06
372.48	323.06
372.706	326.06
372.932	313.06
373.158	326.06
373.384	324.06
373.61	331.06
373.835	331.06
374.061	337.06
374.287	334.06
374.513	342.06
374.739	315.06
374.965	334.06
375.191	348.06
375.416	334.06
375.642	326.06
375.868	350.06
376.094	334.06
376.319	309.06
376.545	302.06
376.771	332.06
376.997	337.06
377.222	321.06
377.448	332.06
377.674	312.06
377.899	315.06
378.125	305.06
378.35	321.06
378.576	332.06
378.802	314.06
379.027	305.06
379.253	312.06
379.478	326.06
379.704	307.06
379.929	317.06
380.155	304.06
380.38	317.06
380.606	323.06
380.831	299.06
381.057	325.06
381.282	331.06
381.507	304.06
381.733	321.06
381.958	313.06
382.184	314.06
382.409	328.06
382.634	320.06
382.86	315.06
383.085	334.06
383.31	327.06
383.535	345.06
383.761	333.06
383.986	332.06
384.211	329.06
384.436	352.06
384.662	361.06
384.887	345.06
385.112	363.06
385.337	364.06
385.562	358.06
385.787	347.06
386.013	358.06
386.238	375.06
386.463	353.06
386.688	355.06
386.913	355.06
387.138	362.06
387.363	351.06
387.588	368.06
387.813	357.06
388.038	357.06
388.263	358.06
388.488	364.06
388.713	362.06
388.938	369.06
389.163	356.06
389.387	347.06
389.612	363.06
389.837	334.06
390.062	347.06
390.287	353.06
390.512	367.06
390.736	363.06
390.961	343.06
391.186	348.06
391.411	365.06
391.636	360.06
391.86	385.06
392.085	387.06
392.31	391.06
392.534	363.06
392.759	359.06
392.984	364.06
393.208	374.06
393.433	367.06
393.658	363.06
393.882	375.06
394.107	359.06
394.331	371.06
394.556	375.06
394.78	366.06
395.005	374.06
395.229	353.06
395.454	391.06
395.678	367.06
395.903	397.06
396.127	387.06
396.352	387.06
396.576	369.06
396.801	375.06
397.025	386.06
397.249	377.06
397.474	382.06
397.698	382.06
397.922	404.06
398.147	399.06
398.371	401.06
398.595	413.06
398.82	389.06
399.044	435.06
399.268	472.06
399.492	501.06
399.717	513.06
399.941	540.06
400.165	515.06
400.389	494.06
400.613	483.06
400.837	417.06
401.062	426.06
401.286	427.06
401.51	409.06
401.734	429.06
401.958	429.06
402.182	427.06
402.406	454.06
402.63	424.06
402.854	426.06
403.078	446.06
403.302	446.06
403.526	448.06
403.75	451.06
403.974	448.06
404.198	448.06
404.422	441.06
404.645	458.06
404.869	455.06
405.093	455.06
405.317	454.06
405.541	506.06
405.765	484.06
405.988	455.06
406.212	451.06
406.436	474.06
406.66	455.06
406.883	455.06
407.107	495.06
407.331	502.06
407.555	550.06
407.778	543.06
408.002	496.06
408.226	504.06
408.449	475.06
408.673	451.06
408.896	480.06
409.12	499.06
409.344	461.06
409.567	454.06
409.791	425.06
410.014	439.06
410.238	437.06
410.461	429.06
410.685	427.06
410.908	457.06
411.132	439.06
411.355	457.06
411.578	466.06
411.802	439.06
412.025	419.06
412.249	445.06
412.472	466.06
412.695	474.06
412.919	442.06
413.142	434.06
413.365	420.06
413.589	421.06
413.812	433.06
414.035	402.06
414.258	415.06
414.482	402.06
414.705	407.06
414.928	423.06
415.151	406.06
415.374	413.06
415.597	402.06
415.821	407.06
416.044	417.06
416.267	396.06
416.49	410.06
416.713	409.06
416.936	408.06
417.159	397.06
417.382	397.06
417.605	403.06
417.828	412.06
418.051	417.06
418.274	404.06
418.497	419.06
418.72	437.06
418.943	408.06
419.166	425.06
419.389	442.06
419.611	453.06
419.834	407.06
420.057	410.06
420.28	443.06
420.503	422.06
420.726	417.06
420.948	432.06
421.171	454.06
421.394	436.06
421.617	403.06
421.839	409.06
422.062	436.06
422.285	436.06
422.507	482.06
422.73	511.06
422.953	476.06
423.175	424.06
423.398	424.06
423.621	444.06
423.843	456.06
424.066	460.06
424.288	452.06
424.511	462.06
424.733	472.06
424.956	517.06
425.178	501.06
425.401	493.06
425.623	498.06
425.846	465.06
426.068	440.06
426.291	421.06
426.513	425.06
426.735	423.06
426.958	446.06
427.18	472.06
427.402	537.06
427.625	586.06
427.847	520.06
428.069	459.06
428.292	406.06
428.514	409.06
428.736	399.06
428.958	401.06
429.181	394.06
429.403	391.06
429.625	403.06
429.847	423.06
430.069	430.06
430.292	442.06
430.514	402.06
430.736	392.06
430.958	413.06
431.18	403.06
431.402	395.06
431.624	391.06
431.846	389.06
432.068	378.06
432.29	382.06
432.512	398.06
432.734	391.06
432.956	397.06
433.178	386.06
433.4	396.06
433.622	409.06
433.844	386.06
434.066	377.06
434.287	397.06
434.509	408.06
434.731	409.06
434.953	426.06
435.175	425.06
435.397	411.06
435.618	448.06
435.84	433.06
436.062	469.06
436.284	499.06
436.505	457.06
436.727	414.06
436.949	413.06
437.17	398.06
437.392	413.06
437.614	402.06
437.835	427.06
438.057	453.06
438.278	492.06
438.5	520.06
438.721	555.06
438.943	527.06
439.165	438.06
439.386	412.06
439.608	420.06
439.829	389.06
440.05	449.06
440.272	457.06
440.493	419.06
440.715	403.06
440.936	409.06
441.158	405.06
441.379	383.06
441.6	439.06
441.822	433.06
442.043	469.06
442.264	494.06
442.486	504.06
442.707	471.06
442.928	465.06
443.149	433.06
443.371	434.06
443.592	461.06
443.813	539.06
444.034	535.06
444.255	468.06
444.476	448.06
444.698	449.06
444.919	464.06
445.14	524.06
445.361	516.06
445.582	460.06
445.803	501.06
446.024	515.06
446.245	516.06
446.466	488.06
446.687	452.06
446.908	415.06
447.129	411.06
447.35	393.06
447.571	397.06
447.792	393.06
448.013	382.06
448.234	388.06
448.455	424.06
448.675	485.06
448.896	531.06
449.117	450.06
449.338	440.06
449.559	518.06
449.779	552.06
450	459.06
450.221	413.06
450.442	386.06
450.662	383.06
450.883	379.06
451.104	381.06
451.324	363.06
451.545	356.06
451.766	360.06
451.986	345.06
452.207	332.06
452.428	345.06
452.648	357.06
452.869	335.06
453.089	369.06
453.31	353.06
453.53	365.06
453.751	347.06
453.971	350.06
454.192	353.06
454.412	345.06
454.633	338.06
454.853	353.06
455.073	354.06
455.294	360.06
455.514	400.06
455.734	398.06
455.955	364.06
456.175	329.06
456.395	346.06
456.616	340.06
456.836	344.06
457.056	336.06
457.276	337.06
457.497	348.06
457.717	339.06
457.937	343.06
458.157	361.06
458.377	358.06
458.598	354.06
458.818	389.06
459.038	429.06
459.258	452.06
459.478	406.06
459.698	419.06
459.918	392.06
460.138	387.06
460.358	408.06
460.578	411.06
460.798	421.06
461.018	425.06
461.238	417.06
461.458	418.06
461.678	428.06
461.898	418.06
462.118	420.06
462.338	421.06
462.558	420.06
462.777	445.06
462.997	473.06
463.217	481.06
463.437	472.06
463.657	478.06
463.876	454.06
464.096	433.06
464.316	447.06
464.536	437.06
464.755	453.06
464.975	434.06
465.195	450.06
465.414	455.06
465.634	405.06
465.854	401.06
466.073	399.06
466.293	389.06
466.512	370.06
466.732	364.06
466.951	373.06
467.171	377.06
467.391	367.06
467.61	403.06
467.829	361.06
468.049	375.06
468.268	373.06
468.488	353.06
468.707	353.06
468.927	355.06
469.146	373.06
469.365	371.06
469.585	365.06
469.804	375.06
470.023	379.06
470.243	359.06
470.462	379.06
470.681	382.06
470.901	414.06
471.12	386.06
471.339	371.06
471.558	377.06
471.777	393.06
471.997	371.06
472.216	373.06
472.435	389.06
472.654	369.06
472.873	373.06
473.092	358.06
473.311	359.06
473.53	374.06
473.749	377.06
473.968	411.06
474.187	427.06
474.406	437.06
474.625	366.06
474.844	383.06
475.063	363.06
475.282	373.06
475.501	371.06
475.72	393.06
475.939	369.06
476.158	371.06
476.377	374.06
476.596	384.06
476.814	385.06
477.033	404.06
477.252	387.06
477.471	397.06
477.69	383.06
477.908	419.06
478.127	408.06
478.346	421.06
478.564	410.06
478.783	444.06
479.002	431.06
479.22	445.06
479.439	435.06
479.658	441.06
479.876	453.06
480.095	441.06
480.313	470.06
480.532	472.06
480.751	482.06
480.969	462.06
481.188	500.06
481.406	492.06
481.624	447.06
481.843	433.06
482.061	410.06
482.28	449.06
482.498	435.06
482.717	414.06
482.935	422.06
483.153	425.06
483.372	431.06
483.59	412.06
483.808	419.06
484.027	421.06
484.245	437.06
484.463	432.06
484.681	435.06
484.9	439.06
485.118	430.06
485.336	438.06
485.554	439.06
485.772	428.06
485.99	454.06
486.209	449.06
486.427	453.06
486.645	461.06
486.863	460.06
487.081	441.06
487.299	431.06
487.517	465.06
487.735	459.06
487.953	460.06
488.171	466.06
488.389	435.06
488.607	463.06
488.825	465.06
489.043	443.06
489.261	459.06
489.479	453.06
489.696	455.06
489.914	464.06
490.132	464.06
490.35	469.06
490.568	479.06
490.786	497.06
491.003	471.06
491.221	483.06
491.439	489.06
491.657	484.06
491.874	485.06
492.092	507.06
492.31	517.06
492.527	527.06
492.745	536.06
492.963	512.06
493.18	511.06
493.398	525.06
493.615	513.06
493.833	527.06
494.05	517.06
494.268	533.06
494.485	513.06
494.703	526.06
494.92	531.06
495.138	523.06
495.355	520.06
495.573	539.06
495.79	540.06
496.008	543.06
496.225	535.06
496.442	509.06
496.66	523.06
496.877	546.06
497.094	540.06
497.312	545.06
497.529	566.06
497.746	579.06
497.963	578.06
498.181	587.06
498.398	594.06
498.615	621.06
498.832	659.06
499.049	652.06
499.267	693.06
499.484	731.06
499.701	745.06
499.918	784.06
500.135	894.06
500.352	917.06
500.569	974.06
500.786	949.06
501.003	926.06
501.22	861.06
501.437	796.06
501.654	776.06
501.871	724.06
502.088	685.06
502.305	639.06
