Data from 1969.PennyLincolnUp.Lamp.En5.5.200Scan.071719.P1._HRD10591_14-53-51-971.txt Node
Date: Thu Jul 18 14:53:51 EDT 2019
User: cochatt
Spectrometer: HR+D1059
Trigger mode: 1
Integration Time (sec): 1.000000E-1
Scans to average: 1
Electric dark correction enabled: true
Nonlinearity correction enabled: false
Boxcar width: 0
XAxis mode: Wavelengths
Number of Pixels in Spectrum: 2048
>>>>>Begin Spectral Data<<<<<
223.165	-16.94
223.4	-16.94
223.635	-16.94
223.869	-23.94
224.104	-22.94
224.338	-23.94
224.573	-12.94
224.808	-6.94
225.042	-1.94
225.277	-0.94
225.511	1.06
225.746	8.06
225.98	0.06
226.215	15.06
226.449	23.06
226.683	28.06
226.918	15.06
227.152	20.06
227.387	39.06
227.621	37.06
227.856	43.06
228.09	35.06
228.324	50.06
228.559	58.06
228.793	66.06
229.027	93.06
229.262	79.06
229.496	85.06
229.73	93.06
229.964	105.06
230.199	89.06
230.433	110.06
230.667	106.06
230.901	91.06
231.136	94.06
231.37	97.06
231.604	105.06
231.838	110.06
232.072	98.06
232.306	100.06
232.541	110.06
232.775	112.06
233.009	114.06
233.243	101.06
233.477	113.06
233.711	111.06
233.945	117.06
234.179	105.06
234.413	106.06
234.647	108.06
234.881	107.06
235.115	113.06
235.349	104.06
235.583	124.06
235.817	107.06
236.051	125.06
236.285	99.06
236.519	112.06
236.753	117.06
236.987	111.06
237.221	121.06
237.455	140.06
237.689	119.06
237.922	104.06
238.156	111.06
238.39	108.06
238.624	95.06
238.858	104.06
239.091	103.06
239.325	108.06
239.559	100.06
239.793	110.06
240.027	121.06
240.26	117.06
240.494	98.06
240.728	119.06
240.961	112.06
241.195	127.06
241.429	121.06
241.662	126.06
241.896	106.06
242.13	112.06
242.363	121.06
242.597	117.06
242.83	111.06
243.064	117.06
243.298	123.06
243.531	127.06
243.765	127.06
243.998	130.06
244.232	131.06
244.465	126.06
244.699	113.06
244.932	119.06
245.166	125.06
245.399	136.06
245.633	122.06
245.866	134.06
246.099	127.06
246.333	135.06
246.566	133.06
246.8	129.06
247.033	138.06
247.266	138.06
247.5	151.06
247.733	145.06
247.966	131.06
248.2	149.06
248.433	145.06
248.666	135.06
248.899	137.06
249.133	157.06
249.366	162.06
249.599	131.06
249.832	122.06
250.066	146.06
250.299	142.06
250.532	145.06
250.765	152.06
250.998	158.06
251.231	133.06
251.465	165.06
251.698	155.06
251.931	163.06
252.164	145.06
252.397	140.06
252.63	154.06
252.863	158.06
253.096	169.06
253.329	156.06
253.562	157.06
253.795	169.06
254.028	152.06
254.261	169.06
254.494	167.06
254.727	174.06
254.96	183.06
255.193	179.06
255.426	164.06
255.659	163.06
255.892	174.06
256.124	198.06
256.357	165.06
256.59	175.06
256.823	154.06
257.056	151.06
257.289	144.06
257.521	145.06
257.754	160.06
257.987	171.06
258.22	163.06
258.452	154.06
258.685	150.06
258.918	161.06
259.151	152.06
259.383	161.06
259.616	151.06
259.849	187.06
260.081	178.06
260.314	181.06
260.547	181.06
260.779	182.06
261.012	177.06
261.244	174.06
261.477	170.06
261.71	177.06
261.942	160.06
262.175	154.06
262.407	156.06
262.64	170.06
262.872	153.06
263.105	157.06
263.337	160.06
263.57	171.06
263.802	170.06
264.035	173.06
264.267	153.06
264.499	167.06
264.732	175.06
264.964	173.06
265.197	173.06
265.429	175.06
265.661	177.06
265.894	176.06
266.126	183.06
266.358	188.06
266.591	182.06
266.823	185.06
267.055	170.06
267.287	178.06
267.52	170.06
267.752	177.06
267.984	160.06
268.216	192.06
268.448	184.06
268.681	178.06
268.913	177.06
269.145	170.06
269.377	189.06
269.609	201.06
269.841	199.06
270.073	202.06
270.306	202.06
270.538	220.06
270.77	210.06
271.002	204.06
271.234	209.06
271.466	221.06
271.698	206.06
271.93	216.06
272.162	229.06
272.394	213.06
272.626	202.06
272.858	196.06
273.09	196.06
273.322	220.06
273.553	199.06
273.785	187.06
274.017	193.06
274.249	217.06
274.481	198.06
274.713	192.06
274.945	199.06
275.176	205.06
275.408	205.06
275.64	183.06
275.872	176.06
276.104	216.06
276.335	203.06
276.567	213.06
276.799	209.06
277.031	235.06
277.262	214.06
277.494	217.06
277.726	221.06
277.957	209.06
278.189	224.06
278.421	198.06
278.652	206.06
278.884	200.06
279.115	207.06
279.347	207.06
279.579	201.06
279.81	209.06
280.042	211.06
280.273	210.06
280.505	211.06
280.736	225.06
280.968	204.06
281.199	211.06
281.431	207.06
281.662	207.06
281.894	205.06
282.125	217.06
282.356	227.06
282.588	233.06
282.819	226.06
283.051	230.06
283.282	211.06
283.513	232.06
283.745	232.06
283.976	214.06
284.207	223.06
284.439	215.06
284.67	210.06
284.901	211.06
285.132	212.06
285.364	203.06
285.595	223.06
285.826	205.06
286.057	219.06
286.288	231.06
286.52	233.06
286.751	227.06
286.982	231.06
287.213	229.06
287.444	222.06
287.675	230.06
287.906	219.06
288.138	238.06
288.369	228.06
288.6	219.06
288.831	244.06
289.062	242.06
289.293	232.06
289.524	223.06
289.755	226.06
289.986	233.06
290.217	225.06
290.448	243.06
290.679	228.06
290.91	222.06
291.141	231.06
291.371	225.06
291.602	226.06
291.833	235.06
292.064	240.06
292.295	231.06
292.526	244.06
292.757	233.06
292.987	222.06
293.218	241.06
293.449	228.06
293.68	229.06
293.91	227.06
294.141	221.06
294.372	237.06
294.603	246.06
294.833	242.06
295.064	244.06
295.295	227.06
295.525	226.06
295.756	242.06
295.987	251.06
296.217	255.06
296.448	246.06
296.679	241.06
296.909	249.06
297.14	251.06
297.37	250.06
297.601	249.06
297.831	248.06
298.062	250.06
298.292	252.06
298.523	242.06
298.753	256.06
298.984	237.06
299.214	267.06
299.445	256.06
299.675	239.06
299.905	251.06
300.136	245.06
300.366	242.06
300.597	260.06
300.827	253.06
301.057	243.06
301.288	248.06
301.518	267.06
301.748	261.06
301.979	275.06
302.209	261.06
302.439	261.06
302.669	249.06
302.9	264.06
303.13	261.06
303.36	260.06
303.59	276.06
303.82	262.06
304.051	264.06
304.281	264.06
304.511	270.06
304.741	253.06
304.971	250.06
305.201	266.06
305.431	241.06
305.661	263.06
305.891	271.06
306.121	249.06
306.352	263.06
306.582	254.06
306.812	280.06
307.042	251.06
307.272	265.06
307.502	250.06
307.731	257.06
307.961	247.06
308.191	248.06
308.421	244.06
308.651	263.06
308.881	266.06
309.111	280.06
309.341	271.06
309.571	261.06
309.8	262.06
310.03	267.06
310.26	278.06
310.49	262.06
310.72	279.06
310.949	292.06
311.179	283.06
311.409	277.06
311.639	286.06
311.868	273.06
312.098	265.06
312.328	280.06
312.557	284.06
312.787	282.06
313.017	289.06
313.246	274.06
313.476	277.06
313.706	274.06
313.935	279.06
314.165	290.06
314.394	290.06
314.624	290.06
314.853	287.06
315.083	274.06
315.312	283.06
315.542	285.06
315.771	275.06
316.001	285.06
316.23	272.06
316.46	284.06
316.689	294.06
316.919	279.06
317.148	285.06
317.377	288.06
317.607	285.06
317.836	280.06
318.065	277.06
318.295	297.06
318.524	281.06
318.753	280.06
318.983	271.06
319.212	275.06
319.441	299.06
319.67	302.06
319.9	288.06
320.129	281.06
320.358	266.06
320.587	298.06
320.816	305.06
321.046	285.06
321.275	314.06
321.504	299.06
321.733	292.06
321.962	286.06
322.191	285.06
322.42	289.06
322.649	297.06
322.878	301.06
323.108	310.06
323.337	295.06
323.566	333.06
323.795	317.06
324.024	332.06
324.253	384.06
324.482	471.06
324.71	635.06
324.939	788.06
325.168	666.06
325.397	403.06
325.626	335.06
325.855	320.06
326.084	307.06
326.313	321.06
326.542	330.06
326.77	323.06
326.999	379.06
327.228	423.06
327.457	570.06
327.686	634.06
327.914	448.06
328.143	373.06
328.372	346.06
328.6	337.06
328.829	313.06
329.058	347.06
329.287	346.06
329.515	339.06
329.744	327.06
329.972	323.06
330.201	349.06
330.43	352.06
330.658	346.06
330.887	359.06
331.115	351.06
331.344	338.06
331.572	344.06
331.801	338.06
332.03	343.06
332.258	329.06
332.486	358.06
332.715	330.06
332.943	369.06
333.172	352.06
333.4	353.06
333.629	352.06
333.857	373.06
334.085	381.06
334.314	367.06
334.542	379.06
334.771	367.06
334.999	361.06
335.227	350.06
335.455	354.06
335.684	360.06
335.912	329.06
336.14	327.06
336.369	333.06
336.597	348.06
336.825	347.06
337.053	327.06
337.281	322.06
337.51	342.06
337.738	323.06
337.966	333.06
338.194	335.06
338.422	328.06
338.65	335.06
338.878	329.06
339.106	329.06
339.334	314.06
339.562	316.06
339.79	336.06
340.018	317.06
340.246	330.06
340.474	316.06
340.702	307.06
340.93	328.06
341.158	302.06
341.386	327.06
341.614	313.06
341.842	315.06
342.07	306.06
342.298	328.06
342.526	314.06
342.754	328.06
342.981	320.06
343.209	309.06
343.437	326.06
343.665	340.06
343.893	351.06
344.12	347.06
344.348	326.06
344.576	334.06
344.804	330.06
345.031	313.06
345.259	318.06
345.487	319.06
345.714	308.06
345.942	297.06
346.17	301.06
346.397	315.06
346.625	306.06
346.853	305.06
347.08	314.06
347.308	305.06
347.535	311.06
347.763	308.06
347.99	309.06
348.218	328.06
348.445	313.06
348.673	305.06
348.9	295.06
349.128	313.06
349.355	297.06
349.583	299.06
349.81	294.06
350.037	304.06
350.265	290.06
350.492	301.06
350.72	290.06
350.947	298.06
351.174	297.06
351.402	284.06
351.629	313.06
351.856	300.06
352.083	290.06
352.311	285.06
352.538	311.06
352.765	317.06
352.992	302.06
353.22	297.06
353.447	288.06
353.674	307.06
353.901	288.06
354.128	294.06
354.355	273.06
354.583	289.06
354.81	290.06
355.037	315.06
355.264	302.06
355.491	289.06
355.718	299.06
355.945	274.06
356.172	285.06
356.399	288.06
356.626	289.06
356.853	296.06
357.08	296.06
357.307	291.06
357.534	300.06
357.761	274.06
357.988	281.06
358.215	281.06
358.441	296.06
358.668	295.06
358.895	304.06
359.122	301.06
359.349	286.06
359.576	305.06
359.802	307.06
360.029	318.06
360.256	318.06
360.483	302.06
360.709	307.06
360.936	297.06
361.163	301.06
361.39	296.06
361.616	307.06
361.843	297.06
362.07	291.06
362.296	311.06
362.523	265.06
362.749	274.06
362.976	299.06
363.203	281.06
363.429	288.06
363.656	290.06
363.882	291.06
364.109	279.06
364.335	303.06
364.562	298.06
364.788	291.06
365.015	313.06
365.241	295.06
365.468	300.06
365.694	294.06
365.92	287.06
366.147	297.06
366.373	301.06
366.599	273.06
366.826	294.06
367.052	275.06
367.278	277.06
367.505	293.06
367.731	294.06
367.957	286.06
368.184	279.06
368.41	303.06
368.636	294.06
368.862	290.06
369.089	290.06
369.315	310.06
369.541	300.06
369.767	291.06
369.993	290.06
370.219	275.06
370.445	291.06
370.672	284.06
370.898	303.06
371.124	296.06
371.35	298.06
371.576	306.06
371.802	302.06
372.028	309.06
372.254	301.06
372.48	295.06
372.706	307.06
372.932	313.06
373.158	311.06
373.384	298.06
373.61	314.06
373.835	297.06
374.061	307.06
374.287	329.06
374.513	307.06
374.739	298.06
374.965	301.06
375.191	336.06
375.416	318.06
375.642	319.06
375.868	321.06
376.094	311.06
376.319	308.06
376.545	300.06
376.771	306.06
376.997	299.06
377.222	301.06
377.448	308.06
377.674	303.06
377.899	297.06
378.125	293.06
378.35	286.06
378.576	298.06
378.802	281.06
379.027	294.06
379.253	306.06
379.478	309.06
379.704	286.06
379.929	291.06
380.155	314.06
380.38	306.06
380.606	313.06
380.831	311.06
381.057	304.06
381.282	294.06
381.507	306.06
381.733	297.06
381.958	285.06
382.184	309.06
382.409	293.06
382.634	310.06
382.86	320.06
383.085	319.06
383.31	309.06
383.535	311.06
383.761	314.06
383.986	328.06
384.211	338.06
384.436	319.06
384.662	315.06
384.887	326.06
385.112	350.06
385.337	355.06
385.562	339.06
385.787	326.06
386.013	355.06
386.238	343.06
386.463	337.06
386.688	343.06
386.913	344.06
387.138	329.06
387.363	352.06
387.588	335.06
387.813	321.06
388.038	338.06
388.263	342.06
388.488	359.06
388.713	347.06
388.938	331.06
389.163	315.06
389.387	312.06
389.612	353.06
389.837	333.06
390.062	335.06
390.287	338.06
390.512	333.06
390.736	330.06
390.961	351.06
391.186	353.06
391.411	357.06
391.636	354.06
391.86	363.06
392.085	366.06
392.31	371.06
392.534	353.06
392.759	353.06
392.984	335.06
393.208	331.06
393.433	349.06
393.658	350.06
393.882	345.06
394.107	353.06
394.331	354.06
394.556	339.06
394.78	327.06
395.005	355.06
395.229	332.06
395.454	351.06
395.678	364.06
395.903	374.06
396.127	352.06
396.352	361.06
396.576	355.06
396.801	346.06
397.025	365.06
397.249	364.06
397.474	377.06
397.698	383.06
397.922	363.06
398.147	349.06
398.371	373.06
398.595	386.06
398.82	381.06
399.044	388.06
399.268	438.06
399.492	469.06
399.717	488.06
399.941	489.06
400.165	478.06
400.389	473.06
400.613	413.06
400.837	422.06
401.062	384.06
401.286	395.06
401.51	386.06
401.734	381.06
401.958	386.06
402.182	383.06
402.406	397.06
402.63	404.06
402.854	405.06
403.078	420.06
403.302	407.06
403.526	430.06
403.75	397.06
403.974	421.06
404.198	410.06
404.422	430.06
404.645	412.06
404.869	418.06
405.093	437.06
405.317	427.06
405.541	468.06
405.765	407.06
405.988	405.06
406.212	429.06
406.436	453.06
406.66	451.06
406.883	426.06
407.107	434.06
407.331	475.06
407.555	509.06
407.778	481.06
408.002	471.06
408.226	449.06
408.449	429.06
408.673	410.06
408.896	433.06
409.12	453.06
409.344	458.06
409.567	427.06
409.791	417.06
410.014	409.06
410.238	425.06
410.461	416.06
410.685	414.06
410.908	410.06
411.132	419.06
411.355	410.06
411.578	421.06
411.802	383.06
412.025	390.06
412.249	408.06
412.472	398.06
412.695	433.06
412.919	416.06
413.142	391.06
413.365	391.06
413.589	394.06
413.812	383.06
414.035	381.06
414.258	396.06
414.482	401.06
414.705	385.06
414.928	401.06
415.151	395.06
415.374	387.06
415.597	371.06
415.821	371.06
416.044	395.06
416.267	367.06
416.49	375.06
416.713	391.06
416.936	387.06
417.159	387.06
417.382	382.06
417.605	384.06
417.828	387.06
418.051	378.06
418.274	405.06
418.497	393.06
418.72	390.06
418.943	370.06
419.166	399.06
419.389	403.06
419.611	421.06
419.834	409.06
420.057	398.06
420.28	415.06
420.503	410.06
420.726	395.06
420.948	383.06
421.171	404.06
421.394	390.06
421.617	387.06
421.839	378.06
422.062	383.06
422.285	401.06
422.507	411.06
422.73	433.06
422.953	449.06
423.175	419.06
423.398	392.06
423.621	403.06
423.843	416.06
424.066	421.06
424.288	416.06
424.511	421.06
424.733	426.06
424.956	483.06
425.178	461.06
425.401	441.06
425.623	446.06
425.846	394.06
426.068	411.06
426.291	407.06
426.513	379.06
426.735	386.06
426.958	405.06
427.18	443.06
427.402	502.06
427.625	513.06
427.847	458.06
428.069	402.06
428.292	402.06
428.514	383.06
428.736	366.06
428.958	373.06
429.181	361.06
429.403	354.06
429.625	367.06
429.847	361.06
430.069	398.06
430.292	393.06
430.514	362.06
430.736	362.06
430.958	349.06
431.18	361.06
431.402	363.06
431.624	364.06
431.846	356.06
432.068	357.06
432.29	372.06
432.512	361.06
432.734	367.06
432.956	354.06
433.178	377.06
433.4	371.06
433.622	346.06
433.844	368.06
434.066	344.06
434.287	357.06
434.509	361.06
434.731	382.06
434.953	393.06
435.175	407.06
435.397	400.06
435.618	395.06
435.84	383.06
436.062	432.06
436.284	477.06
436.505	410.06
436.727	362.06
436.949	354.06
437.17	364.06
437.392	380.06
437.614	397.06
437.835	389.06
438.057	410.06
438.278	432.06
438.5	453.06
438.721	461.06
438.943	465.06
439.165	406.06
439.386	379.06
439.608	388.06
439.829	383.06
440.05	377.06
440.272	395.06
440.493	419.06
440.715	387.06
440.936	382.06
441.158	359.06
441.379	397.06
441.6	391.06
441.822	398.06
442.043	412.06
442.264	442.06
442.486	465.06
442.707	424.06
442.928	405.06
443.149	421.06
443.371	427.06
443.592	415.06
443.813	475.06
444.034	493.06
444.255	429.06
444.476	441.06
444.698	449.06
444.919	450.06
445.14	542.06
445.361	481.06
445.582	419.06
445.803	432.06
446.024	463.06
446.245	462.06
446.466	433.06
446.687	401.06
446.908	391.06
447.129	364.06
447.35	373.06
447.571	353.06
447.792	336.06
448.013	338.06
448.234	354.06
448.455	376.06
448.675	427.06
448.896	469.06
449.117	444.06
449.338	391.06
449.559	458.06
449.779	481.06
450	409.06
450.221	358.06
450.442	363.06
450.662	358.06
450.883	360.06
451.104	371.06
451.324	345.06
451.545	331.06
451.766	327.06
451.986	338.06
452.207	338.06
452.428	320.06
452.648	324.06
452.869	335.06
453.089	347.06
453.31	347.06
453.53	334.06
453.751	337.06
453.971	333.06
454.192	318.06
454.412	326.06
454.633	335.06
454.853	324.06
455.073	320.06
455.294	337.06
455.514	353.06
455.734	363.06
455.955	313.06
456.175	291.06
456.395	307.06
456.616	318.06
456.836	326.06
457.056	309.06
457.276	335.06
457.497	335.06
457.717	330.06
457.937	325.06
458.157	322.06
458.377	327.06
458.598	326.06
458.818	374.06
459.038	408.06
459.258	387.06
459.478	363.06
459.698	366.06
459.918	368.06
460.138	382.06
460.358	399.06
460.578	380.06
460.798	397.06
461.018	393.06
461.238	383.06
461.458	391.06
461.678	398.06
461.898	395.06
462.118	405.06
462.338	388.06
462.558	397.06
462.777	435.06
462.997	439.06
463.217	453.06
463.437	463.06
463.657	452.06
463.876	450.06
464.096	426.06
464.316	410.06
464.536	416.06
464.755	406.06
464.975	423.06
465.195	403.06
465.414	426.06
465.634	403.06
465.854	391.06
466.073	381.06
466.293	362.06
466.512	358.06
466.732	344.06
466.951	354.06
467.171	363.06
467.391	336.06
467.61	345.06
467.829	359.06
468.049	349.06
468.268	351.06
468.488	324.06
468.707	351.06
468.927	337.06
469.146	352.06
469.365	360.06
469.585	338.06
469.804	353.06
470.023	354.06
470.243	368.06
470.462	352.06
470.681	362.06
470.901	365.06
471.12	354.06
471.339	359.06
471.558	358.06
471.777	363.06
471.997	347.06
472.216	351.06
472.435	343.06
472.654	347.06
472.873	352.06
473.092	339.06
473.311	346.06
473.53	343.06
473.749	342.06
473.968	368.06
474.187	403.06
474.406	403.06
474.625	361.06
474.844	341.06
475.063	339.06
475.282	362.06
475.501	342.06
475.72	343.06
475.939	345.06
476.158	336.06
476.377	346.06
476.596	339.06
476.814	353.06
477.033	362.06
477.252	342.06
477.471	370.06
477.69	380.06
477.908	399.06
478.127	401.06
478.346	391.06
478.564	380.06
478.783	396.06
479.002	417.06
479.22	411.06
479.439	421.06
479.658	403.06
479.876	401.06
480.095	429.06
480.313	427.06
480.532	450.06
480.751	422.06
480.969	427.06
481.188	430.06
481.406	433.06
481.624	401.06
481.843	396.06
482.061	397.06
482.28	389.06
482.498	408.06
482.717	389.06
482.935	389.06
483.153	384.06
483.372	390.06
483.59	394.06
483.808	390.06
484.027	399.06
484.245	398.06
484.463	382.06
484.681	412.06
484.9	412.06
485.118	406.06
485.336	410.06
485.554	403.06
485.772	422.06
485.99	413.06
486.209	406.06
486.427	416.06
486.645	433.06
486.863	427.06
487.081	417.06
487.299	424.06
487.517	406.06
487.735	434.06
487.953	408.06
488.171	427.06
488.389	386.06
488.607	424.06
488.825	413.06
489.043	421.06
489.261	421.06
489.479	413.06
489.696	429.06
489.914	431.06
490.132	451.06
490.35	424.06
490.568	434.06
490.786	445.06
491.003	428.06
491.221	449.06
491.439	458.06
491.657	470.06
491.874	465.06
492.092	451.06
492.31	467.06
492.527	491.06
492.745	475.06
492.963	470.06
493.18	490.06
493.398	477.06
493.615	479.06
493.833	482.06
494.05	484.06
494.268	478.06
494.485	454.06
494.703	482.06
494.92	495.06
495.138	470.06
495.355	478.06
495.573	479.06
495.79	481.06
496.008	473.06
496.225	494.06
496.442	471.06
496.66	488.06
496.877	473.06
497.094	511.06
497.312	495.06
497.529	505.06
497.746	530.06
497.963	515.06
498.181	529.06
498.398	536.06
498.615	571.06
498.832	576.06
499.049	610.06
499.267	635.06
499.484	678.06
499.701	719.06
499.918	743.06
500.135	830.06
500.352	887.06
500.569	911.06
500.786	895.06
501.003	849.06
501.22	794.06
501.437	751.06
501.654	689.06
501.871	688.06
502.088	651.06
