Data from 1969.PennyLincolnUp.Lamp.En5.5.200Scan.071719.P1._HRD10591_14-55-06-972.txt Node
Date: Thu Jul 18 14:55:06 EDT 2019
User: cochatt
Spectrometer: HR+D1059
Trigger mode: 1
Integration Time (sec): 1.000000E-1
Scans to average: 1
Electric dark correction enabled: true
Nonlinearity correction enabled: false
Boxcar width: 0
XAxis mode: Wavelengths
Number of Pixels in Spectrum: 2048
>>>>>Begin Spectral Data<<<<<
223.165	-3.69
223.4	-3.69
223.635	-3.69
223.869	-10.69
224.104	-19.69
224.338	-20.69
224.573	-16.69
224.808	-19.69
225.042	-16.69
225.277	10.31
225.511	-3.69
225.746	2.31
225.98	11.31
226.215	11.31
226.449	11.31
226.683	23.31
226.918	7.31
227.152	34.31
227.387	27.31
227.621	42.31
227.856	54.31
228.09	39.31
228.324	45.31
228.559	51.31
228.793	68.31
229.027	86.31
229.262	91.31
229.496	105.31
229.73	95.31
229.964	107.31
230.199	123.31
230.433	114.31
230.667	98.31
230.901	98.31
231.136	92.31
231.37	100.31
231.604	102.31
231.838	108.31
232.072	101.31
232.306	101.31
232.541	82.31
232.775	107.31
233.009	106.31
233.243	104.31
233.477	101.31
233.711	89.31
233.945	109.31
234.179	101.31
234.413	108.31
234.647	110.31
234.881	110.31
235.115	95.31
235.349	105.31
235.583	110.31
235.817	100.31
236.051	116.31
236.285	127.31
236.519	98.31
236.753	109.31
236.987	117.31
237.221	130.31
237.455	165.31
237.689	147.31
237.922	130.31
238.156	114.31
238.39	113.31
238.624	102.31
238.858	106.31
239.091	120.31
239.325	106.31
239.559	109.31
239.793	116.31
240.027	119.31
240.26	130.31
240.494	127.31
240.728	116.31
240.961	136.31
241.195	124.31
241.429	120.31
241.662	120.31
241.896	129.31
242.13	141.31
242.363	132.31
242.597	127.31
242.83	136.31
243.064	117.31
243.298	136.31
243.531	129.31
243.765	125.31
243.998	126.31
244.232	120.31
244.465	126.31
244.699	137.31
244.932	129.31
245.166	127.31
245.399	126.31
245.633	137.31
245.866	124.31
246.099	127.31
246.333	136.31
246.566	126.31
246.8	143.31
247.033	147.31
247.266	131.31
247.5	147.31
247.733	152.31
247.966	144.31
248.2	142.31
248.433	137.31
248.666	142.31
248.899	153.31
249.133	164.31
249.366	166.31
249.599	169.31
249.832	141.31
250.066	173.31
250.299	160.31
250.532	155.31
250.765	165.31
250.998	172.31
251.231	183.31
251.465	166.31
251.698	168.31
251.931	182.31
252.164	175.31
252.397	153.31
252.63	159.31
252.863	179.31
253.096	184.31
253.329	186.31
253.562	182.31
253.795	178.31
254.028	171.31
254.261	173.31
254.494	180.31
254.727	215.31
254.96	207.31
255.193	208.31
255.426	178.31
255.659	185.31
255.892	192.31
256.124	190.31
256.357	187.31
256.59	188.31
256.823	164.31
257.056	185.31
257.289	174.31
257.521	174.31
257.754	173.31
257.987	185.31
258.22	181.31
258.452	180.31
258.685	166.31
258.918	190.31
259.151	180.31
259.383	178.31
259.616	172.31
259.849	172.31
260.081	199.31
260.314	213.31
260.547	203.31
260.779	194.31
261.012	201.31
261.244	185.31
261.477	185.31
261.71	165.31
261.942	197.31
262.175	190.31
262.407	177.31
262.64	181.31
262.872	185.31
263.105	183.31
263.337	176.31
263.57	179.31
263.802	180.31
264.035	187.31
264.267	181.31
264.499	185.31
264.732	182.31
264.964	194.31
265.197	195.31
265.429	172.31
265.661	167.31
265.894	163.31
266.126	171.31
266.358	189.31
266.591	195.31
266.823	191.31
267.055	200.31
267.287	197.31
267.52	205.31
267.752	195.31
267.984	196.31
268.216	216.31
268.448	200.31
268.681	197.31
268.913	218.31
269.145	217.31
269.377	227.31
269.609	224.31
269.841	228.31
270.073	218.31
270.306	246.31
270.538	249.31
270.77	248.31
271.002	243.31
271.234	230.31
271.466	245.31
271.698	257.31
271.93	247.31
272.162	257.31
272.394	267.31
272.626	248.31
272.858	219.31
273.09	226.31
273.322	219.31
273.553	217.31
273.785	230.31
274.017	221.31
274.249	220.31
274.481	212.31
274.713	223.31
274.945	232.31
275.176	225.31
275.408	219.31
275.64	228.31
275.872	223.31
276.104	236.31
276.335	232.31
276.567	225.31
276.799	249.31
277.031	229.31
277.262	265.31
277.494	262.31
277.726	244.31
277.957	223.31
278.189	237.31
278.421	222.31
278.652	232.31
278.884	238.31
279.115	234.31
279.347	236.31
279.579	252.31
279.81	245.31
280.042	227.31
280.273	224.31
280.505	220.31
280.736	229.31
280.968	259.31
281.199	252.31
281.431	257.31
281.662	230.31
281.894	225.31
282.125	226.31
282.356	247.31
282.588	260.31
282.819	248.31
283.051	239.31
283.282	230.31
283.513	225.31
283.745	248.31
283.976	260.31
284.207	245.31
284.439	244.31
284.67	252.31
284.901	247.31
285.132	245.31
285.364	246.31
285.595	253.31
285.826	237.31
286.057	237.31
286.288	249.31
286.52	265.31
286.751	253.31
286.982	255.31
287.213	241.31
287.444	261.31
287.675	259.31
287.906	250.31
288.138	277.31
288.369	250.31
288.6	265.31
288.831	261.31
289.062	242.31
289.293	249.31
289.524	264.31
289.755	257.31
289.986	245.31
290.217	255.31
290.448	259.31
290.679	251.31
290.91	263.31
291.141	243.31
291.371	264.31
291.602	269.31
291.833	261.31
292.064	263.31
292.295	267.31
292.526	266.31
292.757	266.31
292.987	254.31
293.218	261.31
293.449	257.31
293.68	242.31
293.91	266.31
294.141	266.31
294.372	258.31
294.603	260.31
294.833	269.31
295.064	258.31
295.295	263.31
295.525	259.31
295.756	262.31
295.987	275.31
296.217	271.31
296.448	279.31
296.679	290.31
296.909	272.31
297.14	269.31
297.37	276.31
297.601	270.31
297.831	267.31
298.062	275.31
298.292	256.31
298.523	279.31
298.753	289.31
298.984	265.31
299.214	269.31
299.445	276.31
299.675	279.31
299.905	275.31
300.136	295.31
300.366	267.31
300.597	269.31
300.827	268.31
301.057	278.31
301.288	302.31
301.518	283.31
301.748	303.31
301.979	300.31
302.209	295.31
302.439	289.31
302.669	290.31
302.9	301.31
303.13	286.31
303.36	287.31
303.59	295.31
303.82	285.31
304.051	284.31
304.281	291.31
304.511	286.31
304.741	293.31
304.971	295.31
305.201	294.31
305.431	298.31
305.661	279.31
305.891	293.31
306.121	305.31
306.352	280.31
306.582	280.31
306.812	291.31
307.042	305.31
307.272	288.31
307.502	288.31
307.731	297.31
307.961	286.31
308.191	289.31
308.421	299.31
308.651	279.31
308.881	306.31
309.111	290.31
309.341	313.31
309.571	299.31
309.8	305.31
310.03	313.31
310.26	305.31
310.49	310.31
310.72	310.31
310.949	320.31
311.179	319.31
311.409	312.31
311.639	331.31
311.868	288.31
312.098	292.31
312.328	298.31
312.557	324.31
312.787	341.31
313.017	346.31
313.246	331.31
313.476	313.31
313.706	315.31
313.935	327.31
314.165	327.31
314.394	350.31
314.624	330.31
314.853	344.31
315.083	335.31
315.312	319.31
315.542	330.31
315.771	310.31
316.001	309.31
316.23	301.31
316.46	324.31
316.689	307.31
316.919	329.31
317.148	331.31
317.377	317.31
317.607	329.31
317.836	307.31
318.065	326.31
318.295	325.31
318.524	313.31
318.753	322.31
318.983	299.31
319.212	315.31
319.441	321.31
319.67	307.31
319.9	306.31
320.129	327.31
320.358	309.31
320.587	319.31
320.816	313.31
321.046	340.31
321.275	330.31
321.504	326.31
321.733	337.31
321.962	330.31
322.191	335.31
322.42	329.31
322.649	352.31
322.878	355.31
323.108	355.31
323.337	365.31
323.566	359.31
323.795	392.31
324.024	420.31
324.253	444.31
324.482	627.31
324.71	856.31
324.939	1101.31
325.168	943.31
325.397	569.31
325.626	424.31
325.855	374.31
326.084	376.31
326.313	381.31
326.542	387.31
326.77	405.31
326.999	442.31
327.228	557.31
327.457	776.31
327.686	876.31
327.914	611.31
328.143	465.31
328.372	438.31
328.6	427.31
328.829	406.31
329.058	427.31
329.287	421.31
329.515	396.31
329.744	399.31
329.972	393.31
330.201	416.31
330.43	444.31
330.658	435.31
330.887	447.31
331.115	429.31
331.344	377.31
331.572	361.31
331.801	369.31
332.03	387.31
332.258	395.31
332.486	369.31
332.715	377.31
332.943	408.31
333.172	416.31
333.4	407.31
333.629	405.31
333.857	424.31
334.085	409.31
334.314	444.31
334.542	460.31
334.771	462.31
334.999	435.31
335.227	397.31
335.455	417.31
335.684	402.31
335.912	395.31
336.14	379.31
336.369	386.31
336.597	391.31
336.825	361.31
337.053	375.31
337.281	383.31
337.51	351.31
337.738	350.31
337.966	350.31
338.194	370.31
338.422	357.31
338.65	361.31
338.878	358.31
339.106	369.31
339.334	351.31
339.562	353.31
339.79	357.31
340.018	356.31
340.246	362.31
340.474	364.31
340.702	364.31
340.93	356.31
341.158	370.31
341.386	353.31
341.614	365.31
341.842	367.31
342.07	355.31
342.298	356.31
342.526	345.31
342.754	365.31
342.981	354.31
343.209	356.31
343.437	341.31
343.665	389.31
343.893	403.31
344.12	383.31
344.348	393.31
344.576	388.31
344.804	377.31
345.031	357.31
345.259	375.31
345.487	356.31
345.714	360.31
345.942	356.31
346.17	353.31
346.397	333.31
346.625	344.31
346.853	333.31
347.08	360.31
347.308	345.31
347.535	345.31
347.763	346.31
347.99	343.31
348.218	354.31
348.445	345.31
348.673	351.31
348.9	340.31
349.128	332.31
349.355	316.31
349.583	315.31
349.81	340.31
350.037	314.31
350.265	318.31
350.492	347.31
350.72	337.31
350.947	336.31
351.174	353.31
351.402	345.31
351.629	347.31
351.856	357.31
352.083	342.31
352.311	348.31
352.538	350.31
352.765	319.31
352.992	324.31
353.22	329.31
353.447	341.31
353.674	334.31
353.901	305.31
354.128	307.31
354.355	321.31
354.583	305.31
354.81	326.31
355.037	321.31
355.264	325.31
355.491	332.31
355.718	334.31
355.945	325.31
356.172	325.31
356.399	313.31
356.626	339.31
356.853	316.31
357.08	315.31
357.307	319.31
357.534	337.31
357.761	321.31
357.988	330.31
358.215	335.31
358.441	333.31
358.668	310.31
358.895	316.31
359.122	315.31
359.349	324.31
359.576	323.31
359.802	364.31
360.029	375.31
360.256	354.31
360.483	341.31
360.709	332.31
360.936	339.31
361.163	345.31
361.39	342.31
361.616	335.31
361.843	330.31
362.07	331.31
362.296	342.31
362.523	343.31
362.749	332.31
362.976	328.31
363.203	338.31
363.429	337.31
363.656	316.31
363.882	325.31
364.109	315.31
364.335	333.31
364.562	293.31
364.788	325.31
365.015	317.31
365.241	322.31
365.468	330.31
365.694	315.31
365.92	325.31
366.147	338.31
366.373	323.31
366.599	301.31
366.826	334.31
367.052	324.31
367.278	324.31
367.505	332.31
367.731	350.31
367.957	322.31
368.184	331.31
368.41	335.31
368.636	350.31
368.862	345.31
369.089	323.31
369.315	320.31
369.541	336.31
369.767	328.31
369.993	329.31
370.219	339.31
370.445	323.31
370.672	327.31
370.898	314.31
371.124	329.31
371.35	330.31
371.576	345.31
371.802	333.31
372.028	329.31
372.254	346.31
372.48	339.31
372.706	351.31
372.932	351.31
373.158	318.31
373.384	345.31
373.61	334.31
373.835	347.31
374.061	339.31
374.287	353.31
374.513	362.31
374.739	355.31
374.965	378.31
375.191	363.31
375.416	350.31
375.642	339.31
375.868	355.31
376.094	331.31
376.319	330.31
376.545	329.31
376.771	338.31
376.997	327.31
377.222	348.31
377.448	339.31
377.674	339.31
377.899	341.31
378.125	342.31
378.35	312.31
378.576	322.31
378.802	316.31
379.027	322.31
379.253	326.31
379.478	331.31
379.704	338.31
379.929	307.31
380.155	330.31
380.38	323.31
380.606	330.31
380.831	327.31
381.057	328.31
381.282	332.31
381.507	323.31
381.733	349.31
381.958	337.31
382.184	350.31
382.409	327.31
382.634	339.31
382.86	350.31
383.085	329.31
383.31	341.31
383.535	324.31
383.761	361.31
383.986	372.31
384.211	375.31
384.436	355.31
384.662	351.31
384.887	378.31
385.112	358.31
385.337	359.31
385.562	372.31
385.787	364.31
386.013	370.31
386.238	369.31
386.463	365.31
386.688	359.31
386.913	361.31
387.138	365.31
387.363	351.31
387.588	379.31
387.813	373.31
388.038	366.31
388.263	353.31
388.488	365.31
388.713	378.31
388.938	363.31
389.163	375.31
389.387	365.31
389.612	359.31
389.837	350.31
390.062	353.31
390.287	378.31
390.512	364.31
390.736	367.31
390.961	380.31
391.186	361.31
391.411	390.31
391.636	381.31
391.86	407.31
392.085	382.31
392.31	387.31
392.534	388.31
392.759	398.31
392.984	371.31
393.208	382.31
393.433	393.31
393.658	396.31
393.882	376.31
394.107	367.31
394.331	379.31
394.556	379.31
394.78	373.31
395.005	371.31
395.229	375.31
395.454	398.31
395.678	403.31
395.903	410.31
396.127	413.31
396.352	402.31
396.576	387.31
396.801	383.31
397.025	376.31
397.249	391.31
397.474	384.31
397.698	390.31
397.922	409.31
398.147	403.31
398.371	416.31
398.595	411.31
398.82	409.31
399.044	449.31
399.268	492.31
399.492	533.31
399.717	565.31
399.941	567.31
400.165	528.31
400.389	552.31
400.613	482.31
400.837	466.31
401.062	446.31
401.286	450.31
401.51	430.31
401.734	436.31
401.958	417.31
402.182	451.31
402.406	446.31
402.63	466.31
402.854	441.31
403.078	466.31
403.302	471.31
403.526	466.31
403.75	452.31
403.974	458.31
404.198	455.31
404.422	477.31
404.645	452.31
404.869	487.31
405.093	505.31
405.317	525.31
405.541	516.31
405.765	486.31
405.988	454.31
406.212	463.31
406.436	497.31
406.66	500.31
406.883	483.31
407.107	508.31
407.331	526.31
407.555	575.31
407.778	549.31
408.002	541.31
408.226	501.31
408.449	501.31
408.673	489.31
408.896	477.31
409.12	495.31
409.344	474.31
409.567	474.31
409.791	447.31
410.014	414.31
410.238	467.31
410.461	451.31
410.685	453.31
410.908	463.31
411.132	473.31
411.355	483.31
411.578	479.31
411.802	445.31
412.025	447.31
412.249	469.31
412.472	469.31
412.695	478.31
412.919	473.31
413.142	453.31
413.365	438.31
413.589	427.31
413.812	433.31
414.035	428.31
414.258	419.31
414.482	433.31
414.705	451.31
414.928	415.31
415.151	421.31
415.374	416.31
415.597	427.31
415.821	428.31
416.044	393.31
416.267	441.31
416.49	400.31
416.713	405.31
416.936	419.31
417.159	426.31
417.382	413.31
417.605	417.31
417.828	408.31
418.051	441.31
418.274	456.31
418.497	434.31
418.72	423.31
418.943	454.31
419.166	448.31
419.389	460.31
419.611	448.31
419.834	459.31
420.057	449.31
420.28	465.31
420.503	442.31
420.726	453.31
420.948	446.31
421.171	454.31
421.394	490.31
421.617	449.31
421.839	428.31
422.062	446.31
422.285	446.31
422.507	464.31
422.73	521.31
422.953	500.31
423.175	441.31
423.398	445.31
423.621	463.31
423.843	481.31
424.066	454.31
424.288	469.31
424.511	482.31
424.733	507.31
424.956	533.31
425.178	518.31
425.401	514.31
425.623	509.31
425.846	477.31
426.068	457.31
426.291	434.31
426.513	441.31
426.735	450.31
426.958	474.31
427.18	497.31
427.402	585.31
427.625	630.31
427.847	547.31
428.069	493.31
428.292	470.31
428.514	428.31
428.736	424.31
428.958	404.31
429.181	393.31
429.403	416.31
429.625	410.31
429.847	403.31
430.069	457.31
430.292	457.31
430.514	415.31
430.736	396.31
430.958	389.31
431.18	412.31
431.402	389.31
431.624	386.31
431.846	387.31
432.068	409.31
432.29	407.31
432.512	409.31
432.734	396.31
432.956	391.31
433.178	420.31
433.4	388.31
433.622	413.31
433.844	400.31
434.066	406.31
434.287	418.31
434.509	419.31
434.731	442.31
434.953	435.31
435.175	459.31
435.397	471.31
435.618	449.31
435.84	445.31
436.062	520.31
436.284	549.31
436.505	462.31
436.727	430.31
436.949	415.31
437.17	405.31
437.392	417.31
437.614	417.31
437.835	423.31
438.057	454.31
438.278	546.31
438.5	542.31
438.721	557.31
438.943	562.31
439.165	465.31
439.386	429.31
439.608	420.31
439.829	433.31
440.05	434.31
440.272	483.31
440.493	442.31
440.715	437.31
440.936	431.31
441.158	439.31
441.379	427.31
441.6	420.31
441.822	454.31
442.043	483.31
442.264	509.31
442.486	499.31
442.707	461.31
442.928	444.31
443.149	452.31
443.371	477.31
443.592	489.31
443.813	524.31
444.034	567.31
444.255	500.31
444.476	468.31
444.698	482.31
444.919	473.31
445.14	567.31
445.361	522.31
445.582	481.31
445.803	513.31
446.024	551.31
446.245	543.31
446.466	489.31
446.687	466.31
446.908	431.31
447.129	413.31
447.35	413.31
447.571	407.31
447.792	385.31
448.013	402.31
448.234	409.31
448.455	426.31
448.675	497.31
448.896	567.31
449.117	485.31
449.338	465.31
449.559	548.31
449.779	573.31
450	476.31
450.221	434.31
450.442	382.31
450.662	412.31
450.883	418.31
451.104	399.31
451.324	395.31
451.545	383.31
451.766	375.31
451.986	384.31
452.207	387.31
452.428	372.31
452.648	376.31
452.869	366.31
453.089	355.31
453.31	366.31
453.53	348.31
453.751	359.31
453.971	376.31
454.192	361.31
454.412	341.31
454.633	361.31
454.853	349.31
455.073	369.31
455.294	390.31
455.514	425.31
455.734	406.31
455.955	363.31
456.175	357.31
456.395	354.31
456.616	357.31
456.836	338.31
457.056	327.31
457.276	342.31
457.497	343.31
457.717	350.31
457.937	359.31
458.157	372.31
458.377	377.31
458.598	384.31
458.818	413.31
459.038	452.31
459.258	455.31
459.478	416.31
459.698	398.31
459.918	424.31
460.138	416.31
460.358	405.31
460.578	422.31
460.798	411.31
461.018	441.31
461.238	443.31
461.458	437.31
461.678	441.31
461.898	428.31
462.118	445.31
462.338	464.31
462.558	454.31
462.777	468.31
462.997	462.31
463.217	508.31
463.437	523.31
463.657	465.31
463.876	476.31
464.096	485.31
464.316	471.31
464.536	479.31
464.755	473.31
464.975	472.31
465.195	488.31
465.414	489.31
465.634	454.31
465.854	431.31
466.073	417.31
466.293	391.31
466.512	387.31
466.732	397.31
466.951	380.31
467.171	377.31
467.391	396.31
467.61	398.31
467.829	389.31
468.049	388.31
468.268	389.31
468.488	394.31
468.707	383.31
468.927	372.31
469.146	390.31
469.365	386.31
469.585	394.31
469.804	394.31
470.023	417.31
470.243	397.31
470.462	402.31
470.681	408.31
470.901	396.31
471.12	382.31
471.339	417.31
471.558	397.31
471.777	391.31
471.997	383.31
472.216	398.31
472.435	408.31
472.654	392.31
472.873	392.31
473.092	381.31
473.311	373.31
473.53	400.31
473.749	406.31
473.968	411.31
474.187	468.31
474.406	475.31
474.625	408.31
474.844	392.31
475.063	367.31
475.282	375.31
475.501	389.31
475.72	399.31
475.939	393.31
476.158	410.31
476.377	389.31
476.596	384.31
476.814	389.31
477.033	388.31
477.252	405.31
477.471	403.31
477.69	438.31
477.908	411.31
478.127	419.31
478.346	418.31
478.564	443.31
478.783	452.31
479.002	459.31
479.22	458.31
479.439	442.31
479.658	448.31
479.876	452.31
480.095	453.31
480.313	491.31
480.532	515.31
480.751	491.31
480.969	498.31
481.188	498.31
481.406	492.31
481.624	457.31
481.843	446.31
482.061	433.31
482.28	442.31
482.498	432.31
482.717	443.31
482.935	431.31
483.153	435.31
483.372	421.31
483.59	450.31
483.808	405.31
484.027	449.31
484.245	457.31
484.463	455.31
484.681	454.31
484.9	420.31
485.118	444.31
485.336	447.31
485.554	460.31
485.772	469.31
485.99	447.31
486.209	467.31
486.427	459.31
486.645	463.31
486.863	474.31
487.081	471.31
487.299	474.31
487.517	461.31
487.735	464.31
487.953	469.31
488.171	467.31
488.389	491.31
488.607	471.31
488.825	469.31
489.043	447.31
489.261	461.31
489.479	463.31
489.696	462.31
489.914	472.31
490.132	484.31
490.35	501.31
490.568	479.31
490.786	498.31
491.003	516.31
491.221	509.31
491.439	529.31
491.657	520.31
491.874	542.31
492.092	550.31
492.31	542.31
492.527	547.31
492.745	537.31
492.963	547.31
493.18	526.31
493.398	547.31
493.615	563.31
493.833	569.31
494.05	572.31
494.268	533.31
494.485	561.31
494.703	536.31
494.92	549.31
495.138	550.31
495.355	570.31
495.573	542.31
495.79	564.31
496.008	556.31
496.225	545.31
496.442	552.31
496.66	548.31
496.877	552.31
497.094	537.31
497.312	563.31
497.529	579.31
497.746	578.31
497.963	594.31
498.181	606.31
498.398	620.31
498.615	625.31
498.832	658.31
499.049	678.31
499.267	714.31
499.484	766.31
499.701	766.31
499.918	822.31
500.135	899.31
500.352	970.31
500.569	988.31
500.786	960.31
501.003	946.31
501.22	914.31
501.437	859.31
501.654	792.31
501.871	777.31
502.088	747.31
