Data from 1969.PennyLincolnUp.Lamp.En5.5.200Scan.071719.P1._HRD10591_14-54-04-971.txt Node
Date: Thu Jul 18 14:54:04 EDT 2019
User: cochatt
Spectrometer: HR+D1059
Trigger mode: 1
Integration Time (sec): 1.000000E-1
Scans to average: 1
Electric dark correction enabled: true
Nonlinearity correction enabled: false
Boxcar width: 0
XAxis mode: Wavelengths
Number of Pixels in Spectrum: 2048
>>>>>Begin Spectral Data<<<<<
223.165	-27.75
223.4	-27.75
223.635	-27.75
223.869	-19.75
224.104	-4.75
224.338	-12.75
224.573	-5.75
224.808	-3.75
225.042	-13.75
225.277	-7.75
225.511	-17.75
225.746	4.25
225.98	5.25
226.215	3.25
226.449	14.25
226.683	25.25
226.918	22.25
227.152	39.25
227.387	32.25
227.621	28.25
227.856	46.25
228.09	53.25
228.324	62.25
228.559	47.25
228.793	53.25
229.027	76.25
229.262	84.25
229.496	87.25
229.73	102.25
229.964	113.25
230.199	98.25
230.433	95.25
230.667	100.25
230.901	93.25
231.136	101.25
231.37	99.25
231.604	83.25
231.838	119.25
232.072	105.25
232.306	109.25
232.541	103.25
232.775	95.25
233.009	103.25
233.243	106.25
233.477	110.25
233.711	104.25
233.945	114.25
234.179	101.25
234.413	102.25
234.647	92.25
234.881	116.25
235.115	104.25
235.349	100.25
235.583	107.25
235.817	108.25
236.051	113.25
236.285	107.25
236.519	111.25
236.753	107.25
236.987	119.25
237.221	139.25
237.455	156.25
237.689	147.25
237.922	110.25
238.156	109.25
238.39	109.25
238.624	114.25
238.858	109.25
239.091	115.25
239.325	115.25
239.559	122.25
239.793	104.25
240.027	104.25
240.26	113.25
240.494	122.25
240.728	126.25
240.961	119.25
241.195	119.25
241.429	116.25
241.662	99.25
241.896	117.25
242.13	123.25
242.363	112.25
242.597	118.25
242.83	130.25
243.064	124.25
243.298	117.25
243.531	134.25
243.765	115.25
243.998	112.25
244.232	137.25
244.465	117.25
244.699	129.25
244.932	126.25
245.166	127.25
245.399	139.25
245.633	119.25
245.866	116.25
246.099	126.25
246.333	121.25
246.566	133.25
246.8	116.25
247.033	126.25
247.266	135.25
247.5	138.25
247.733	125.25
247.966	131.25
248.2	148.25
248.433	154.25
248.666	146.25
248.899	150.25
249.133	151.25
249.366	157.25
249.599	142.25
249.832	150.25
250.066	159.25
250.299	152.25
250.532	166.25
250.765	151.25
250.998	180.25
251.231	170.25
251.465	157.25
251.698	161.25
251.931	139.25
252.164	146.25
252.397	155.25
252.63	151.25
252.863	151.25
253.096	169.25
253.329	167.25
253.562	179.25
253.795	163.25
254.028	166.25
254.261	169.25
254.494	172.25
254.727	197.25
254.96	177.25
255.193	191.25
255.426	190.25
255.659	158.25
255.892	169.25
256.124	179.25
256.357	182.25
256.59	168.25
256.823	165.25
257.056	178.25
257.289	171.25
257.521	177.25
257.754	156.25
257.987	169.25
258.22	173.25
258.452	159.25
258.685	168.25
258.918	156.25
259.151	159.25
259.383	185.25
259.616	166.25
259.849	172.25
260.081	185.25
260.314	187.25
260.547	202.25
260.779	182.25
261.012	193.25
261.244	185.25
261.477	191.25
261.71	172.25
261.942	166.25
262.175	183.25
262.407	185.25
262.64	179.25
262.872	173.25
263.105	166.25
263.337	193.25
263.57	172.25
263.802	159.25
264.035	164.25
264.267	169.25
264.499	154.25
264.732	173.25
264.964	178.25
265.197	157.25
265.429	145.25
265.661	193.25
265.894	164.25
266.126	190.25
266.358	181.25
266.591	180.25
266.823	182.25
267.055	171.25
267.287	183.25
267.52	172.25
267.752	177.25
267.984	173.25
268.216	183.25
268.448	192.25
268.681	187.25
268.913	199.25
269.145	216.25
269.377	218.25
269.609	201.25
269.841	217.25
270.073	194.25
270.306	215.25
270.538	229.25
270.77	223.25
271.002	195.25
271.234	220.25
271.466	202.25
271.698	235.25
271.93	241.25
272.162	214.25
272.394	222.25
272.626	236.25
272.858	215.25
273.09	211.25
273.322	213.25
273.553	214.25
273.785	210.25
274.017	199.25
274.249	214.25
274.481	184.25
274.713	194.25
274.945	213.25
275.176	217.25
275.408	197.25
275.64	191.25
275.872	211.25
276.104	206.25
276.335	195.25
276.567	218.25
276.799	229.25
277.031	231.25
277.262	244.25
277.494	242.25
277.726	235.25
277.957	222.25
278.189	236.25
278.421	220.25
278.652	227.25
278.884	218.25
279.115	207.25
279.347	222.25
279.579	243.25
279.81	218.25
280.042	232.25
280.273	228.25
280.505	229.25
280.736	218.25
280.968	227.25
281.199	226.25
281.431	230.25
281.662	211.25
281.894	233.25
282.125	230.25
282.356	234.25
282.588	234.25
282.819	223.25
283.051	247.25
283.282	232.25
283.513	239.25
283.745	222.25
283.976	219.25
284.207	236.25
284.439	229.25
284.67	218.25
284.901	232.25
285.132	247.25
285.364	238.25
285.595	227.25
285.826	223.25
286.057	237.25
286.288	229.25
286.52	225.25
286.751	243.25
286.982	232.25
287.213	251.25
287.444	238.25
287.675	235.25
287.906	249.25
288.138	250.25
288.369	258.25
288.6	257.25
288.831	245.25
289.062	266.25
289.293	253.25
289.524	237.25
289.755	227.25
289.986	229.25
290.217	221.25
290.448	233.25
290.679	234.25
290.91	249.25
291.141	241.25
291.371	266.25
291.602	231.25
291.833	228.25
292.064	257.25
292.295	235.25
292.526	243.25
292.757	246.25
292.987	244.25
293.218	246.25
293.449	259.25
293.68	233.25
293.91	246.25
294.141	234.25
294.372	256.25
294.603	234.25
294.833	248.25
295.064	266.25
295.295	253.25
295.525	245.25
295.756	274.25
295.987	248.25
296.217	249.25
296.448	257.25
296.679	246.25
296.909	255.25
297.14	249.25
297.37	267.25
297.601	247.25
297.831	264.25
298.062	253.25
298.292	244.25
298.523	266.25
298.753	244.25
298.984	251.25
299.214	258.25
299.445	245.25
299.675	265.25
299.905	259.25
300.136	265.25
300.366	257.25
300.597	266.25
300.827	277.25
301.057	260.25
301.288	273.25
301.518	263.25
301.748	276.25
301.979	272.25
302.209	298.25
302.439	287.25
302.669	267.25
302.9	278.25
303.13	273.25
303.36	295.25
303.59	277.25
303.82	291.25
304.051	271.25
304.281	289.25
304.511	282.25
304.741	271.25
304.971	260.25
305.201	280.25
305.431	265.25
305.661	262.25
305.891	262.25
306.121	269.25
306.352	274.25
306.582	285.25
306.812	272.25
307.042	289.25
307.272	280.25
307.502	275.25
307.731	265.25
307.961	280.25
308.191	282.25
308.421	273.25
308.651	291.25
308.881	289.25
309.111	285.25
309.341	291.25
309.571	289.25
309.8	289.25
310.03	288.25
310.26	277.25
310.49	283.25
310.72	295.25
310.949	311.25
311.179	315.25
311.409	306.25
311.639	307.25
311.868	288.25
312.098	313.25
312.328	292.25
312.557	324.25
312.787	313.25
313.017	289.25
313.246	293.25
313.476	302.25
313.706	297.25
313.935	291.25
314.165	324.25
314.394	305.25
314.624	314.25
314.853	314.25
315.083	294.25
315.312	313.25
315.542	297.25
315.771	299.25
316.001	297.25
316.23	284.25
316.46	288.25
316.689	288.25
316.919	307.25
317.148	319.25
317.377	311.25
317.607	316.25
317.836	296.25
318.065	305.25
318.295	321.25
318.524	306.25
318.753	301.25
318.983	305.25
319.212	301.25
319.441	284.25
319.67	315.25
319.9	286.25
320.129	314.25
320.358	302.25
320.587	290.25
320.816	319.25
321.046	321.25
321.275	305.25
321.504	302.25
321.733	309.25
321.962	300.25
322.191	307.25
322.42	322.25
322.649	331.25
322.878	310.25
323.108	335.25
323.337	340.25
323.566	346.25
323.795	348.25
324.024	349.25
324.253	434.25
324.482	534.25
324.71	732.25
324.939	971.25
325.168	801.25
325.397	461.25
325.626	355.25
325.855	351.25
326.084	367.25
326.313	354.25
326.542	349.25
326.77	342.25
326.999	411.25
327.228	499.25
327.457	675.25
327.686	750.25
327.914	546.25
328.143	423.25
328.372	390.25
328.6	377.25
328.829	358.25
329.058	373.25
329.287	378.25
329.515	351.25
329.744	357.25
329.972	371.25
330.201	363.25
330.43	376.25
330.658	389.25
330.887	420.25
331.115	399.25
331.344	370.25
331.572	345.25
331.801	364.25
332.03	370.25
332.258	357.25
332.486	356.25
332.715	368.25
332.943	376.25
333.172	381.25
333.4	394.25
333.629	384.25
333.857	391.25
334.085	399.25
334.314	387.25
334.542	405.25
334.771	446.25
334.999	397.25
335.227	390.25
335.455	357.25
335.684	372.25
335.912	370.25
336.14	349.25
336.369	362.25
336.597	370.25
336.825	371.25
337.053	341.25
337.281	353.25
337.51	343.25
337.738	343.25
337.966	353.25
338.194	341.25
338.422	341.25
338.65	347.25
338.878	346.25
339.106	313.25
339.334	334.25
339.562	334.25
339.79	345.25
340.018	325.25
340.246	349.25
340.474	339.25
340.702	332.25
340.93	329.25
341.158	351.25
341.386	317.25
341.614	300.25
341.842	321.25
342.07	331.25
342.298	349.25
342.526	325.25
342.754	311.25
342.981	328.25
343.209	320.25
343.437	353.25
343.665	362.25
343.893	365.25
344.12	380.25
344.348	371.25
344.576	342.25
344.804	353.25
345.031	345.25
345.259	344.25
345.487	342.25
345.714	339.25
345.942	343.25
346.17	326.25
346.397	323.25
346.625	303.25
346.853	310.25
347.08	318.25
347.308	324.25
347.535	342.25
347.763	313.25
347.99	320.25
348.218	299.25
348.445	330.25
348.673	323.25
348.9	313.25
349.128	334.25
349.355	318.25
349.583	316.25
349.81	302.25
350.037	302.25
350.265	318.25
350.492	324.25
350.72	314.25
350.947	294.25
351.174	313.25
351.402	311.25
351.629	307.25
351.856	310.25
352.083	327.25
352.311	315.25
352.538	337.25
352.765	319.25
352.992	316.25
353.22	312.25
353.447	326.25
353.674	304.25
353.901	317.25
354.128	305.25
354.355	302.25
354.583	313.25
354.81	277.25
355.037	310.25
355.264	300.25
355.491	310.25
355.718	300.25
355.945	311.25
356.172	309.25
356.399	305.25
356.626	310.25
356.853	320.25
357.08	311.25
357.307	306.25
357.534	306.25
357.761	305.25
357.988	311.25
358.215	303.25
358.441	310.25
358.668	319.25
358.895	325.25
359.122	308.25
359.349	312.25
359.576	313.25
359.802	315.25
360.029	320.25
360.256	325.25
360.483	312.25
360.709	318.25
360.936	331.25
361.163	320.25
361.39	322.25
361.616	323.25
361.843	301.25
362.07	317.25
362.296	317.25
362.523	294.25
362.749	308.25
362.976	314.25
363.203	323.25
363.429	290.25
363.656	293.25
363.882	296.25
364.109	341.25
364.335	305.25
364.562	323.25
364.788	294.25
365.015	312.25
365.241	296.25
365.468	315.25
365.694	312.25
365.92	288.25
366.147	309.25
366.373	300.25
366.599	283.25
366.826	301.25
367.052	310.25
367.278	309.25
367.505	316.25
367.731	310.25
367.957	293.25
368.184	291.25
368.41	325.25
368.636	319.25
368.862	323.25
369.089	327.25
369.315	321.25
369.541	321.25
369.767	328.25
369.993	318.25
370.219	312.25
370.445	310.25
370.672	324.25
370.898	305.25
371.124	300.25
371.35	325.25
371.576	313.25
371.802	301.25
372.028	316.25
372.254	330.25
372.48	320.25
372.706	329.25
372.932	319.25
373.158	319.25
373.384	312.25
373.61	322.25
373.835	319.25
374.061	328.25
374.287	335.25
374.513	324.25
374.739	322.25
374.965	345.25
375.191	328.25
375.416	333.25
375.642	323.25
375.868	329.25
376.094	321.25
376.319	320.25
376.545	339.25
376.771	319.25
376.997	320.25
377.222	297.25
377.448	313.25
377.674	316.25
377.899	333.25
378.125	324.25
378.35	311.25
378.576	313.25
378.802	303.25
379.027	307.25
379.253	293.25
379.478	311.25
379.704	301.25
379.929	318.25
380.155	322.25
380.38	302.25
380.606	303.25
380.831	316.25
381.057	322.25
381.282	317.25
381.507	311.25
381.733	312.25
381.958	317.25
382.184	315.25
382.409	315.25
382.634	320.25
382.86	318.25
383.085	312.25
383.31	318.25
383.535	335.25
383.761	333.25
383.986	331.25
384.211	337.25
384.436	348.25
384.662	334.25
384.887	360.25
385.112	344.25
385.337	335.25
385.562	356.25
385.787	349.25
386.013	345.25
386.238	337.25
386.463	362.25
386.688	341.25
386.913	354.25
387.138	353.25
387.363	347.25
387.588	348.25
387.813	339.25
388.038	365.25
388.263	350.25
388.488	366.25
388.713	359.25
388.938	346.25
389.163	342.25
389.387	328.25
389.612	346.25
389.837	335.25
390.062	335.25
390.287	363.25
390.512	358.25
390.736	357.25
390.961	358.25
391.186	354.25
391.411	346.25
391.636	376.25
391.86	362.25
392.085	371.25
392.31	380.25
392.534	387.25
392.759	372.25
392.984	354.25
393.208	357.25
393.433	350.25
393.658	348.25
393.882	352.25
394.107	362.25
394.331	363.25
394.556	361.25
394.78	362.25
395.005	370.25
395.229	367.25
395.454	381.25
395.678	384.25
395.903	373.25
396.127	379.25
396.352	393.25
396.576	363.25
396.801	375.25
397.025	372.25
397.249	387.25
397.474	376.25
397.698	401.25
397.922	377.25
398.147	395.25
398.371	390.25
398.595	381.25
398.82	418.25
399.044	443.25
399.268	457.25
399.492	491.25
399.717	513.25
399.941	525.25
400.165	514.25
400.389	498.25
400.613	457.25
400.837	417.25
401.062	415.25
401.286	405.25
401.51	412.25
401.734	434.25
401.958	403.25
402.182	423.25
402.406	417.25
402.63	419.25
402.854	428.25
403.078	422.25
403.302	439.25
403.526	444.25
403.75	426.25
403.974	449.25
404.198	440.25
404.422	461.25
404.645	450.25
404.869	437.25
405.093	456.25
405.317	478.25
405.541	490.25
405.765	467.25
405.988	421.25
406.212	449.25
406.436	453.25
406.66	487.25
406.883	450.25
407.107	500.25
407.331	522.25
407.555	548.25
407.778	532.25
408.002	498.25
408.226	480.25
408.449	455.25
408.673	463.25
408.896	464.25
409.12	483.25
409.344	467.25
409.567	422.25
409.791	430.25
410.014	429.25
410.238	425.25
410.461	420.25
410.685	443.25
410.908	439.25
411.132	455.25
411.355	450.25
411.578	436.25
411.802	409.25
412.025	433.25
412.249	424.25
412.472	456.25
412.695	455.25
412.919	425.25
413.142	424.25
413.365	414.25
413.589	395.25
413.812	404.25
414.035	399.25
414.258	412.25
414.482	395.25
414.705	404.25
414.928	411.25
415.151	388.25
415.374	408.25
415.597	396.25
415.821	409.25
416.044	417.25
416.267	404.25
416.49	396.25
416.713	390.25
416.936	377.25
417.159	393.25
417.382	404.25
417.605	395.25
417.828	427.25
418.051	418.25
418.274	422.25
418.497	405.25
418.72	425.25
418.943	408.25
419.166	422.25
419.389	436.25
419.611	442.25
419.834	422.25
420.057	417.25
420.28	421.25
420.503	434.25
420.726	447.25
420.948	427.25
421.171	446.25
421.394	449.25
421.617	410.25
421.839	433.25
422.062	416.25
422.285	422.25
422.507	458.25
422.73	483.25
422.953	472.25
423.175	426.25
423.398	412.25
423.621	412.25
423.843	435.25
424.066	435.25
424.288	410.25
424.511	432.25
424.733	463.25
424.956	491.25
425.178	467.25
425.401	476.25
425.623	480.25
425.846	449.25
426.068	419.25
426.291	417.25
426.513	420.25
426.735	400.25
426.958	440.25
427.18	463.25
427.402	525.25
427.625	586.25
427.847	498.25
428.069	450.25
428.292	429.25
428.514	389.25
428.736	405.25
428.958	390.25
429.181	389.25
429.403	378.25
429.625	370.25
429.847	413.25
430.069	435.25
430.292	429.25
430.514	396.25
430.736	390.25
430.958	394.25
431.18	381.25
431.402	382.25
431.624	375.25
431.846	369.25
432.068	374.25
432.29	388.25
432.512	364.25
432.734	380.25
432.956	365.25
433.178	370.25
433.4	374.25
433.622	387.25
433.844	400.25
434.066	374.25
434.287	402.25
434.509	385.25
434.731	402.25
434.953	404.25
435.175	407.25
435.397	418.25
435.618	425.25
435.84	436.25
436.062	490.25
436.284	488.25
436.505	430.25
436.727	382.25
436.949	406.25
437.17	393.25
437.392	392.25
437.614	395.25
437.835	404.25
438.057	449.25
438.278	493.25
438.5	471.25
438.721	521.25
438.943	521.25
439.165	439.25
439.386	414.25
439.608	403.25
439.829	405.25
440.05	408.25
440.272	453.25
440.493	420.25
440.715	418.25
440.936	398.25
441.158	404.25
441.379	391.25
441.6	424.25
441.822	418.25
442.043	429.25
442.264	473.25
442.486	514.25
442.707	458.25
442.928	423.25
443.149	425.25
443.371	443.25
443.592	482.25
443.813	534.25
444.034	549.25
444.255	483.25
444.476	436.25
444.698	442.25
444.919	463.25
445.14	570.25
445.361	506.25
445.582	453.25
445.803	448.25
446.024	498.25
446.245	515.25
446.466	477.25
446.687	409.25
446.908	425.25
447.129	396.25
447.35	377.25
447.571	376.25
447.792	364.25
448.013	377.25
448.234	395.25
448.455	405.25
448.675	471.25
448.896	525.25
449.117	440.25
449.338	428.25
449.559	495.25
449.779	534.25
450	439.25
450.221	397.25
450.442	365.25
450.662	380.25
450.883	355.25
451.104	389.25
451.324	389.25
451.545	360.25
451.766	358.25
451.986	346.25
452.207	337.25
452.428	341.25
452.648	355.25
452.869	340.25
453.089	353.25
453.31	355.25
453.53	345.25
453.751	350.25
453.971	353.25
454.192	344.25
454.412	351.25
454.633	339.25
454.853	329.25
455.073	353.25
455.294	358.25
455.514	394.25
455.734	375.25
455.955	354.25
456.175	321.25
456.395	328.25
456.616	342.25
456.836	326.25
457.056	331.25
457.276	335.25
457.497	330.25
457.717	321.25
457.937	335.25
458.157	357.25
458.377	339.25
458.598	358.25
458.818	377.25
459.038	405.25
459.258	408.25
459.478	377.25
459.698	368.25
459.918	383.25
460.138	392.25
460.358	375.25
460.578	395.25
460.798	406.25
461.018	398.25
461.238	406.25
461.458	400.25
461.678	386.25
461.898	416.25
462.118	411.25
462.338	429.25
462.558	426.25
462.777	454.25
462.997	481.25
463.217	468.25
463.437	467.25
463.657	457.25
463.876	454.25
464.096	437.25
464.316	454.25
464.536	454.25
464.755	438.25
464.975	445.25
465.195	443.25
465.414	446.25
465.634	413.25
465.854	418.25
466.073	375.25
466.293	361.25
466.512	377.25
466.732	378.25
466.951	347.25
467.171	338.25
467.391	374.25
467.61	371.25
467.829	359.25
468.049	354.25
468.268	359.25
468.488	376.25
468.707	345.25
468.927	356.25
469.146	346.25
469.365	347.25
469.585	366.25
469.804	361.25
470.023	367.25
470.243	358.25
470.462	382.25
470.681	377.25
470.901	370.25
471.12	379.25
471.339	363.25
471.558	379.25
471.777	379.25
471.997	362.25
472.216	378.25
472.435	375.25
472.654	374.25
472.873	362.25
473.092	349.25
473.311	353.25
473.53	348.25
473.749	369.25
473.968	375.25
474.187	436.25
474.406	401.25
474.625	383.25
474.844	349.25
475.063	372.25
475.282	369.25
475.501	370.25
475.72	380.25
475.939	366.25
476.158	354.25
476.377	381.25
476.596	375.25
476.814	374.25
477.033	386.25
477.252	387.25
477.471	389.25
477.69	409.25
477.908	399.25
478.127	427.25
478.346	406.25
478.564	419.25
478.783	447.25
479.002	425.25
479.22	424.25
479.439	439.25
479.658	424.25
479.876	436.25
480.095	444.25
480.313	439.25
480.532	444.25
480.751	444.25
480.969	444.25
481.188	467.25
481.406	459.25
481.624	446.25
481.843	434.25
482.061	414.25
482.28	410.25
482.498	412.25
482.717	411.25
482.935	405.25
483.153	405.25
483.372	406.25
483.59	415.25
483.808	418.25
484.027	428.25
484.245	412.25
484.463	418.25
484.681	431.25
484.9	410.25
485.118	410.25
485.336	420.25
485.554	433.25
485.772	438.25
485.99	424.25
486.209	443.25
486.427	436.25
486.645	443.25
486.863	439.25
487.081	450.25
487.299	445.25
487.517	441.25
487.735	449.25
487.953	435.25
488.171	453.25
488.389	434.25
488.607	433.25
488.825	433.25
489.043	441.25
489.261	439.25
489.479	435.25
489.696	433.25
489.914	462.25
490.132	471.25
490.35	475.25
490.568	463.25
490.786	451.25
491.003	463.25
491.221	474.25
491.439	497.25
491.657	489.25
491.874	492.25
492.092	504.25
492.31	512.25
492.527	508.25
492.745	519.25
492.963	493.25
493.18	506.25
493.398	528.25
493.615	514.25
493.833	518.25
494.05	492.25
494.268	522.25
494.485	527.25
494.703	538.25
494.92	482.25
495.138	525.25
495.355	498.25
495.573	505.25
495.79	516.25
496.008	526.25
496.225	502.25
496.442	521.25
496.66	517.25
496.877	532.25
497.094	512.25
497.312	511.25
497.529	517.25
497.746	545.25
497.963	550.25
498.181	549.25
498.398	557.25
498.615	603.25
498.832	635.25
499.049	639.25
499.267	651.25
499.484	756.25
499.701	765.25
499.918	799.25
500.135	857.25
500.352	925.25
500.569	916.25
500.786	946.25
501.003	876.25
501.22	823.25
501.437	797.25
501.654	745.25
501.871	723.25
502.088	670.25
