Data from 1969.PennyLincolnUp.Lamp.En5.5.200Scan.071719.P1._HRD10591_14-55-30-973.txt Node
Date: Thu Jul 18 14:55:30 EDT 2019
User: cochatt
Spectrometer: HR+D1059
Trigger mode: 1
Integration Time (sec): 1.000000E-1
Scans to average: 1
Electric dark correction enabled: true
Nonlinearity correction enabled: false
Boxcar width: 0
XAxis mode: Wavelengths
Number of Pixels in Spectrum: 2048
>>>>>Begin Spectral Data<<<<<
223.165	-16.38
223.4	-16.38
223.635	-16.38
223.869	-22.38
224.104	-15.38
224.338	0.62
224.573	-13.38
224.808	-8.38
225.042	-10.38
225.277	0.62
225.511	-7.38
225.746	-2.38
225.98	22.62
226.215	14.62
226.449	12.62
226.683	18.62
226.918	8.62
227.152	17.62
227.387	49.62
227.621	43.62
227.856	53.62
228.09	48.62
228.324	48.62
228.559	57.62
228.793	68.62
229.027	85.62
229.262	90.62
229.496	102.62
229.73	96.62
229.964	123.62
230.199	113.62
230.433	108.62
230.667	109.62
230.901	103.62
231.136	83.62
231.37	97.62
231.604	113.62
231.838	92.62
232.072	100.62
232.306	110.62
232.541	125.62
232.775	125.62
233.009	126.62
233.243	108.62
233.477	103.62
233.711	104.62
233.945	110.62
234.179	109.62
234.413	111.62
234.647	125.62
234.881	114.62
235.115	123.62
235.349	124.62
235.583	124.62
235.817	120.62
236.051	104.62
236.285	125.62
236.519	132.62
236.753	116.62
236.987	127.62
237.221	153.62
237.455	175.62
237.689	146.62
237.922	110.62
238.156	116.62
238.39	128.62
238.624	123.62
238.858	107.62
239.091	129.62
239.325	119.62
239.559	122.62
239.793	119.62
240.027	120.62
240.26	133.62
240.494	134.62
240.728	132.62
240.961	137.62
241.195	128.62
241.429	140.62
241.662	125.62
241.896	124.62
242.13	133.62
242.363	126.62
242.597	125.62
242.83	122.62
243.064	122.62
243.298	121.62
243.531	142.62
243.765	135.62
243.998	124.62
244.232	138.62
244.465	143.62
244.699	139.62
244.932	128.62
245.166	130.62
245.399	124.62
245.633	139.62
245.866	130.62
246.099	132.62
246.333	148.62
246.566	132.62
246.8	139.62
247.033	144.62
247.266	158.62
247.5	157.62
247.733	169.62
247.966	164.62
248.2	155.62
248.433	157.62
248.666	170.62
248.899	173.62
249.133	171.62
249.366	169.62
249.599	177.62
249.832	157.62
250.066	157.62
250.299	152.62
250.532	164.62
250.765	180.62
250.998	185.62
251.231	194.62
251.465	174.62
251.698	169.62
251.931	167.62
252.164	160.62
252.397	173.62
252.63	164.62
252.863	177.62
253.096	169.62
253.329	185.62
253.562	197.62
253.795	181.62
254.028	183.62
254.261	178.62
254.494	202.62
254.727	211.62
254.96	232.62
255.193	226.62
255.426	201.62
255.659	197.62
255.892	195.62
256.124	199.62
256.357	196.62
256.59	197.62
256.823	193.62
257.056	189.62
257.289	183.62
257.521	172.62
257.754	187.62
257.987	174.62
258.22	194.62
258.452	193.62
258.685	181.62
258.918	192.62
259.151	181.62
259.383	190.62
259.616	204.62
259.849	191.62
260.081	217.62
260.314	221.62
260.547	212.62
260.779	215.62
261.012	201.62
261.244	190.62
261.477	193.62
261.71	192.62
261.942	208.62
262.175	197.62
262.407	199.62
262.64	184.62
262.872	193.62
263.105	209.62
263.337	190.62
263.57	193.62
263.802	190.62
264.035	186.62
264.267	202.62
264.499	188.62
264.732	189.62
264.964	199.62
265.197	195.62
265.429	180.62
265.661	195.62
265.894	196.62
266.126	195.62
266.358	195.62
266.591	202.62
266.823	189.62
267.055	209.62
267.287	208.62
267.52	203.62
267.752	208.62
267.984	190.62
268.216	219.62
268.448	223.62
268.681	207.62
268.913	212.62
269.145	239.62
269.377	240.62
269.609	221.62
269.841	224.62
270.073	226.62
270.306	250.62
270.538	265.62
270.77	255.62
271.002	255.62
271.234	254.62
271.466	257.62
271.698	263.62
271.93	252.62
272.162	261.62
272.394	283.62
272.626	252.62
272.858	258.62
273.09	243.62
273.322	242.62
273.553	225.62
273.785	243.62
274.017	250.62
274.249	242.62
274.481	228.62
274.713	235.62
274.945	236.62
275.176	236.62
275.408	236.62
275.64	256.62
275.872	218.62
276.104	230.62
276.335	244.62
276.567	226.62
276.799	254.62
277.031	272.62
277.262	290.62
277.494	253.62
277.726	257.62
277.957	246.62
278.189	240.62
278.421	252.62
278.652	235.62
278.884	216.62
279.115	239.62
279.347	241.62
279.579	232.62
279.81	238.62
280.042	220.62
280.273	241.62
280.505	240.62
280.736	237.62
280.968	260.62
281.199	232.62
281.431	245.62
281.662	233.62
281.894	247.62
282.125	230.62
282.356	240.62
282.588	281.62
282.819	269.62
283.051	250.62
283.282	241.62
283.513	263.62
283.745	256.62
283.976	263.62
284.207	250.62
284.439	263.62
284.67	258.62
284.901	245.62
285.132	248.62
285.364	252.62
285.595	256.62
285.826	240.62
286.057	256.62
286.288	236.62
286.52	249.62
286.751	263.62
286.982	238.62
287.213	244.62
287.444	261.62
287.675	285.62
287.906	261.62
288.138	248.62
288.369	284.62
288.6	295.62
288.831	284.62
289.062	267.62
289.293	273.62
289.524	254.62
289.755	267.62
289.986	258.62
290.217	264.62
290.448	267.62
290.679	255.62
290.91	276.62
291.141	271.62
291.371	278.62
291.602	267.62
291.833	277.62
292.064	256.62
292.295	261.62
292.526	260.62
292.757	269.62
292.987	274.62
293.218	261.62
293.449	262.62
293.68	264.62
293.91	263.62
294.141	282.62
294.372	283.62
294.603	266.62
294.833	268.62
295.064	274.62
295.295	287.62
295.525	263.62
295.756	277.62
295.987	273.62
296.217	300.62
296.448	287.62
296.679	278.62
296.909	276.62
297.14	257.62
297.37	283.62
297.601	282.62
297.831	293.62
298.062	278.62
298.292	285.62
298.523	272.62
298.753	268.62
298.984	286.62
299.214	285.62
299.445	285.62
299.675	296.62
299.905	297.62
300.136	293.62
300.366	298.62
300.597	293.62
300.827	283.62
301.057	307.62
301.288	284.62
301.518	307.62
301.748	292.62
301.979	294.62
302.209	284.62
302.439	303.62
302.669	282.62
302.9	315.62
303.13	299.62
303.36	300.62
303.59	308.62
303.82	315.62
304.051	304.62
304.281	297.62
304.511	298.62
304.741	315.62
304.971	299.62
305.201	299.62
305.431	315.62
305.661	300.62
305.891	290.62
306.121	292.62
306.352	305.62
306.582	322.62
306.812	297.62
307.042	301.62
307.272	311.62
307.502	317.62
307.731	301.62
307.961	300.62
308.191	304.62
308.421	307.62
308.651	305.62
308.881	297.62
309.111	328.62
309.341	295.62
309.571	309.62
309.8	299.62
310.03	313.62
310.26	317.62
310.49	321.62
310.72	336.62
310.949	344.62
311.179	336.62
311.409	330.62
311.639	315.62
311.868	321.62
312.098	328.62
312.328	346.62
312.557	363.62
312.787	329.62
313.017	342.62
313.246	334.62
313.476	325.62
313.706	334.62
313.935	332.62
314.165	326.62
314.394	354.62
314.624	345.62
314.853	304.62
315.083	332.62
315.312	323.62
315.542	330.62
315.771	324.62
316.001	332.62
316.23	322.62
316.46	331.62
316.689	324.62
316.919	347.62
317.148	328.62
317.377	344.62
317.607	345.62
317.836	336.62
318.065	312.62
318.295	314.62
318.524	324.62
318.753	320.62
318.983	312.62
319.212	331.62
319.441	326.62
319.67	339.62
319.9	311.62
320.129	338.62
320.358	334.62
320.587	333.62
320.816	327.62
321.046	325.62
321.275	335.62
321.504	327.62
321.733	344.62
321.962	355.62
322.191	359.62
322.42	343.62
322.649	352.62
322.878	360.62
323.108	371.62
323.337	372.62
323.566	369.62
323.795	404.62
324.024	407.62
324.253	469.62
324.482	643.62
324.71	902.62
324.939	1163.62
325.168	959.62
325.397	576.62
325.626	435.62
325.855	397.62
326.084	397.62
326.313	381.62
326.542	388.62
326.77	428.62
326.999	456.62
327.228	593.62
327.457	812.62
327.686	907.62
327.914	638.62
328.143	474.62
328.372	438.62
328.6	439.62
328.829	409.62
329.058	431.62
329.287	455.62
329.515	432.62
329.744	428.62
329.972	413.62
330.201	424.62
330.43	445.62
330.658	462.62
330.887	466.62
331.115	452.62
331.344	408.62
331.572	414.62
331.801	406.62
332.03	412.62
332.258	397.62
332.486	384.62
332.715	394.62
332.943	389.62
333.172	413.62
333.4	421.62
333.629	424.62
333.857	447.62
334.085	427.62
334.314	441.62
334.542	463.62
334.771	452.62
334.999	431.62
335.227	403.62
335.455	417.62
335.684	415.62
335.912	395.62
336.14	396.62
336.369	408.62
336.597	403.62
336.825	417.62
337.053	384.62
337.281	364.62
337.51	384.62
337.738	404.62
337.966	383.62
338.194	385.62
338.422	394.62
338.65	384.62
338.878	376.62
339.106	366.62
339.334	377.62
339.562	365.62
339.79	380.62
340.018	361.62
340.246	381.62
340.474	369.62
340.702	366.62
340.93	370.62
341.158	370.62
341.386	369.62
341.614	368.62
341.842	380.62
342.07	371.62
342.298	372.62
342.526	362.62
342.754	354.62
342.981	353.62
343.209	352.62
343.437	377.62
343.665	379.62
343.893	395.62
344.12	399.62
344.348	390.62
344.576	366.62
344.804	378.62
345.031	373.62
345.259	387.62
345.487	357.62
345.714	370.62
345.942	363.62
346.17	355.62
346.397	350.62
346.625	348.62
346.853	355.62
347.08	348.62
347.308	342.62
347.535	345.62
347.763	355.62
347.99	353.62
348.218	373.62
348.445	358.62
348.673	348.62
348.9	347.62
349.128	353.62
349.355	338.62
349.583	338.62
349.81	325.62
350.037	348.62
350.265	344.62
350.492	340.62
350.72	341.62
350.947	347.62
351.174	359.62
351.402	367.62
351.629	349.62
351.856	339.62
352.083	340.62
352.311	347.62
352.538	347.62
352.765	374.62
352.992	351.62
353.22	348.62
353.447	337.62
353.674	339.62
353.901	344.62
354.128	332.62
354.355	328.62
354.583	325.62
354.81	344.62
355.037	349.62
355.264	338.62
355.491	326.62
355.718	334.62
355.945	332.62
356.172	347.62
356.399	331.62
356.626	329.62
356.853	334.62
357.08	330.62
357.307	334.62
357.534	324.62
357.761	333.62
357.988	328.62
358.215	345.62
358.441	325.62
358.668	309.62
358.895	318.62
359.122	334.62
359.349	330.62
359.576	341.62
359.802	354.62
360.029	367.62
360.256	359.62
360.483	367.62
360.709	360.62
360.936	345.62
361.163	347.62
361.39	342.62
361.616	361.62
361.843	346.62
362.07	339.62
362.296	353.62
362.523	347.62
362.749	360.62
362.976	356.62
363.203	345.62
363.429	320.62
363.656	344.62
363.882	341.62
364.109	364.62
364.335	337.62
364.562	313.62
364.788	336.62
365.015	360.62
365.241	329.62
365.468	333.62
365.694	339.62
365.92	336.62
366.147	341.62
366.373	352.62
366.599	336.62
366.826	327.62
367.052	341.62
367.278	335.62
367.505	325.62
367.731	338.62
367.957	327.62
368.184	342.62
368.41	326.62
368.636	349.62
368.862	354.62
369.089	341.62
369.315	337.62
369.541	339.62
369.767	335.62
369.993	344.62
370.219	346.62
370.445	349.62
370.672	331.62
370.898	324.62
371.124	345.62
371.35	330.62
371.576	340.62
371.802	360.62
372.028	330.62
372.254	351.62
372.48	333.62
372.706	335.62
372.932	352.62
373.158	358.62
373.384	348.62
373.61	350.62
373.835	354.62
374.061	337.62
374.287	357.62
374.513	327.62
374.739	340.62
374.965	351.62
375.191	361.62
375.416	361.62
375.642	352.62
375.868	337.62
376.094	344.62
376.319	354.62
376.545	359.62
376.771	364.62
376.997	339.62
377.222	339.62
377.448	347.62
377.674	350.62
377.899	346.62
378.125	327.62
378.35	336.62
378.576	333.62
378.802	339.62
379.027	354.62
379.253	347.62
379.478	324.62
379.704	348.62
379.929	336.62
380.155	342.62
380.38	331.62
380.606	331.62
380.831	344.62
381.057	361.62
381.282	354.62
381.507	356.62
381.733	321.62
381.958	339.62
382.184	333.62
382.409	322.62
382.634	364.62
382.86	362.62
383.085	357.62
383.31	361.62
383.535	375.62
383.761	357.62
383.986	370.62
384.211	347.62
384.436	373.62
384.662	364.62
384.887	379.62
385.112	365.62
385.337	385.62
385.562	379.62
385.787	380.62
386.013	397.62
386.238	369.62
386.463	377.62
386.688	372.62
386.913	377.62
387.138	377.62
387.363	388.62
387.588	384.62
387.813	364.62
388.038	386.62
388.263	387.62
388.488	358.62
388.713	389.62
388.938	362.62
389.163	372.62
389.387	383.62
389.612	382.62
389.837	368.62
390.062	377.62
390.287	365.62
390.512	369.62
390.736	364.62
390.961	384.62
391.186	381.62
391.411	389.62
391.636	403.62
391.86	402.62
392.085	393.62
392.31	396.62
392.534	393.62
392.759	391.62
392.984	387.62
393.208	376.62
393.433	385.62
393.658	381.62
393.882	378.62
394.107	367.62
394.331	393.62
394.556	404.62
394.78	391.62
395.005	401.62
395.229	391.62
395.454	418.62
395.678	402.62
395.903	415.62
396.127	423.62
396.352	406.62
396.576	406.62
396.801	428.62
397.025	419.62
397.249	397.62
397.474	423.62
397.698	399.62
397.922	414.62
398.147	432.62
398.371	439.62
398.595	411.62
398.82	444.62
399.044	445.62
399.268	482.62
399.492	519.62
399.717	572.62
399.941	591.62
400.165	558.62
400.389	534.62
400.613	508.62
400.837	475.62
401.062	442.62
401.286	438.62
401.51	449.62
401.734	427.62
401.958	437.62
402.182	441.62
402.406	462.62
402.63	459.62
402.854	465.62
403.078	462.62
403.302	487.62
403.526	466.62
403.75	494.62
403.974	474.62
404.198	472.62
404.422	495.62
404.645	479.62
404.869	484.62
405.093	523.62
405.317	501.62
405.541	516.62
405.765	501.62
405.988	493.62
406.212	503.62
406.436	477.62
406.66	523.62
406.883	495.62
407.107	507.62
407.331	539.62
407.555	581.62
407.778	571.62
408.002	547.62
408.226	511.62
408.449	532.62
408.673	481.62
408.896	515.62
409.12	521.62
409.344	522.62
409.567	474.62
409.791	464.62
410.014	473.62
410.238	458.62
410.461	465.62
410.685	463.62
410.908	474.62
411.132	491.62
411.355	489.62
411.578	477.62
411.802	465.62
412.025	438.62
412.249	466.62
412.472	470.62
412.695	483.62
412.919	469.62
413.142	449.62
413.365	446.62
413.589	466.62
413.812	431.62
414.035	439.62
414.258	431.62
414.482	441.62
414.705	424.62
414.928	456.62
415.151	442.62
415.374	426.62
415.597	423.62
415.821	413.62
416.044	447.62
416.267	423.62
416.49	436.62
416.713	451.62
416.936	439.62
417.159	432.62
417.382	461.62
417.605	434.62
417.828	450.62
418.051	465.62
418.274	428.62
418.497	449.62
418.72	445.62
418.943	459.62
419.166	483.62
419.389	450.62
419.611	473.62
419.834	455.62
420.057	455.62
420.28	443.62
420.503	468.62
420.726	445.62
420.948	461.62
421.171	469.62
421.394	480.62
421.617	458.62
421.839	452.62
422.062	444.62
422.285	448.62
422.507	501.62
422.73	529.62
422.953	519.62
423.175	480.62
423.398	464.62
423.621	488.62
423.843	495.62
424.066	473.62
424.288	486.62
424.511	489.62
424.733	496.62
424.956	538.62
425.178	541.62
425.401	535.62
425.623	545.62
425.846	473.62
426.068	493.62
426.291	470.62
426.513	449.62
426.735	458.62
426.958	471.62
427.18	526.62
427.402	600.62
427.625	635.62
427.847	543.62
428.069	522.62
428.292	467.62
428.514	442.62
428.736	434.62
428.958	433.62
429.181	409.62
429.403	398.62
429.625	419.62
429.847	427.62
430.069	483.62
430.292	457.62
430.514	435.62
430.736	432.62
430.958	396.62
431.18	400.62
431.402	408.62
431.624	392.62
431.846	420.62
432.068	415.62
432.29	412.62
432.512	410.62
432.734	427.62
432.956	411.62
433.178	404.62
433.4	409.62
433.622	434.62
433.844	421.62
434.066	418.62
434.287	396.62
434.509	419.62
434.731	427.62
434.953	420.62
435.175	452.62
435.397	445.62
435.618	452.62
435.84	468.62
436.062	514.62
436.284	551.62
436.505	460.62
436.727	461.62
436.949	445.62
437.17	408.62
437.392	420.62
437.614	433.62
437.835	450.62
438.057	509.62
438.278	552.62
438.5	554.62
438.721	548.62
438.943	552.62
439.165	469.62
439.386	447.62
439.608	440.62
439.829	448.62
440.05	456.62
440.272	482.62
440.493	477.62
440.715	447.62
440.936	452.62
441.158	446.62
441.379	435.62
441.6	457.62
441.822	473.62
442.043	508.62
442.264	551.62
442.486	556.62
442.707	487.62
442.928	483.62
443.149	486.62
443.371	501.62
443.592	510.62
443.813	577.62
444.034	589.62
444.255	517.62
444.476	489.62
444.698	507.62
444.919	500.62
445.14	643.62
445.361	541.62
445.582	494.62
445.803	509.62
446.024	567.62
446.245	586.62
446.466	513.62
446.687	468.62
446.908	429.62
447.129	427.62
447.35	431.62
447.571	428.62
447.792	413.62
448.013	420.62
448.234	422.62
448.455	442.62
448.675	507.62
448.896	546.62
449.117	487.62
449.338	478.62
449.559	561.62
449.779	591.62
450	485.62
450.221	416.62
450.442	405.62
450.662	402.62
450.883	402.62
451.104	425.62
451.324	403.62
451.545	411.62
451.766	391.62
451.986	386.62
452.207	378.62
452.428	370.62
452.648	385.62
452.869	379.62
453.089	373.62
453.31	387.62
453.53	381.62
453.751	375.62
453.971	364.62
454.192	391.62
454.412	417.62
454.633	387.62
454.853	381.62
455.073	369.62
455.294	380.62
455.514	444.62
455.734	403.62
455.955	369.62
456.175	378.62
456.395	359.62
456.616	366.62
456.836	358.62
457.056	355.62
457.276	338.62
457.497	359.62
457.717	367.62
457.937	378.62
458.157	370.62
458.377	368.62
458.598	404.62
458.818	443.62
459.038	487.62
459.258	465.62
459.478	432.62
459.698	404.62
459.918	424.62
460.138	437.62
460.358	426.62
460.578	441.62
460.798	415.62
461.018	457.62
461.238	445.62
461.458	425.62
461.678	437.62
461.898	436.62
462.118	445.62
462.338	482.62
462.558	458.62
462.777	477.62
462.997	500.62
463.217	513.62
463.437	516.62
463.657	505.62
463.876	500.62
464.096	474.62
464.316	471.62
464.536	477.62
464.755	476.62
464.975	475.62
465.195	488.62
465.414	497.62
465.634	449.62
465.854	433.62
466.073	402.62
466.293	416.62
466.512	394.62
466.732	411.62
466.951	404.62
467.171	411.62
467.391	397.62
467.61	395.62
467.829	401.62
468.049	400.62
468.268	399.62
468.488	387.62
468.707	387.62
468.927	387.62
469.146	372.62
469.365	389.62
469.585	402.62
469.804	410.62
470.023	400.62
470.243	389.62
470.462	425.62
470.681	429.62
470.901	412.62
471.12	398.62
471.339	398.62
471.558	393.62
471.777	417.62
471.997	383.62
472.216	404.62
472.435	417.62
472.654	403.62
472.873	392.62
473.092	388.62
473.311	401.62
473.53	390.62
473.749	407.62
473.968	403.62
474.187	467.62
474.406	472.62
474.625	423.62
474.844	398.62
475.063	403.62
475.282	397.62
475.501	390.62
475.72	400.62
475.939	398.62
476.158	399.62
476.377	388.62
476.596	394.62
476.814	415.62
477.033	415.62
477.252	426.62
477.471	416.62
477.69	428.62
477.908	445.62
478.127	458.62
478.346	426.62
478.564	447.62
478.783	440.62
479.002	465.62
479.22	467.62
479.439	450.62
479.658	469.62
479.876	472.62
480.095	453.62
480.313	518.62
480.532	534.62
480.751	492.62
480.969	475.62
481.188	523.62
481.406	546.62
481.624	491.62
481.843	472.62
482.061	454.62
482.28	455.62
482.498	461.62
482.717	453.62
482.935	434.62
483.153	448.62
483.372	461.62
483.59	450.62
483.808	455.62
484.027	439.62
484.245	464.62
484.463	453.62
484.681	463.62
484.9	452.62
485.118	473.62
485.336	459.62
485.554	453.62
485.772	474.62
485.99	476.62
486.209	490.62
486.427	466.62
486.645	483.62
486.863	501.62
487.081	489.62
487.299	466.62
487.517	481.62
487.735	473.62
487.953	485.62
488.171	468.62
488.389	479.62
488.607	479.62
488.825	476.62
489.043	466.62
489.261	473.62
489.479	479.62
489.696	493.62
489.914	488.62
490.132	495.62
490.35	491.62
490.568	494.62
490.786	537.62
491.003	511.62
491.221	540.62
491.439	536.62
491.657	526.62
491.874	563.62
492.092	579.62
492.31	563.62
492.527	569.62
492.745	563.62
492.963	537.62
493.18	547.62
493.398	558.62
493.615	576.62
493.833	577.62
494.05	571.62
494.268	561.62
494.485	573.62
494.703	567.62
494.92	555.62
495.138	556.62
495.355	548.62
495.573	556.62
495.79	572.62
496.008	590.62
496.225	609.62
496.442	562.62
496.66	585.62
496.877	563.62
497.094	587.62
497.312	586.62
497.529	604.62
497.746	605.62
497.963	607.62
498.181	633.62
498.398	642.62
498.615	649.62
498.832	689.62
499.049	686.62
499.267	734.62
499.484	787.62
499.701	801.62
499.918	844.62
500.135	922.62
500.352	988.62
500.569	988.62
500.786	1025.62
501.003	971.62
501.22	898.62
501.437	881.62
501.654	835.62
501.871	799.62
502.088	752.62
