Data from 1969.PennyLincolnUp.Lamp.En5.5.200Scan.071719.P1._HRD10591_14-54-59-972.txt Node
Date: Thu Jul 18 14:54:59 EDT 2019
User: cochatt
Spectrometer: HR+D1059
Trigger mode: 1
Integration Time (sec): 1.000000E-1
Scans to average: 1
Electric dark correction enabled: true
Nonlinearity correction enabled: false
Boxcar width: 0
XAxis mode: Wavelengths
Number of Pixels in Spectrum: 2048
>>>>>Begin Spectral Data<<<<<
223.165	-10.5
223.4	-10.5
223.635	-10.5
223.869	-29.5
224.104	-4.5
224.338	-20.5
224.573	-11.5
224.808	-19.5
225.042	1.5
225.277	-12.5
225.511	14.5
225.746	13.5
225.98	-3.5
226.215	4.5
226.449	6.5
226.683	10.5
226.918	28.5
227.152	32.5
227.387	39.5
227.621	35.5
227.856	51.5
228.09	54.5
228.324	44.5
228.559	55.5
228.793	70.5
229.027	75.5
229.262	74.5
229.496	96.5
229.73	105.5
229.964	121.5
230.199	103.5
230.433	92.5
230.667	101.5
230.901	111.5
231.136	96.5
231.37	91.5
231.604	99.5
231.838	98.5
232.072	100.5
232.306	113.5
232.541	118.5
232.775	109.5
233.009	121.5
233.243	108.5
233.477	107.5
233.711	103.5
233.945	107.5
234.179	115.5
234.413	128.5
234.647	108.5
234.881	108.5
235.115	104.5
235.349	102.5
235.583	117.5
235.817	117.5
236.051	115.5
236.285	104.5
236.519	122.5
236.753	117.5
236.987	130.5
237.221	147.5
237.455	174.5
237.689	143.5
237.922	124.5
238.156	109.5
238.39	127.5
238.624	108.5
238.858	113.5
239.091	104.5
239.325	105.5
239.559	101.5
239.793	118.5
240.027	127.5
240.26	119.5
240.494	136.5
240.728	130.5
240.961	131.5
241.195	132.5
241.429	107.5
241.662	125.5
241.896	121.5
242.13	125.5
242.363	121.5
242.597	127.5
242.83	131.5
243.064	126.5
243.298	136.5
243.531	128.5
243.765	131.5
243.998	124.5
244.232	130.5
244.465	151.5
244.699	137.5
244.932	133.5
245.166	134.5
245.399	132.5
245.633	140.5
245.866	131.5
246.099	145.5
246.333	145.5
246.566	138.5
246.8	135.5
247.033	145.5
247.266	135.5
247.5	124.5
247.733	138.5
247.966	149.5
248.2	140.5
248.433	145.5
248.666	166.5
248.899	167.5
249.133	151.5
249.366	162.5
249.599	168.5
249.832	155.5
250.066	149.5
250.299	143.5
250.532	158.5
250.765	174.5
250.998	193.5
251.231	192.5
251.465	175.5
251.698	165.5
251.931	156.5
252.164	145.5
252.397	159.5
252.63	179.5
252.863	162.5
253.096	183.5
253.329	179.5
253.562	197.5
253.795	186.5
254.028	168.5
254.261	192.5
254.494	190.5
254.727	210.5
254.96	211.5
255.193	218.5
255.426	194.5
255.659	164.5
255.892	187.5
256.124	188.5
256.357	206.5
256.59	185.5
256.823	165.5
257.056	197.5
257.289	160.5
257.521	179.5
257.754	180.5
257.987	174.5
258.22	184.5
258.452	169.5
258.685	186.5
258.918	183.5
259.151	175.5
259.383	189.5
259.616	205.5
259.849	198.5
260.081	201.5
260.314	222.5
260.547	205.5
260.779	217.5
261.012	193.5
261.244	184.5
261.477	198.5
261.71	182.5
261.942	190.5
262.175	179.5
262.407	184.5
262.64	180.5
262.872	174.5
263.105	173.5
263.337	176.5
263.57	192.5
263.802	177.5
264.035	195.5
264.267	189.5
264.499	185.5
264.732	183.5
264.964	186.5
265.197	195.5
265.429	191.5
265.661	181.5
265.894	195.5
266.126	185.5
266.358	198.5
266.591	191.5
266.823	193.5
267.055	205.5
267.287	197.5
267.52	196.5
267.752	192.5
267.984	204.5
268.216	209.5
268.448	192.5
268.681	211.5
268.913	209.5
269.145	225.5
269.377	241.5
269.609	236.5
269.841	226.5
270.073	225.5
270.306	241.5
270.538	229.5
270.77	242.5
271.002	237.5
271.234	254.5
271.466	244.5
271.698	251.5
271.93	262.5
272.162	246.5
272.394	252.5
272.626	223.5
272.858	217.5
273.09	217.5
273.322	220.5
273.553	218.5
273.785	233.5
274.017	232.5
274.249	229.5
274.481	232.5
274.713	230.5
274.945	229.5
275.176	234.5
275.408	224.5
275.64	231.5
275.872	226.5
276.104	222.5
276.335	216.5
276.567	222.5
276.799	233.5
277.031	273.5
277.262	260.5
277.494	250.5
277.726	260.5
277.957	233.5
278.189	236.5
278.421	224.5
278.652	235.5
278.884	239.5
279.115	229.5
279.347	228.5
279.579	236.5
279.81	236.5
280.042	228.5
280.273	247.5
280.505	264.5
280.736	241.5
280.968	243.5
281.199	229.5
281.431	221.5
281.662	233.5
281.894	225.5
282.125	215.5
282.356	241.5
282.588	254.5
282.819	261.5
283.051	240.5
283.282	232.5
283.513	226.5
283.745	248.5
283.976	266.5
284.207	246.5
284.439	259.5
284.67	257.5
284.901	261.5
285.132	241.5
285.364	238.5
285.595	228.5
285.826	232.5
286.057	259.5
286.288	259.5
286.52	250.5
286.751	249.5
286.982	244.5
287.213	261.5
287.444	239.5
287.675	261.5
287.906	257.5
288.138	277.5
288.369	273.5
288.6	278.5
288.831	269.5
289.062	249.5
289.293	260.5
289.524	283.5
289.755	251.5
289.986	271.5
290.217	252.5
290.448	261.5
290.679	259.5
290.91	257.5
291.141	269.5
291.371	255.5
291.602	263.5
291.833	239.5
292.064	272.5
292.295	261.5
292.526	246.5
292.757	249.5
292.987	269.5
293.218	266.5
293.449	284.5
293.68	265.5
293.91	258.5
294.141	257.5
294.372	265.5
294.603	259.5
294.833	259.5
295.064	265.5
295.295	276.5
295.525	265.5
295.756	265.5
295.987	283.5
296.217	284.5
296.448	298.5
296.679	275.5
296.909	264.5
297.14	294.5
297.37	296.5
297.601	269.5
297.831	272.5
298.062	273.5
298.292	272.5
298.523	269.5
298.753	263.5
298.984	279.5
299.214	279.5
299.445	282.5
299.675	281.5
299.905	277.5
300.136	276.5
300.366	271.5
300.597	283.5
300.827	266.5
301.057	288.5
301.288	289.5
301.518	296.5
301.748	288.5
301.979	291.5
302.209	307.5
302.439	296.5
302.669	297.5
302.9	296.5
303.13	291.5
303.36	292.5
303.59	304.5
303.82	303.5
304.051	305.5
304.281	312.5
304.511	278.5
304.741	288.5
304.971	282.5
305.201	294.5
305.431	279.5
305.661	286.5
305.891	288.5
306.121	277.5
306.352	300.5
306.582	295.5
306.812	277.5
307.042	301.5
307.272	296.5
307.502	301.5
307.731	292.5
307.961	298.5
308.191	283.5
308.421	293.5
308.651	292.5
308.881	285.5
309.111	298.5
309.341	293.5
309.571	307.5
309.8	307.5
310.03	303.5
310.26	321.5
310.49	319.5
310.72	314.5
310.949	309.5
311.179	321.5
311.409	313.5
311.639	319.5
311.868	311.5
312.098	309.5
312.328	319.5
312.557	329.5
312.787	352.5
313.017	329.5
313.246	348.5
313.476	309.5
313.706	321.5
313.935	308.5
314.165	328.5
314.394	321.5
314.624	328.5
314.853	330.5
315.083	326.5
315.312	326.5
315.542	311.5
315.771	317.5
316.001	314.5
316.23	321.5
316.46	314.5
316.689	332.5
316.919	330.5
317.148	333.5
317.377	320.5
317.607	340.5
317.836	314.5
318.065	315.5
318.295	314.5
318.524	327.5
318.753	332.5
318.983	320.5
319.212	307.5
319.441	315.5
319.67	342.5
319.9	349.5
320.129	328.5
320.358	308.5
320.587	316.5
320.816	337.5
321.046	324.5
321.275	339.5
321.504	329.5
321.733	337.5
321.962	336.5
322.191	350.5
322.42	342.5
322.649	336.5
322.878	341.5
323.108	365.5
323.337	377.5
323.566	383.5
323.795	380.5
324.024	403.5
324.253	472.5
324.482	613.5
324.71	885.5
324.939	1125.5
325.168	960.5
325.397	559.5
325.626	446.5
325.855	393.5
326.084	387.5
326.313	395.5
326.542	389.5
326.77	409.5
326.999	445.5
327.228	572.5
327.457	798.5
327.686	874.5
327.914	610.5
328.143	453.5
328.372	439.5
328.6	422.5
328.829	419.5
329.058	428.5
329.287	439.5
329.515	421.5
329.744	405.5
329.972	395.5
330.201	414.5
330.43	423.5
330.658	427.5
330.887	446.5
331.115	421.5
331.344	411.5
331.572	402.5
331.801	393.5
332.03	420.5
332.258	389.5
332.486	389.5
332.715	400.5
332.943	386.5
333.172	393.5
333.4	401.5
333.629	432.5
333.857	428.5
334.085	439.5
334.314	437.5
334.542	456.5
334.771	474.5
334.999	415.5
335.227	408.5
335.455	404.5
335.684	404.5
335.912	383.5
336.14	393.5
336.369	404.5
336.597	381.5
336.825	395.5
337.053	383.5
337.281	378.5
337.51	380.5
337.738	379.5
337.966	349.5
338.194	390.5
338.422	375.5
338.65	381.5
338.878	373.5
339.106	347.5
339.334	345.5
339.562	366.5
339.79	368.5
340.018	353.5
340.246	365.5
340.474	377.5
340.702	365.5
340.93	367.5
341.158	337.5
341.386	347.5
341.614	367.5
341.842	382.5
342.07	360.5
342.298	362.5
342.526	359.5
342.754	357.5
342.981	358.5
343.209	365.5
343.437	362.5
343.665	371.5
343.893	375.5
344.12	381.5
344.348	391.5
344.576	381.5
344.804	364.5
345.031	360.5
345.259	348.5
345.487	354.5
345.714	377.5
345.942	374.5
346.17	343.5
346.397	352.5
346.625	357.5
346.853	338.5
347.08	351.5
347.308	348.5
347.535	348.5
347.763	350.5
347.99	338.5
348.218	331.5
348.445	367.5
348.673	332.5
348.9	348.5
349.128	337.5
349.355	337.5
349.583	342.5
349.81	342.5
350.037	341.5
350.265	346.5
350.492	341.5
350.72	363.5
350.947	349.5
351.174	352.5
351.402	356.5
351.629	349.5
351.856	329.5
352.083	335.5
352.311	356.5
352.538	346.5
352.765	358.5
352.992	330.5
353.22	357.5
353.447	344.5
353.674	332.5
353.901	330.5
354.128	323.5
354.355	316.5
354.583	342.5
354.81	330.5
355.037	328.5
355.264	318.5
355.491	320.5
355.718	310.5
355.945	325.5
356.172	326.5
356.399	323.5
356.626	327.5
356.853	328.5
357.08	312.5
357.307	329.5
357.534	323.5
357.761	320.5
357.988	332.5
358.215	327.5
358.441	340.5
358.668	333.5
358.895	334.5
359.122	331.5
359.349	317.5
359.576	344.5
359.802	347.5
360.029	355.5
360.256	375.5
360.483	359.5
360.709	342.5
360.936	349.5
361.163	337.5
361.39	345.5
361.616	338.5
361.843	358.5
362.07	346.5
362.296	320.5
362.523	325.5
362.749	343.5
362.976	320.5
363.203	341.5
363.429	332.5
363.656	324.5
363.882	316.5
364.109	330.5
364.335	338.5
364.562	324.5
364.788	340.5
365.015	340.5
365.241	342.5
365.468	333.5
365.694	321.5
365.92	332.5
366.147	318.5
366.373	349.5
366.599	327.5
366.826	337.5
367.052	335.5
367.278	332.5
367.505	335.5
367.731	325.5
367.957	339.5
368.184	333.5
368.41	347.5
368.636	335.5
368.862	327.5
369.089	322.5
369.315	359.5
369.541	314.5
369.767	344.5
369.993	325.5
370.219	321.5
370.445	323.5
370.672	333.5
370.898	337.5
371.124	342.5
371.35	339.5
371.576	325.5
371.802	337.5
372.028	345.5
372.254	338.5
372.48	343.5
372.706	345.5
372.932	347.5
373.158	343.5
373.384	349.5
373.61	345.5
373.835	339.5
374.061	339.5
374.287	369.5
374.513	341.5
374.739	337.5
374.965	358.5
375.191	350.5
375.416	345.5
375.642	347.5
375.868	352.5
376.094	337.5
376.319	352.5
376.545	361.5
376.771	333.5
376.997	347.5
377.222	332.5
377.448	347.5
377.674	335.5
377.899	323.5
378.125	346.5
378.35	357.5
378.576	339.5
378.802	342.5
379.027	331.5
379.253	327.5
379.478	341.5
379.704	350.5
379.929	340.5
380.155	333.5
380.38	331.5
380.606	340.5
380.831	355.5
381.057	356.5
381.282	341.5
381.507	331.5
381.733	344.5
381.958	335.5
382.184	341.5
382.409	343.5
382.634	334.5
382.86	349.5
383.085	349.5
383.31	349.5
383.535	352.5
383.761	351.5
383.986	364.5
384.211	367.5
384.436	348.5
384.662	371.5
384.887	391.5
385.112	373.5
385.337	374.5
385.562	356.5
385.787	365.5
386.013	400.5
386.238	400.5
386.463	404.5
386.688	387.5
386.913	374.5
387.138	365.5
387.363	392.5
387.588	391.5
387.813	378.5
388.038	381.5
388.263	384.5
388.488	387.5
388.713	363.5
388.938	353.5
389.163	365.5
389.387	377.5
389.612	377.5
389.837	394.5
390.062	379.5
390.287	374.5
390.512	381.5
390.736	381.5
390.961	369.5
391.186	367.5
391.411	382.5
391.636	408.5
391.86	406.5
392.085	394.5
392.31	390.5
392.534	397.5
392.759	407.5
392.984	381.5
393.208	399.5
393.433	381.5
393.658	385.5
393.882	372.5
394.107	384.5
394.331	403.5
394.556	367.5
394.78	363.5
395.005	387.5
395.229	409.5
395.454	376.5
395.678	385.5
395.903	392.5
396.127	411.5
396.352	406.5
396.576	402.5
396.801	394.5
397.025	378.5
397.249	400.5
397.474	411.5
397.698	410.5
397.922	414.5
398.147	424.5
398.371	417.5
398.595	422.5
398.82	464.5
399.044	460.5
399.268	506.5
399.492	515.5
399.717	573.5
399.941	577.5
400.165	561.5
400.389	536.5
400.613	493.5
400.837	453.5
401.062	452.5
401.286	435.5
401.51	433.5
401.734	428.5
401.958	425.5
402.182	474.5
402.406	477.5
402.63	471.5
402.854	473.5
403.078	451.5
403.302	487.5
403.526	481.5
403.75	472.5
403.974	482.5
404.198	485.5
404.422	480.5
404.645	467.5
404.869	486.5
405.093	509.5
405.317	515.5
405.541	528.5
405.765	480.5
405.988	474.5
406.212	491.5
406.436	489.5
406.66	524.5
406.883	485.5
407.107	501.5
407.331	545.5
407.555	603.5
407.778	567.5
408.002	536.5
408.226	494.5
408.449	480.5
408.673	485.5
408.896	499.5
409.12	491.5
409.344	495.5
409.567	478.5
409.791	469.5
410.014	457.5
410.238	468.5
410.461	469.5
410.685	462.5
410.908	464.5
411.132	481.5
411.355	520.5
411.578	485.5
411.802	458.5
412.025	465.5
412.249	463.5
412.472	468.5
412.695	466.5
412.919	487.5
413.142	460.5
413.365	461.5
413.589	438.5
413.812	439.5
414.035	433.5
414.258	436.5
414.482	461.5
414.705	440.5
414.928	427.5
415.151	429.5
415.374	448.5
415.597	424.5
415.821	424.5
416.044	419.5
416.267	438.5
416.49	422.5
416.713	428.5
416.936	442.5
417.159	441.5
417.382	439.5
417.605	447.5
417.828	428.5
418.051	457.5
418.274	437.5
418.497	427.5
418.72	408.5
418.943	439.5
419.166	448.5
419.389	467.5
419.611	483.5
419.834	455.5
420.057	459.5
420.28	442.5
420.503	453.5
420.726	452.5
420.948	429.5
421.171	479.5
421.394	479.5
421.617	457.5
421.839	451.5
422.062	445.5
422.285	432.5
422.507	478.5
422.73	516.5
422.953	493.5
423.175	454.5
423.398	487.5
423.621	479.5
423.843	486.5
424.066	481.5
424.288	469.5
424.511	470.5
424.733	505.5
424.956	544.5
425.178	517.5
425.401	530.5
425.623	542.5
425.846	473.5
426.068	468.5
426.291	460.5
426.513	451.5
426.735	457.5
426.958	462.5
427.18	499.5
427.402	584.5
427.625	632.5
427.847	544.5
428.069	490.5
428.292	454.5
428.514	424.5
428.736	423.5
428.958	419.5
429.181	433.5
429.403	410.5
429.625	409.5
429.847	439.5
430.069	463.5
430.292	467.5
430.514	409.5
430.736	413.5
430.958	398.5
431.18	437.5
431.402	421.5
431.624	396.5
431.846	397.5
432.068	387.5
432.29	395.5
432.512	425.5
432.734	416.5
432.956	401.5
433.178	398.5
433.4	398.5
433.622	414.5
433.844	414.5
434.066	408.5
434.287	411.5
434.509	411.5
434.731	425.5
434.953	446.5
435.175	444.5
435.397	452.5
435.618	444.5
435.84	447.5
436.062	516.5
436.284	551.5
436.505	473.5
436.727	418.5
436.949	427.5
437.17	426.5
437.392	399.5
437.614	414.5
437.835	431.5
438.057	473.5
438.278	524.5
438.5	527.5
438.721	561.5
438.943	552.5
439.165	464.5
439.386	439.5
439.608	441.5
439.829	435.5
440.05	449.5
440.272	488.5
440.493	474.5
440.715	427.5
440.936	439.5
441.158	445.5
441.379	440.5
441.6	442.5
441.822	457.5
442.043	471.5
442.264	524.5
442.486	543.5
442.707	486.5
442.928	471.5
443.149	466.5
443.371	497.5
443.592	505.5
443.813	545.5
444.034	582.5
444.255	513.5
444.476	488.5
444.698	486.5
444.919	494.5
445.14	575.5
445.361	504.5
445.582	486.5
445.803	520.5
446.024	547.5
446.245	543.5
446.466	513.5
446.687	440.5
446.908	449.5
447.129	418.5
447.35	411.5
447.571	424.5
447.792	408.5
448.013	411.5
448.234	419.5
448.455	442.5
448.675	496.5
448.896	540.5
449.117	507.5
449.338	469.5
449.559	509.5
449.779	573.5
450	484.5
450.221	412.5
450.442	396.5
450.662	406.5
450.883	424.5
451.104	417.5
451.324	412.5
451.545	391.5
451.766	373.5
451.986	376.5
452.207	360.5
452.428	368.5
452.648	380.5
452.869	391.5
453.089	393.5
453.31	387.5
453.53	380.5
453.751	364.5
453.971	380.5
454.192	367.5
454.412	371.5
454.633	367.5
454.853	373.5
455.073	355.5
455.294	385.5
455.514	408.5
455.734	424.5
455.955	361.5
456.175	379.5
456.395	357.5
456.616	347.5
456.836	340.5
457.056	354.5
457.276	357.5
457.497	370.5
457.717	354.5
457.937	356.5
458.157	378.5
458.377	367.5
458.598	383.5
458.818	407.5
459.038	464.5
459.258	480.5
459.478	430.5
459.698	394.5
459.918	396.5
460.138	423.5
460.358	435.5
460.578	444.5
460.798	436.5
461.018	435.5
461.238	426.5
461.458	434.5
461.678	432.5
461.898	451.5
462.118	441.5
462.338	444.5
462.558	456.5
462.777	473.5
462.997	499.5
463.217	510.5
463.437	508.5
463.657	489.5
463.876	483.5
464.096	473.5
464.316	482.5
464.536	488.5
464.755	486.5
464.975	476.5
465.195	475.5
465.414	491.5
465.634	446.5
465.854	437.5
466.073	403.5
466.293	428.5
466.512	391.5
466.732	401.5
466.951	388.5
467.171	387.5
467.391	412.5
467.61	413.5
467.829	392.5
468.049	415.5
468.268	405.5
468.488	375.5
468.707	399.5
468.927	378.5
469.146	371.5
469.365	388.5
469.585	383.5
469.804	399.5
470.023	408.5
470.243	392.5
470.462	404.5
470.681	408.5
470.901	415.5
471.12	410.5
471.339	408.5
471.558	410.5
471.777	394.5
471.997	392.5
472.216	407.5
472.435	413.5
472.654	397.5
472.873	397.5
473.092	370.5
473.311	392.5
473.53	391.5
473.749	392.5
473.968	407.5
474.187	485.5
474.406	475.5
474.625	398.5
474.844	401.5
475.063	388.5
475.282	384.5
475.501	404.5
475.72	395.5
475.939	397.5
476.158	387.5
476.377	400.5
476.596	393.5
476.814	390.5
477.033	424.5
477.252	419.5
477.471	402.5
477.69	423.5
477.908	432.5
478.127	445.5
478.346	436.5
478.564	450.5
478.783	445.5
479.002	459.5
479.22	452.5
479.439	475.5
479.658	468.5
479.876	477.5
480.095	502.5
480.313	509.5
480.532	515.5
480.751	500.5
480.969	489.5
481.188	503.5
481.406	523.5
481.624	463.5
481.843	471.5
482.061	464.5
482.28	435.5
482.498	451.5
482.717	436.5
482.935	467.5
483.153	441.5
483.372	449.5
483.59	449.5
483.808	440.5
484.027	447.5
484.245	448.5
484.463	443.5
484.681	464.5
484.9	431.5
485.118	473.5
485.336	457.5
485.554	459.5
485.772	450.5
485.99	463.5
486.209	456.5
486.427	471.5
486.645	464.5
486.863	472.5
487.081	458.5
487.299	470.5
487.517	463.5
487.735	475.5
487.953	466.5
488.171	491.5
488.389	469.5
488.607	477.5
488.825	473.5
489.043	471.5
489.261	460.5
489.479	491.5
489.696	490.5
489.914	478.5
490.132	504.5
490.35	511.5
490.568	487.5
490.786	508.5
491.003	489.5
491.221	510.5
491.439	522.5
491.657	522.5
491.874	528.5
492.092	558.5
492.31	534.5
492.527	533.5
492.745	544.5
492.963	539.5
493.18	552.5
493.398	560.5
493.615	542.5
493.833	579.5
494.05	558.5
494.268	552.5
494.485	564.5
494.703	562.5
494.92	553.5
495.138	557.5
495.355	563.5
495.573	546.5
495.79	537.5
496.008	579.5
496.225	559.5
496.442	560.5
496.66	557.5
496.877	562.5
497.094	583.5
497.312	570.5
497.529	564.5
497.746	611.5
497.963	606.5
498.181	622.5
498.398	637.5
498.615	618.5
498.832	657.5
499.049	692.5
499.267	719.5
499.484	748.5
499.701	804.5
499.918	839.5
500.135	906.5
500.352	1004.5
500.569	995.5
500.786	1011.5
501.003	960.5
501.22	910.5
501.437	831.5
501.654	787.5
501.871	761.5
502.088	724.5
502.305	687.5
502.522	625.5
502.739	637.5
502.956	632.5
503.172	618.5
503.389	585.5
503.606	605.5
503.823	595.5
504.04	591.5
504.256	569.5
504.473	572.5
504.69	581.5
504.907	570.5
505.123	554.5
505.34	549.5
505.557	551.5
505.773	534.5
505.99	514.5
506.207	526.5
506.423	536.5
506.64	527.5
506.856	499.5
507.073	503.5
507.289	491.5
507.506	503.5
507.722	492.5
507.939	496.5
508.155	511.5
508.372	496.5
508.588	485.5
508.805	490.5
509.021	492.5
509.238	492.5
509.454	483.5
509.67	489.5
509.887	467.5
510.103	479.5
510.319	510.5
510.536	503.5
510.752	762.5
510.968	627.5
511.184	469.5
511.401	471.5
511.617	471.5
511.833	446.5
512.049	444.5
512.265	457.5
512.481	477.5
512.698	442.5
512.914	467.5
513.13	463.5
513.346	442.5
513.562	468.5
513.778	440.5
513.994	456.5
514.21	464.5
514.426	502.5
514.642	496.5
514.858	489.5
515.074	528.5
515.29	585.5
515.506	807.5
515.721	678.5
515.937	509.5
516.153	492.5
516.369	493.5
516.585	503.5
516.801	484.5
517.016	518.5
517.232	505.5
517.448	528.5
517.664	530.5
517.879	519.5
518.095	525.5
518.311	524.5
518.527	504.5
518.742	493.5
518.958	492.5
519.173	477.5
519.389	479.5
519.605	463.5
519.82	461.5
520.036	441.5
