Data from Location1.07152019.Energy5.Lamp.07192019.3%Agarose_HRD10591_14-30-53-015.txt Node
Date: Fri Jul 19 14:30:53 EDT 2019
User: cochatt
Spectrometer: HR+D1059
Trigger mode: 1
Integration Time (sec): 1.000000E-1
Scans to average: 1
Electric dark correction enabled: true
Nonlinearity correction enabled: false
Boxcar width: 0
XAxis mode: Wavelengths
Number of Pixels in Spectrum: 2048
>>>>>Begin Spectral Data<<<<<
223.165	-7.12
223.4	-7.12
223.635	-7.12
223.869	-13.12
224.104	-25.12
224.338	-18.12
224.573	-20.12
224.808	-10.12
225.042	-4.12
225.277	-7.12
225.511	-13.12
225.746	3.88
225.98	3.88
226.215	7.88
226.449	13.88
226.683	25.88
226.918	29.88
227.152	32.88
227.387	45.88
227.621	45.88
227.856	38.88
228.09	54.88
228.324	63.88
228.559	70.88
228.793	54.88
229.027	54.88
229.262	74.88
229.496	77.88
229.73	64.88
229.964	66.88
230.199	80.88
230.433	87.88
230.667	75.88
230.901	83.88
231.136	73.88
231.37	91.88
231.604	82.88
231.838	77.88
232.072	86.88
232.306	86.88
232.541	89.88
232.775	77.88
233.009	83.88
233.243	79.88
233.477	94.88
233.711	79.88
233.945	90.88
234.179	94.88
234.413	96.88
234.647	81.88
234.881	99.88
235.115	90.88
235.349	79.88
235.583	91.88
235.817	83.88
236.051	78.88
236.285	74.88
236.519	74.88
236.753	81.88
236.987	99.88
237.221	90.88
237.455	69.88
237.689	79.88
237.922	78.88
238.156	79.88
238.39	86.88
238.624	89.88
238.858	73.88
239.091	68.88
239.325	82.88
239.559	73.88
239.793	77.88
240.027	82.88
240.26	82.88
240.494	67.88
240.728	73.88
240.961	85.88
241.195	90.88
241.429	88.88
241.662	87.88
241.896	66.88
242.13	82.88
242.363	84.88
242.597	87.88
242.83	89.88
243.064	84.88
243.298	81.88
243.531	71.88
243.765	74.88
243.998	79.88
244.232	76.88
244.465	78.88
244.699	73.88
244.932	79.88
245.166	82.88
245.399	79.88
245.633	77.88
245.866	83.88
246.099	86.88
246.333	83.88
246.566	79.88
246.8	78.88
247.033	86.88
247.266	77.88
247.5	81.88
247.733	80.88
247.966	86.88
248.2	86.88
248.433	81.88
248.666	82.88
248.899	88.88
249.133	94.88
249.366	85.88
249.599	93.88
249.832	84.88
250.066	87.88
250.299	91.88
250.532	83.88
250.765	76.88
250.998	85.88
251.231	93.88
251.465	86.88
251.698	77.88
251.931	82.88
252.164	75.88
252.397	85.88
252.63	86.88
252.863	87.88
253.096	81.88
253.329	88.88
253.562	95.88
253.795	87.88
254.028	90.88
254.261	88.88
254.494	88.88
254.727	85.88
254.96	89.88
255.193	90.88
255.426	89.88
255.659	88.88
255.892	83.88
256.124	77.88
256.357	78.88
256.59	82.88
256.823	72.88
257.056	82.88
257.289	90.88
257.521	91.88
257.754	101.88
257.987	89.88
258.22	91.88
258.452	89.88
258.685	77.88
258.918	69.88
259.151	74.88
259.383	96.88
259.616	86.88
259.849	81.88
260.081	95.88
260.314	93.88
260.547	75.88
260.779	81.88
261.012	79.88
261.244	87.88
261.477	89.88
261.71	79.88
261.942	83.88
262.175	91.88
262.407	85.88
262.64	83.88
262.872	78.88
263.105	84.88
263.337	85.88
263.57	96.88
263.802	92.88
264.035	88.88
264.267	95.88
264.499	93.88
264.732	88.88
264.964	86.88
265.197	94.88
265.429	90.88
265.661	84.88
265.894	79.88
266.126	82.88
266.358	94.88
266.591	81.88
266.823	80.88
267.055	75.88
267.287	94.88
267.52	86.88
267.752	103.88
267.984	80.88
268.216	91.88
268.448	89.88
268.681	85.88
268.913	87.88
269.145	84.88
269.377	104.88
269.609	86.88
269.841	88.88
270.073	67.88
270.306	82.88
270.538	86.88
270.77	82.88
271.002	87.88
271.234	87.88
271.466	102.88
271.698	86.88
271.93	89.88
272.162	83.88
272.394	78.88
272.626	89.88
272.858	75.88
273.09	89.88
273.322	98.88
273.553	86.88
273.785	93.88
274.017	97.88
274.249	95.88
274.481	92.88
274.713	89.88
274.945	93.88
275.176	88.88
275.408	85.88
275.64	82.88
275.872	84.88
276.104	91.88
276.335	79.88
276.567	77.88
276.799	89.88
277.031	85.88
277.262	86.88
277.494	82.88
277.726	89.88
277.957	93.88
278.189	92.88
278.421	74.88
278.652	91.88
278.884	91.88
279.115	87.88
279.347	78.88
279.579	104.88
279.81	88.88
280.042	98.88
280.273	102.88
280.505	104.88
280.736	87.88
280.968	99.88
281.199	79.88
281.431	91.88
281.662	88.88
281.894	81.88
282.125	81.88
282.356	86.88
282.588	82.88
282.819	86.88
283.051	80.88
283.282	81.88
283.513	75.88
283.745	80.88
283.976	78.88
284.207	93.88
284.439	84.88
284.67	85.88
284.901	86.88
285.132	89.88
285.364	90.88
285.595	90.88
285.826	87.88
286.057	97.88
286.288	81.88
286.52	72.88
286.751	92.88
286.982	85.88
287.213	91.88
287.444	84.88
287.675	92.88
287.906	101.88
288.138	99.88
288.369	87.88
288.6	91.88
288.831	88.88
289.062	95.88
289.293	92.88
289.524	91.88
289.755	87.88
289.986	92.88
290.217	73.88
290.448	85.88
290.679	70.88
290.91	96.88
291.141	91.88
291.371	94.88
291.602	92.88
291.833	83.88
292.064	95.88
292.295	98.88
292.526	86.88
292.757	100.88
292.987	91.88
293.218	86.88
293.449	92.88
293.68	92.88
293.91	74.88
294.141	85.88
294.372	98.88
294.603	92.88
294.833	100.88
295.064	89.88
295.295	82.88
295.525	82.88
295.756	82.88
295.987	87.88
296.217	96.88
296.448	86.88
296.679	85.88
296.909	85.88
297.14	83.88
297.37	94.88
297.601	96.88
297.831	84.88
298.062	79.88
298.292	96.88
298.523	98.88
298.753	92.88
298.984	91.88
299.214	81.88
299.445	87.88
299.675	90.88
299.905	92.88
300.136	85.88
300.366	99.88
300.597	94.88
300.827	92.88
301.057	91.88
301.288	85.88
301.518	97.88
301.748	94.88
301.979	90.88
302.209	96.88
302.439	78.88
302.669	87.88
302.9	78.88
303.13	77.88
303.36	90.88
303.59	88.88
303.82	90.88
304.051	94.88
304.281	87.88
304.511	73.88
304.741	90.88
304.971	80.88
305.201	94.88
305.431	94.88
305.661	95.88
305.891	83.88
306.121	89.88
306.352	90.88
306.582	83.88
306.812	78.88
307.042	96.88
307.272	89.88
307.502	93.88
307.731	86.88
307.961	95.88
308.191	79.88
308.421	80.88
308.651	90.88
308.881	100.88
309.111	88.88
309.341	81.88
309.571	98.88
309.8	97.88
310.03	100.88
310.26	102.88
310.49	89.88
310.72	93.88
310.949	81.88
311.179	75.88
311.409	96.88
311.639	100.88
311.868	104.88
312.098	91.88
312.328	102.88
312.557	94.88
312.787	87.88
313.017	88.88
313.246	101.88
313.476	91.88
313.706	86.88
313.935	83.88
314.165	87.88
314.394	79.88
314.624	78.88
314.853	88.88
315.083	94.88
315.312	88.88
315.542	91.88
315.771	89.88
316.001	100.88
316.23	83.88
316.46	86.88
316.689	86.88
316.919	92.88
317.148	91.88
317.377	89.88
317.607	85.88
317.836	98.88
318.065	96.88
318.295	93.88
318.524	83.88
318.753	79.88
318.983	91.88
319.212	83.88
319.441	95.88
319.67	98.88
319.9	90.88
320.129	80.88
320.358	88.88
320.587	94.88
320.816	80.88
321.046	87.88
321.275	81.88
321.504	89.88
321.733	96.88
321.962	95.88
322.191	79.88
322.42	93.88
322.649	79.88
322.878	87.88
323.108	77.88
323.337	105.88
323.566	78.88
323.795	85.88
324.024	99.88
324.253	81.88
324.482	88.88
324.71	83.88
324.939	100.88
325.168	93.88
325.397	83.88
325.626	89.88
325.855	83.88
326.084	102.88
326.313	95.88
326.542	95.88
326.77	101.88
326.999	77.88
327.228	95.88
327.457	97.88
327.686	112.88
327.914	90.88
328.143	95.88
328.372	74.88
328.6	96.88
328.829	82.88
329.058	83.88
329.287	92.88
329.515	82.88
329.744	87.88
329.972	84.88
330.201	83.88
330.43	89.88
330.658	81.88
330.887	86.88
331.115	101.88
331.344	87.88
331.572	87.88
331.801	76.88
332.03	81.88
332.258	96.88
332.486	86.88
332.715	109.88
332.943	96.88
333.172	85.88
333.4	92.88
333.629	81.88
333.857	87.88
334.085	83.88
334.314	92.88
334.542	76.88
334.771	63.88
334.999	101.88
335.227	86.88
335.455	99.88
335.684	92.88
335.912	89.88
336.14	70.88
336.369	90.88
336.597	85.88
336.825	75.88
337.053	91.88
337.281	94.88
337.51	82.88
337.738	94.88
337.966	74.88
338.194	88.88
338.422	97.88
338.65	94.88
338.878	77.88
339.106	97.88
339.334	110.88
339.562	89.88
339.79	87.88
340.018	81.88
340.246	91.88
340.474	94.88
340.702	100.88
340.93	82.88
341.158	88.88
341.386	84.88
341.614	94.88
341.842	93.88
342.07	93.88
342.298	90.88
342.526	92.88
342.754	86.88
342.981	88.88
343.209	80.88
343.437	79.88
343.665	79.88
343.893	89.88
344.12	79.88
344.348	85.88
344.576	99.88
344.804	98.88
345.031	78.88
345.259	73.88
345.487	92.88
345.714	96.88
345.942	74.88
346.17	80.88
346.397	81.88
346.625	86.88
346.853	81.88
347.08	89.88
347.308	86.88
347.535	84.88
347.763	88.88
347.99	83.88
348.218	90.88
348.445	90.88
348.673	77.88
348.9	94.88
349.128	99.88
349.355	96.88
349.583	78.88
349.81	97.88
350.037	91.88
350.265	86.88
350.492	78.88
350.72	83.88
350.947	100.88
351.174	81.88
351.402	105.88
351.629	98.88
351.856	70.88
352.083	85.88
352.311	76.88
352.538	102.88
352.765	87.88
352.992	97.88
353.22	88.88
353.447	96.88
353.674	89.88
353.901	97.88
354.128	81.88
354.355	90.88
354.583	80.88
354.81	77.88
355.037	81.88
355.264	99.88
355.491	87.88
355.718	79.88
355.945	80.88
356.172	82.88
356.399	88.88
356.626	69.88
356.853	87.88
357.08	85.88
357.307	93.88
357.534	83.88
357.761	83.88
357.988	85.88
358.215	83.88
358.441	97.88
358.668	75.88
358.895	85.88
359.122	100.88
359.349	84.88
359.576	87.88
359.802	88.88
360.029	80.88
360.256	81.88
360.483	99.88
360.709	95.88
360.936	83.88
361.163	81.88
361.39	83.88
361.616	82.88
361.843	86.88
362.07	77.88
362.296	81.88
362.523	70.88
362.749	77.88
362.976	89.88
363.203	92.88
363.429	89.88
363.656	65.88
363.882	87.88
364.109	99.88
364.335	84.88
364.562	91.88
364.788	90.88
365.015	89.88
365.241	94.88
365.468	89.88
365.694	71.88
365.92	92.88
366.147	76.88
366.373	89.88
366.599	90.88
366.826	92.88
367.052	90.88
367.278	84.88
367.505	87.88
367.731	92.88
367.957	84.88
368.184	92.88
368.41	91.88
368.636	90.88
368.862	98.88
369.089	100.88
369.315	95.88
369.541	87.88
369.767	96.88
369.993	96.88
370.219	93.88
370.445	83.88
370.672	88.88
370.898	98.88
371.124	90.88
371.35	98.88
371.576	87.88
371.802	102.88
372.028	79.88
372.254	93.88
372.48	96.88
372.706	89.88
372.932	99.88
373.158	99.88
373.384	87.88
373.61	113.88
373.835	101.88
374.061	89.88
374.287	95.88
374.513	89.88
374.739	84.88
374.965	93.88
375.191	91.88
375.416	82.88
375.642	96.88
375.868	107.88
376.094	113.88
376.319	87.88
376.545	88.88
376.771	98.88
376.997	106.88
377.222	95.88
377.448	97.88
377.674	98.88
377.899	96.88
378.125	93.88
378.35	91.88
378.576	91.88
378.802	104.88
379.027	93.88
379.253	97.88
379.478	105.88
379.704	96.88
379.929	99.88
380.155	94.88
380.38	98.88
380.606	105.88
380.831	110.88
381.057	110.88
381.282	110.88
381.507	97.88
381.733	86.88
381.958	106.88
382.184	98.88
382.409	101.88
382.634	104.88
382.86	107.88
383.085	102.88
383.31	105.88
383.535	103.88
383.761	106.88
383.986	99.88
384.211	89.88
384.436	102.88
384.662	103.88
384.887	102.88
385.112	89.88
385.337	106.88
385.562	104.88
385.787	103.88
386.013	122.88
386.238	97.88
386.463	86.88
386.688	96.88
386.913	94.88
387.138	93.88
387.363	103.88
387.588	114.88
387.813	94.88
388.038	112.88
388.263	104.88
388.488	102.88
388.713	112.88
388.938	107.88
389.163	104.88
389.387	98.88
389.612	106.88
389.837	101.88
390.062	103.88
390.287	118.88
390.512	117.88
390.736	106.88
390.961	101.88
391.186	105.88
391.411	112.88
391.636	104.88
391.86	102.88
392.085	104.88
392.31	98.88
392.534	117.88
392.759	99.88
392.984	112.88
393.208	109.88
393.433	111.88
393.658	104.88
393.882	90.88
394.107	101.88
394.331	105.88
394.556	97.88
394.78	126.88
395.005	108.88
395.229	114.88
395.454	110.88
395.678	111.88
395.903	114.88
396.127	119.88
396.352	108.88
396.576	114.88
396.801	114.88
397.025	100.88
397.249	110.88
397.474	121.88
397.698	129.88
397.922	115.88
398.147	106.88
398.371	117.88
398.595	96.88
398.82	108.88
399.044	110.88
399.268	111.88
399.492	105.88
399.717	102.88
399.941	111.88
400.165	118.88
400.389	106.88
400.613	114.88
400.837	112.88
401.062	96.88
401.286	119.88
401.51	107.88
401.734	118.88
401.958	111.88
402.182	120.88
402.406	112.88
402.63	117.88
402.854	120.88
403.078	119.88
403.302	117.88
403.526	112.88
403.75	118.88
403.974	127.88
404.198	126.88
404.422	121.88
404.645	120.88
404.869	109.88
405.093	123.88
405.317	122.88
405.541	107.88
405.765	119.88
405.988	119.88
406.212	131.88
406.436	135.88
406.66	130.88
406.883	131.88
407.107	114.88
407.331	118.88
407.555	123.88
407.778	112.88
408.002	110.88
408.226	111.88
408.449	112.88
408.673	122.88
408.896	118.88
409.12	120.88
409.344	125.88
409.567	120.88
409.791	120.88
410.014	113.88
410.238	123.88
410.461	124.88
410.685	135.88
410.908	129.88
411.132	130.88
411.355	126.88
411.578	114.88
411.802	117.88
412.025	117.88
412.249	122.88
412.472	124.88
412.695	120.88
412.919	133.88
413.142	128.88
413.365	129.88
413.589	119.88
413.812	122.88
414.035	129.88
414.258	126.88
414.482	121.88
414.705	127.88
414.928	120.88
415.151	122.88
415.374	121.88
415.597	134.88
415.821	135.88
416.044	130.88
416.267	122.88
416.49	116.88
416.713	148.88
416.936	128.88
417.159	123.88
417.382	121.88
417.605	128.88
417.828	124.88
418.051	125.88
418.274	135.88
418.497	134.88
418.72	123.88
418.943	136.88
419.166	130.88
419.389	127.88
419.611	129.88
419.834	146.88
420.057	148.88
420.28	119.88
420.503	131.88
420.726	136.88
420.948	133.88
421.171	130.88
421.394	137.88
421.617	135.88
421.839	149.88
422.062	137.88
422.285	132.88
422.507	137.88
422.73	128.88
422.953	132.88
423.175	148.88
423.398	130.88
423.621	141.88
423.843	123.88
424.066	141.88
424.288	145.88
424.511	142.88
424.733	145.88
424.956	154.88
425.178	139.88
425.401	134.88
425.623	136.88
425.846	143.88
426.068	129.88
426.291	121.88
426.513	129.88
426.735	141.88
426.958	138.88
427.18	137.88
427.402	141.88
427.625	134.88
427.847	126.88
428.069	127.88
428.292	129.88
428.514	117.88
428.736	131.88
428.958	129.88
429.181	136.88
429.403	126.88
429.625	126.88
429.847	120.88
430.069	119.88
430.292	157.88
430.514	130.88
430.736	122.88
430.958	142.88
431.18	128.88
431.402	128.88
431.624	104.88
431.846	109.88
432.068	108.88
432.29	106.88
432.512	107.88
432.734	118.88
432.956	131.88
433.178	141.88
433.4	136.88
433.622	131.88
433.844	146.88
434.066	111.88
434.287	109.88
434.509	97.88
434.731	94.88
434.953	130.88
435.175	131.88
435.397	100.88
435.618	125.88
435.84	127.88
436.062	118.88
436.284	128.88
436.505	145.88
436.727	137.88
436.949	129.88
437.17	130.88
437.392	135.88
437.614	130.88
437.835	127.88
438.057	131.88
438.278	118.88
438.5	139.88
438.721	138.88
438.943	134.88
439.165	159.88
439.386	136.88
439.608	148.88
439.829	139.88
440.05	144.88
440.272	159.88
440.493	139.88
440.715	144.88
440.936	145.88
441.158	125.88
441.379	144.88
441.6	140.88
441.822	144.88
442.043	130.88
442.264	145.88
442.486	139.88
442.707	154.88
442.928	145.88
443.149	133.88
443.371	140.88
443.592	133.88
443.813	134.88
444.034	141.88
444.255	145.88
444.476	135.88
444.698	147.88
444.919	156.88
445.14	242.88
445.361	208.88
445.582	153.88
445.803	145.88
446.024	151.88
446.245	140.88
446.466	148.88
446.687	150.88
446.908	159.88
447.129	166.88
447.35	147.88
447.571	161.88
447.792	153.88
448.013	145.88
448.234	167.88
448.455	139.88
448.675	135.88
448.896	139.88
449.117	139.88
449.338	141.88
449.559	144.88
449.779	146.88
450	127.88
450.221	135.88
450.442	135.88
450.662	134.88
450.883	126.88
451.104	121.88
451.324	130.88
451.545	127.88
451.766	131.88
451.986	142.88
452.207	119.88
452.428	119.88
452.648	126.88
452.869	119.88
453.089	129.88
453.31	120.88
453.53	101.88
453.751	110.88
453.971	95.88
454.192	125.88
454.412	118.88
454.633	111.88
454.853	107.88
455.073	124.88
455.294	124.88
455.514	132.88
455.734	125.88
455.955	117.88
456.175	118.88
456.395	112.88
456.616	109.88
456.836	121.88
457.056	119.88
457.276	100.88
457.497	95.88
457.717	115.88
457.937	102.88
458.157	112.88
458.377	104.88
458.598	110.88
458.818	97.88
459.038	83.88
459.258	97.88
459.478	91.88
459.698	90.88
459.918	103.88
460.138	112.88
460.358	119.88
460.578	123.88
460.798	116.88
461.018	116.88
461.238	122.88
461.458	125.88
461.678	124.88
461.898	119.88
462.118	117.88
462.338	124.88
462.558	117.88
462.777	104.88
462.997	110.88
463.217	109.88
463.437	98.88
463.657	86.88
463.876	128.88
464.096	107.88
464.316	133.88
464.536	123.88
464.755	122.88
464.975	121.88
465.195	109.88
465.414	133.88
465.634	117.88
465.854	127.88
466.073	113.88
466.293	133.88
466.512	133.88
466.732	122.88
466.951	145.88
467.171	127.88
467.391	120.88
467.61	130.88
467.829	141.88
468.049	133.88
468.268	141.88
468.488	145.88
468.707	123.88
468.927	148.88
469.146	137.88
469.365	144.88
469.585	157.88
469.804	128.88
470.023	137.88
470.243	145.88
470.462	154.88
470.681	140.88
470.901	140.88
471.12	153.88
471.339	147.88
471.558	127.88
471.777	129.88
471.997	132.88
472.216	125.88
472.435	125.88
472.654	109.88
472.873	117.88
473.092	124.88
473.311	126.88
473.53	126.88
473.749	128.88
473.968	142.88
474.187	129.88
474.406	125.88
474.625	133.88
474.844	127.88
475.063	123.88
475.282	130.88
475.501	115.88
475.72	140.88
475.939	129.88
476.158	127.88
476.377	143.88
476.596	141.88
476.814	126.88
477.033	131.88
477.252	114.88
477.471	129.88
477.69	127.88
477.908	134.88
478.127	160.88
478.346	145.88
478.564	127.88
478.783	134.88
479.002	135.88
479.22	134.88
479.439	149.88
479.658	125.88
479.876	118.88
480.095	103.88
480.313	122.88
480.532	133.88
480.751	117.88
480.969	104.88
481.188	101.88
481.406	101.88
481.624	104.88
481.843	92.88
482.061	94.88
482.28	119.88
482.498	105.88
482.717	118.88
482.935	115.88
483.153	149.88
483.372	153.88
483.59	139.88
483.808	132.88
484.027	135.88
484.245	129.88
484.463	145.88
484.681	151.88
484.9	141.88
485.118	146.88
485.336	126.88
485.554	119.88
485.772	106.88
485.99	97.88
486.209	110.88
486.427	110.88
486.645	115.88
486.863	127.88
487.081	135.88
487.299	137.88
487.517	143.88
487.735	157.88
487.953	201.88
488.171	183.88
488.389	168.88
488.607	137.88
488.825	132.88
489.043	132.88
489.261	153.88
489.479	149.88
489.696	137.88
489.914	153.88
490.132	134.88
490.35	165.88
490.568	166.88
490.786	169.88
491.003	165.88
491.221	161.88
491.439	178.88
491.657	196.88
491.874	199.88
492.092	220.88
492.31	238.88
492.527	223.88
492.745	211.88
492.963	183.88
493.18	177.88
493.398	176.88
493.615	178.88
493.833	184.88
494.05	175.88
494.268	176.88
494.485	182.88
494.703	185.88
494.92	167.88
495.138	179.88
495.355	167.88
495.573	167.88
495.79	165.88
496.008	170.88
496.225	153.88
496.442	190.88
496.66	165.88
496.877	163.88
497.094	155.88
497.312	160.88
497.529	161.88
497.746	167.88
497.963	140.88
498.181	129.88
498.398	130.88
498.615	117.88
498.832	111.88
499.049	111.88
499.267	112.88
499.484	127.88
499.701	128.88
499.918	133.88
500.135	139.88
500.352	142.88
500.569	143.88
500.786	142.88
501.003	148.88
501.22	119.88
501.437	143.88
501.654	134.88
501.871	129.88
502.088	133.88
502.305	124.88
502.522	129.88
502.739	130.88
502.956	133.88
503.172	120.88
503.389	126.88
503.606	125.88
503.823	130.88
504.04	105.88
504.256	121.88
504.473	116.88
504.69	120.88
504.907	133.88
505.123	126.88
505.34	129.88
505.557	112.88
505.773	127.88
505.99	145.88
506.207	131.88
506.423	139.88
506.64	131.88
506.856	112.88
507.073	119.88
507.289	123.88
507.506	135.88
507.722	123.88
507.939	122.88
508.155	120.88
508.372	119.88
508.588	125.88
508.805	121.88
509.021	100.88
509.238	117.88
509.454	113.88
509.67	103.88
509.887	110.88
510.103	107.88
510.319	111.88
510.536	104.88
510.752	97.88
510.968	95.88
