Data from Location1.07152019.Energy5.Lamp.07192019.3%Agarose_HRD10591_14-33-13-017.txt Node
Date: Fri Jul 19 14:33:13 EDT 2019
User: cochatt
Spectrometer: HR+D1059
Trigger mode: 1
Integration Time (sec): 1.000000E-1
Scans to average: 1
Electric dark correction enabled: true
Nonlinearity correction enabled: false
Boxcar width: 0
XAxis mode: Wavelengths
Number of Pixels in Spectrum: 2048
>>>>>Begin Spectral Data<<<<<
223.165	-8.88
223.4	-8.88
223.635	-8.88
223.869	-4.88
224.104	-32.88
224.338	-18.88
224.573	-1.88
224.808	-9.88
225.042	-3.88
225.277	2.12
225.511	0.12
225.746	-0.88
225.98	9.12
226.215	10.12
226.449	14.12
226.683	14.12
226.918	10.12
227.152	22.12
227.387	25.12
227.621	45.12
227.856	55.12
228.09	49.12
228.324	51.12
228.559	62.12
228.793	58.12
229.027	68.12
229.262	54.12
229.496	65.12
229.73	80.12
229.964	79.12
230.199	74.12
230.433	61.12
230.667	73.12
230.901	89.12
231.136	91.12
231.37	91.12
231.604	72.12
231.838	82.12
232.072	66.12
232.306	93.12
232.541	79.12
232.775	81.12
233.009	82.12
233.243	88.12
233.477	72.12
233.711	90.12
233.945	91.12
234.179	80.12
234.413	84.12
234.647	86.12
234.881	88.12
235.115	80.12
235.349	70.12
235.583	56.12
235.817	86.12
236.051	78.12
236.285	66.12
236.519	75.12
236.753	94.12
236.987	82.12
237.221	68.12
237.455	83.12
237.689	83.12
237.922	78.12
238.156	79.12
238.39	74.12
238.624	75.12
238.858	72.12
239.091	77.12
239.325	69.12
239.559	65.12
239.793	85.12
240.027	67.12
240.26	79.12
240.494	74.12
240.728	66.12
240.961	74.12
241.195	83.12
241.429	86.12
241.662	80.12
241.896	84.12
242.13	66.12
242.363	94.12
242.597	71.12
242.83	80.12
243.064	82.12
243.298	66.12
243.531	78.12
243.765	90.12
243.998	87.12
244.232	82.12
244.465	80.12
244.699	69.12
244.932	71.12
245.166	79.12
245.399	95.12
245.633	75.12
245.866	79.12
246.099	76.12
246.333	93.12
246.566	72.12
246.8	75.12
247.033	80.12
247.266	77.12
247.5	85.12
247.733	87.12
247.966	88.12
248.2	82.12
248.433	75.12
248.666	85.12
248.899	84.12
249.133	93.12
249.366	96.12
249.599	83.12
249.832	77.12
250.066	81.12
250.299	83.12
250.532	69.12
250.765	71.12
250.998	73.12
251.231	89.12
251.465	71.12
251.698	82.12
251.931	88.12
252.164	86.12
252.397	75.12
252.63	63.12
252.863	75.12
253.096	70.12
253.329	77.12
253.562	74.12
253.795	77.12
254.028	76.12
254.261	81.12
254.494	59.12
254.727	83.12
254.96	80.12
255.193	68.12
255.426	74.12
255.659	85.12
255.892	89.12
256.124	87.12
256.357	77.12
256.59	78.12
256.823	52.12
257.056	72.12
257.289	81.12
257.521	77.12
257.754	74.12
257.987	70.12
258.22	76.12
258.452	80.12
258.685	73.12
258.918	80.12
259.151	86.12
259.383	96.12
259.616	79.12
259.849	81.12
260.081	84.12
260.314	84.12
260.547	80.12
260.779	84.12
261.012	79.12
261.244	82.12
261.477	79.12
261.71	78.12
261.942	76.12
262.175	78.12
262.407	78.12
262.64	72.12
262.872	83.12
263.105	90.12
263.337	81.12
263.57	80.12
263.802	88.12
264.035	77.12
264.267	74.12
264.499	80.12
264.732	74.12
264.964	79.12
265.197	86.12
265.429	82.12
265.661	88.12
265.894	79.12
266.126	69.12
266.358	58.12
266.591	77.12
266.823	79.12
267.055	80.12
267.287	91.12
267.52	65.12
267.752	82.12
267.984	94.12
268.216	80.12
268.448	90.12
268.681	89.12
268.913	88.12
269.145	81.12
269.377	77.12
269.609	88.12
269.841	95.12
270.073	87.12
270.306	72.12
270.538	73.12
270.77	70.12
271.002	84.12
271.234	89.12
271.466	75.12
271.698	75.12
271.93	77.12
272.162	75.12
272.394	86.12
272.626	88.12
272.858	69.12
273.09	81.12
273.322	80.12
273.553	78.12
273.785	69.12
274.017	77.12
274.249	83.12
274.481	87.12
274.713	95.12
274.945	84.12
275.176	90.12
275.408	83.12
275.64	86.12
275.872	79.12
276.104	84.12
276.335	92.12
276.567	94.12
276.799	85.12
277.031	81.12
277.262	83.12
277.494	89.12
277.726	94.12
277.957	67.12
278.189	76.12
278.421	91.12
278.652	80.12
278.884	87.12
279.115	74.12
279.347	89.12
279.579	74.12
279.81	84.12
280.042	70.12
280.273	90.12
280.505	91.12
280.736	83.12
280.968	70.12
281.199	99.12
281.431	88.12
281.662	82.12
281.894	88.12
282.125	69.12
282.356	95.12
282.588	84.12
282.819	67.12
283.051	88.12
283.282	79.12
283.513	74.12
283.745	97.12
283.976	92.12
284.207	80.12
284.439	86.12
284.67	95.12
284.901	96.12
285.132	103.12
285.364	79.12
285.595	100.12
285.826	90.12
286.057	92.12
286.288	83.12
286.52	94.12
286.751	84.12
286.982	89.12
287.213	90.12
287.444	89.12
287.675	94.12
287.906	85.12
288.138	68.12
288.369	94.12
288.6	92.12
288.831	71.12
289.062	88.12
289.293	78.12
289.524	86.12
289.755	88.12
289.986	96.12
290.217	89.12
290.448	95.12
290.679	99.12
290.91	71.12
291.141	87.12
291.371	94.12
291.602	87.12
291.833	82.12
292.064	75.12
292.295	91.12
292.526	98.12
292.757	79.12
292.987	83.12
293.218	92.12
293.449	87.12
293.68	83.12
293.91	86.12
294.141	84.12
294.372	87.12
294.603	82.12
294.833	76.12
295.064	93.12
295.295	75.12
295.525	92.12
295.756	81.12
295.987	81.12
296.217	97.12
296.448	77.12
296.679	72.12
296.909	86.12
297.14	85.12
297.37	92.12
297.601	95.12
297.831	79.12
298.062	83.12
298.292	86.12
298.523	87.12
298.753	89.12
298.984	68.12
299.214	91.12
299.445	96.12
299.675	81.12
299.905	87.12
300.136	79.12
300.366	85.12
300.597	80.12
300.827	85.12
301.057	88.12
301.288	85.12
301.518	90.12
301.748	92.12
301.979	90.12
302.209	96.12
302.439	74.12
302.669	87.12
302.9	88.12
303.13	82.12
303.36	83.12
303.59	88.12
303.82	87.12
304.051	85.12
304.281	104.12
304.511	93.12
304.741	86.12
304.971	87.12
305.201	90.12
305.431	82.12
305.661	74.12
305.891	93.12
306.121	83.12
306.352	97.12
306.582	100.12
306.812	79.12
307.042	93.12
307.272	68.12
307.502	80.12
307.731	83.12
307.961	89.12
308.191	83.12
308.421	95.12
308.651	83.12
308.881	92.12
309.111	100.12
309.341	89.12
309.571	85.12
309.8	86.12
310.03	82.12
310.26	79.12
310.49	90.12
310.72	92.12
310.949	86.12
311.179	77.12
311.409	94.12
311.639	74.12
311.868	79.12
312.098	94.12
312.328	103.12
312.557	76.12
312.787	86.12
313.017	79.12
313.246	82.12
313.476	84.12
313.706	86.12
313.935	78.12
314.165	84.12
314.394	77.12
314.624	77.12
314.853	88.12
315.083	93.12
315.312	79.12
315.542	77.12
315.771	94.12
316.001	72.12
316.23	79.12
316.46	60.12
316.689	82.12
316.919	90.12
317.148	88.12
317.377	89.12
317.607	73.12
317.836	84.12
318.065	97.12
318.295	88.12
318.524	71.12
318.753	96.12
318.983	92.12
319.212	99.12
319.441	77.12
319.67	90.12
319.9	76.12
320.129	92.12
320.358	94.12
320.587	99.12
320.816	84.12
321.046	85.12
321.275	66.12
321.504	88.12
321.733	90.12
321.962	82.12
322.191	88.12
322.42	83.12
322.649	94.12
322.878	79.12
323.108	90.12
323.337	101.12
323.566	91.12
323.795	70.12
324.024	84.12
324.253	85.12
324.482	87.12
324.71	82.12
324.939	91.12
325.168	83.12
325.397	79.12
325.626	72.12
325.855	79.12
326.084	71.12
326.313	77.12
326.542	99.12
326.77	91.12
326.999	79.12
327.228	82.12
327.457	85.12
327.686	80.12
327.914	90.12
328.143	97.12
328.372	89.12
328.6	92.12
328.829	80.12
329.058	78.12
329.287	79.12
329.515	80.12
329.744	96.12
329.972	92.12
330.201	78.12
330.43	82.12
330.658	84.12
330.887	79.12
331.115	80.12
331.344	83.12
331.572	86.12
331.801	94.12
332.03	87.12
332.258	83.12
332.486	86.12
332.715	81.12
332.943	79.12
333.172	80.12
333.4	95.12
333.629	87.12
333.857	98.12
334.085	84.12
334.314	94.12
334.542	102.12
334.771	73.12
334.999	80.12
335.227	83.12
335.455	96.12
335.684	90.12
335.912	79.12
336.14	86.12
336.369	87.12
336.597	78.12
336.825	83.12
337.053	95.12
337.281	96.12
337.51	77.12
337.738	85.12
337.966	78.12
338.194	92.12
338.422	93.12
338.65	84.12
338.878	94.12
339.106	88.12
339.334	87.12
339.562	79.12
339.79	78.12
340.018	92.12
340.246	79.12
340.474	86.12
340.702	84.12
340.93	95.12
341.158	105.12
341.386	86.12
341.614	79.12
341.842	88.12
342.07	75.12
342.298	86.12
342.526	99.12
342.754	87.12
342.981	99.12
343.209	92.12
343.437	105.12
343.665	79.12
343.893	87.12
344.12	84.12
344.348	90.12
344.576	86.12
344.804	80.12
345.031	100.12
345.259	84.12
345.487	83.12
345.714	89.12
345.942	93.12
346.17	86.12
346.397	91.12
346.625	73.12
346.853	84.12
347.08	77.12
347.308	74.12
347.535	80.12
347.763	80.12
347.99	87.12
348.218	98.12
348.445	84.12
348.673	80.12
348.9	91.12
349.128	79.12
349.355	79.12
349.583	71.12
349.81	82.12
350.037	79.12
350.265	78.12
350.492	75.12
350.72	85.12
350.947	84.12
351.174	105.12
351.402	88.12
351.629	94.12
351.856	82.12
352.083	89.12
352.311	87.12
352.538	93.12
352.765	86.12
352.992	89.12
353.22	101.12
353.447	95.12
353.674	87.12
353.901	84.12
354.128	90.12
354.355	77.12
354.583	84.12
354.81	86.12
355.037	67.12
355.264	84.12
355.491	91.12
355.718	91.12
355.945	85.12
356.172	71.12
356.399	69.12
356.626	72.12
356.853	83.12
357.08	90.12
357.307	82.12
357.534	71.12
357.761	88.12
357.988	82.12
358.215	91.12
358.441	85.12
358.668	77.12
358.895	81.12
359.122	80.12
359.349	105.12
359.576	80.12
359.802	84.12
360.029	77.12
360.256	91.12
360.483	77.12
360.709	90.12
360.936	89.12
361.163	92.12
361.39	87.12
361.616	84.12
361.843	91.12
362.07	91.12
362.296	86.12
362.523	76.12
362.749	80.12
362.976	88.12
363.203	85.12
363.429	80.12
363.656	76.12
363.882	67.12
364.109	83.12
364.335	87.12
364.562	85.12
364.788	68.12
365.015	81.12
365.241	78.12
365.468	90.12
365.694	85.12
365.92	87.12
366.147	54.12
366.373	74.12
366.599	80.12
366.826	85.12
367.052	80.12
367.278	85.12
367.505	86.12
367.731	100.12
367.957	85.12
368.184	94.12
368.41	80.12
368.636	79.12
368.862	93.12
369.089	88.12
369.315	97.12
369.541	78.12
369.767	96.12
369.993	93.12
370.219	95.12
370.445	93.12
370.672	82.12
370.898	84.12
371.124	91.12
371.35	86.12
371.576	91.12
371.802	87.12
372.028	104.12
372.254	92.12
372.48	107.12
372.706	89.12
372.932	90.12
373.158	88.12
373.384	88.12
373.61	110.12
373.835	93.12
374.061	93.12
374.287	99.12
374.513	97.12
374.739	90.12
374.965	86.12
375.191	80.12
375.416	84.12
375.642	81.12
375.868	95.12
376.094	86.12
376.319	87.12
376.545	80.12
376.771	90.12
376.997	75.12
377.222	94.12
377.448	100.12
377.674	87.12
377.899	99.12
378.125	85.12
378.35	91.12
378.576	96.12
378.802	96.12
379.027	94.12
379.253	102.12
379.478	102.12
379.704	86.12
379.929	107.12
380.155	85.12
380.38	90.12
380.606	102.12
380.831	93.12
381.057	106.12
381.282	89.12
381.507	91.12
381.733	102.12
381.958	87.12
382.184	93.12
382.409	93.12
382.634	99.12
382.86	103.12
383.085	102.12
383.31	88.12
383.535	83.12
383.761	98.12
383.986	99.12
384.211	91.12
384.436	101.12
384.662	78.12
384.887	91.12
385.112	102.12
385.337	91.12
385.562	112.12
385.787	103.12
386.013	92.12
386.238	95.12
386.463	89.12
386.688	101.12
386.913	98.12
387.138	89.12
387.363	98.12
387.588	103.12
387.813	100.12
388.038	104.12
388.263	96.12
388.488	94.12
388.713	96.12
388.938	93.12
389.163	100.12
389.387	103.12
389.612	96.12
389.837	102.12
390.062	112.12
390.287	111.12
390.512	95.12
390.736	83.12
390.961	107.12
391.186	98.12
391.411	105.12
391.636	100.12
391.86	103.12
392.085	100.12
392.31	88.12
392.534	97.12
392.759	108.12
392.984	90.12
393.208	98.12
393.433	91.12
393.658	120.12
393.882	103.12
394.107	112.12
394.331	132.12
394.556	102.12
394.78	108.12
395.005	96.12
395.229	109.12
395.454	100.12
395.678	118.12
395.903	104.12
396.127	104.12
396.352	108.12
396.576	111.12
396.801	110.12
397.025	105.12
397.249	121.12
397.474	114.12
397.698	117.12
397.922	111.12
398.147	116.12
398.371	110.12
398.595	115.12
398.82	111.12
399.044	114.12
399.268	106.12
399.492	123.12
399.717	100.12
399.941	112.12
400.165	92.12
400.389	101.12
400.613	116.12
400.837	114.12
401.062	109.12
401.286	108.12
401.51	115.12
401.734	95.12
401.958	106.12
402.182	120.12
402.406	114.12
402.63	99.12
402.854	101.12
403.078	102.12
403.302	106.12
403.526	117.12
403.75	120.12
403.974	114.12
404.198	107.12
404.422	114.12
404.645	103.12
404.869	114.12
405.093	118.12
405.317	114.12
405.541	111.12
405.765	114.12
405.988	114.12
406.212	109.12
406.436	118.12
406.66	116.12
406.883	123.12
407.107	113.12
407.331	111.12
407.555	104.12
407.778	132.12
408.002	130.12
408.226	122.12
408.449	126.12
408.673	130.12
408.896	119.12
409.12	104.12
409.344	119.12
409.567	121.12
409.791	124.12
410.014	122.12
410.238	134.12
410.461	122.12
410.685	125.12
410.908	133.12
411.132	110.12
411.355	126.12
411.578	128.12
411.802	115.12
412.025	102.12
412.249	124.12
412.472	134.12
412.695	116.12
412.919	123.12
413.142	112.12
413.365	129.12
413.589	127.12
413.812	122.12
414.035	123.12
414.258	114.12
414.482	131.12
414.705	112.12
414.928	118.12
415.151	111.12
415.374	127.12
415.597	122.12
415.821	120.12
416.044	112.12
416.267	118.12
416.49	118.12
416.713	119.12
416.936	139.12
417.159	112.12
417.382	134.12
417.605	118.12
417.828	116.12
418.051	134.12
418.274	129.12
418.497	133.12
418.72	139.12
418.943	124.12
419.166	132.12
419.389	132.12
419.611	142.12
419.834	124.12
420.057	134.12
420.28	136.12
420.503	121.12
420.726	122.12
420.948	128.12
421.171	137.12
421.394	125.12
421.617	131.12
421.839	144.12
422.062	136.12
422.285	135.12
422.507	121.12
422.73	135.12
422.953	130.12
423.175	121.12
423.398	124.12
423.621	139.12
423.843	124.12
424.066	127.12
424.288	134.12
424.511	148.12
424.733	139.12
424.956	131.12
425.178	147.12
425.401	140.12
425.623	135.12
425.846	128.12
426.068	130.12
426.291	141.12
426.513	140.12
426.735	118.12
426.958	126.12
427.18	133.12
427.402	134.12
427.625	140.12
427.847	119.12
428.069	124.12
428.292	132.12
428.514	119.12
428.736	133.12
428.958	121.12
429.181	125.12
429.403	130.12
429.625	120.12
429.847	134.12
430.069	132.12
430.292	132.12
430.514	102.12
430.736	132.12
430.958	125.12
431.18	130.12
431.402	125.12
431.624	112.12
431.846	100.12
432.068	103.12
432.29	96.12
432.512	124.12
432.734	111.12
432.956	122.12
433.178	141.12
433.4	132.12
433.622	144.12
433.844	138.12
434.066	121.12
434.287	104.12
434.509	108.12
434.731	109.12
434.953	130.12
435.175	126.12
435.397	127.12
435.618	121.12
435.84	127.12
436.062	100.12
436.284	118.12
436.505	136.12
436.727	118.12
436.949	133.12
437.17	138.12
437.392	126.12
437.614	130.12
437.835	111.12
438.057	107.12
438.278	103.12
438.5	120.12
438.721	125.12
438.943	130.12
439.165	138.12
439.386	134.12
439.608	141.12
439.829	151.12
440.05	140.12
440.272	166.12
440.493	141.12
440.715	124.12
440.936	152.12
441.158	150.12
441.379	138.12
441.6	154.12
441.822	147.12
442.043	143.12
442.264	130.12
442.486	130.12
442.707	150.12
442.928	134.12
443.149	142.12
443.371	139.12
443.592	129.12
443.813	124.12
444.034	143.12
444.255	141.12
444.476	142.12
444.698	135.12
444.919	140.12
445.14	223.12
445.361	172.12
445.582	155.12
445.803	164.12
446.024	141.12
446.245	132.12
446.466	131.12
446.687	144.12
446.908	157.12
447.129	136.12
447.35	148.12
447.571	145.12
447.792	145.12
448.013	132.12
448.234	130.12
448.455	136.12
448.675	121.12
448.896	154.12
449.117	134.12
449.338	138.12
449.559	142.12
449.779	127.12
450	139.12
450.221	119.12
450.442	138.12
450.662	128.12
450.883	118.12
451.104	134.12
451.324	128.12
451.545	123.12
451.766	136.12
451.986	126.12
452.207	127.12
452.428	127.12
452.648	121.12
452.869	120.12
453.089	126.12
453.31	111.12
453.53	93.12
453.751	110.12
453.971	105.12
454.192	114.12
454.412	95.12
454.633	124.12
454.853	120.12
455.073	108.12
455.294	132.12
455.514	118.12
455.734	123.12
455.955	136.12
456.175	125.12
456.395	122.12
456.616	113.12
456.836	114.12
457.056	102.12
457.276	103.12
457.497	85.12
457.717	101.12
457.937	102.12
458.157	99.12
458.377	108.12
458.598	108.12
458.818	90.12
459.038	83.12
459.258	94.12
459.478	89.12
459.698	85.12
459.918	103.12
460.138	113.12
460.358	123.12
460.578	110.12
460.798	103.12
461.018	123.12
461.238	116.12
461.458	119.12
461.678	118.12
461.898	122.12
462.118	100.12
462.338	110.12
462.558	125.12
462.777	107.12
462.997	112.12
463.217	114.12
463.437	103.12
463.657	117.12
463.876	122.12
464.096	103.12
464.316	107.12
464.536	114.12
464.755	106.12
464.975	108.12
465.195	117.12
465.414	111.12
465.634	125.12
465.854	109.12
466.073	120.12
466.293	132.12
466.512	127.12
466.732	133.12
466.951	124.12
467.171	134.12
467.391	130.12
467.61	134.12
467.829	139.12
468.049	128.12
468.268	145.12
468.488	127.12
468.707	137.12
468.927	135.12
469.146	134.12
469.365	133.12
469.585	140.12
469.804	140.12
470.023	127.12
470.243	126.12
470.462	129.12
470.681	143.12
470.901	127.12
471.12	143.12
471.339	133.12
471.558	122.12
471.777	130.12
471.997	137.12
472.216	127.12
472.435	115.12
472.654	114.12
472.873	114.12
473.092	114.12
473.311	115.12
473.53	123.12
473.749	121.12
473.968	126.12
474.187	115.12
474.406	121.12
474.625	130.12
474.844	117.12
475.063	121.12
475.282	127.12
475.501	114.12
475.72	119.12
475.939	130.12
476.158	130.12
476.377	126.12
476.596	110.12
476.814	103.12
477.033	118.12
477.252	120.12
477.471	127.12
477.69	134.12
477.908	126.12
478.127	143.12
478.346	131.12
478.564	129.12
478.783	134.12
479.002	135.12
479.22	126.12
479.439	128.12
479.658	123.12
479.876	105.12
480.095	104.12
480.313	111.12
480.532	126.12
480.751	111.12
480.969	94.12
481.188	93.12
481.406	93.12
481.624	86.12
481.843	83.12
482.061	98.12
482.28	118.12
482.498	106.12
482.717	102.12
482.935	119.12
483.153	118.12
483.372	144.12
483.59	138.12
483.808	132.12
484.027	120.12
484.245	128.12
484.463	154.12
484.681	168.12
484.9	144.12
485.118	139.12
485.336	110.12
485.554	105.12
485.772	109.12
485.99	105.12
486.209	120.12
486.427	116.12
486.645	128.12
486.863	126.12
487.081	131.12
487.299	132.12
487.517	132.12
487.735	161.12
487.953	183.12
488.171	174.12
488.389	173.12
488.607	150.12
488.825	148.12
489.043	134.12
489.261	132.12
489.479	140.12
489.696	130.12
489.914	148.12
490.132	132.12
490.35	153.12
490.568	158.12
490.786	160.12
491.003	160.12
491.221	195.12
491.439	184.12
491.657	186.12
491.874	207.12
492.092	222.12
492.31	237.12
492.527	211.12
492.745	202.12
492.963	181.12
493.18	167.12
493.398	198.12
493.615	190.12
493.833	179.12
494.05	166.12
494.268	166.12
494.485	182.12
494.703	181.12
494.92	169.12
495.138	164.12
495.355	144.12
495.573	166.12
495.79	164.12
496.008	164.12
496.225	159.12
496.442	160.12
496.66	162.12
496.877	175.12
497.094	162.12
497.312	152.12
497.529	161.12
497.746	145.12
497.963	131.12
498.181	119.12
498.398	114.12
498.615	123.12
498.832	111.12
499.049	111.12
499.267	115.12
499.484	119.12
499.701	116.12
499.918	136.12
500.135	133.12
500.352	134.12
500.569	141.12
500.786	140.12
501.003	140.12
501.22	152.12
501.437	138.12
501.654	131.12
501.871	126.12
502.088	133.12
502.305	133.12
502.522	136.12
502.739	146.12
502.956	124.12
503.172	127.12
503.389	140.12
503.606	112.12
503.823	137.12
504.04	129.12
504.256	126.12
504.473	114.12
504.69	98.12
504.907	120.12
505.123	122.12
505.34	122.12
505.557	122.12
505.773	127.12
505.99	116.12
506.207	113.12
506.423	120.12
506.64	101.12
506.856	114.12
507.073	95.12
507.289	118.12
507.506	122.12
507.722	103.12
507.939	114.12
508.155	108.12
508.372	115.12
508.588	100.12
508.805	116.12
509.021	99.12
509.238	90.12
509.454	108.12
509.67	89.12
509.887	97.12
510.103	99.12
510.319	97.12
510.536	91.12
510.752	93.12
510.968	86.12
511.184	76.12
511.401	75.12
511.617	108.12
