Data from Location1.07152019.Energy5.Lamp.07192019.3%Agarose_HRD10591_14-32-55-016.txt Node
Date: Fri Jul 19 14:32:55 EDT 2019
User: cochatt
Spectrometer: HR+D1059
Trigger mode: 1
Integration Time (sec): 1.000000E-1
Scans to average: 1
Electric dark correction enabled: true
Nonlinearity correction enabled: false
Boxcar width: 0
XAxis mode: Wavelengths
Number of Pixels in Spectrum: 2048
>>>>>Begin Spectral Data<<<<<
223.165	-20.88
223.4	-20.88
223.635	-20.88
223.869	-20.88
224.104	-14.88
224.338	-24.88
224.573	-17.88
224.808	0.12
225.042	-3.88
225.277	5.12
225.511	2.12
225.746	4.12
225.98	4.12
226.215	20.12
226.449	18.12
226.683	16.12
226.918	27.12
227.152	6.12
227.387	25.12
227.621	36.12
227.856	39.12
228.09	48.12
228.324	44.12
228.559	52.12
228.793	60.12
229.027	72.12
229.262	65.12
229.496	66.12
229.73	56.12
229.964	68.12
230.199	61.12
230.433	91.12
230.667	73.12
230.901	88.12
231.136	80.12
231.37	70.12
231.604	90.12
231.838	87.12
232.072	85.12
232.306	82.12
232.541	68.12
232.775	87.12
233.009	85.12
233.243	80.12
233.477	75.12
233.711	79.12
233.945	84.12
234.179	78.12
234.413	81.12
234.647	76.12
234.881	78.12
235.115	98.12
235.349	88.12
235.583	79.12
235.817	79.12
236.051	72.12
236.285	90.12
236.519	84.12
236.753	65.12
236.987	74.12
237.221	84.12
237.455	68.12
237.689	82.12
237.922	82.12
238.156	72.12
238.39	88.12
238.624	80.12
238.858	81.12
239.091	80.12
239.325	86.12
239.559	86.12
239.793	79.12
240.027	73.12
240.26	81.12
240.494	74.12
240.728	78.12
240.961	77.12
241.195	74.12
241.429	64.12
241.662	66.12
241.896	79.12
242.13	81.12
242.363	80.12
242.597	71.12
242.83	83.12
243.064	69.12
243.298	70.12
243.531	80.12
243.765	72.12
243.998	88.12
244.232	73.12
244.465	81.12
244.699	79.12
244.932	79.12
245.166	79.12
245.399	72.12
245.633	84.12
245.866	72.12
246.099	81.12
246.333	93.12
246.566	90.12
246.8	87.12
247.033	84.12
247.266	82.12
247.5	84.12
247.733	89.12
247.966	73.12
248.2	79.12
248.433	95.12
248.666	87.12
248.899	79.12
249.133	78.12
249.366	89.12
249.599	80.12
249.832	79.12
250.066	72.12
250.299	95.12
250.532	103.12
250.765	94.12
250.998	85.12
251.231	81.12
251.465	81.12
251.698	84.12
251.931	76.12
252.164	82.12
252.397	87.12
252.63	74.12
252.863	88.12
253.096	86.12
253.329	82.12
253.562	81.12
253.795	91.12
254.028	82.12
254.261	73.12
254.494	74.12
254.727	96.12
254.96	83.12
255.193	84.12
255.426	69.12
255.659	69.12
255.892	77.12
256.124	75.12
256.357	92.12
256.59	82.12
256.823	89.12
257.056	78.12
257.289	77.12
257.521	79.12
257.754	89.12
257.987	88.12
258.22	82.12
258.452	87.12
258.685	91.12
258.918	73.12
259.151	77.12
259.383	82.12
259.616	73.12
259.849	93.12
260.081	75.12
260.314	87.12
260.547	85.12
260.779	91.12
261.012	92.12
261.244	85.12
261.477	78.12
261.71	88.12
261.942	66.12
262.175	82.12
262.407	84.12
262.64	72.12
262.872	86.12
263.105	84.12
263.337	88.12
263.57	89.12
263.802	82.12
264.035	76.12
264.267	85.12
264.499	79.12
264.732	98.12
264.964	78.12
265.197	86.12
265.429	87.12
265.661	92.12
265.894	88.12
266.126	77.12
266.358	80.12
266.591	82.12
266.823	103.12
267.055	88.12
267.287	91.12
267.52	77.12
267.752	97.12
267.984	64.12
268.216	80.12
268.448	89.12
268.681	82.12
268.913	96.12
269.145	74.12
269.377	82.12
269.609	90.12
269.841	73.12
270.073	82.12
270.306	75.12
270.538	77.12
270.77	96.12
271.002	84.12
271.234	83.12
271.466	89.12
271.698	83.12
271.93	85.12
272.162	72.12
272.394	80.12
272.626	81.12
272.858	99.12
273.09	98.12
273.322	81.12
273.553	79.12
273.785	89.12
274.017	72.12
274.249	100.12
274.481	99.12
274.713	85.12
274.945	84.12
275.176	89.12
275.408	81.12
275.64	98.12
275.872	93.12
276.104	84.12
276.335	90.12
276.567	102.12
276.799	95.12
277.031	93.12
277.262	90.12
277.494	91.12
277.726	95.12
277.957	65.12
278.189	83.12
278.421	86.12
278.652	92.12
278.884	85.12
279.115	92.12
279.347	90.12
279.579	82.12
279.81	74.12
280.042	91.12
280.273	98.12
280.505	94.12
280.736	81.12
280.968	88.12
281.199	80.12
281.431	86.12
281.662	81.12
281.894	79.12
282.125	96.12
282.356	85.12
282.588	78.12
282.819	77.12
283.051	88.12
283.282	94.12
283.513	87.12
283.745	100.12
283.976	82.12
284.207	94.12
284.439	81.12
284.67	79.12
284.901	84.12
285.132	84.12
285.364	90.12
285.595	86.12
285.826	89.12
286.057	83.12
286.288	79.12
286.52	97.12
286.751	86.12
286.982	90.12
287.213	86.12
287.444	87.12
287.675	91.12
287.906	80.12
288.138	93.12
288.369	89.12
288.6	77.12
288.831	82.12
289.062	95.12
289.293	97.12
289.524	84.12
289.755	82.12
289.986	78.12
290.217	84.12
290.448	78.12
290.679	92.12
290.91	97.12
291.141	74.12
291.371	66.12
291.602	87.12
291.833	89.12
292.064	87.12
292.295	77.12
292.526	82.12
292.757	87.12
292.987	84.12
293.218	79.12
293.449	77.12
293.68	95.12
293.91	86.12
294.141	96.12
294.372	82.12
294.603	90.12
294.833	81.12
295.064	88.12
295.295	79.12
295.525	88.12
295.756	96.12
295.987	89.12
296.217	97.12
296.448	107.12
296.679	92.12
296.909	75.12
297.14	99.12
297.37	91.12
297.601	102.12
297.831	82.12
298.062	81.12
298.292	85.12
298.523	100.12
298.753	83.12
298.984	88.12
299.214	89.12
299.445	94.12
299.675	86.12
299.905	81.12
300.136	97.12
300.366	91.12
300.597	79.12
300.827	76.12
301.057	68.12
301.288	95.12
301.518	87.12
301.748	73.12
301.979	79.12
302.209	78.12
302.439	82.12
302.669	90.12
302.9	86.12
303.13	74.12
303.36	80.12
303.59	79.12
303.82	88.12
304.051	79.12
304.281	88.12
304.511	81.12
304.741	85.12
304.971	89.12
305.201	89.12
305.431	103.12
305.661	85.12
305.891	85.12
306.121	85.12
306.352	89.12
306.582	95.12
306.812	91.12
307.042	88.12
307.272	92.12
307.502	90.12
307.731	95.12
307.961	98.12
308.191	73.12
308.421	76.12
308.651	84.12
308.881	81.12
309.111	89.12
309.341	89.12
309.571	79.12
309.8	100.12
310.03	93.12
310.26	81.12
310.49	82.12
310.72	89.12
310.949	81.12
311.179	89.12
311.409	89.12
311.639	82.12
311.868	89.12
312.098	92.12
312.328	90.12
312.557	86.12
312.787	67.12
313.017	88.12
313.246	78.12
313.476	95.12
313.706	84.12
313.935	90.12
314.165	94.12
314.394	84.12
314.624	80.12
314.853	105.12
315.083	104.12
315.312	81.12
315.542	85.12
315.771	79.12
316.001	95.12
316.23	91.12
316.46	81.12
316.689	97.12
316.919	79.12
317.148	86.12
317.377	81.12
317.607	76.12
317.836	93.12
318.065	85.12
318.295	82.12
318.524	87.12
318.753	87.12
318.983	93.12
319.212	86.12
319.441	85.12
319.67	111.12
319.9	73.12
320.129	93.12
320.358	78.12
320.587	84.12
320.816	90.12
321.046	83.12
321.275	90.12
321.504	77.12
321.733	83.12
321.962	80.12
322.191	81.12
322.42	78.12
322.649	94.12
322.878	89.12
323.108	87.12
323.337	102.12
323.566	83.12
323.795	92.12
324.024	94.12
324.253	86.12
324.482	95.12
324.71	75.12
324.939	88.12
325.168	78.12
325.397	90.12
325.626	80.12
325.855	90.12
326.084	91.12
326.313	102.12
326.542	80.12
326.77	76.12
326.999	93.12
327.228	82.12
327.457	75.12
327.686	86.12
327.914	80.12
328.143	90.12
328.372	81.12
328.6	84.12
328.829	94.12
329.058	88.12
329.287	83.12
329.515	83.12
329.744	98.12
329.972	84.12
330.201	86.12
330.43	94.12
330.658	72.12
330.887	82.12
331.115	93.12
331.344	77.12
331.572	96.12
331.801	62.12
332.03	86.12
332.258	100.12
332.486	89.12
332.715	90.12
332.943	87.12
333.172	91.12
333.4	99.12
333.629	100.12
333.857	93.12
334.085	93.12
334.314	74.12
334.542	88.12
334.771	79.12
334.999	74.12
335.227	75.12
335.455	88.12
335.684	97.12
335.912	84.12
336.14	84.12
336.369	97.12
336.597	93.12
336.825	74.12
337.053	82.12
337.281	82.12
337.51	92.12
337.738	98.12
337.966	95.12
338.194	88.12
338.422	88.12
338.65	96.12
338.878	86.12
339.106	84.12
339.334	68.12
339.562	79.12
339.79	98.12
340.018	96.12
340.246	78.12
340.474	87.12
340.702	82.12
340.93	92.12
341.158	82.12
341.386	90.12
341.614	88.12
341.842	89.12
342.07	89.12
342.298	86.12
342.526	95.12
342.754	89.12
342.981	99.12
343.209	90.12
343.437	96.12
343.665	87.12
343.893	86.12
344.12	97.12
344.348	75.12
344.576	84.12
344.804	86.12
345.031	88.12
345.259	78.12
345.487	94.12
345.714	82.12
345.942	69.12
346.17	88.12
346.397	81.12
346.625	88.12
346.853	80.12
347.08	81.12
347.308	100.12
347.535	97.12
347.763	73.12
347.99	76.12
348.218	86.12
348.445	87.12
348.673	92.12
348.9	87.12
349.128	86.12
349.355	83.12
349.583	83.12
349.81	97.12
350.037	95.12
350.265	102.12
350.492	89.12
350.72	91.12
350.947	78.12
351.174	88.12
351.402	77.12
351.629	76.12
351.856	78.12
352.083	91.12
352.311	82.12
352.538	98.12
352.765	86.12
352.992	86.12
353.22	85.12
353.447	73.12
353.674	106.12
353.901	82.12
354.128	83.12
354.355	68.12
354.583	90.12
354.81	70.12
355.037	77.12
355.264	86.12
355.491	90.12
355.718	90.12
355.945	88.12
356.172	98.12
356.399	76.12
356.626	72.12
356.853	76.12
357.08	84.12
357.307	80.12
357.534	81.12
357.761	99.12
357.988	80.12
358.215	81.12
358.441	89.12
358.668	90.12
358.895	87.12
359.122	81.12
359.349	81.12
359.576	69.12
359.802	86.12
360.029	88.12
360.256	96.12
360.483	79.12
360.709	78.12
360.936	89.12
361.163	82.12
361.39	82.12
361.616	88.12
361.843	89.12
362.07	70.12
362.296	90.12
362.523	88.12
362.749	89.12
362.976	92.12
363.203	92.12
363.429	82.12
363.656	97.12
363.882	81.12
364.109	80.12
364.335	105.12
364.562	71.12
364.788	82.12
365.015	85.12
365.241	87.12
365.468	89.12
365.694	87.12
365.92	91.12
366.147	78.12
366.373	91.12
366.599	82.12
366.826	79.12
367.052	80.12
367.278	92.12
367.505	91.12
367.731	87.12
367.957	78.12
368.184	111.12
368.41	92.12
368.636	97.12
368.862	86.12
369.089	100.12
369.315	98.12
369.541	88.12
369.767	86.12
369.993	94.12
370.219	90.12
370.445	94.12
370.672	79.12
370.898	101.12
371.124	70.12
371.35	75.12
371.576	92.12
371.802	89.12
372.028	91.12
372.254	104.12
372.48	96.12
372.706	105.12
372.932	85.12
373.158	88.12
373.384	86.12
373.61	102.12
373.835	81.12
374.061	77.12
374.287	88.12
374.513	94.12
374.739	93.12
374.965	90.12
375.191	89.12
375.416	96.12
375.642	92.12
375.868	98.12
376.094	91.12
376.319	94.12
376.545	90.12
376.771	105.12
376.997	89.12
377.222	92.12
377.448	96.12
377.674	96.12
377.899	96.12
378.125	92.12
378.35	90.12
378.576	81.12
378.802	100.12
379.027	85.12
379.253	110.12
379.478	85.12
379.704	88.12
379.929	111.12
380.155	88.12
380.38	93.12
380.606	106.12
380.831	102.12
381.057	107.12
381.282	96.12
381.507	98.12
381.733	94.12
381.958	95.12
382.184	91.12
382.409	102.12
382.634	109.12
382.86	95.12
383.085	96.12
383.31	101.12
383.535	93.12
383.761	104.12
383.986	90.12
384.211	107.12
384.436	93.12
384.662	98.12
384.887	105.12
385.112	97.12
385.337	108.12
385.562	92.12
385.787	124.12
386.013	100.12
386.238	103.12
386.463	107.12
386.688	93.12
386.913	94.12
387.138	94.12
387.363	101.12
387.588	105.12
387.813	118.12
388.038	93.12
388.263	99.12
388.488	95.12
388.713	118.12
388.938	107.12
389.163	114.12
389.387	91.12
389.612	112.12
389.837	103.12
390.062	99.12
390.287	105.12
390.512	109.12
390.736	106.12
390.961	102.12
391.186	100.12
391.411	98.12
391.636	111.12
391.86	95.12
392.085	102.12
392.31	117.12
392.534	103.12
392.759	109.12
392.984	105.12
393.208	88.12
393.433	92.12
393.658	118.12
393.882	108.12
394.107	116.12
394.331	104.12
394.556	112.12
394.78	106.12
395.005	105.12
395.229	104.12
395.454	105.12
395.678	111.12
395.903	128.12
396.127	111.12
396.352	109.12
396.576	103.12
396.801	115.12
397.025	98.12
397.249	118.12
397.474	111.12
397.698	108.12
397.922	110.12
398.147	114.12
398.371	108.12
398.595	112.12
398.82	106.12
399.044	116.12
399.268	105.12
399.492	108.12
399.717	106.12
399.941	98.12
400.165	118.12
400.389	105.12
400.613	110.12
400.837	116.12
401.062	105.12
401.286	110.12
401.51	102.12
401.734	116.12
401.958	124.12
402.182	97.12
402.406	105.12
402.63	116.12
402.854	122.12
403.078	111.12
403.302	108.12
403.526	108.12
403.75	126.12
403.974	112.12
404.198	118.12
404.422	120.12
404.645	113.12
404.869	126.12
405.093	122.12
405.317	118.12
405.541	117.12
405.765	112.12
405.988	112.12
406.212	113.12
406.436	124.12
406.66	120.12
406.883	125.12
407.107	105.12
407.331	108.12
407.555	122.12
407.778	118.12
408.002	116.12
408.226	128.12
408.449	97.12
408.673	107.12
408.896	114.12
409.12	112.12
409.344	111.12
409.567	123.12
409.791	120.12
410.014	120.12
410.238	119.12
410.461	138.12
410.685	119.12
410.908	113.12
411.132	111.12
411.355	120.12
411.578	135.12
411.802	118.12
412.025	130.12
412.249	110.12
412.472	117.12
412.695	132.12
412.919	123.12
413.142	125.12
413.365	123.12
413.589	112.12
413.812	116.12
414.035	126.12
414.258	129.12
414.482	127.12
414.705	134.12
414.928	129.12
415.151	126.12
415.374	117.12
415.597	126.12
415.821	124.12
416.044	137.12
416.267	124.12
416.49	125.12
416.713	133.12
416.936	113.12
417.159	125.12
417.382	136.12
417.605	128.12
417.828	132.12
418.051	139.12
418.274	133.12
418.497	134.12
418.72	134.12
418.943	120.12
419.166	131.12
419.389	134.12
419.611	116.12
419.834	146.12
420.057	140.12
420.28	126.12
420.503	130.12
420.726	126.12
420.948	128.12
421.171	135.12
421.394	144.12
421.617	153.12
421.839	136.12
422.062	108.12
422.285	128.12
422.507	129.12
422.73	140.12
422.953	131.12
423.175	128.12
423.398	122.12
423.621	128.12
423.843	140.12
424.066	140.12
424.288	140.12
424.511	134.12
424.733	150.12
424.956	142.12
425.178	141.12
425.401	140.12
425.623	129.12
425.846	127.12
426.068	129.12
426.291	137.12
426.513	132.12
426.735	132.12
426.958	139.12
427.18	118.12
427.402	125.12
427.625	126.12
427.847	138.12
428.069	126.12
428.292	134.12
428.514	118.12
428.736	120.12
428.958	131.12
429.181	132.12
429.403	137.12
429.625	138.12
429.847	149.12
430.069	139.12
430.292	130.12
430.514	140.12
430.736	130.12
430.958	133.12
431.18	116.12
431.402	136.12
431.624	118.12
431.846	118.12
432.068	101.12
432.29	106.12
432.512	111.12
432.734	123.12
432.956	136.12
433.178	148.12
433.4	132.12
433.622	133.12
433.844	156.12
434.066	126.12
434.287	106.12
434.509	101.12
434.731	111.12
434.953	106.12
435.175	122.12
435.397	126.12
435.618	112.12
435.84	122.12
436.062	128.12
436.284	133.12
436.505	123.12
436.727	126.12
436.949	121.12
437.17	136.12
437.392	128.12
437.614	129.12
437.835	118.12
438.057	97.12
438.278	105.12
438.5	121.12
438.721	134.12
438.943	132.12
439.165	131.12
439.386	135.12
439.608	145.12
439.829	145.12
440.05	142.12
440.272	151.12
440.493	131.12
440.715	141.12
440.936	144.12
441.158	129.12
441.379	150.12
441.6	152.12
441.822	161.12
442.043	146.12
442.264	137.12
442.486	138.12
442.707	156.12
442.928	146.12
443.149	134.12
443.371	140.12
443.592	147.12
443.813	138.12
444.034	136.12
444.255	138.12
444.476	145.12
444.698	148.12
444.919	146.12
445.14	269.12
445.361	201.12
445.582	144.12
445.803	157.12
446.024	138.12
446.245	150.12
446.466	158.12
446.687	151.12
446.908	156.12
447.129	164.12
447.35	133.12
447.571	165.12
447.792	135.12
448.013	140.12
448.234	132.12
448.455	137.12
448.675	150.12
448.896	145.12
449.117	132.12
449.338	134.12
449.559	137.12
449.779	137.12
450	141.12
450.221	143.12
450.442	134.12
450.662	128.12
450.883	128.12
451.104	141.12
451.324	144.12
451.545	128.12
451.766	140.12
451.986	137.12
452.207	126.12
452.428	130.12
452.648	132.12
452.869	117.12
453.089	116.12
453.31	131.12
453.53	118.12
453.751	106.12
453.971	102.12
454.192	109.12
454.412	115.12
454.633	124.12
454.853	129.12
455.073	126.12
455.294	124.12
455.514	120.12
455.734	113.12
455.955	118.12
456.175	121.12
456.395	107.12
456.616	113.12
456.836	108.12
457.056	110.12
457.276	99.12
457.497	113.12
457.717	118.12
457.937	113.12
458.157	120.12
458.377	107.12
458.598	88.12
458.818	98.12
459.038	95.12
459.258	99.12
459.478	93.12
459.698	96.12
459.918	100.12
460.138	114.12
460.358	121.12
460.578	110.12
460.798	96.12
461.018	106.12
461.238	121.12
461.458	116.12
461.678	111.12
461.898	113.12
462.118	101.12
462.338	103.12
462.558	107.12
462.777	107.12
462.997	119.12
463.217	109.12
463.437	111.12
463.657	119.12
463.876	110.12
464.096	100.12
464.316	107.12
464.536	108.12
464.755	122.12
464.975	113.12
465.195	124.12
465.414	128.12
465.634	117.12
465.854	112.12
466.073	124.12
466.293	141.12
466.512	117.12
466.732	137.12
466.951	132.12
467.171	135.12
467.391	140.12
467.61	128.12
467.829	121.12
468.049	152.12
468.268	117.12
468.488	133.12
468.707	123.12
468.927	134.12
469.146	145.12
469.365	146.12
469.585	137.12
469.804	139.12
470.023	137.12
470.243	140.12
470.462	163.12
470.681	140.12
470.901	125.12
471.12	148.12
471.339	135.12
471.558	156.12
471.777	138.12
471.997	146.12
472.216	119.12
472.435	125.12
472.654	109.12
472.873	131.12
473.092	115.12
473.311	118.12
473.53	128.12
473.749	133.12
473.968	118.12
474.187	126.12
474.406	122.12
474.625	124.12
474.844	132.12
475.063	125.12
475.282	126.12
475.501	129.12
475.72	123.12
475.939	127.12
476.158	126.12
476.377	129.12
476.596	110.12
476.814	118.12
477.033	118.12
477.252	114.12
477.471	116.12
477.69	135.12
477.908	140.12
478.127	145.12
478.346	128.12
478.564	146.12
478.783	132.12
479.002	136.12
479.22	132.12
479.439	151.12
479.658	128.12
479.876	122.12
480.095	104.12
480.313	107.12
480.532	113.12
480.751	119.12
480.969	80.12
481.188	89.12
481.406	91.12
481.624	86.12
481.843	76.12
482.061	86.12
482.28	115.12
482.498	102.12
482.717	96.12
482.935	107.12
483.153	126.12
483.372	144.12
483.59	151.12
483.808	138.12
484.027	143.12
484.245	148.12
484.463	160.12
484.681	156.12
484.9	144.12
485.118	132.12
485.336	128.12
485.554	133.12
485.772	104.12
485.99	106.12
486.209	108.12
486.427	104.12
486.645	120.12
486.863	154.12
487.081	133.12
487.299	134.12
487.517	135.12
487.735	158.12
487.953	188.12
488.171	176.12
488.389	173.12
488.607	172.12
488.825	155.12
489.043	124.12
489.261	136.12
489.479	135.12
489.696	135.12
489.914	144.12
490.132	147.12
490.35	157.12
490.568	161.12
490.786	166.12
491.003	157.12
491.221	173.12
491.439	189.12
491.657	177.12
491.874	203.12
492.092	212.12
492.31	229.12
492.527	235.12
492.745	218.12
492.963	198.12
493.18	181.12
493.398	178.12
493.615	199.12
493.833	180.12
494.05	169.12
494.268	165.12
494.485	162.12
494.703	167.12
494.92	173.12
495.138	176.12
495.355	188.12
495.573	177.12
495.79	146.12
496.008	178.12
496.225	166.12
496.442	169.12
496.66	165.12
496.877	160.12
497.094	165.12
497.312	158.12
497.529	159.12
497.746	136.12
497.963	132.12
498.181	128.12
498.398	133.12
498.615	128.12
498.832	125.12
499.049	118.12
499.267	134.12
499.484	133.12
499.701	127.12
499.918	144.12
500.135	139.12
500.352	134.12
500.569	143.12
500.786	149.12
501.003	162.12
501.22	132.12
501.437	148.12
501.654	137.12
501.871	145.12
502.088	144.12
502.305	129.12
502.522	138.12
502.739	146.12
502.956	154.12
503.172	131.12
503.389	116.12
503.606	116.12
503.823	123.12
504.04	123.12
504.256	130.12
504.473	121.12
504.69	123.12
504.907	136.12
505.123	126.12
505.34	131.12
505.557	119.12
505.773	124.12
505.99	132.12
506.207	118.12
506.423	121.12
506.64	115.12
506.856	127.12
507.073	110.12
507.289	124.12
507.506	118.12
507.722	108.12
507.939	112.12
508.155	105.12
508.372	141.12
508.588	104.12
508.805	125.12
509.021	116.12
509.238	111.12
509.454	92.12
509.67	105.12
509.887	93.12
510.103	93.12
510.319	94.12
510.536	96.12
510.752	97.12
510.968	93.12
511.184	96.12
511.401	80.12
