Data from Location1.07152019.Energy5.Lamp.07192019.3%Agarose_HRD10591_14-31-33-015.txt Node
Date: Fri Jul 19 14:31:33 EDT 2019
User: cochatt
Spectrometer: HR+D1059
Trigger mode: 1
Integration Time (sec): 1.000000E-1
Scans to average: 1
Electric dark correction enabled: true
Nonlinearity correction enabled: false
Boxcar width: 0
XAxis mode: Wavelengths
Number of Pixels in Spectrum: 2048
>>>>>Begin Spectral Data<<<<<
223.165	-11.75
223.4	-11.75
223.635	-11.75
223.869	-2.75
224.104	-8.75
224.338	-26.75
224.573	-17.75
224.808	-18.75
225.042	-11.75
225.277	-6.75
225.511	-1.75
225.746	-1.75
225.98	5.25
226.215	24.25
226.449	8.25
226.683	16.25
226.918	22.25
227.152	32.25
227.387	23.25
227.621	32.25
227.856	30.25
228.09	37.25
228.324	46.25
228.559	53.25
228.793	58.25
229.027	46.25
229.262	59.25
229.496	50.25
229.73	60.25
229.964	65.25
230.199	69.25
230.433	80.25
230.667	74.25
230.901	78.25
231.136	64.25
231.37	74.25
231.604	65.25
231.838	71.25
232.072	74.25
232.306	72.25
232.541	80.25
232.775	75.25
233.009	71.25
233.243	93.25
233.477	77.25
233.711	85.25
233.945	79.25
234.179	83.25
234.413	89.25
234.647	83.25
234.881	78.25
235.115	95.25
235.349	70.25
235.583	76.25
235.817	65.25
236.051	64.25
236.285	80.25
236.519	76.25
236.753	79.25
236.987	82.25
237.221	88.25
237.455	82.25
237.689	70.25
237.922	76.25
238.156	66.25
238.39	68.25
238.624	71.25
238.858	73.25
239.091	96.25
239.325	83.25
239.559	74.25
239.793	84.25
240.027	74.25
240.26	62.25
240.494	75.25
240.728	77.25
240.961	69.25
241.195	74.25
241.429	77.25
241.662	71.25
241.896	64.25
242.13	75.25
242.363	68.25
242.597	78.25
242.83	62.25
243.064	75.25
243.298	76.25
243.531	80.25
243.765	62.25
243.998	77.25
244.232	66.25
244.465	65.25
244.699	68.25
244.932	54.25
245.166	93.25
245.399	76.25
245.633	62.25
245.866	74.25
246.099	73.25
246.333	74.25
246.566	83.25
246.8	73.25
247.033	67.25
247.266	85.25
247.5	74.25
247.733	63.25
247.966	77.25
248.2	83.25
248.433	71.25
248.666	73.25
248.899	81.25
249.133	68.25
249.366	68.25
249.599	69.25
249.832	74.25
250.066	88.25
250.299	74.25
250.532	73.25
250.765	65.25
250.998	58.25
251.231	80.25
251.465	73.25
251.698	71.25
251.931	66.25
252.164	82.25
252.397	62.25
252.63	86.25
252.863	74.25
253.096	68.25
253.329	74.25
253.562	69.25
253.795	65.25
254.028	75.25
254.261	60.25
254.494	72.25
254.727	85.25
254.96	68.25
255.193	91.25
255.426	72.25
255.659	80.25
255.892	89.25
256.124	73.25
256.357	81.25
256.59	70.25
256.823	78.25
257.056	75.25
257.289	63.25
257.521	69.25
257.754	68.25
257.987	78.25
258.22	78.25
258.452	81.25
258.685	69.25
258.918	71.25
259.151	75.25
259.383	79.25
259.616	79.25
259.849	92.25
260.081	84.25
260.314	88.25
260.547	79.25
260.779	71.25
261.012	72.25
261.244	70.25
261.477	68.25
261.71	84.25
261.942	84.25
262.175	87.25
262.407	84.25
262.64	72.25
262.872	83.25
263.105	77.25
263.337	80.25
263.57	71.25
263.802	90.25
264.035	79.25
264.267	78.25
264.499	87.25
264.732	76.25
264.964	80.25
265.197	76.25
265.429	65.25
265.661	91.25
265.894	70.25
266.126	76.25
266.358	81.25
266.591	84.25
266.823	72.25
267.055	92.25
267.287	73.25
267.52	75.25
267.752	80.25
267.984	76.25
268.216	77.25
268.448	72.25
268.681	72.25
268.913	75.25
269.145	81.25
269.377	65.25
269.609	74.25
269.841	90.25
270.073	85.25
270.306	74.25
270.538	81.25
270.77	87.25
271.002	77.25
271.234	85.25
271.466	80.25
271.698	86.25
271.93	81.25
272.162	68.25
272.394	80.25
272.626	78.25
272.858	73.25
273.09	89.25
273.322	80.25
273.553	78.25
273.785	67.25
274.017	62.25
274.249	89.25
274.481	71.25
274.713	61.25
274.945	65.25
275.176	84.25
275.408	89.25
275.64	73.25
275.872	76.25
276.104	88.25
276.335	87.25
276.567	72.25
276.799	79.25
277.031	73.25
277.262	57.25
277.494	72.25
277.726	79.25
277.957	69.25
278.189	74.25
278.421	68.25
278.652	83.25
278.884	71.25
279.115	80.25
279.347	74.25
279.579	80.25
279.81	88.25
280.042	79.25
280.273	72.25
280.505	84.25
280.736	80.25
280.968	70.25
281.199	88.25
281.431	94.25
281.662	79.25
281.894	64.25
282.125	82.25
282.356	72.25
282.588	86.25
282.819	73.25
283.051	76.25
283.282	78.25
283.513	72.25
283.745	74.25
283.976	83.25
284.207	82.25
284.439	80.25
284.67	89.25
284.901	80.25
285.132	70.25
285.364	68.25
285.595	77.25
285.826	75.25
286.057	88.25
286.288	83.25
286.52	65.25
286.751	87.25
286.982	81.25
287.213	86.25
287.444	82.25
287.675	85.25
287.906	94.25
288.138	83.25
288.369	72.25
288.6	82.25
288.831	65.25
289.062	80.25
289.293	75.25
289.524	79.25
289.755	80.25
289.986	84.25
290.217	86.25
290.448	73.25
290.679	72.25
290.91	63.25
291.141	77.25
291.371	77.25
291.602	68.25
291.833	68.25
292.064	77.25
292.295	83.25
292.526	78.25
292.757	72.25
292.987	83.25
293.218	93.25
293.449	85.25
293.68	73.25
293.91	82.25
294.141	82.25
294.372	82.25
294.603	83.25
294.833	73.25
295.064	82.25
295.295	82.25
295.525	78.25
295.756	86.25
295.987	88.25
296.217	63.25
296.448	80.25
296.679	79.25
296.909	84.25
297.14	90.25
297.37	78.25
297.601	76.25
297.831	79.25
298.062	76.25
298.292	71.25
298.523	79.25
298.753	77.25
298.984	69.25
299.214	77.25
299.445	79.25
299.675	86.25
299.905	73.25
300.136	79.25
300.366	71.25
300.597	72.25
300.827	71.25
301.057	73.25
301.288	85.25
301.518	72.25
301.748	75.25
301.979	80.25
302.209	75.25
302.439	80.25
302.669	71.25
302.9	73.25
303.13	69.25
303.36	74.25
303.59	93.25
303.82	78.25
304.051	88.25
304.281	87.25
304.511	87.25
304.741	81.25
304.971	82.25
305.201	81.25
305.431	79.25
305.661	92.25
305.891	72.25
306.121	72.25
306.352	85.25
306.582	71.25
306.812	78.25
307.042	75.25
307.272	74.25
307.502	70.25
307.731	86.25
307.961	83.25
308.191	79.25
308.421	74.25
308.651	89.25
308.881	90.25
309.111	89.25
309.341	66.25
309.571	69.25
309.8	78.25
310.03	69.25
310.26	89.25
310.49	91.25
310.72	80.25
310.949	90.25
311.179	81.25
311.409	75.25
311.639	63.25
311.868	89.25
312.098	71.25
312.328	99.25
312.557	81.25
312.787	74.25
313.017	70.25
313.246	74.25
313.476	73.25
313.706	69.25
313.935	84.25
314.165	76.25
314.394	78.25
314.624	95.25
314.853	85.25
315.083	84.25
315.312	86.25
315.542	73.25
315.771	73.25
316.001	96.25
316.23	80.25
316.46	84.25
316.689	80.25
316.919	79.25
317.148	81.25
317.377	65.25
317.607	81.25
317.836	80.25
318.065	74.25
318.295	88.25
318.524	84.25
318.753	80.25
318.983	88.25
319.212	75.25
319.441	90.25
319.67	73.25
319.9	92.25
320.129	86.25
320.358	90.25
320.587	77.25
320.816	84.25
321.046	92.25
321.275	83.25
321.504	99.25
321.733	70.25
321.962	84.25
322.191	85.25
322.42	85.25
322.649	84.25
322.878	70.25
323.108	82.25
323.337	85.25
323.566	84.25
323.795	81.25
324.024	81.25
324.253	80.25
324.482	65.25
324.71	72.25
324.939	78.25
325.168	82.25
325.397	90.25
325.626	86.25
325.855	86.25
326.084	86.25
326.313	85.25
326.542	61.25
326.77	80.25
326.999	80.25
327.228	80.25
327.457	82.25
327.686	80.25
327.914	85.25
328.143	74.25
328.372	80.25
328.6	70.25
328.829	86.25
329.058	88.25
329.287	85.25
329.515	66.25
329.744	85.25
329.972	87.25
330.201	75.25
330.43	81.25
330.658	79.25
330.887	73.25
331.115	89.25
331.344	74.25
331.572	97.25
331.801	77.25
332.03	86.25
332.258	74.25
332.486	80.25
332.715	86.25
332.943	77.25
333.172	87.25
333.4	94.25
333.629	75.25
333.857	71.25
334.085	78.25
334.314	80.25
334.542	71.25
334.771	84.25
334.999	82.25
335.227	81.25
335.455	79.25
335.684	85.25
335.912	94.25
336.14	80.25
336.369	89.25
336.597	83.25
336.825	61.25
337.053	78.25
337.281	81.25
337.51	79.25
337.738	78.25
337.966	82.25
338.194	68.25
338.422	73.25
338.65	81.25
338.878	80.25
339.106	61.25
339.334	76.25
339.562	75.25
339.79	73.25
340.018	80.25
340.246	75.25
340.474	86.25
340.702	56.25
340.93	73.25
341.158	71.25
341.386	81.25
341.614	70.25
341.842	71.25
342.07	75.25
342.298	85.25
342.526	83.25
342.754	76.25
342.981	72.25
343.209	75.25
343.437	73.25
343.665	69.25
343.893	74.25
344.12	84.25
344.348	81.25
344.576	71.25
344.804	73.25
345.031	71.25
345.259	66.25
345.487	88.25
345.714	88.25
345.942	74.25
346.17	72.25
346.397	81.25
346.625	85.25
346.853	72.25
347.08	71.25
347.308	87.25
347.535	84.25
347.763	79.25
347.99	85.25
348.218	87.25
348.445	83.25
348.673	81.25
348.9	74.25
349.128	90.25
349.355	76.25
349.583	82.25
349.81	82.25
350.037	61.25
350.265	82.25
350.492	73.25
350.72	83.25
350.947	82.25
351.174	79.25
351.402	78.25
351.629	86.25
351.856	81.25
352.083	86.25
352.311	74.25
352.538	88.25
352.765	70.25
352.992	86.25
353.22	77.25
353.447	70.25
353.674	80.25
353.901	85.25
354.128	82.25
354.355	79.25
354.583	65.25
354.81	83.25
355.037	74.25
355.264	80.25
355.491	74.25
355.718	88.25
355.945	89.25
356.172	80.25
356.399	82.25
356.626	71.25
356.853	74.25
357.08	73.25
357.307	81.25
357.534	85.25
357.761	69.25
357.988	79.25
358.215	87.25
358.441	89.25
358.668	74.25
358.895	73.25
359.122	72.25
359.349	86.25
359.576	82.25
359.802	72.25
360.029	92.25
360.256	87.25
360.483	76.25
360.709	84.25
360.936	87.25
361.163	76.25
361.39	74.25
361.616	76.25
361.843	77.25
362.07	81.25
362.296	69.25
362.523	82.25
362.749	82.25
362.976	80.25
363.203	82.25
363.429	73.25
363.656	87.25
363.882	78.25
364.109	82.25
364.335	77.25
364.562	70.25
364.788	90.25
365.015	86.25
365.241	91.25
365.468	81.25
365.694	78.25
365.92	74.25
366.147	89.25
366.373	84.25
366.599	65.25
366.826	92.25
367.052	88.25
367.278	82.25
367.505	80.25
367.731	76.25
367.957	85.25
368.184	87.25
368.41	73.25
368.636	72.25
368.862	93.25
369.089	92.25
369.315	77.25
369.541	78.25
369.767	89.25
369.993	69.25
370.219	99.25
370.445	81.25
370.672	87.25
370.898	80.25
371.124	82.25
371.35	69.25
371.576	101.25
371.802	92.25
372.028	89.25
372.254	86.25
372.48	83.25
372.706	92.25
372.932	81.25
373.158	83.25
373.384	80.25
373.61	96.25
373.835	88.25
374.061	74.25
374.287	95.25
374.513	98.25
374.739	80.25
374.965	81.25
375.191	91.25
375.416	81.25
375.642	90.25
375.868	78.25
376.094	93.25
376.319	82.25
376.545	91.25
376.771	80.25
376.997	81.25
377.222	79.25
377.448	90.25
377.674	86.25
377.899	87.25
378.125	81.25
378.35	87.25
378.576	80.25
378.802	74.25
379.027	83.25
379.253	80.25
379.478	95.25
379.704	88.25
379.929	80.25
380.155	80.25
380.38	78.25
380.606	79.25
380.831	88.25
381.057	83.25
381.282	78.25
381.507	102.25
381.733	88.25
381.958	103.25
382.184	87.25
382.409	92.25
382.634	101.25
382.86	89.25
383.085	108.25
383.31	96.25
383.535	99.25
383.761	79.25
383.986	86.25
384.211	81.25
384.436	92.25
384.662	88.25
384.887	92.25
385.112	78.25
385.337	103.25
385.562	84.25
385.787	82.25
386.013	114.25
386.238	98.25
386.463	85.25
386.688	97.25
386.913	88.25
387.138	88.25
387.363	98.25
387.588	109.25
387.813	89.25
388.038	83.25
388.263	119.25
388.488	87.25
388.713	95.25
388.938	89.25
389.163	89.25
389.387	97.25
389.612	97.25
389.837	89.25
390.062	97.25
390.287	95.25
390.512	99.25
390.736	95.25
390.961	89.25
391.186	91.25
391.411	91.25
391.636	94.25
391.86	104.25
392.085	112.25
392.31	100.25
392.534	90.25
392.759	88.25
392.984	100.25
393.208	100.25
393.433	112.25
393.658	92.25
393.882	96.25
394.107	97.25
394.331	103.25
394.556	92.25
394.78	102.25
395.005	86.25
395.229	93.25
395.454	104.25
395.678	104.25
395.903	103.25
396.127	105.25
396.352	108.25
396.576	101.25
396.801	103.25
397.025	96.25
397.249	88.25
397.474	110.25
397.698	110.25
397.922	89.25
398.147	96.25
398.371	117.25
398.595	104.25
398.82	112.25
399.044	112.25
399.268	97.25
399.492	104.25
399.717	107.25
399.941	99.25
400.165	108.25
400.389	93.25
400.613	111.25
400.837	96.25
401.062	108.25
401.286	106.25
401.51	104.25
401.734	98.25
401.958	98.25
402.182	114.25
402.406	100.25
402.63	109.25
402.854	104.25
403.078	101.25
403.302	99.25
403.526	103.25
403.75	110.25
403.974	121.25
404.198	126.25
404.422	121.25
404.645	128.25
404.869	112.25
405.093	109.25
405.317	105.25
405.541	128.25
405.765	90.25
405.988	108.25
406.212	110.25
406.436	118.25
406.66	120.25
406.883	116.25
407.107	114.25
407.331	128.25
407.555	121.25
407.778	115.25
408.002	120.25
408.226	85.25
408.449	100.25
408.673	110.25
408.896	115.25
409.12	103.25
409.344	119.25
409.567	95.25
409.791	117.25
410.014	120.25
410.238	119.25
410.461	111.25
410.685	120.25
410.908	107.25
411.132	116.25
411.355	119.25
411.578	121.25
411.802	110.25
412.025	113.25
412.249	117.25
412.472	110.25
412.695	104.25
412.919	110.25
413.142	118.25
413.365	116.25
413.589	125.25
413.812	126.25
414.035	120.25
414.258	128.25
414.482	101.25
414.705	116.25
414.928	108.25
415.151	102.25
415.374	112.25
415.597	118.25
415.821	121.25
416.044	123.25
416.267	120.25
416.49	127.25
416.713	109.25
416.936	116.25
417.159	121.25
417.382	109.25
417.605	118.25
417.828	108.25
418.051	121.25
418.274	124.25
418.497	112.25
418.72	124.25
418.943	124.25
419.166	120.25
419.389	135.25
419.611	129.25
419.834	118.25
420.057	122.25
420.28	121.25
420.503	117.25
420.726	134.25
420.948	123.25
421.171	121.25
421.394	138.25
421.617	143.25
421.839	136.25
422.062	130.25
422.285	116.25
422.507	116.25
422.73	116.25
422.953	113.25
423.175	112.25
423.398	118.25
423.621	116.25
423.843	128.25
424.066	130.25
424.288	131.25
424.511	136.25
424.733	131.25
424.956	132.25
425.178	130.25
425.401	138.25
425.623	101.25
425.846	118.25
426.068	120.25
426.291	123.25
426.513	124.25
426.735	104.25
426.958	130.25
427.18	123.25
427.402	125.25
427.625	109.25
427.847	115.25
428.069	118.25
428.292	125.25
428.514	118.25
428.736	130.25
428.958	119.25
429.181	120.25
429.403	136.25
429.625	126.25
429.847	109.25
430.069	128.25
430.292	136.25
430.514	120.25
430.736	113.25
430.958	140.25
431.18	120.25
431.402	131.25
431.624	109.25
431.846	112.25
432.068	93.25
432.29	108.25
432.512	87.25
432.734	124.25
432.956	116.25
433.178	130.25
433.4	118.25
433.622	130.25
433.844	112.25
434.066	113.25
434.287	107.25
434.509	82.25
434.731	97.25
434.953	113.25
435.175	115.25
435.397	104.25
435.618	113.25
435.84	120.25
436.062	119.25
436.284	126.25
436.505	131.25
436.727	125.25
436.949	118.25
437.17	113.25
437.392	124.25
437.614	116.25
437.835	96.25
438.057	96.25
438.278	98.25
438.5	114.25
438.721	124.25
438.943	121.25
439.165	130.25
439.386	124.25
439.608	132.25
439.829	139.25
440.05	128.25
440.272	128.25
440.493	140.25
440.715	138.25
440.936	135.25
441.158	146.25
441.379	134.25
441.6	144.25
441.822	132.25
442.043	144.25
442.264	125.25
442.486	135.25
442.707	137.25
442.928	138.25
443.149	122.25
443.371	129.25
443.592	141.25
443.813	129.25
444.034	134.25
444.255	132.25
444.476	137.25
444.698	139.25
444.919	130.25
445.14	240.25
445.361	195.25
445.582	157.25
445.803	132.25
446.024	139.25
446.245	139.25
446.466	138.25
446.687	142.25
446.908	144.25
447.129	152.25
447.35	143.25
447.571	138.25
447.792	126.25
448.013	141.25
448.234	137.25
448.455	130.25
448.675	122.25
448.896	129.25
449.117	124.25
449.338	141.25
449.559	141.25
449.779	119.25
450	132.25
450.221	141.25
450.442	133.25
450.662	144.25
450.883	128.25
451.104	118.25
451.324	126.25
451.545	142.25
451.766	133.25
451.986	114.25
452.207	116.25
452.428	117.25
452.648	117.25
452.869	125.25
453.089	110.25
453.31	113.25
453.53	105.25
453.751	95.25
453.971	96.25
454.192	89.25
454.412	105.25
454.633	110.25
454.853	114.25
455.073	116.25
455.294	113.25
455.514	126.25
455.734	121.25
455.955	106.25
456.175	104.25
456.395	110.25
456.616	94.25
456.836	109.25
457.056	105.25
457.276	93.25
457.497	99.25
457.717	97.25
457.937	100.25
458.157	87.25
458.377	93.25
458.598	104.25
458.818	104.25
459.038	82.25
459.258	95.25
459.478	88.25
459.698	97.25
459.918	93.25
460.138	88.25
460.358	103.25
460.578	101.25
460.798	98.25
461.018	117.25
461.238	108.25
461.458	106.25
461.678	105.25
461.898	108.25
462.118	99.25
462.338	117.25
462.558	106.25
462.777	114.25
462.997	97.25
463.217	108.25
463.437	98.25
463.657	100.25
463.876	94.25
464.096	89.25
464.316	106.25
464.536	104.25
464.755	113.25
464.975	104.25
465.195	117.25
465.414	103.25
465.634	105.25
465.854	117.25
466.073	102.25
466.293	111.25
466.512	127.25
466.732	138.25
466.951	135.25
467.171	122.25
467.391	121.25
467.61	131.25
467.829	129.25
468.049	122.25
468.268	130.25
468.488	135.25
468.707	128.25
468.927	126.25
469.146	130.25
469.365	133.25
469.585	140.25
469.804	130.25
470.023	130.25
470.243	122.25
470.462	130.25
470.681	129.25
470.901	132.25
471.12	145.25
471.339	142.25
471.558	149.25
471.777	114.25
471.997	135.25
472.216	112.25
472.435	112.25
472.654	104.25
472.873	105.25
473.092	120.25
473.311	111.25
473.53	119.25
473.749	117.25
473.968	114.25
474.187	112.25
474.406	104.25
474.625	123.25
474.844	120.25
475.063	134.25
475.282	122.25
475.501	109.25
475.72	108.25
475.939	122.25
476.158	122.25
476.377	119.25
476.596	110.25
476.814	110.25
477.033	100.25
477.252	118.25
477.471	115.25
477.69	135.25
477.908	135.25
478.127	128.25
478.346	128.25
478.564	122.25
478.783	126.25
479.002	138.25
479.22	122.25
479.439	130.25
479.658	117.25
479.876	114.25
480.095	99.25
480.313	122.25
480.532	113.25
480.751	98.25
480.969	84.25
481.188	96.25
481.406	73.25
481.624	69.25
481.843	63.25
482.061	92.25
482.28	114.25
482.498	102.25
482.717	90.25
482.935	121.25
483.153	126.25
483.372	142.25
483.59	150.25
483.808	135.25
484.027	128.25
484.245	119.25
484.463	138.25
484.681	146.25
484.9	142.25
485.118	138.25
485.336	110.25
485.554	107.25
485.772	102.25
485.99	96.25
486.209	96.25
486.427	108.25
486.645	113.25
486.863	124.25
487.081	134.25
487.299	124.25
487.517	136.25
487.735	136.25
487.953	172.25
488.171	166.25
488.389	156.25
488.607	145.25
488.825	136.25
489.043	121.25
489.261	130.25
489.479	137.25
489.696	141.25
489.914	134.25
490.132	144.25
490.35	148.25
490.568	144.25
490.786	143.25
491.003	173.25
491.221	162.25
491.439	153.25
491.657	181.25
491.874	200.25
492.092	212.25
492.31	250.25
492.527	225.25
492.745	194.25
492.963	195.25
493.18	177.25
493.398	178.25
493.615	188.25
493.833	161.25
494.05	177.25
494.268	168.25
494.485	158.25
494.703	162.25
494.92	164.25
495.138	165.25
495.355	161.25
495.573	163.25
495.79	165.25
496.008	162.25
496.225	163.25
496.442	148.25
496.66	158.25
496.877	167.25
497.094	174.25
497.312	154.25
497.529	138.25
497.746	137.25
497.963	119.25
498.181	127.25
498.398	117.25
498.615	97.25
498.832	120.25
499.049	103.25
499.267	109.25
499.484	112.25
499.701	120.25
499.918	126.25
500.135	113.25
500.352	137.25
500.569	134.25
500.786	128.25
501.003	130.25
501.22	130.25
501.437	139.25
501.654	138.25
501.871	115.25
502.088	138.25
502.305	120.25
502.522	117.25
502.739	113.25
502.956	114.25
503.172	126.25
503.389	131.25
503.606	114.25
503.823	100.25
504.04	120.25
504.256	112.25
504.473	114.25
504.69	118.25
504.907	110.25
505.123	120.25
505.34	118.25
505.557	114.25
505.773	121.25
505.99	115.25
506.207	115.25
506.423	110.25
506.64	122.25
506.856	126.25
507.073	128.25
507.289	121.25
507.506	123.25
507.722	118.25
507.939	99.25
508.155	105.25
508.372	113.25
508.588	108.25
508.805	108.25
509.021	95.25
509.238	94.25
509.454	101.25
509.67	102.25
509.887	94.25
510.103	92.25
510.319	80.25
510.536	83.25
510.752	81.25
510.968	84.25
511.184	62.25
511.401	86.25
511.617	89.25
511.833	94.25
512.049	92.25
512.265	101.25
512.481	103.25
