Data from Location1.07152019.Energy5.Lamp.07192019.3%Agarose_HRD10591_14-30-57-015.txt Node
Date: Fri Jul 19 14:30:57 EDT 2019
User: cochatt
Spectrometer: HR+D1059
Trigger mode: 1
Integration Time (sec): 1.000000E-1
Scans to average: 1
Electric dark correction enabled: true
Nonlinearity correction enabled: false
Boxcar width: 0
XAxis mode: Wavelengths
Number of Pixels in Spectrum: 2048
>>>>>Begin Spectral Data<<<<<
223.165	-4.25
223.4	-4.25
223.635	-4.25
223.869	-14.25
224.104	-23.25
224.338	-22.25
224.573	2.75
224.808	-18.25
225.042	-12.25
225.277	4.75
225.511	-7.25
225.746	3.75
225.98	8.75
226.215	12.75
226.449	13.75
226.683	11.75
226.918	19.75
227.152	23.75
227.387	32.75
227.621	35.75
227.856	59.75
228.09	34.75
228.324	56.75
228.559	63.75
228.793	65.75
229.027	80.75
229.262	61.75
229.496	71.75
229.73	71.75
229.964	71.75
230.199	79.75
230.433	75.75
230.667	78.75
230.901	77.75
231.136	81.75
231.37	81.75
231.604	94.75
231.838	83.75
232.072	79.75
232.306	63.75
232.541	83.75
232.775	88.75
233.009	88.75
233.243	80.75
233.477	82.75
233.711	75.75
233.945	96.75
234.179	90.75
234.413	69.75
234.647	79.75
234.881	84.75
235.115	77.75
235.349	79.75
235.583	94.75
235.817	78.75
236.051	88.75
236.285	63.75
236.519	103.75
236.753	86.75
236.987	76.75
237.221	87.75
237.455	86.75
237.689	79.75
237.922	83.75
238.156	69.75
238.39	87.75
238.624	87.75
238.858	78.75
239.091	67.75
239.325	79.75
239.559	93.75
239.793	83.75
240.027	82.75
240.26	79.75
240.494	88.75
240.728	79.75
240.961	68.75
241.195	69.75
241.429	77.75
241.662	79.75
241.896	76.75
242.13	88.75
242.363	69.75
242.597	71.75
242.83	67.75
243.064	100.75
243.298	78.75
243.531	61.75
243.765	86.75
243.998	63.75
244.232	86.75
244.465	79.75
244.699	82.75
244.932	74.75
245.166	71.75
245.399	85.75
245.633	90.75
245.866	87.75
246.099	82.75
246.333	89.75
246.566	78.75
246.8	72.75
247.033	84.75
247.266	92.75
247.5	69.75
247.733	89.75
247.966	85.75
248.2	79.75
248.433	80.75
248.666	86.75
248.899	75.75
249.133	78.75
249.366	95.75
249.599	79.75
249.832	91.75
250.066	76.75
250.299	69.75
250.532	69.75
250.765	76.75
250.998	88.75
251.231	78.75
251.465	82.75
251.698	89.75
251.931	75.75
252.164	81.75
252.397	84.75
252.63	83.75
252.863	81.75
253.096	82.75
253.329	84.75
253.562	72.75
253.795	79.75
254.028	77.75
254.261	78.75
254.494	82.75
254.727	95.75
254.96	88.75
255.193	104.75
255.426	81.75
255.659	75.75
255.892	78.75
256.124	76.75
256.357	79.75
256.59	85.75
256.823	95.75
257.056	89.75
257.289	80.75
257.521	71.75
257.754	89.75
257.987	85.75
258.22	87.75
258.452	85.75
258.685	89.75
258.918	93.75
259.151	76.75
259.383	79.75
259.616	96.75
259.849	65.75
260.081	80.75
260.314	85.75
260.547	74.75
260.779	80.75
261.012	79.75
261.244	76.75
261.477	85.75
261.71	85.75
261.942	88.75
262.175	91.75
262.407	71.75
262.64	68.75
262.872	73.75
263.105	69.75
263.337	72.75
263.57	88.75
263.802	87.75
264.035	78.75
264.267	72.75
264.499	90.75
264.732	71.75
264.964	83.75
265.197	83.75
265.429	82.75
265.661	76.75
265.894	97.75
266.126	87.75
266.358	89.75
266.591	95.75
266.823	85.75
267.055	75.75
267.287	78.75
267.52	91.75
267.752	80.75
267.984	90.75
268.216	72.75
268.448	99.75
268.681	85.75
268.913	79.75
269.145	81.75
269.377	91.75
269.609	80.75
269.841	87.75
270.073	85.75
270.306	86.75
270.538	83.75
270.77	94.75
271.002	82.75
271.234	94.75
271.466	86.75
271.698	73.75
271.93	89.75
272.162	87.75
272.394	81.75
272.626	81.75
272.858	84.75
273.09	82.75
273.322	94.75
273.553	85.75
273.785	95.75
274.017	87.75
274.249	94.75
274.481	89.75
274.713	83.75
274.945	69.75
275.176	76.75
275.408	95.75
275.64	83.75
275.872	88.75
276.104	91.75
276.335	86.75
276.567	79.75
276.799	82.75
277.031	80.75
277.262	91.75
277.494	102.75
277.726	74.75
277.957	83.75
278.189	79.75
278.421	82.75
278.652	79.75
278.884	94.75
279.115	84.75
279.347	87.75
279.579	90.75
279.81	92.75
280.042	90.75
280.273	84.75
280.505	86.75
280.736	86.75
280.968	90.75
281.199	81.75
281.431	87.75
281.662	72.75
281.894	97.75
282.125	83.75
282.356	81.75
282.588	75.75
282.819	80.75
283.051	79.75
283.282	89.75
283.513	85.75
283.745	87.75
283.976	85.75
284.207	88.75
284.439	99.75
284.67	87.75
284.901	88.75
285.132	95.75
285.364	82.75
285.595	86.75
285.826	95.75
286.057	88.75
286.288	69.75
286.52	99.75
286.751	90.75
286.982	86.75
287.213	91.75
287.444	83.75
287.675	76.75
287.906	86.75
288.138	84.75
288.369	75.75
288.6	87.75
288.831	92.75
289.062	97.75
289.293	89.75
289.524	87.75
289.755	98.75
289.986	99.75
290.217	96.75
290.448	73.75
290.679	82.75
290.91	75.75
291.141	88.75
291.371	76.75
291.602	81.75
291.833	83.75
292.064	86.75
292.295	81.75
292.526	93.75
292.757	90.75
292.987	91.75
293.218	97.75
293.449	88.75
293.68	80.75
293.91	90.75
294.141	91.75
294.372	91.75
294.603	85.75
294.833	84.75
295.064	80.75
295.295	93.75
295.525	95.75
295.756	88.75
295.987	90.75
296.217	84.75
296.448	85.75
296.679	91.75
296.909	80.75
297.14	100.75
297.37	80.75
297.601	84.75
297.831	83.75
298.062	84.75
298.292	89.75
298.523	90.75
298.753	84.75
298.984	88.75
299.214	90.75
299.445	85.75
299.675	99.75
299.905	80.75
300.136	86.75
300.366	73.75
300.597	90.75
300.827	91.75
301.057	75.75
301.288	81.75
301.518	84.75
301.748	89.75
301.979	92.75
302.209	84.75
302.439	91.75
302.669	91.75
302.9	68.75
303.13	93.75
303.36	89.75
303.59	94.75
303.82	104.75
304.051	86.75
304.281	95.75
304.511	94.75
304.741	88.75
304.971	97.75
305.201	86.75
305.431	73.75
305.661	86.75
305.891	89.75
306.121	100.75
306.352	99.75
306.582	91.75
306.812	69.75
307.042	91.75
307.272	98.75
307.502	87.75
307.731	79.75
307.961	86.75
308.191	74.75
308.421	88.75
308.651	88.75
308.881	84.75
309.111	94.75
309.341	95.75
309.571	90.75
309.8	90.75
310.03	92.75
310.26	89.75
310.49	103.75
310.72	86.75
310.949	81.75
311.179	93.75
311.409	81.75
311.639	90.75
311.868	93.75
312.098	90.75
312.328	91.75
312.557	87.75
312.787	98.75
313.017	101.75
313.246	86.75
313.476	94.75
313.706	92.75
313.935	88.75
314.165	90.75
314.394	92.75
314.624	94.75
314.853	95.75
315.083	86.75
315.312	86.75
315.542	87.75
315.771	87.75
316.001	80.75
316.23	95.75
316.46	87.75
316.689	102.75
316.919	85.75
317.148	93.75
317.377	79.75
317.607	99.75
317.836	91.75
318.065	89.75
318.295	87.75
318.524	94.75
318.753	82.75
318.983	93.75
319.212	69.75
319.441	91.75
319.67	100.75
319.9	83.75
320.129	87.75
320.358	78.75
320.587	77.75
320.816	84.75
321.046	71.75
321.275	83.75
321.504	85.75
321.733	83.75
321.962	82.75
322.191	90.75
322.42	84.75
322.649	82.75
322.878	84.75
323.108	75.75
323.337	88.75
323.566	80.75
323.795	72.75
324.024	88.75
324.253	96.75
324.482	99.75
324.71	89.75
324.939	81.75
325.168	70.75
325.397	86.75
325.626	85.75
325.855	72.75
326.084	84.75
326.313	88.75
326.542	87.75
326.77	81.75
326.999	75.75
327.228	91.75
327.457	99.75
327.686	81.75
327.914	87.75
328.143	94.75
328.372	95.75
328.6	88.75
328.829	99.75
329.058	75.75
329.287	80.75
329.515	87.75
329.744	84.75
329.972	81.75
330.201	96.75
330.43	80.75
330.658	92.75
330.887	85.75
331.115	101.75
331.344	95.75
331.572	78.75
331.801	84.75
332.03	78.75
332.258	81.75
332.486	94.75
332.715	90.75
332.943	92.75
333.172	79.75
333.4	94.75
333.629	79.75
333.857	80.75
334.085	94.75
334.314	84.75
334.542	84.75
334.771	91.75
334.999	84.75
335.227	89.75
335.455	101.75
335.684	91.75
335.912	82.75
336.14	89.75
336.369	86.75
336.597	79.75
336.825	89.75
337.053	83.75
337.281	95.75
337.51	89.75
337.738	93.75
337.966	81.75
338.194	95.75
338.422	86.75
338.65	87.75
338.878	100.75
339.106	83.75
339.334	99.75
339.562	85.75
339.79	82.75
340.018	103.75
340.246	101.75
340.474	95.75
340.702	87.75
340.93	76.75
341.158	88.75
341.386	84.75
341.614	77.75
341.842	82.75
342.07	96.75
342.298	87.75
342.526	87.75
342.754	78.75
342.981	92.75
343.209	83.75
343.437	78.75
343.665	87.75
343.893	95.75
344.12	99.75
344.348	99.75
344.576	77.75
344.804	89.75
345.031	97.75
345.259	100.75
345.487	88.75
345.714	82.75
345.942	86.75
346.17	77.75
346.397	84.75
346.625	96.75
346.853	87.75
347.08	97.75
347.308	74.75
347.535	84.75
347.763	96.75
347.99	95.75
348.218	94.75
348.445	85.75
348.673	99.75
348.9	97.75
349.128	93.75
349.355	86.75
349.583	90.75
349.81	96.75
350.037	82.75
350.265	92.75
350.492	86.75
350.72	97.75
350.947	96.75
351.174	79.75
351.402	82.75
351.629	92.75
351.856	95.75
352.083	85.75
352.311	77.75
352.538	90.75
352.765	92.75
352.992	88.75
353.22	95.75
353.447	82.75
353.674	93.75
353.901	86.75
354.128	81.75
354.355	88.75
354.583	92.75
354.81	99.75
355.037	93.75
355.264	80.75
355.491	79.75
355.718	72.75
355.945	99.75
356.172	79.75
356.399	102.75
356.626	80.75
356.853	89.75
357.08	85.75
357.307	81.75
357.534	86.75
357.761	78.75
357.988	84.75
358.215	104.75
358.441	86.75
358.668	88.75
358.895	86.75
359.122	88.75
359.349	96.75
359.576	81.75
359.802	71.75
360.029	99.75
360.256	99.75
360.483	77.75
360.709	85.75
360.936	86.75
361.163	95.75
361.39	73.75
361.616	109.75
361.843	99.75
362.07	85.75
362.296	86.75
362.523	83.75
362.749	83.75
362.976	89.75
363.203	91.75
363.429	76.75
363.656	79.75
363.882	78.75
364.109	93.75
364.335	90.75
364.562	83.75
364.788	103.75
365.015	99.75
365.241	99.75
365.468	93.75
365.694	62.75
365.92	77.75
366.147	107.75
366.373	84.75
366.599	93.75
366.826	98.75
367.052	83.75
367.278	89.75
367.505	85.75
367.731	74.75
367.957	83.75
368.184	92.75
368.41	91.75
368.636	89.75
368.862	88.75
369.089	96.75
369.315	103.75
369.541	91.75
369.767	91.75
369.993	80.75
370.219	93.75
370.445	90.75
370.672	96.75
370.898	92.75
371.124	100.75
371.35	85.75
371.576	88.75
371.802	104.75
372.028	94.75
372.254	87.75
372.48	96.75
372.706	102.75
372.932	92.75
373.158	98.75
373.384	107.75
373.61	91.75
373.835	93.75
374.061	88.75
374.287	98.75
374.513	101.75
374.739	86.75
374.965	96.75
375.191	91.75
375.416	98.75
375.642	101.75
375.868	95.75
376.094	103.75
376.319	97.75
376.545	93.75
376.771	110.75
376.997	105.75
377.222	103.75
377.448	84.75
377.674	106.75
377.899	104.75
378.125	99.75
378.35	106.75
378.576	100.75
378.802	95.75
379.027	96.75
379.253	108.75
379.478	88.75
379.704	99.75
379.929	99.75
380.155	95.75
380.38	100.75
380.606	89.75
380.831	98.75
381.057	99.75
381.282	79.75
381.507	87.75
381.733	96.75
381.958	95.75
382.184	77.75
382.409	95.75
382.634	112.75
382.86	111.75
383.085	103.75
383.31	110.75
383.535	102.75
383.761	86.75
383.986	111.75
384.211	102.75
384.436	88.75
384.662	97.75
384.887	104.75
385.112	107.75
385.337	104.75
385.562	96.75
385.787	90.75
386.013	109.75
386.238	92.75
386.463	94.75
386.688	104.75
386.913	109.75
387.138	99.75
387.363	93.75
387.588	99.75
387.813	92.75
388.038	111.75
388.263	108.75
388.488	97.75
388.713	92.75
388.938	112.75
389.163	101.75
389.387	109.75
389.612	104.75
389.837	107.75
390.062	101.75
390.287	96.75
390.512	104.75
390.736	113.75
390.961	102.75
391.186	97.75
391.411	107.75
391.636	115.75
391.86	110.75
392.085	115.75
392.31	113.75
392.534	108.75
392.759	109.75
392.984	109.75
393.208	111.75
393.433	98.75
393.658	109.75
393.882	102.75
394.107	111.75
394.331	117.75
394.556	118.75
394.78	109.75
395.005	123.75
395.229	94.75
395.454	115.75
395.678	98.75
395.903	104.75
396.127	124.75
396.352	106.75
396.576	108.75
396.801	108.75
397.025	90.75
397.249	93.75
397.474	104.75
397.698	103.75
397.922	104.75
398.147	107.75
398.371	109.75
398.595	103.75
398.82	94.75
399.044	128.75
399.268	117.75
399.492	116.75
399.717	105.75
399.941	110.75
400.165	109.75
400.389	111.75
400.613	108.75
400.837	113.75
401.062	111.75
401.286	103.75
401.51	112.75
401.734	108.75
401.958	106.75
402.182	107.75
402.406	115.75
402.63	123.75
402.854	117.75
403.078	112.75
403.302	115.75
403.526	104.75
403.75	125.75
403.974	119.75
404.198	108.75
404.422	117.75
404.645	116.75
404.869	113.75
405.093	108.75
405.317	118.75
405.541	122.75
405.765	112.75
405.988	120.75
406.212	128.75
406.436	125.75
406.66	132.75
406.883	127.75
407.107	112.75
407.331	114.75
407.555	119.75
407.778	117.75
408.002	108.75
408.226	121.75
408.449	128.75
408.673	117.75
408.896	123.75
409.12	124.75
409.344	114.75
409.567	118.75
409.791	111.75
410.014	129.75
410.238	115.75
410.461	122.75
410.685	128.75
410.908	120.75
411.132	139.75
411.355	117.75
411.578	123.75
411.802	115.75
412.025	124.75
412.249	131.75
412.472	127.75
412.695	132.75
412.919	127.75
413.142	119.75
413.365	135.75
413.589	110.75
413.812	128.75
414.035	133.75
414.258	107.75
414.482	110.75
414.705	112.75
414.928	122.75
415.151	123.75
415.374	127.75
415.597	120.75
415.821	106.75
416.044	112.75
416.267	130.75
416.49	127.75
416.713	115.75
416.936	135.75
417.159	117.75
417.382	126.75
417.605	135.75
417.828	131.75
418.051	128.75
418.274	137.75
418.497	128.75
418.72	126.75
418.943	133.75
419.166	143.75
419.389	122.75
419.611	142.75
419.834	124.75
420.057	125.75
420.28	135.75
420.503	133.75
420.726	132.75
420.948	134.75
421.171	136.75
421.394	137.75
421.617	135.75
421.839	141.75
422.062	153.75
422.285	121.75
422.507	120.75
422.73	133.75
422.953	125.75
423.175	125.75
423.398	126.75
423.621	139.75
423.843	132.75
424.066	137.75
424.288	143.75
424.511	129.75
424.733	133.75
424.956	144.75
425.178	144.75
425.401	134.75
425.623	130.75
425.846	129.75
426.068	126.75
426.291	129.75
426.513	139.75
426.735	121.75
426.958	128.75
427.18	133.75
427.402	127.75
427.625	123.75
427.847	133.75
428.069	133.75
428.292	127.75
428.514	131.75
428.736	130.75
428.958	121.75
429.181	138.75
429.403	131.75
429.625	120.75
429.847	122.75
430.069	113.75
430.292	135.75
430.514	146.75
430.736	146.75
430.958	141.75
431.18	137.75
431.402	137.75
431.624	118.75
431.846	105.75
432.068	90.75
432.29	99.75
432.512	96.75
432.734	120.75
432.956	135.75
433.178	130.75
433.4	140.75
433.622	160.75
433.844	127.75
434.066	120.75
434.287	112.75
434.509	98.75
434.731	112.75
434.953	115.75
435.175	129.75
435.397	127.75
435.618	100.75
435.84	104.75
436.062	105.75
436.284	131.75
436.505	139.75
436.727	128.75
436.949	124.75
437.17	131.75
437.392	134.75
437.614	126.75
437.835	128.75
438.057	112.75
438.278	115.75
438.5	125.75
438.721	134.75
438.943	138.75
439.165	132.75
439.386	134.75
439.608	139.75
439.829	139.75
440.05	158.75
440.272	135.75
440.493	156.75
440.715	140.75
440.936	147.75
441.158	137.75
441.379	155.75
441.6	131.75
441.822	144.75
442.043	148.75
442.264	145.75
442.486	140.75
442.707	141.75
442.928	134.75
443.149	131.75
443.371	146.75
443.592	143.75
443.813	135.75
444.034	148.75
444.255	147.75
444.476	145.75
444.698	142.75
444.919	164.75
445.14	277.75
445.361	201.75
445.582	169.75
445.803	148.75
446.024	150.75
446.245	147.75
446.466	151.75
446.687	150.75
446.908	159.75
447.129	150.75
447.35	152.75
447.571	125.75
447.792	134.75
448.013	138.75
448.234	149.75
448.455	146.75
448.675	154.75
448.896	153.75
449.117	147.75
449.338	133.75
449.559	136.75
449.779	140.75
450	165.75
450.221	133.75
450.442	140.75
450.662	151.75
450.883	132.75
451.104	143.75
451.324	129.75
451.545	131.75
451.766	130.75
451.986	126.75
452.207	121.75
452.428	129.75
452.648	123.75
452.869	107.75
453.089	118.75
453.31	115.75
453.53	117.75
453.751	118.75
453.971	112.75
454.192	99.75
454.412	110.75
454.633	115.75
454.853	127.75
455.073	130.75
455.294	129.75
455.514	127.75
455.734	117.75
455.955	118.75
456.175	119.75
456.395	124.75
456.616	111.75
456.836	110.75
457.056	104.75
457.276	120.75
457.497	112.75
457.717	96.75
457.937	92.75
458.157	113.75
458.377	103.75
458.598	110.75
458.818	91.75
459.038	89.75
459.258	94.75
459.478	83.75
459.698	95.75
459.918	93.75
460.138	101.75
460.358	101.75
460.578	108.75
460.798	112.75
461.018	105.75
461.238	123.75
461.458	117.75
461.678	119.75
461.898	107.75
462.118	110.75
462.338	103.75
462.558	120.75
462.777	115.75
462.997	112.75
463.217	125.75
463.437	115.75
463.657	103.75
463.876	110.75
464.096	112.75
464.316	95.75
464.536	106.75
464.755	115.75
464.975	109.75
465.195	117.75
465.414	111.75
465.634	121.75
465.854	112.75
466.073	135.75
466.293	120.75
466.512	124.75
466.732	135.75
466.951	135.75
467.171	137.75
467.391	124.75
467.61	134.75
467.829	139.75
468.049	142.75
468.268	136.75
468.488	139.75
468.707	125.75
468.927	137.75
469.146	138.75
469.365	135.75
469.585	138.75
469.804	155.75
470.023	132.75
470.243	127.75
470.462	140.75
470.681	146.75
470.901	151.75
471.12	139.75
471.339	144.75
471.558	145.75
471.777	124.75
471.997	121.75
472.216	127.75
472.435	107.75
472.654	107.75
472.873	116.75
473.092	108.75
473.311	113.75
473.53	132.75
473.749	127.75
473.968	135.75
474.187	128.75
474.406	119.75
474.625	124.75
474.844	129.75
475.063	137.75
475.282	138.75
475.501	116.75
475.72	119.75
475.939	120.75
476.158	124.75
476.377	131.75
476.596	121.75
476.814	115.75
477.033	105.75
477.252	115.75
477.471	127.75
477.69	128.75
477.908	143.75
478.127	136.75
478.346	125.75
478.564	130.75
478.783	137.75
479.002	139.75
479.22	137.75
479.439	132.75
479.658	108.75
479.876	132.75
480.095	112.75
480.313	137.75
480.532	120.75
480.751	107.75
480.969	93.75
481.188	95.75
481.406	88.75
481.624	87.75
481.843	91.75
482.061	119.75
482.28	104.75
482.498	101.75
482.717	119.75
482.935	121.75
483.153	138.75
483.372	151.75
483.59	160.75
483.808	143.75
484.027	125.75
484.245	132.75
484.463	158.75
484.681	165.75
484.9	145.75
485.118	133.75
485.336	140.75
485.554	125.75
485.772	91.75
485.99	105.75
486.209	103.75
486.427	105.75
486.645	130.75
486.863	135.75
487.081	137.75
487.299	137.75
487.517	144.75
487.735	173.75
487.953	196.75
488.171	185.75
488.389	165.75
488.607	187.75
488.825	137.75
489.043	123.75
489.261	139.75
489.479	140.75
489.696	141.75
489.914	139.75
490.132	141.75
490.35	166.75
490.568	167.75
490.786	168.75
491.003	177.75
491.221	177.75
491.439	174.75
491.657	203.75
491.874	195.75
492.092	203.75
492.31	223.75
492.527	213.75
492.745	210.75
492.963	191.75
493.18	166.75
493.398	189.75
493.615	176.75
493.833	168.75
494.05	175.75
494.268	174.75
494.485	165.75
494.703	183.75
494.92	165.75
495.138	166.75
495.355	153.75
495.573	168.75
495.79	169.75
496.008	167.75
496.225	171.75
496.442	175.75
496.66	164.75
496.877	161.75
497.094	181.75
497.312	165.75
497.529	148.75
497.746	149.75
497.963	152.75
498.181	136.75
498.398	142.75
498.615	130.75
498.832	112.75
499.049	122.75
499.267	113.75
499.484	129.75
499.701	126.75
499.918	129.75
500.135	136.75
500.352	137.75
500.569	142.75
500.786	155.75
501.003	141.75
501.22	140.75
501.437	134.75
501.654	118.75
501.871	116.75
502.088	135.75
502.305	143.75
502.522	133.75
502.739	141.75
502.956	124.75
503.172	118.75
503.389	113.75
503.606	129.75
503.823	117.75
504.04	120.75
504.256	111.75
504.473	107.75
504.69	105.75
504.907	128.75
505.123	125.75
505.34	139.75
505.557	109.75
505.773	115.75
505.99	127.75
506.207	124.75
506.423	122.75
506.64	126.75
506.856	117.75
507.073	125.75
507.289	126.75
507.506	125.75
507.722	113.75
507.939	127.75
508.155	122.75
508.372	111.75
508.588	121.75
508.805	100.75
509.021	113.75
509.238	96.75
509.454	101.75
509.67	107.75
509.887	103.75
510.103	91.75
510.319	75.75
510.536	85.75
510.752	94.75
510.968	89.75
511.184	95.75
511.401	86.75
