Data from Location1.07152019.Energy5.Lamp.07192019.3%Agarose_HRD10591_14-30-16-015.txt Node
Date: Fri Jul 19 14:30:16 EDT 2019
User: cochatt
Spectrometer: HR+D1059
Trigger mode: 1
Integration Time (sec): 1.000000E-1
Scans to average: 1
Electric dark correction enabled: true
Nonlinearity correction enabled: false
Boxcar width: 0
XAxis mode: Wavelengths
Number of Pixels in Spectrum: 2048
>>>>>Begin Spectral Data<<<<<
223.165	-10.44
223.4	-10.44
223.635	-10.44
223.869	-10.44
224.104	-22.44
224.338	-21.44
224.573	-12.44
224.808	-9.44
225.042	3.56
225.277	-14.44
225.511	-3.44
225.746	4.56
225.98	4.56
226.215	12.56
226.449	-3.44
226.683	17.56
226.918	32.56
227.152	32.56
227.387	39.56
227.621	19.56
227.856	36.56
228.09	36.56
228.324	51.56
228.559	60.56
228.793	59.56
229.027	72.56
229.262	81.56
229.496	57.56
229.73	81.56
229.964	60.56
230.199	70.56
230.433	61.56
230.667	70.56
230.901	86.56
231.136	65.56
231.37	64.56
231.604	72.56
231.838	80.56
232.072	83.56
232.306	78.56
232.541	76.56
232.775	72.56
233.009	90.56
233.243	83.56
233.477	73.56
233.711	79.56
233.945	75.56
234.179	89.56
234.413	73.56
234.647	80.56
234.881	71.56
235.115	93.56
235.349	84.56
235.583	86.56
235.817	72.56
236.051	72.56
236.285	75.56
236.519	68.56
236.753	79.56
236.987	72.56
237.221	84.56
237.455	80.56
237.689	84.56
237.922	81.56
238.156	79.56
238.39	80.56
238.624	88.56
238.858	73.56
239.091	84.56
239.325	73.56
239.559	80.56
239.793	67.56
240.027	73.56
240.26	77.56
240.494	70.56
240.728	83.56
240.961	69.56
241.195	81.56
241.429	68.56
241.662	81.56
241.896	83.56
242.13	73.56
242.363	59.56
242.597	72.56
242.83	67.56
243.064	76.56
243.298	80.56
243.531	70.56
243.765	75.56
243.998	75.56
244.232	80.56
244.465	85.56
244.699	76.56
244.932	74.56
245.166	82.56
245.399	77.56
245.633	75.56
245.866	76.56
246.099	88.56
246.333	74.56
246.566	67.56
246.8	75.56
247.033	71.56
247.266	68.56
247.5	81.56
247.733	83.56
247.966	66.56
248.2	71.56
248.433	66.56
248.666	76.56
248.899	68.56
249.133	81.56
249.366	81.56
249.599	69.56
249.832	62.56
250.066	64.56
250.299	80.56
250.532	72.56
250.765	84.56
250.998	84.56
251.231	71.56
251.465	71.56
251.698	77.56
251.931	76.56
252.164	70.56
252.397	86.56
252.63	72.56
252.863	64.56
253.096	69.56
253.329	70.56
253.562	80.56
253.795	81.56
254.028	86.56
254.261	72.56
254.494	69.56
254.727	88.56
254.96	80.56
255.193	72.56
255.426	81.56
255.659	73.56
255.892	71.56
256.124	70.56
256.357	77.56
256.59	78.56
256.823	79.56
257.056	80.56
257.289	85.56
257.521	75.56
257.754	77.56
257.987	89.56
258.22	80.56
258.452	75.56
258.685	87.56
258.918	90.56
259.151	77.56
259.383	71.56
259.616	77.56
259.849	68.56
260.081	86.56
260.314	80.56
260.547	83.56
260.779	71.56
261.012	63.56
261.244	70.56
261.477	77.56
261.71	75.56
261.942	81.56
262.175	95.56
262.407	85.56
262.64	71.56
262.872	86.56
263.105	71.56
263.337	86.56
263.57	84.56
263.802	82.56
264.035	85.56
264.267	87.56
264.499	80.56
264.732	79.56
264.964	84.56
265.197	76.56
265.429	112.56
265.661	82.56
265.894	73.56
266.126	88.56
266.358	77.56
266.591	78.56
266.823	88.56
267.055	87.56
267.287	88.56
267.52	77.56
267.752	82.56
267.984	71.56
268.216	91.56
268.448	58.56
268.681	80.56
268.913	87.56
269.145	60.56
269.377	74.56
269.609	70.56
269.841	78.56
270.073	81.56
270.306	90.56
270.538	75.56
270.77	81.56
271.002	77.56
271.234	83.56
271.466	83.56
271.698	86.56
271.93	66.56
272.162	83.56
272.394	93.56
272.626	81.56
272.858	72.56
273.09	79.56
273.322	89.56
273.553	81.56
273.785	89.56
274.017	77.56
274.249	82.56
274.481	88.56
274.713	67.56
274.945	73.56
275.176	83.56
275.408	87.56
275.64	72.56
275.872	66.56
276.104	89.56
276.335	85.56
276.567	88.56
276.799	81.56
277.031	70.56
277.262	75.56
277.494	88.56
277.726	80.56
277.957	79.56
278.189	89.56
278.421	66.56
278.652	73.56
278.884	75.56
279.115	85.56
279.347	86.56
279.579	79.56
279.81	72.56
280.042	92.56
280.273	78.56
280.505	69.56
280.736	78.56
280.968	77.56
281.199	83.56
281.431	67.56
281.662	74.56
281.894	67.56
282.125	74.56
282.356	81.56
282.588	86.56
282.819	88.56
283.051	82.56
283.282	76.56
283.513	77.56
283.745	89.56
283.976	77.56
284.207	78.56
284.439	76.56
284.67	85.56
284.901	76.56
285.132	79.56
285.364	83.56
285.595	97.56
285.826	83.56
286.057	83.56
286.288	79.56
286.52	72.56
286.751	78.56
286.982	85.56
287.213	72.56
287.444	73.56
287.675	82.56
287.906	90.56
288.138	72.56
288.369	81.56
288.6	88.56
288.831	80.56
289.062	84.56
289.293	81.56
289.524	78.56
289.755	90.56
289.986	80.56
290.217	80.56
290.448	88.56
290.679	95.56
290.91	81.56
291.141	88.56
291.371	97.56
291.602	74.56
291.833	84.56
292.064	87.56
292.295	83.56
292.526	76.56
292.757	78.56
292.987	80.56
293.218	75.56
293.449	82.56
293.68	77.56
293.91	76.56
294.141	70.56
294.372	58.56
294.603	81.56
294.833	82.56
295.064	84.56
295.295	88.56
295.525	81.56
295.756	67.56
295.987	83.56
296.217	86.56
296.448	84.56
296.679	81.56
296.909	77.56
297.14	74.56
297.37	87.56
297.601	55.56
297.831	72.56
298.062	87.56
298.292	69.56
298.523	77.56
298.753	78.56
298.984	69.56
299.214	87.56
299.445	86.56
299.675	97.56
299.905	80.56
300.136	80.56
300.366	80.56
300.597	67.56
300.827	71.56
301.057	77.56
301.288	77.56
301.518	75.56
301.748	89.56
301.979	101.56
302.209	87.56
302.439	75.56
302.669	79.56
302.9	73.56
303.13	96.56
303.36	82.56
303.59	74.56
303.82	78.56
304.051	82.56
304.281	74.56
304.511	76.56
304.741	86.56
304.971	80.56
305.201	77.56
305.431	80.56
305.661	77.56
305.891	100.56
306.121	84.56
306.352	84.56
306.582	75.56
306.812	79.56
307.042	64.56
307.272	89.56
307.502	81.56
307.731	79.56
307.961	72.56
308.191	81.56
308.421	77.56
308.651	97.56
308.881	89.56
309.111	71.56
309.341	82.56
309.571	84.56
309.8	82.56
310.03	83.56
310.26	63.56
310.49	68.56
310.72	73.56
310.949	73.56
311.179	81.56
311.409	74.56
311.639	75.56
311.868	80.56
312.098	84.56
312.328	79.56
312.557	98.56
312.787	88.56
313.017	78.56
313.246	82.56
313.476	73.56
313.706	86.56
313.935	78.56
314.165	79.56
314.394	67.56
314.624	85.56
314.853	86.56
315.083	77.56
315.312	92.56
315.542	75.56
315.771	81.56
316.001	79.56
316.23	74.56
316.46	87.56
316.689	78.56
316.919	86.56
317.148	83.56
317.377	69.56
317.607	74.56
317.836	78.56
318.065	78.56
318.295	77.56
318.524	86.56
318.753	79.56
318.983	79.56
319.212	86.56
319.441	86.56
319.67	80.56
319.9	80.56
320.129	82.56
320.358	76.56
320.587	86.56
320.816	74.56
321.046	100.56
321.275	84.56
321.504	83.56
321.733	83.56
321.962	91.56
322.191	93.56
322.42	84.56
322.649	86.56
322.878	89.56
323.108	88.56
323.337	80.56
323.566	68.56
323.795	75.56
324.024	89.56
324.253	86.56
324.482	76.56
324.71	81.56
324.939	85.56
325.168	87.56
325.397	79.56
325.626	82.56
325.855	91.56
326.084	71.56
326.313	95.56
326.542	74.56
326.77	78.56
326.999	86.56
327.228	84.56
327.457	76.56
327.686	83.56
327.914	88.56
328.143	98.56
328.372	75.56
328.6	75.56
328.829	81.56
329.058	75.56
329.287	87.56
329.515	80.56
329.744	70.56
329.972	73.56
330.201	84.56
330.43	83.56
330.658	77.56
330.887	79.56
331.115	77.56
331.344	80.56
331.572	99.56
331.801	64.56
332.03	76.56
332.258	77.56
332.486	75.56
332.715	87.56
332.943	75.56
333.172	70.56
333.4	85.56
333.629	81.56
333.857	76.56
334.085	76.56
334.314	77.56
334.542	76.56
334.771	71.56
334.999	89.56
335.227	73.56
335.455	86.56
335.684	85.56
335.912	76.56
336.14	84.56
336.369	71.56
336.597	78.56
336.825	85.56
337.053	78.56
337.281	87.56
337.51	82.56
337.738	83.56
337.966	73.56
338.194	81.56
338.422	71.56
338.65	98.56
338.878	71.56
339.106	86.56
339.334	82.56
339.562	83.56
339.79	81.56
340.018	85.56
340.246	77.56
340.474	66.56
340.702	84.56
340.93	78.56
341.158	75.56
341.386	81.56
341.614	74.56
341.842	65.56
342.07	75.56
342.298	72.56
342.526	75.56
342.754	89.56
342.981	71.56
343.209	83.56
343.437	86.56
343.665	87.56
343.893	92.56
344.12	81.56
344.348	88.56
344.576	71.56
344.804	76.56
345.031	73.56
345.259	75.56
345.487	88.56
345.714	84.56
345.942	86.56
346.17	79.56
346.397	78.56
346.625	77.56
346.853	83.56
347.08	75.56
347.308	79.56
347.535	77.56
347.763	100.56
347.99	81.56
348.218	91.56
348.445	90.56
348.673	83.56
348.9	86.56
349.128	79.56
349.355	78.56
349.583	82.56
349.81	73.56
350.037	76.56
350.265	79.56
350.492	67.56
350.72	73.56
350.947	69.56
351.174	77.56
351.402	82.56
351.629	65.56
351.856	76.56
352.083	69.56
352.311	78.56
352.538	70.56
352.765	80.56
352.992	85.56
353.22	92.56
353.447	73.56
353.674	82.56
353.901	75.56
354.128	81.56
354.355	89.56
354.583	80.56
354.81	76.56
355.037	80.56
355.264	95.56
355.491	72.56
355.718	79.56
355.945	65.56
356.172	81.56
356.399	101.56
356.626	69.56
356.853	83.56
357.08	78.56
357.307	80.56
357.534	86.56
357.761	76.56
357.988	83.56
358.215	79.56
358.441	94.56
358.668	78.56
358.895	78.56
359.122	83.56
359.349	74.56
359.576	93.56
359.802	94.56
360.029	68.56
360.256	77.56
360.483	82.56
360.709	69.56
360.936	86.56
361.163	77.56
361.39	97.56
361.616	74.56
361.843	91.56
362.07	79.56
362.296	80.56
362.523	79.56
362.749	84.56
362.976	79.56
363.203	72.56
363.429	78.56
363.656	86.56
363.882	84.56
364.109	76.56
364.335	88.56
364.562	83.56
364.788	84.56
365.015	78.56
365.241	90.56
365.468	72.56
365.694	71.56
365.92	86.56
366.147	96.56
366.373	93.56
366.599	91.56
366.826	73.56
367.052	86.56
367.278	90.56
367.505	71.56
367.731	75.56
367.957	87.56
368.184	68.56
368.41	89.56
368.636	83.56
368.862	86.56
369.089	77.56
369.315	88.56
369.541	87.56
369.767	87.56
369.993	77.56
370.219	72.56
370.445	96.56
370.672	96.56
370.898	97.56
371.124	87.56
371.35	76.56
371.576	90.56
371.802	82.56
372.028	87.56
372.254	90.56
372.48	99.56
372.706	95.56
372.932	81.56
373.158	88.56
373.384	77.56
373.61	82.56
373.835	87.56
374.061	80.56
374.287	75.56
374.513	94.56
374.739	86.56
374.965	88.56
375.191	106.56
375.416	87.56
375.642	79.56
375.868	80.56
376.094	77.56
376.319	91.56
376.545	93.56
376.771	92.56
376.997	88.56
377.222	83.56
377.448	94.56
377.674	77.56
377.899	78.56
378.125	92.56
378.35	81.56
378.576	87.56
378.802	83.56
379.027	93.56
379.253	92.56
379.478	91.56
379.704	76.56
379.929	93.56
380.155	84.56
380.38	106.56
380.606	88.56
380.831	95.56
381.057	93.56
381.282	90.56
381.507	101.56
381.733	96.56
381.958	105.56
382.184	87.56
382.409	99.56
382.634	102.56
382.86	98.56
383.085	84.56
383.31	92.56
383.535	95.56
383.761	102.56
383.986	96.56
384.211	87.56
384.436	86.56
384.662	82.56
384.887	88.56
385.112	101.56
385.337	93.56
385.562	104.56
385.787	89.56
386.013	98.56
386.238	98.56
386.463	88.56
386.688	99.56
386.913	95.56
387.138	103.56
387.363	100.56
387.588	91.56
387.813	92.56
388.038	95.56
388.263	119.56
388.488	114.56
388.713	95.56
388.938	108.56
389.163	91.56
389.387	86.56
389.612	88.56
389.837	96.56
390.062	95.56
390.287	89.56
390.512	104.56
390.736	101.56
390.961	103.56
391.186	102.56
391.411	118.56
391.636	99.56
391.86	127.56
392.085	114.56
392.31	99.56
392.534	125.56
392.759	98.56
392.984	102.56
393.208	107.56
393.433	96.56
393.658	102.56
393.882	101.56
394.107	99.56
394.331	103.56
394.556	91.56
394.78	108.56
395.005	107.56
395.229	109.56
395.454	92.56
395.678	109.56
395.903	100.56
396.127	86.56
396.352	92.56
396.576	95.56
396.801	101.56
397.025	100.56
397.249	117.56
397.474	112.56
397.698	104.56
397.922	93.56
398.147	91.56
398.371	100.56
398.595	104.56
398.82	93.56
399.044	104.56
399.268	115.56
399.492	115.56
399.717	101.56
399.941	114.56
400.165	92.56
400.389	105.56
400.613	99.56
400.837	96.56
401.062	112.56
401.286	114.56
401.51	102.56
401.734	106.56
401.958	101.56
402.182	106.56
402.406	117.56
402.63	102.56
402.854	110.56
403.078	89.56
403.302	108.56
403.526	116.56
403.75	118.56
403.974	99.56
404.198	121.56
404.422	111.56
404.645	116.56
404.869	113.56
405.093	114.56
405.317	119.56
405.541	106.56
405.765	110.56
405.988	110.56
406.212	106.56
406.436	122.56
406.66	113.56
406.883	104.56
407.107	113.56
407.331	115.56
407.555	124.56
407.778	105.56
408.002	104.56
408.226	116.56
408.449	109.56
408.673	116.56
408.896	127.56
409.12	122.56
409.344	111.56
409.567	116.56
409.791	113.56
410.014	110.56
410.238	112.56
410.461	118.56
410.685	111.56
410.908	108.56
411.132	111.56
411.355	111.56
411.578	127.56
411.802	119.56
412.025	140.56
412.249	128.56
412.472	120.56
412.695	122.56
412.919	105.56
413.142	112.56
413.365	112.56
413.589	109.56
413.812	113.56
414.035	127.56
414.258	110.56
414.482	114.56
414.705	118.56
414.928	127.56
415.151	117.56
415.374	121.56
415.597	98.56
415.821	113.56
416.044	121.56
416.267	128.56
416.49	128.56
416.713	132.56
416.936	131.56
417.159	129.56
417.382	126.56
417.605	113.56
417.828	129.56
418.051	119.56
418.274	122.56
418.497	126.56
418.72	123.56
418.943	138.56
419.166	155.56
419.389	141.56
419.611	136.56
419.834	128.56
420.057	133.56
420.28	131.56
420.503	141.56
420.726	139.56
420.948	119.56
421.171	138.56
421.394	137.56
421.617	129.56
421.839	142.56
422.062	130.56
422.285	127.56
422.507	136.56
422.73	122.56
422.953	133.56
423.175	121.56
423.398	134.56
423.621	136.56
423.843	122.56
424.066	120.56
424.288	142.56
424.511	143.56
424.733	145.56
424.956	124.56
425.178	136.56
425.401	126.56
425.623	137.56
425.846	140.56
426.068	131.56
426.291	125.56
426.513	130.56
426.735	108.56
426.958	131.56
427.18	121.56
427.402	123.56
427.625	123.56
427.847	127.56
428.069	127.56
428.292	132.56
428.514	124.56
428.736	122.56
428.958	117.56
429.181	126.56
429.403	127.56
429.625	111.56
429.847	121.56
430.069	124.56
430.292	122.56
430.514	131.56
430.736	129.56
430.958	124.56
431.18	124.56
431.402	114.56
431.624	119.56
431.846	108.56
432.068	107.56
432.29	90.56
432.512	112.56
432.734	123.56
432.956	141.56
433.178	132.56
433.4	115.56
433.622	140.56
433.844	129.56
434.066	133.56
434.287	104.56
434.509	99.56
434.731	88.56
434.953	103.56
435.175	123.56
435.397	124.56
435.618	122.56
435.84	105.56
436.062	105.56
436.284	121.56
436.505	136.56
436.727	133.56
436.949	123.56
437.17	119.56
437.392	123.56
437.614	121.56
437.835	125.56
438.057	110.56
438.278	104.56
438.5	127.56
438.721	127.56
438.943	136.56
439.165	144.56
439.386	141.56
439.608	140.56
439.829	125.56
440.05	142.56
440.272	154.56
440.493	144.56
440.715	128.56
440.936	132.56
441.158	129.56
441.379	146.56
441.6	152.56
441.822	140.56
442.043	128.56
442.264	132.56
442.486	145.56
442.707	147.56
442.928	137.56
443.149	132.56
443.371	147.56
443.592	139.56
443.813	131.56
444.034	140.56
444.255	145.56
444.476	127.56
444.698	127.56
444.919	137.56
445.14	273.56
445.361	207.56
445.582	166.56
445.803	146.56
446.024	144.56
446.245	138.56
446.466	148.56
446.687	141.56
446.908	144.56
447.129	151.56
447.35	167.56
447.571	154.56
447.792	138.56
448.013	145.56
448.234	140.56
448.455	129.56
448.675	135.56
448.896	140.56
449.117	137.56
449.338	136.56
449.559	135.56
449.779	129.56
450	132.56
450.221	148.56
450.442	130.56
450.662	143.56
450.883	140.56
451.104	135.56
451.324	107.56
451.545	124.56
451.766	121.56
451.986	127.56
452.207	132.56
452.428	113.56
452.648	122.56
452.869	122.56
453.089	112.56
453.31	116.56
453.53	100.56
453.751	93.56
453.971	99.56
454.192	102.56
454.412	106.56
454.633	99.56
454.853	103.56
455.073	121.56
455.294	115.56
455.514	119.56
455.734	117.56
455.955	127.56
456.175	104.56
456.395	115.56
456.616	107.56
456.836	122.56
457.056	101.56
457.276	107.56
457.497	86.56
457.717	94.56
457.937	108.56
458.157	94.56
458.377	99.56
458.598	90.56
458.818	83.56
459.038	84.56
459.258	97.56
459.478	92.56
459.698	95.56
459.918	102.56
460.138	112.56
460.358	115.56
460.578	106.56
460.798	111.56
461.018	106.56
461.238	129.56
461.458	117.56
461.678	120.56
461.898	116.56
462.118	105.56
462.338	101.56
462.558	116.56
462.777	98.56
462.997	90.56
463.217	109.56
463.437	114.56
463.657	100.56
463.876	100.56
464.096	111.56
464.316	94.56
464.536	95.56
464.755	114.56
464.975	109.56
465.195	118.56
465.414	118.56
465.634	119.56
465.854	108.56
466.073	123.56
466.293	116.56
466.512	109.56
466.732	117.56
466.951	120.56
467.171	127.56
467.391	135.56
467.61	120.56
467.829	128.56
468.049	146.56
468.268	123.56
468.488	123.56
468.707	149.56
468.927	135.56
469.146	126.56
469.365	135.56
469.585	129.56
469.804	143.56
470.023	140.56
470.243	141.56
470.462	149.56
470.681	128.56
470.901	143.56
471.12	125.56
471.339	141.56
471.558	136.56
471.777	156.56
471.997	120.56
472.216	126.56
472.435	120.56
472.654	112.56
472.873	116.56
473.092	109.56
473.311	126.56
473.53	117.56
473.749	120.56
473.968	124.56
474.187	122.56
474.406	116.56
474.625	127.56
474.844	138.56
475.063	118.56
475.282	119.56
475.501	120.56
475.72	116.56
475.939	124.56
476.158	128.56
476.377	121.56
476.596	114.56
476.814	104.56
477.033	100.56
477.252	106.56
477.471	108.56
477.69	123.56
477.908	145.56
478.127	123.56
478.346	127.56
478.564	135.56
478.783	131.56
479.002	128.56
479.22	149.56
479.439	135.56
479.658	119.56
479.876	107.56
480.095	108.56
480.313	96.56
480.532	116.56
480.751	102.56
480.969	97.56
481.188	82.56
481.406	93.56
481.624	80.56
481.843	83.56
482.061	96.56
482.28	95.56
482.498	108.56
482.717	93.56
482.935	114.56
483.153	141.56
483.372	143.56
483.59	148.56
483.808	121.56
484.027	125.56
484.245	139.56
484.463	146.56
484.681	156.56
484.9	151.56
485.118	139.56
485.336	130.56
485.554	112.56
485.772	100.56
485.99	91.56
486.209	116.56
486.427	117.56
486.645	118.56
486.863	129.56
487.081	127.56
487.299	118.56
487.517	131.56
487.735	147.56
487.953	181.56
488.171	182.56
488.389	191.56
488.607	161.56
488.825	147.56
489.043	133.56
489.261	137.56
489.479	132.56
489.696	146.56
489.914	130.56
490.132	128.56
490.35	144.56
490.568	145.56
490.786	158.56
491.003	170.56
491.221	200.56
491.439	179.56
491.657	177.56
491.874	193.56
492.092	227.56
492.31	230.56
492.527	223.56
492.745	198.56
492.963	190.56
493.18	189.56
493.398	189.56
493.615	166.56
493.833	178.56
494.05	166.56
494.268	185.56
494.485	166.56
494.703	179.56
494.92	165.56
495.138	164.56
495.355	157.56
495.573	167.56
495.79	164.56
496.008	169.56
496.225	167.56
496.442	166.56
496.66	155.56
496.877	153.56
497.094	161.56
497.312	155.56
497.529	167.56
497.746	139.56
497.963	131.56
498.181	140.56
498.398	118.56
498.615	101.56
498.832	103.56
499.049	108.56
499.267	135.56
499.484	125.56
499.701	127.56
499.918	131.56
500.135	139.56
500.352	133.56
500.569	139.56
500.786	131.56
501.003	135.56
501.22	151.56
501.437	112.56
501.654	133.56
501.871	137.56
502.088	119.56
502.305	130.56
502.522	130.56
502.739	122.56
502.956	118.56
503.172	131.56
503.389	105.56
503.606	105.56
503.823	117.56
504.04	105.56
504.256	115.56
504.473	116.56
504.69	96.56
504.907	121.56
505.123	121.56
505.34	122.56
505.557	120.56
505.773	111.56
505.99	108.56
506.207	127.56
506.423	97.56
506.64	113.56
506.856	119.56
507.073	135.56
507.289	119.56
507.506	121.56
507.722	117.56
507.939	120.56
508.155	111.56
508.372	118.56
508.588	118.56
508.805	117.56
509.021	103.56
509.238	103.56
509.454	97.56
509.67	102.56
509.887	99.56
510.103	91.56
510.319	98.56
510.536	103.56
510.752	96.56
510.968	81.56
511.184	80.56
511.401	85.56
511.617	93.56
511.833	92.56
512.049	87.56
512.265	110.56
