Data from Location1.07152019.Energy5.Lamp.07192019.3%Agarose_HRD10591_14-32-09-018.txt Node
Date: Fri Jul 19 14:32:09 EDT 2019
User: cochatt
Spectrometer: HR+D1059
Trigger mode: 1
Integration Time (sec): 1.000000E-1
Scans to average: 1
Electric dark correction enabled: true
Nonlinearity correction enabled: false
Boxcar width: 0
XAxis mode: Wavelengths
Number of Pixels in Spectrum: 2048
>>>>>Begin Spectral Data<<<<<
223.165	-11.25
223.4	-11.25
223.635	-11.25
223.869	-17.25
224.104	-11.25
224.338	-22.25
224.573	-7.25
224.808	-18.25
225.042	-9.25
225.277	-5.25
225.511	-1.25
225.746	9.75
225.98	-3.25
226.215	7.75
226.449	21.75
226.683	23.75
226.918	11.75
227.152	31.75
227.387	31.75
227.621	39.75
227.856	37.75
228.09	54.75
228.324	55.75
228.559	63.75
228.793	67.75
229.027	82.75
229.262	61.75
229.496	71.75
229.73	76.75
229.964	67.75
230.199	77.75
230.433	85.75
230.667	81.75
230.901	89.75
231.136	83.75
231.37	82.75
231.604	94.75
231.838	69.75
232.072	73.75
232.306	78.75
232.541	83.75
232.775	82.75
233.009	82.75
233.243	93.75
233.477	90.75
233.711	86.75
233.945	65.75
234.179	64.75
234.413	89.75
234.647	78.75
234.881	73.75
235.115	88.75
235.349	79.75
235.583	92.75
235.817	80.75
236.051	74.75
236.285	80.75
236.519	79.75
236.753	76.75
236.987	87.75
237.221	82.75
237.455	80.75
237.689	81.75
237.922	85.75
238.156	70.75
238.39	98.75
238.624	92.75
238.858	70.75
239.091	75.75
239.325	78.75
239.559	76.75
239.793	90.75
240.027	98.75
240.26	96.75
240.494	76.75
240.728	80.75
240.961	87.75
241.195	75.75
241.429	89.75
241.662	81.75
241.896	86.75
242.13	76.75
242.363	62.75
242.597	87.75
242.83	81.75
243.064	93.75
243.298	80.75
243.531	79.75
243.765	82.75
243.998	83.75
244.232	79.75
244.465	83.75
244.699	80.75
244.932	87.75
245.166	69.75
245.399	76.75
245.633	89.75
245.866	73.75
246.099	82.75
246.333	83.75
246.566	92.75
246.8	93.75
247.033	96.75
247.266	74.75
247.5	83.75
247.733	73.75
247.966	81.75
248.2	82.75
248.433	71.75
248.666	75.75
248.899	84.75
249.133	95.75
249.366	75.75
249.599	80.75
249.832	80.75
250.066	83.75
250.299	93.75
250.532	76.75
250.765	68.75
250.998	92.75
251.231	86.75
251.465	85.75
251.698	80.75
251.931	76.75
252.164	85.75
252.397	86.75
252.63	79.75
252.863	86.75
253.096	85.75
253.329	83.75
253.562	92.75
253.795	92.75
254.028	65.75
254.261	85.75
254.494	85.75
254.727	77.75
254.96	71.75
255.193	86.75
255.426	84.75
255.659	75.75
255.892	78.75
256.124	71.75
256.357	94.75
256.59	83.75
256.823	76.75
257.056	86.75
257.289	88.75
257.521	82.75
257.754	83.75
257.987	90.75
258.22	90.75
258.452	76.75
258.685	89.75
258.918	89.75
259.151	82.75
259.383	83.75
259.616	81.75
259.849	79.75
260.081	87.75
260.314	81.75
260.547	92.75
260.779	80.75
261.012	83.75
261.244	69.75
261.477	90.75
261.71	79.75
261.942	87.75
262.175	96.75
262.407	92.75
262.64	95.75
262.872	69.75
263.105	82.75
263.337	81.75
263.57	87.75
263.802	82.75
264.035	88.75
264.267	76.75
264.499	90.75
264.732	71.75
264.964	76.75
265.197	69.75
265.429	93.75
265.661	76.75
265.894	84.75
266.126	88.75
266.358	90.75
266.591	87.75
266.823	85.75
267.055	86.75
267.287	83.75
267.52	91.75
267.752	73.75
267.984	90.75
268.216	89.75
268.448	83.75
268.681	77.75
268.913	91.75
269.145	85.75
269.377	89.75
269.609	93.75
269.841	86.75
270.073	92.75
270.306	90.75
270.538	86.75
270.77	97.75
271.002	95.75
271.234	77.75
271.466	78.75
271.698	77.75
271.93	91.75
272.162	93.75
272.394	83.75
272.626	95.75
272.858	77.75
273.09	86.75
273.322	93.75
273.553	81.75
273.785	79.75
274.017	90.75
274.249	84.75
274.481	86.75
274.713	87.75
274.945	83.75
275.176	78.75
275.408	81.75
275.64	89.75
275.872	83.75
276.104	100.75
276.335	76.75
276.567	78.75
276.799	95.75
277.031	91.75
277.262	93.75
277.494	79.75
277.726	81.75
277.957	80.75
278.189	90.75
278.421	72.75
278.652	87.75
278.884	92.75
279.115	83.75
279.347	80.75
279.579	78.75
279.81	86.75
280.042	98.75
280.273	87.75
280.505	85.75
280.736	95.75
280.968	83.75
281.199	95.75
281.431	92.75
281.662	103.75
281.894	93.75
282.125	93.75
282.356	87.75
282.588	73.75
282.819	95.75
283.051	83.75
283.282	101.75
283.513	89.75
283.745	79.75
283.976	85.75
284.207	96.75
284.439	86.75
284.67	86.75
284.901	102.75
285.132	85.75
285.364	93.75
285.595	88.75
285.826	83.75
286.057	83.75
286.288	91.75
286.52	82.75
286.751	89.75
286.982	83.75
287.213	95.75
287.444	85.75
287.675	91.75
287.906	90.75
288.138	86.75
288.369	104.75
288.6	74.75
288.831	89.75
289.062	96.75
289.293	84.75
289.524	84.75
289.755	89.75
289.986	91.75
290.217	82.75
290.448	95.75
290.679	99.75
290.91	80.75
291.141	87.75
291.371	88.75
291.602	85.75
291.833	89.75
292.064	79.75
292.295	95.75
292.526	81.75
292.757	80.75
292.987	80.75
293.218	88.75
293.449	87.75
293.68	99.75
293.91	90.75
294.141	76.75
294.372	91.75
294.603	115.75
294.833	70.75
295.064	91.75
295.295	92.75
295.525	80.75
295.756	83.75
295.987	87.75
296.217	77.75
296.448	82.75
296.679	92.75
296.909	86.75
297.14	91.75
297.37	90.75
297.601	90.75
297.831	78.75
298.062	81.75
298.292	91.75
298.523	98.75
298.753	84.75
298.984	97.75
299.214	86.75
299.445	89.75
299.675	78.75
299.905	92.75
300.136	84.75
300.366	87.75
300.597	91.75
300.827	96.75
301.057	92.75
301.288	96.75
301.518	83.75
301.748	93.75
301.979	90.75
302.209	99.75
302.439	96.75
302.669	83.75
302.9	93.75
303.13	101.75
303.36	83.75
303.59	71.75
303.82	86.75
304.051	79.75
304.281	78.75
304.511	93.75
304.741	77.75
304.971	95.75
305.201	89.75
305.431	92.75
305.661	81.75
305.891	81.75
306.121	94.75
306.352	98.75
306.582	91.75
306.812	71.75
307.042	90.75
307.272	100.75
307.502	75.75
307.731	95.75
307.961	91.75
308.191	70.75
308.421	79.75
308.651	84.75
308.881	91.75
309.111	93.75
309.341	84.75
309.571	93.75
309.8	90.75
310.03	96.75
310.26	86.75
310.49	87.75
310.72	90.75
310.949	91.75
311.179	88.75
311.409	85.75
311.639	101.75
311.868	77.75
312.098	94.75
312.328	84.75
312.557	78.75
312.787	89.75
313.017	91.75
313.246	79.75
313.476	74.75
313.706	98.75
313.935	81.75
314.165	86.75
314.394	90.75
314.624	83.75
314.853	83.75
315.083	94.75
315.312	81.75
315.542	98.75
315.771	100.75
316.001	90.75
316.23	80.75
316.46	83.75
316.689	77.75
316.919	98.75
317.148	101.75
317.377	95.75
317.607	92.75
317.836	90.75
318.065	90.75
318.295	104.75
318.524	86.75
318.753	87.75
318.983	75.75
319.212	83.75
319.441	84.75
319.67	93.75
319.9	89.75
320.129	91.75
320.358	101.75
320.587	92.75
320.816	94.75
321.046	104.75
321.275	109.75
321.504	83.75
321.733	100.75
321.962	88.75
322.191	105.75
322.42	88.75
322.649	97.75
322.878	89.75
323.108	84.75
323.337	92.75
323.566	84.75
323.795	77.75
324.024	94.75
324.253	83.75
324.482	97.75
324.71	94.75
324.939	84.75
325.168	98.75
325.397	106.75
325.626	103.75
325.855	82.75
326.084	76.75
326.313	90.75
326.542	84.75
326.77	107.75
326.999	81.75
327.228	94.75
327.457	79.75
327.686	82.75
327.914	83.75
328.143	95.75
328.372	90.75
328.6	80.75
328.829	91.75
329.058	94.75
329.287	88.75
329.515	94.75
329.744	89.75
329.972	73.75
330.201	88.75
330.43	89.75
330.658	82.75
330.887	93.75
331.115	80.75
331.344	79.75
331.572	96.75
331.801	91.75
332.03	74.75
332.258	89.75
332.486	87.75
332.715	87.75
332.943	89.75
333.172	84.75
333.4	90.75
333.629	97.75
333.857	92.75
334.085	81.75
334.314	76.75
334.542	90.75
334.771	93.75
334.999	84.75
335.227	81.75
335.455	90.75
335.684	84.75
335.912	95.75
336.14	106.75
336.369	83.75
336.597	88.75
336.825	85.75
337.053	89.75
337.281	102.75
337.51	90.75
337.738	90.75
337.966	103.75
338.194	82.75
338.422	89.75
338.65	99.75
338.878	84.75
339.106	78.75
339.334	81.75
339.562	81.75
339.79	91.75
340.018	85.75
340.246	81.75
340.474	83.75
340.702	80.75
340.93	97.75
341.158	100.75
341.386	79.75
341.614	82.75
341.842	93.75
342.07	80.75
342.298	79.75
342.526	90.75
342.754	88.75
342.981	86.75
343.209	85.75
343.437	91.75
343.665	79.75
343.893	100.75
344.12	99.75
344.348	89.75
344.576	92.75
344.804	73.75
345.031	78.75
345.259	92.75
345.487	89.75
345.714	102.75
345.942	94.75
346.17	82.75
346.397	62.75
346.625	98.75
346.853	92.75
347.08	92.75
347.308	90.75
347.535	85.75
347.763	90.75
347.99	95.75
348.218	82.75
348.445	82.75
348.673	98.75
348.9	74.75
349.128	91.75
349.355	84.75
349.583	99.75
349.81	82.75
350.037	78.75
350.265	84.75
350.492	81.75
350.72	82.75
350.947	101.75
351.174	96.75
351.402	80.75
351.629	77.75
351.856	80.75
352.083	74.75
352.311	87.75
352.538	88.75
352.765	91.75
352.992	91.75
353.22	101.75
353.447	85.75
353.674	88.75
353.901	99.75
354.128	89.75
354.355	81.75
354.583	76.75
354.81	91.75
355.037	85.75
355.264	82.75
355.491	96.75
355.718	95.75
355.945	91.75
356.172	85.75
356.399	81.75
356.626	89.75
356.853	85.75
357.08	89.75
357.307	73.75
357.534	84.75
357.761	73.75
357.988	79.75
358.215	91.75
358.441	87.75
358.668	95.75
358.895	88.75
359.122	85.75
359.349	77.75
359.576	95.75
359.802	90.75
360.029	92.75
360.256	97.75
360.483	85.75
360.709	94.75
360.936	83.75
361.163	83.75
361.39	72.75
361.616	94.75
361.843	75.75
362.07	83.75
362.296	96.75
362.523	86.75
362.749	82.75
362.976	81.75
363.203	85.75
363.429	87.75
363.656	93.75
363.882	70.75
364.109	98.75
364.335	93.75
364.562	86.75
364.788	78.75
365.015	73.75
365.241	91.75
365.468	96.75
365.694	77.75
365.92	88.75
366.147	108.75
366.373	93.75
366.599	86.75
366.826	93.75
367.052	101.75
367.278	88.75
367.505	80.75
367.731	97.75
367.957	89.75
368.184	98.75
368.41	99.75
368.636	84.75
368.862	99.75
369.089	93.75
369.315	84.75
369.541	93.75
369.767	87.75
369.993	107.75
370.219	81.75
370.445	101.75
370.672	112.75
370.898	82.75
371.124	94.75
371.35	91.75
371.576	90.75
371.802	97.75
372.028	92.75
372.254	98.75
372.48	83.75
372.706	98.75
372.932	102.75
373.158	108.75
373.384	101.75
373.61	82.75
373.835	93.75
374.061	90.75
374.287	89.75
374.513	97.75
374.739	92.75
374.965	101.75
375.191	89.75
375.416	108.75
375.642	112.75
375.868	86.75
376.094	106.75
376.319	94.75
376.545	107.75
376.771	105.75
376.997	103.75
377.222	95.75
377.448	102.75
377.674	93.75
377.899	92.75
378.125	97.75
378.35	99.75
378.576	86.75
378.802	100.75
379.027	104.75
379.253	93.75
379.478	107.75
379.704	107.75
379.929	104.75
380.155	94.75
380.38	103.75
380.606	80.75
380.831	106.75
381.057	113.75
381.282	100.75
381.507	99.75
381.733	88.75
381.958	87.75
382.184	97.75
382.409	96.75
382.634	88.75
382.86	93.75
383.085	91.75
383.31	113.75
383.535	111.75
383.761	99.75
383.986	91.75
384.211	114.75
384.436	97.75
384.662	101.75
384.887	96.75
385.112	96.75
385.337	110.75
385.562	98.75
385.787	80.75
386.013	105.75
386.238	104.75
386.463	105.75
386.688	81.75
386.913	90.75
387.138	91.75
387.363	102.75
387.588	113.75
387.813	97.75
388.038	93.75
388.263	108.75
388.488	116.75
388.713	101.75
388.938	89.75
389.163	82.75
389.387	110.75
389.612	114.75
389.837	111.75
390.062	105.75
390.287	82.75
390.512	110.75
390.736	96.75
390.961	112.75
391.186	115.75
391.411	97.75
391.636	110.75
391.86	107.75
392.085	106.75
392.31	95.75
392.534	110.75
392.759	109.75
392.984	105.75
393.208	105.75
393.433	111.75
393.658	118.75
393.882	101.75
394.107	106.75
394.331	96.75
394.556	104.75
394.78	99.75
395.005	123.75
395.229	104.75
395.454	100.75
395.678	104.75
395.903	112.75
396.127	113.75
396.352	110.75
396.576	108.75
396.801	109.75
397.025	123.75
397.249	112.75
397.474	120.75
397.698	132.75
397.922	109.75
398.147	78.75
398.371	105.75
398.595	109.75
398.82	116.75
399.044	109.75
399.268	97.75
399.492	114.75
399.717	112.75
399.941	106.75
400.165	105.75
400.389	98.75
400.613	111.75
400.837	109.75
401.062	110.75
401.286	120.75
401.51	115.75
401.734	124.75
401.958	109.75
402.182	105.75
402.406	109.75
402.63	107.75
402.854	115.75
403.078	127.75
403.302	102.75
403.526	112.75
403.75	109.75
403.974	103.75
404.198	114.75
404.422	113.75
404.645	112.75
404.869	107.75
405.093	131.75
405.317	109.75
405.541	129.75
405.765	125.75
405.988	117.75
406.212	130.75
406.436	123.75
406.66	111.75
406.883	119.75
407.107	121.75
407.331	109.75
407.555	105.75
407.778	121.75
408.002	114.75
408.226	117.75
408.449	121.75
408.673	118.75
408.896	123.75
409.12	130.75
409.344	128.75
409.567	125.75
409.791	113.75
410.014	127.75
410.238	127.75
410.461	125.75
410.685	136.75
410.908	110.75
411.132	114.75
411.355	124.75
411.578	131.75
411.802	125.75
412.025	122.75
412.249	117.75
412.472	135.75
412.695	127.75
412.919	123.75
413.142	126.75
413.365	119.75
413.589	119.75
413.812	123.75
414.035	126.75
414.258	130.75
414.482	128.75
414.705	124.75
414.928	124.75
415.151	122.75
415.374	121.75
415.597	124.75
415.821	117.75
416.044	121.75
416.267	127.75
416.49	129.75
416.713	114.75
416.936	127.75
417.159	135.75
417.382	134.75
417.605	129.75
417.828	146.75
418.051	126.75
418.274	126.75
418.497	129.75
418.72	115.75
418.943	131.75
419.166	141.75
419.389	142.75
419.611	134.75
419.834	134.75
420.057	122.75
420.28	134.75
420.503	133.75
420.726	121.75
420.948	125.75
421.171	136.75
421.394	136.75
421.617	142.75
421.839	147.75
422.062	132.75
422.285	127.75
422.507	117.75
422.73	117.75
422.953	121.75
423.175	122.75
423.398	137.75
423.621	131.75
423.843	126.75
424.066	131.75
424.288	146.75
424.511	139.75
424.733	145.75
424.956	150.75
425.178	145.75
425.401	139.75
425.623	145.75
425.846	152.75
426.068	127.75
426.291	127.75
426.513	130.75
426.735	117.75
426.958	141.75
427.18	132.75
427.402	130.75
427.625	131.75
427.847	136.75
428.069	129.75
428.292	145.75
428.514	145.75
428.736	122.75
428.958	128.75
429.181	121.75
429.403	132.75
429.625	125.75
429.847	129.75
430.069	130.75
430.292	135.75
430.514	145.75
430.736	113.75
430.958	133.75
431.18	125.75
431.402	129.75
431.624	119.75
431.846	103.75
432.068	96.75
432.29	93.75
432.512	123.75
432.734	129.75
432.956	133.75
433.178	137.75
433.4	131.75
433.622	145.75
433.844	142.75
434.066	136.75
434.287	117.75
434.509	95.75
434.731	113.75
434.953	121.75
435.175	108.75
435.397	142.75
435.618	92.75
435.84	123.75
436.062	105.75
436.284	129.75
436.505	133.75
436.727	124.75
436.949	141.75
437.17	131.75
437.392	125.75
437.614	102.75
437.835	111.75
438.057	101.75
438.278	100.75
438.5	125.75
438.721	122.75
438.943	136.75
439.165	124.75
439.386	146.75
439.608	154.75
439.829	139.75
440.05	147.75
440.272	148.75
440.493	153.75
440.715	145.75
440.936	142.75
441.158	145.75
441.379	133.75
441.6	133.75
441.822	145.75
442.043	145.75
442.264	137.75
442.486	147.75
442.707	129.75
442.928	137.75
443.149	141.75
443.371	137.75
443.592	129.75
443.813	136.75
444.034	133.75
444.255	141.75
444.476	142.75
444.698	152.75
444.919	141.75
445.14	279.75
445.361	209.75
445.582	163.75
445.803	153.75
446.024	168.75
446.245	146.75
446.466	145.75
446.687	135.75
446.908	156.75
447.129	154.75
447.35	155.75
447.571	146.75
447.792	157.75
448.013	152.75
448.234	155.75
448.455	147.75
448.675	138.75
448.896	138.75
449.117	141.75
449.338	129.75
449.559	145.75
449.779	135.75
450	140.75
450.221	132.75
450.442	130.75
450.662	131.75
450.883	134.75
451.104	127.75
451.324	155.75
451.545	128.75
451.766	134.75
451.986	122.75
452.207	137.75
452.428	117.75
452.648	126.75
452.869	111.75
453.089	118.75
453.31	129.75
453.53	107.75
453.751	109.75
453.971	100.75
454.192	109.75
454.412	114.75
454.633	126.75
454.853	147.75
455.073	122.75
455.294	122.75
455.514	108.75
455.734	130.75
455.955	119.75
456.175	115.75
456.395	111.75
456.616	113.75
456.836	101.75
457.056	120.75
457.276	103.75
457.497	115.75
457.717	108.75
457.937	100.75
458.157	99.75
458.377	110.75
458.598	114.75
458.818	96.75
459.038	83.75
459.258	91.75
459.478	99.75
459.698	113.75
459.918	98.75
460.138	110.75
460.358	108.75
460.578	125.75
460.798	121.75
461.018	117.75
461.238	121.75
461.458	126.75
461.678	119.75
461.898	99.75
462.118	111.75
462.338	101.75
462.558	108.75
462.777	99.75
462.997	106.75
463.217	123.75
463.437	98.75
463.657	111.75
463.876	98.75
464.096	118.75
464.316	120.75
464.536	100.75
464.755	121.75
464.975	142.75
465.195	120.75
465.414	108.75
465.634	108.75
465.854	122.75
466.073	125.75
466.293	118.75
466.512	130.75
466.732	142.75
466.951	132.75
467.171	135.75
467.391	130.75
467.61	129.75
467.829	144.75
468.049	123.75
468.268	130.75
468.488	130.75
468.707	126.75
468.927	137.75
469.146	144.75
469.365	136.75
469.585	139.75
469.804	134.75
470.023	144.75
470.243	133.75
470.462	133.75
470.681	152.75
470.901	149.75
471.12	137.75
471.339	126.75
471.558	136.75
471.777	134.75
471.997	141.75
472.216	123.75
472.435	127.75
472.654	99.75
472.873	119.75
473.092	130.75
473.311	133.75
473.53	126.75
473.749	134.75
473.968	133.75
474.187	126.75
474.406	130.75
474.625	125.75
474.844	122.75
475.063	126.75
475.282	131.75
475.501	127.75
475.72	127.75
475.939	130.75
476.158	121.75
476.377	119.75
476.596	125.75
476.814	125.75
477.033	117.75
477.252	112.75
477.471	130.75
477.69	145.75
477.908	146.75
478.127	138.75
478.346	135.75
478.564	141.75
478.783	133.75
479.002	137.75
479.22	131.75
479.439	129.75
479.658	127.75
479.876	114.75
480.095	102.75
480.313	124.75
480.532	123.75
480.751	110.75
480.969	91.75
481.188	96.75
481.406	105.75
481.624	88.75
481.843	78.75
482.061	105.75
482.28	121.75
482.498	119.75
482.717	118.75
482.935	144.75
483.153	128.75
483.372	148.75
483.59	147.75
483.808	141.75
484.027	135.75
484.245	143.75
484.463	154.75
484.681	169.75
484.9	158.75
485.118	143.75
485.336	137.75
485.554	117.75
485.772	97.75
485.99	103.75
486.209	109.75
486.427	115.75
486.645	141.75
486.863	140.75
487.081	136.75
487.299	135.75
487.517	152.75
487.735	161.75
487.953	185.75
488.171	156.75
488.389	181.75
488.607	170.75
488.825	133.75
489.043	126.75
489.261	135.75
489.479	137.75
489.696	142.75
489.914	135.75
490.132	137.75
490.35	151.75
490.568	158.75
490.786	164.75
491.003	176.75
491.221	169.75
491.439	196.75
491.657	189.75
491.874	189.75
492.092	215.75
492.31	236.75
492.527	226.75
492.745	197.75
492.963	211.75
493.18	188.75
493.398	187.75
493.615	183.75
493.833	162.75
494.05	165.75
494.268	153.75
494.485	173.75
494.703	193.75
494.92	175.75
495.138	170.75
495.355	174.75
495.573	175.75
495.79	163.75
496.008	177.75
496.225	171.75
496.442	149.75
496.66	170.75
496.877	165.75
497.094	168.75
497.312	157.75
497.529	160.75
497.746	142.75
497.963	138.75
498.181	129.75
498.398	125.75
498.615	125.75
498.832	114.75
499.049	109.75
499.267	122.75
499.484	123.75
499.701	130.75
499.918	145.75
500.135	142.75
500.352	144.75
500.569	145.75
500.786	156.75
501.003	135.75
501.22	123.75
501.437	140.75
501.654	143.75
501.871	129.75
502.088	131.75
502.305	137.75
502.522	120.75
502.739	141.75
502.956	142.75
503.172	115.75
503.389	134.75
503.606	109.75
503.823	126.75
504.04	130.75
504.256	120.75
504.473	126.75
504.69	113.75
504.907	123.75
505.123	113.75
505.34	124.75
505.557	122.75
505.773	126.75
505.99	132.75
506.207	108.75
506.423	121.75
506.64	121.75
506.856	125.75
507.073	118.75
507.289	118.75
507.506	122.75
507.722	110.75
507.939	121.75
508.155	119.75
508.372	120.75
508.588	117.75
508.805	111.75
509.021	114.75
509.238	98.75
509.454	94.75
509.67	96.75
509.887	95.75
510.103	109.75
510.319	80.75
510.536	90.75
510.752	85.75
510.968	77.75
511.184	89.75
