Data from Location1.07152019.Energy5.Lamp.07192019.3%Agarose_HRD10591_14-32-19-015.txt Node
Date: Fri Jul 19 14:32:19 EDT 2019
User: cochatt
Spectrometer: HR+D1059
Trigger mode: 1
Integration Time (sec): 1.000000E-1
Scans to average: 1
Electric dark correction enabled: true
Nonlinearity correction enabled: false
Boxcar width: 0
XAxis mode: Wavelengths
Number of Pixels in Spectrum: 2048
>>>>>Begin Spectral Data<<<<<
223.165	-19.56
223.4	-19.56
223.635	-19.56
223.869	-20.56
224.104	-8.56
224.338	-21.56
224.573	-10.56
224.808	-2.56
225.042	-15.56
225.277	-18.56
225.511	-10.56
225.746	2.44
225.98	13.44
226.215	10.44
226.449	29.44
226.683	23.44
226.918	19.44
227.152	29.44
227.387	40.44
227.621	33.44
227.856	56.44
228.09	36.44
228.324	59.44
228.559	57.44
228.793	75.44
229.027	60.44
229.262	68.44
229.496	78.44
229.73	69.44
229.964	67.44
230.199	80.44
230.433	84.44
230.667	83.44
230.901	76.44
231.136	78.44
231.37	67.44
231.604	78.44
231.838	90.44
232.072	85.44
232.306	76.44
232.541	96.44
232.775	85.44
233.009	85.44
233.243	92.44
233.477	92.44
233.711	84.44
233.945	94.44
234.179	72.44
234.413	85.44
234.647	85.44
234.881	69.44
235.115	92.44
235.349	81.44
235.583	95.44
235.817	87.44
236.051	83.44
236.285	93.44
236.519	84.44
236.753	79.44
236.987	68.44
237.221	75.44
237.455	69.44
237.689	75.44
237.922	62.44
238.156	75.44
238.39	75.44
238.624	76.44
238.858	76.44
239.091	66.44
239.325	76.44
239.559	75.44
239.793	79.44
240.027	90.44
240.26	84.44
240.494	67.44
240.728	75.44
240.961	75.44
241.195	73.44
241.429	79.44
241.662	72.44
241.896	67.44
242.13	75.44
242.363	85.44
242.597	86.44
242.83	73.44
243.064	81.44
243.298	76.44
243.531	77.44
243.765	70.44
243.998	87.44
244.232	65.44
244.465	83.44
244.699	85.44
244.932	75.44
245.166	79.44
245.399	61.44
245.633	77.44
245.866	81.44
246.099	82.44
246.333	79.44
246.566	74.44
246.8	82.44
247.033	73.44
247.266	88.44
247.5	87.44
247.733	70.44
247.966	74.44
248.2	68.44
248.433	80.44
248.666	85.44
248.899	87.44
249.133	73.44
249.366	84.44
249.599	75.44
249.832	78.44
250.066	79.44
250.299	79.44
250.532	72.44
250.765	76.44
250.998	84.44
251.231	80.44
251.465	72.44
251.698	80.44
251.931	80.44
252.164	89.44
252.397	87.44
252.63	92.44
252.863	86.44
253.096	78.44
253.329	76.44
253.562	70.44
253.795	82.44
254.028	86.44
254.261	87.44
254.494	72.44
254.727	88.44
254.96	85.44
255.193	77.44
255.426	68.44
255.659	82.44
255.892	80.44
256.124	79.44
256.357	71.44
256.59	80.44
256.823	78.44
257.056	78.44
257.289	85.44
257.521	71.44
257.754	72.44
257.987	81.44
258.22	83.44
258.452	83.44
258.685	78.44
258.918	88.44
259.151	89.44
259.383	95.44
259.616	72.44
259.849	89.44
260.081	76.44
260.314	81.44
260.547	81.44
260.779	73.44
261.012	88.44
261.244	87.44
261.477	75.44
261.71	91.44
261.942	75.44
262.175	76.44
262.407	89.44
262.64	64.44
262.872	91.44
263.105	76.44
263.337	100.44
263.57	85.44
263.802	81.44
264.035	79.44
264.267	88.44
264.499	83.44
264.732	81.44
264.964	76.44
265.197	94.44
265.429	76.44
265.661	79.44
265.894	75.44
266.126	92.44
266.358	71.44
266.591	85.44
266.823	94.44
267.055	88.44
267.287	87.44
267.52	87.44
267.752	83.44
267.984	78.44
268.216	83.44
268.448	86.44
268.681	99.44
268.913	94.44
269.145	77.44
269.377	83.44
269.609	85.44
269.841	88.44
270.073	81.44
270.306	108.44
270.538	86.44
270.77	83.44
271.002	77.44
271.234	84.44
271.466	87.44
271.698	83.44
271.93	67.44
272.162	79.44
272.394	81.44
272.626	83.44
272.858	88.44
273.09	79.44
273.322	78.44
273.553	71.44
273.785	87.44
274.017	80.44
274.249	78.44
274.481	91.44
274.713	84.44
274.945	88.44
275.176	88.44
275.408	91.44
275.64	84.44
275.872	89.44
276.104	89.44
276.335	87.44
276.567	83.44
276.799	90.44
277.031	88.44
277.262	77.44
277.494	87.44
277.726	87.44
277.957	80.44
278.189	84.44
278.421	83.44
278.652	81.44
278.884	87.44
279.115	81.44
279.347	81.44
279.579	87.44
279.81	92.44
280.042	81.44
280.273	75.44
280.505	87.44
280.736	94.44
280.968	89.44
281.199	95.44
281.431	86.44
281.662	92.44
281.894	94.44
282.125	86.44
282.356	97.44
282.588	82.44
282.819	75.44
283.051	85.44
283.282	67.44
283.513	85.44
283.745	84.44
283.976	77.44
284.207	99.44
284.439	87.44
284.67	88.44
284.901	80.44
285.132	100.44
285.364	85.44
285.595	81.44
285.826	74.44
286.057	79.44
286.288	87.44
286.52	76.44
286.751	92.44
286.982	85.44
287.213	82.44
287.444	80.44
287.675	77.44
287.906	81.44
288.138	92.44
288.369	87.44
288.6	89.44
288.831	73.44
289.062	93.44
289.293	81.44
289.524	86.44
289.755	76.44
289.986	85.44
290.217	90.44
290.448	87.44
290.679	74.44
290.91	80.44
291.141	88.44
291.371	88.44
291.602	87.44
291.833	87.44
292.064	95.44
292.295	91.44
292.526	86.44
292.757	84.44
292.987	84.44
293.218	97.44
293.449	87.44
293.68	90.44
293.91	85.44
294.141	99.44
294.372	79.44
294.603	79.44
294.833	86.44
295.064	81.44
295.295	76.44
295.525	84.44
295.756	86.44
295.987	84.44
296.217	89.44
296.448	101.44
296.679	83.44
296.909	81.44
297.14	69.44
297.37	80.44
297.601	77.44
297.831	86.44
298.062	93.44
298.292	85.44
298.523	80.44
298.753	82.44
298.984	79.44
299.214	85.44
299.445	92.44
299.675	79.44
299.905	88.44
300.136	93.44
300.366	83.44
300.597	92.44
300.827	93.44
301.057	97.44
301.288	99.44
301.518	74.44
301.748	80.44
301.979	72.44
302.209	83.44
302.439	83.44
302.669	62.44
302.9	82.44
303.13	88.44
303.36	93.44
303.59	82.44
303.82	73.44
304.051	80.44
304.281	96.44
304.511	94.44
304.741	76.44
304.971	97.44
305.201	87.44
305.431	93.44
305.661	77.44
305.891	88.44
306.121	87.44
306.352	82.44
306.582	90.44
306.812	89.44
307.042	81.44
307.272	90.44
307.502	67.44
307.731	75.44
307.961	88.44
308.191	94.44
308.421	75.44
308.651	96.44
308.881	89.44
309.111	86.44
309.341	84.44
309.571	97.44
309.8	86.44
310.03	95.44
310.26	78.44
310.49	83.44
310.72	73.44
310.949	83.44
311.179	69.44
311.409	89.44
311.639	75.44
311.868	86.44
312.098	92.44
312.328	84.44
312.557	77.44
312.787	87.44
313.017	62.44
313.246	77.44
313.476	83.44
313.706	90.44
313.935	105.44
314.165	88.44
314.394	67.44
314.624	81.44
314.853	82.44
315.083	82.44
315.312	75.44
315.542	92.44
315.771	79.44
316.001	80.44
316.23	89.44
316.46	89.44
316.689	81.44
316.919	82.44
317.148	74.44
317.377	84.44
317.607	71.44
317.836	81.44
318.065	87.44
318.295	86.44
318.524	83.44
318.753	86.44
318.983	74.44
319.212	73.44
319.441	84.44
319.67	79.44
319.9	76.44
320.129	88.44
320.358	91.44
320.587	80.44
320.816	86.44
321.046	85.44
321.275	89.44
321.504	70.44
321.733	90.44
321.962	84.44
322.191	92.44
322.42	83.44
322.649	84.44
322.878	92.44
323.108	91.44
323.337	84.44
323.566	82.44
323.795	91.44
324.024	86.44
324.253	91.44
324.482	76.44
324.71	86.44
324.939	87.44
325.168	92.44
325.397	87.44
325.626	84.44
325.855	88.44
326.084	83.44
326.313	86.44
326.542	89.44
326.77	74.44
326.999	86.44
327.228	89.44
327.457	88.44
327.686	81.44
327.914	80.44
328.143	82.44
328.372	85.44
328.6	80.44
328.829	94.44
329.058	83.44
329.287	80.44
329.515	80.44
329.744	62.44
329.972	80.44
330.201	92.44
330.43	76.44
330.658	91.44
330.887	89.44
331.115	82.44
331.344	80.44
331.572	94.44
331.801	83.44
332.03	92.44
332.258	86.44
332.486	81.44
332.715	89.44
332.943	96.44
333.172	95.44
333.4	78.44
333.629	81.44
333.857	95.44
334.085	86.44
334.314	91.44
334.542	90.44
334.771	73.44
334.999	92.44
335.227	91.44
335.455	91.44
335.684	85.44
335.912	93.44
336.14	84.44
336.369	101.44
336.597	88.44
336.825	106.44
337.053	87.44
337.281	85.44
337.51	88.44
337.738	91.44
337.966	89.44
338.194	97.44
338.422	91.44
338.65	90.44
338.878	96.44
339.106	94.44
339.334	87.44
339.562	80.44
339.79	78.44
340.018	91.44
340.246	93.44
340.474	84.44
340.702	83.44
340.93	81.44
341.158	75.44
341.386	80.44
341.614	88.44
341.842	81.44
342.07	85.44
342.298	73.44
342.526	92.44
342.754	102.44
342.981	103.44
343.209	91.44
343.437	87.44
343.665	88.44
343.893	95.44
344.12	87.44
344.348	83.44
344.576	103.44
344.804	84.44
345.031	81.44
345.259	91.44
345.487	75.44
345.714	77.44
345.942	98.44
346.17	86.44
346.397	87.44
346.625	80.44
346.853	89.44
347.08	83.44
347.308	88.44
347.535	99.44
347.763	92.44
347.99	85.44
348.218	90.44
348.445	78.44
348.673	80.44
348.9	72.44
349.128	95.44
349.355	85.44
349.583	80.44
349.81	81.44
350.037	80.44
350.265	72.44
350.492	76.44
350.72	95.44
350.947	86.44
351.174	87.44
351.402	76.44
351.629	77.44
351.856	83.44
352.083	88.44
352.311	80.44
352.538	98.44
352.765	90.44
352.992	86.44
353.22	86.44
353.447	81.44
353.674	88.44
353.901	85.44
354.128	84.44
354.355	95.44
354.583	79.44
354.81	91.44
355.037	85.44
355.264	82.44
355.491	85.44
355.718	85.44
355.945	94.44
356.172	63.44
356.399	76.44
356.626	82.44
356.853	76.44
357.08	85.44
357.307	79.44
357.534	78.44
357.761	92.44
357.988	86.44
358.215	84.44
358.441	98.44
358.668	85.44
358.895	80.44
359.122	88.44
359.349	90.44
359.576	84.44
359.802	86.44
360.029	71.44
360.256	92.44
360.483	92.44
360.709	89.44
360.936	115.44
361.163	88.44
361.39	99.44
361.616	83.44
361.843	81.44
362.07	77.44
362.296	83.44
362.523	80.44
362.749	79.44
362.976	86.44
363.203	87.44
363.429	79.44
363.656	90.44
363.882	74.44
364.109	90.44
364.335	85.44
364.562	80.44
364.788	76.44
365.015	89.44
365.241	88.44
365.468	93.44
365.694	81.44
365.92	89.44
366.147	88.44
366.373	88.44
366.599	85.44
366.826	85.44
367.052	89.44
367.278	86.44
367.505	103.44
367.731	93.44
367.957	87.44
368.184	91.44
368.41	87.44
368.636	89.44
368.862	82.44
369.089	87.44
369.315	92.44
369.541	91.44
369.767	86.44
369.993	85.44
370.219	99.44
370.445	100.44
370.672	96.44
370.898	115.44
371.124	88.44
371.35	97.44
371.576	91.44
371.802	89.44
372.028	88.44
372.254	72.44
372.48	79.44
372.706	90.44
372.932	85.44
373.158	88.44
373.384	89.44
373.61	106.44
373.835	97.44
374.061	84.44
374.287	87.44
374.513	96.44
374.739	101.44
374.965	105.44
375.191	95.44
375.416	97.44
375.642	89.44
375.868	88.44
376.094	106.44
376.319	111.44
376.545	97.44
376.771	97.44
376.997	95.44
377.222	96.44
377.448	107.44
377.674	101.44
377.899	95.44
378.125	106.44
378.35	108.44
378.576	84.44
378.802	95.44
379.027	94.44
379.253	103.44
379.478	92.44
379.704	92.44
379.929	99.44
380.155	91.44
380.38	96.44
380.606	95.44
380.831	81.44
381.057	100.44
381.282	91.44
381.507	99.44
381.733	97.44
381.958	107.44
382.184	106.44
382.409	102.44
382.634	98.44
382.86	118.44
383.085	94.44
383.31	96.44
383.535	104.44
383.761	94.44
383.986	98.44
384.211	89.44
384.436	96.44
384.662	99.44
384.887	88.44
385.112	83.44
385.337	96.44
385.562	98.44
385.787	101.44
386.013	106.44
386.238	95.44
386.463	98.44
386.688	103.44
386.913	119.44
387.138	94.44
387.363	102.44
387.588	111.44
387.813	96.44
388.038	100.44
388.263	93.44
388.488	94.44
388.713	108.44
388.938	108.44
389.163	110.44
389.387	113.44
389.612	101.44
389.837	107.44
390.062	111.44
390.287	107.44
390.512	121.44
390.736	104.44
390.961	104.44
391.186	109.44
391.411	115.44
391.636	112.44
391.86	109.44
392.085	103.44
392.31	99.44
392.534	93.44
392.759	110.44
392.984	103.44
393.208	111.44
393.433	101.44
393.658	104.44
393.882	109.44
394.107	104.44
394.331	106.44
394.556	110.44
394.78	116.44
395.005	98.44
395.229	104.44
395.454	118.44
395.678	108.44
395.903	102.44
396.127	116.44
396.352	100.44
396.576	99.44
396.801	96.44
397.025	101.44
397.249	109.44
397.474	101.44
397.698	108.44
397.922	105.44
398.147	112.44
398.371	117.44
398.595	105.44
398.82	115.44
399.044	108.44
399.268	94.44
399.492	116.44
399.717	99.44
399.941	104.44
400.165	115.44
400.389	113.44
400.613	119.44
400.837	123.44
401.062	120.44
401.286	115.44
401.51	102.44
401.734	121.44
401.958	100.44
402.182	103.44
402.406	116.44
402.63	112.44
402.854	102.44
403.078	125.44
403.302	111.44
403.526	118.44
403.75	125.44
403.974	121.44
404.198	108.44
404.422	125.44
404.645	119.44
404.869	115.44
405.093	109.44
405.317	110.44
405.541	125.44
405.765	104.44
405.988	119.44
406.212	106.44
406.436	120.44
406.66	120.44
406.883	115.44
407.107	111.44
407.331	119.44
407.555	117.44
407.778	100.44
408.002	124.44
408.226	116.44
408.449	110.44
408.673	104.44
408.896	121.44
409.12	129.44
409.344	115.44
409.567	117.44
409.791	120.44
410.014	139.44
410.238	111.44
410.461	118.44
410.685	119.44
410.908	133.44
411.132	124.44
411.355	123.44
411.578	124.44
411.802	127.44
412.025	116.44
412.249	125.44
412.472	113.44
412.695	120.44
412.919	113.44
413.142	127.44
413.365	119.44
413.589	121.44
413.812	116.44
414.035	117.44
414.258	127.44
414.482	125.44
414.705	121.44
414.928	133.44
415.151	108.44
415.374	125.44
415.597	123.44
415.821	124.44
416.044	119.44
416.267	124.44
416.49	133.44
416.713	125.44
416.936	131.44
417.159	145.44
417.382	131.44
417.605	126.44
417.828	128.44
418.051	140.44
418.274	137.44
418.497	143.44
418.72	131.44
418.943	130.44
419.166	131.44
419.389	141.44
419.611	131.44
419.834	140.44
420.057	132.44
420.28	127.44
420.503	139.44
420.726	131.44
420.948	136.44
421.171	135.44
421.394	139.44
421.617	144.44
421.839	127.44
422.062	126.44
422.285	141.44
422.507	131.44
422.73	119.44
422.953	126.44
423.175	127.44
423.398	133.44
423.621	135.44
423.843	127.44
424.066	144.44
424.288	138.44
424.511	139.44
424.733	134.44
424.956	131.44
425.178	130.44
425.401	127.44
425.623	146.44
425.846	118.44
426.068	128.44
426.291	127.44
426.513	127.44
426.735	135.44
426.958	125.44
427.18	124.44
427.402	125.44
427.625	138.44
427.847	134.44
428.069	136.44
428.292	127.44
428.514	120.44
428.736	141.44
428.958	133.44
429.181	117.44
429.403	126.44
429.625	127.44
429.847	125.44
430.069	128.44
430.292	118.44
430.514	117.44
430.736	118.44
430.958	122.44
431.18	132.44
431.402	151.44
431.624	122.44
431.846	111.44
432.068	95.44
432.29	111.44
432.512	100.44
432.734	128.44
432.956	131.44
433.178	139.44
433.4	127.44
433.622	124.44
433.844	132.44
434.066	133.44
434.287	105.44
434.509	104.44
434.731	104.44
434.953	114.44
435.175	142.44
435.397	132.44
435.618	118.44
435.84	96.44
436.062	111.44
436.284	118.44
436.505	121.44
436.727	134.44
436.949	129.44
437.17	122.44
437.392	115.44
437.614	115.44
437.835	111.44
438.057	119.44
438.278	124.44
438.5	124.44
438.721	139.44
438.943	135.44
439.165	128.44
439.386	131.44
439.608	151.44
439.829	139.44
440.05	153.44
440.272	155.44
440.493	137.44
440.715	137.44
440.936	140.44
441.158	137.44
441.379	149.44
441.6	147.44
441.822	143.44
442.043	136.44
442.264	142.44
442.486	132.44
442.707	133.44
442.928	127.44
443.149	128.44
443.371	138.44
443.592	147.44
443.813	130.44
444.034	147.44
444.255	135.44
444.476	143.44
444.698	136.44
444.919	136.44
445.14	249.44
445.361	193.44
445.582	176.44
445.803	149.44
446.024	145.44
446.245	140.44
446.466	164.44
446.687	152.44
446.908	145.44
447.129	150.44
447.35	150.44
447.571	149.44
447.792	153.44
448.013	138.44
448.234	157.44
448.455	144.44
448.675	133.44
448.896	119.44
449.117	125.44
449.338	126.44
449.559	145.44
449.779	143.44
450	141.44
450.221	139.44
450.442	141.44
450.662	133.44
450.883	128.44
451.104	147.44
451.324	131.44
451.545	139.44
451.766	144.44
451.986	140.44
452.207	130.44
452.428	126.44
452.648	119.44
452.869	130.44
453.089	119.44
453.31	106.44
453.53	115.44
453.751	108.44
453.971	87.44
454.192	117.44
454.412	111.44
454.633	109.44
454.853	116.44
455.073	113.44
455.294	110.44
455.514	130.44
455.734	110.44
455.955	117.44
456.175	104.44
456.395	114.44
456.616	121.44
456.836	95.44
457.056	107.44
457.276	112.44
457.497	110.44
457.717	110.44
457.937	101.44
458.157	128.44
458.377	121.44
458.598	106.44
458.818	101.44
459.038	85.44
459.258	99.44
459.478	89.44
459.698	99.44
459.918	106.44
460.138	106.44
460.358	110.44
460.578	124.44
460.798	115.44
461.018	127.44
461.238	122.44
461.458	110.44
461.678	106.44
461.898	113.44
462.118	118.44
462.338	122.44
462.558	128.44
462.777	105.44
462.997	107.44
463.217	115.44
463.437	114.44
463.657	100.44
463.876	104.44
464.096	119.44
464.316	119.44
464.536	118.44
464.755	129.44
464.975	119.44
465.195	121.44
465.414	117.44
465.634	127.44
465.854	114.44
466.073	123.44
466.293	121.44
466.512	133.44
466.732	124.44
466.951	143.44
467.171	129.44
467.391	138.44
467.61	129.44
467.829	127.44
468.049	135.44
468.268	121.44
468.488	129.44
468.707	134.44
468.927	149.44
469.146	139.44
469.365	125.44
469.585	143.44
469.804	150.44
470.023	121.44
470.243	137.44
470.462	135.44
470.681	139.44
470.901	136.44
471.12	141.44
471.339	145.44
471.558	144.44
471.777	138.44
471.997	138.44
472.216	127.44
472.435	129.44
472.654	110.44
472.873	115.44
473.092	124.44
473.311	138.44
473.53	126.44
473.749	130.44
473.968	127.44
474.187	111.44
474.406	125.44
474.625	125.44
474.844	135.44
475.063	128.44
475.282	126.44
475.501	123.44
475.72	121.44
475.939	120.44
476.158	131.44
476.377	132.44
476.596	117.44
476.814	94.44
477.033	123.44
477.252	119.44
477.471	134.44
477.69	115.44
477.908	137.44
478.127	133.44
478.346	126.44
478.564	131.44
478.783	131.44
479.002	150.44
479.22	143.44
479.439	134.44
479.658	133.44
479.876	105.44
480.095	110.44
480.313	116.44
480.532	106.44
480.751	112.44
480.969	94.44
481.188	103.44
481.406	103.44
481.624	81.44
481.843	92.44
482.061	91.44
482.28	103.44
482.498	118.44
482.717	115.44
482.935	124.44
483.153	124.44
483.372	150.44
483.59	139.44
483.808	134.44
484.027	125.44
484.245	131.44
484.463	129.44
484.681	156.44
484.9	155.44
485.118	145.44
485.336	135.44
485.554	94.44
485.772	107.44
485.99	106.44
486.209	103.44
486.427	100.44
486.645	126.44
486.863	143.44
487.081	144.44
487.299	149.44
487.517	149.44
487.735	165.44
487.953	194.44
488.171	162.44
488.389	161.44
488.607	152.44
488.825	135.44
489.043	134.44
489.261	133.44
489.479	138.44
489.696	146.44
489.914	148.44
490.132	146.44
490.35	139.44
490.568	142.44
490.786	163.44
491.003	177.44
491.221	152.44
491.439	182.44
491.657	189.44
491.874	203.44
492.092	226.44
492.31	255.44
492.527	217.44
492.745	200.44
492.963	197.44
493.18	197.44
493.398	188.44
493.615	164.44
493.833	179.44
494.05	179.44
494.268	165.44
494.485	166.44
494.703	154.44
494.92	167.44
495.138	171.44
495.355	181.44
495.573	169.44
495.79	168.44
496.008	161.44
496.225	166.44
496.442	175.44
496.66	176.44
496.877	169.44
497.094	162.44
497.312	159.44
497.529	142.44
497.746	160.44
497.963	138.44
498.181	141.44
498.398	116.44
498.615	123.44
498.832	109.44
499.049	128.44
499.267	120.44
499.484	125.44
499.701	132.44
499.918	148.44
500.135	132.44
500.352	141.44
500.569	147.44
500.786	140.44
501.003	147.44
501.22	139.44
501.437	147.44
501.654	112.44
501.871	136.44
502.088	132.44
502.305	128.44
502.522	131.44
502.739	135.44
502.956	124.44
503.172	139.44
503.389	96.44
503.606	122.44
503.823	111.44
504.04	118.44
504.256	126.44
504.473	123.44
504.69	121.44
504.907	126.44
505.123	95.44
505.34	124.44
505.557	123.44
505.773	127.44
505.99	125.44
506.207	122.44
506.423	118.44
506.64	107.44
506.856	115.44
507.073	117.44
507.289	118.44
507.506	107.44
507.722	113.44
507.939	122.44
508.155	111.44
508.372	117.44
508.588	115.44
508.805	112.44
509.021	103.44
509.238	116.44
509.454	93.44
509.67	110.44
509.887	102.44
510.103	87.44
510.319	95.44
510.536	93.44
510.752	89.44
510.968	98.44
511.184	85.44
511.401	81.44
