Data from Location1.07152019.Energy5.Lamp.07192019.3%Agarose_HRD10591_14-32-44-015.txt Node
Date: Fri Jul 19 14:32:44 EDT 2019
User: cochatt
Spectrometer: HR+D1059
Trigger mode: 1
Integration Time (sec): 1.000000E-1
Scans to average: 1
Electric dark correction enabled: true
Nonlinearity correction enabled: false
Boxcar width: 0
XAxis mode: Wavelengths
Number of Pixels in Spectrum: 2048
>>>>>Begin Spectral Data<<<<<
223.165	-4.12
223.4	-4.12
223.635	-4.12
223.869	-14.12
224.104	-17.12
224.338	-14.12
224.573	-3.12
224.808	-11.12
225.042	-4.12
225.277	-20.12
225.511	-8.12
225.746	0.88
225.98	1.88
226.215	13.88
226.449	8.88
226.683	22.88
226.918	20.88
227.152	26.88
227.387	37.88
227.621	31.88
227.856	49.88
228.09	52.88
228.324	55.88
228.559	56.88
228.793	49.88
229.027	44.88
229.262	57.88
229.496	62.88
229.73	74.88
229.964	75.88
230.199	73.88
230.433	74.88
230.667	77.88
230.901	74.88
231.136	90.88
231.37	77.88
231.604	87.88
231.838	77.88
232.072	84.88
232.306	78.88
232.541	88.88
232.775	79.88
233.009	72.88
233.243	68.88
233.477	89.88
233.711	79.88
233.945	97.88
234.179	87.88
234.413	88.88
234.647	73.88
234.881	63.88
235.115	86.88
235.349	74.88
235.583	85.88
235.817	89.88
236.051	90.88
236.285	88.88
236.519	74.88
236.753	85.88
236.987	92.88
237.221	74.88
237.455	78.88
237.689	68.88
237.922	74.88
238.156	76.88
238.39	65.88
238.624	82.88
238.858	82.88
239.091	77.88
239.325	90.88
239.559	69.88
239.793	68.88
240.027	74.88
240.26	74.88
240.494	71.88
240.728	74.88
240.961	76.88
241.195	63.88
241.429	79.88
241.662	78.88
241.896	75.88
242.13	76.88
242.363	63.88
242.597	85.88
242.83	77.88
243.064	82.88
243.298	81.88
243.531	66.88
243.765	88.88
243.998	68.88
244.232	77.88
244.465	87.88
244.699	88.88
244.932	85.88
245.166	75.88
245.399	82.88
245.633	77.88
245.866	83.88
246.099	83.88
246.333	73.88
246.566	84.88
246.8	59.88
247.033	65.88
247.266	77.88
247.5	72.88
247.733	67.88
247.966	71.88
248.2	84.88
248.433	88.88
248.666	67.88
248.899	79.88
249.133	74.88
249.366	78.88
249.599	84.88
249.832	73.88
250.066	86.88
250.299	89.88
250.532	79.88
250.765	81.88
250.998	75.88
251.231	74.88
251.465	81.88
251.698	79.88
251.931	70.88
252.164	84.88
252.397	78.88
252.63	82.88
252.863	79.88
253.096	80.88
253.329	77.88
253.562	88.88
253.795	80.88
254.028	78.88
254.261	88.88
254.494	89.88
254.727	69.88
254.96	68.88
255.193	71.88
255.426	66.88
255.659	80.88
255.892	79.88
256.124	65.88
256.357	66.88
256.59	73.88
256.823	70.88
257.056	98.88
257.289	79.88
257.521	74.88
257.754	67.88
257.987	89.88
258.22	82.88
258.452	81.88
258.685	92.88
258.918	81.88
259.151	85.88
259.383	87.88
259.616	98.88
259.849	83.88
260.081	85.88
260.314	86.88
260.547	78.88
260.779	76.88
261.012	81.88
261.244	81.88
261.477	88.88
261.71	86.88
261.942	74.88
262.175	82.88
262.407	81.88
262.64	73.88
262.872	74.88
263.105	85.88
263.337	75.88
263.57	78.88
263.802	95.88
264.035	76.88
264.267	78.88
264.499	90.88
264.732	94.88
264.964	79.88
265.197	86.88
265.429	89.88
265.661	70.88
265.894	75.88
266.126	79.88
266.358	85.88
266.591	83.88
266.823	71.88
267.055	84.88
267.287	85.88
267.52	72.88
267.752	90.88
267.984	76.88
268.216	78.88
268.448	103.88
268.681	91.88
268.913	74.88
269.145	82.88
269.377	68.88
269.609	70.88
269.841	71.88
270.073	75.88
270.306	86.88
270.538	86.88
270.77	77.88
271.002	73.88
271.234	94.88
271.466	84.88
271.698	81.88
271.93	67.88
272.162	76.88
272.394	94.88
272.626	84.88
272.858	92.88
273.09	92.88
273.322	77.88
273.553	74.88
273.785	75.88
274.017	73.88
274.249	77.88
274.481	87.88
274.713	87.88
274.945	83.88
275.176	102.88
275.408	79.88
275.64	84.88
275.872	76.88
276.104	77.88
276.335	91.88
276.567	86.88
276.799	72.88
277.031	95.88
277.262	85.88
277.494	75.88
277.726	89.88
277.957	73.88
278.189	92.88
278.421	80.88
278.652	97.88
278.884	79.88
279.115	91.88
279.347	70.88
279.579	85.88
279.81	88.88
280.042	98.88
280.273	87.88
280.505	86.88
280.736	81.88
280.968	74.88
281.199	90.88
281.431	78.88
281.662	102.88
281.894	74.88
282.125	78.88
282.356	91.88
282.588	94.88
282.819	83.88
283.051	69.88
283.282	78.88
283.513	83.88
283.745	84.88
283.976	72.88
284.207	81.88
284.439	89.88
284.67	83.88
284.901	77.88
285.132	85.88
285.364	78.88
285.595	85.88
285.826	74.88
286.057	89.88
286.288	80.88
286.52	87.88
286.751	84.88
286.982	86.88
287.213	84.88
287.444	94.88
287.675	86.88
287.906	86.88
288.138	76.88
288.369	76.88
288.6	73.88
288.831	85.88
289.062	77.88
289.293	89.88
289.524	90.88
289.755	75.88
289.986	75.88
290.217	85.88
290.448	97.88
290.679	97.88
290.91	75.88
291.141	93.88
291.371	89.88
291.602	80.88
291.833	68.88
292.064	87.88
292.295	101.88
292.526	76.88
292.757	83.88
292.987	73.88
293.218	90.88
293.449	82.88
293.68	92.88
293.91	80.88
294.141	84.88
294.372	73.88
294.603	79.88
294.833	97.88
295.064	70.88
295.295	85.88
295.525	93.88
295.756	97.88
295.987	83.88
296.217	98.88
296.448	90.88
296.679	78.88
296.909	85.88
297.14	88.88
297.37	83.88
297.601	79.88
297.831	69.88
298.062	86.88
298.292	90.88
298.523	85.88
298.753	85.88
298.984	89.88
299.214	86.88
299.445	79.88
299.675	91.88
299.905	83.88
300.136	90.88
300.366	73.88
300.597	89.88
300.827	99.88
301.057	88.88
301.288	82.88
301.518	79.88
301.748	69.88
301.979	81.88
302.209	106.88
302.439	110.88
302.669	94.88
302.9	69.88
303.13	83.88
303.36	87.88
303.59	97.88
303.82	81.88
304.051	69.88
304.281	91.88
304.511	89.88
304.741	81.88
304.971	84.88
305.201	76.88
305.431	93.88
305.661	90.88
305.891	86.88
306.121	87.88
306.352	95.88
306.582	95.88
306.812	76.88
307.042	88.88
307.272	85.88
307.502	85.88
307.731	75.88
307.961	90.88
308.191	84.88
308.421	83.88
308.651	90.88
308.881	97.88
309.111	87.88
309.341	77.88
309.571	82.88
309.8	79.88
310.03	96.88
310.26	84.88
310.49	87.88
310.72	87.88
310.949	83.88
311.179	88.88
311.409	96.88
311.639	93.88
311.868	85.88
312.098	102.88
312.328	78.88
312.557	85.88
312.787	88.88
313.017	90.88
313.246	91.88
313.476	79.88
313.706	74.88
313.935	88.88
314.165	84.88
314.394	85.88
314.624	101.88
314.853	92.88
315.083	89.88
315.312	79.88
315.542	86.88
315.771	80.88
316.001	93.88
316.23	73.88
316.46	89.88
316.689	96.88
316.919	91.88
317.148	85.88
317.377	89.88
317.607	86.88
317.836	85.88
318.065	84.88
318.295	93.88
318.524	88.88
318.753	87.88
318.983	78.88
319.212	98.88
319.441	81.88
319.67	84.88
319.9	73.88
320.129	89.88
320.358	85.88
320.587	89.88
320.816	95.88
321.046	86.88
321.275	82.88
321.504	87.88
321.733	82.88
321.962	90.88
322.191	85.88
322.42	85.88
322.649	100.88
322.878	87.88
323.108	88.88
323.337	71.88
323.566	85.88
323.795	81.88
324.024	96.88
324.253	71.88
324.482	81.88
324.71	79.88
324.939	83.88
325.168	90.88
325.397	93.88
325.626	83.88
325.855	85.88
326.084	88.88
326.313	85.88
326.542	90.88
326.77	73.88
326.999	82.88
327.228	77.88
327.457	90.88
327.686	89.88
327.914	92.88
328.143	87.88
328.372	93.88
328.6	82.88
328.829	71.88
329.058	87.88
329.287	89.88
329.515	79.88
329.744	95.88
329.972	84.88
330.201	82.88
330.43	82.88
330.658	94.88
330.887	89.88
331.115	95.88
331.344	72.88
331.572	92.88
331.801	93.88
332.03	79.88
332.258	85.88
332.486	76.88
332.715	88.88
332.943	77.88
333.172	82.88
333.4	88.88
333.629	96.88
333.857	83.88
334.085	73.88
334.314	90.88
334.542	89.88
334.771	87.88
334.999	88.88
335.227	77.88
335.455	83.88
335.684	89.88
335.912	62.88
336.14	78.88
336.369	84.88
336.597	76.88
336.825	90.88
337.053	87.88
337.281	90.88
337.51	79.88
337.738	82.88
337.966	86.88
338.194	76.88
338.422	90.88
338.65	90.88
338.878	90.88
339.106	88.88
339.334	83.88
339.562	84.88
339.79	91.88
340.018	72.88
340.246	88.88
340.474	82.88
340.702	88.88
340.93	90.88
341.158	78.88
341.386	83.88
341.614	88.88
341.842	82.88
342.07	83.88
342.298	83.88
342.526	89.88
342.754	97.88
342.981	86.88
343.209	85.88
343.437	91.88
343.665	78.88
343.893	78.88
344.12	77.88
344.348	87.88
344.576	73.88
344.804	90.88
345.031	96.88
345.259	69.88
345.487	88.88
345.714	89.88
345.942	74.88
346.17	88.88
346.397	86.88
346.625	85.88
346.853	77.88
347.08	73.88
347.308	92.88
347.535	89.88
347.763	89.88
347.99	83.88
348.218	96.88
348.445	85.88
348.673	85.88
348.9	93.88
349.128	74.88
349.355	80.88
349.583	89.88
349.81	102.88
350.037	90.88
350.265	87.88
350.492	83.88
350.72	92.88
350.947	92.88
351.174	83.88
351.402	86.88
351.629	79.88
351.856	86.88
352.083	91.88
352.311	78.88
352.538	78.88
352.765	74.88
352.992	83.88
353.22	77.88
353.447	73.88
353.674	78.88
353.901	82.88
354.128	82.88
354.355	76.88
354.583	85.88
354.81	89.88
355.037	90.88
355.264	98.88
355.491	88.88
355.718	86.88
355.945	78.88
356.172	92.88
356.399	90.88
356.626	90.88
356.853	81.88
357.08	86.88
357.307	79.88
357.534	88.88
357.761	79.88
357.988	91.88
358.215	86.88
358.441	81.88
358.668	78.88
358.895	86.88
359.122	74.88
359.349	77.88
359.576	84.88
359.802	76.88
360.029	75.88
360.256	90.88
360.483	85.88
360.709	78.88
360.936	81.88
361.163	80.88
361.39	78.88
361.616	81.88
361.843	75.88
362.07	97.88
362.296	73.88
362.523	78.88
362.749	91.88
362.976	84.88
363.203	92.88
363.429	82.88
363.656	74.88
363.882	80.88
364.109	81.88
364.335	86.88
364.562	88.88
364.788	75.88
365.015	85.88
365.241	104.88
365.468	85.88
365.694	68.88
365.92	81.88
366.147	73.88
366.373	83.88
366.599	101.88
366.826	92.88
367.052	82.88
367.278	77.88
367.505	103.88
367.731	94.88
367.957	91.88
368.184	94.88
368.41	76.88
368.636	97.88
368.862	86.88
369.089	90.88
369.315	98.88
369.541	82.88
369.767	85.88
369.993	89.88
370.219	90.88
370.445	94.88
370.672	81.88
370.898	78.88
371.124	81.88
371.35	100.88
371.576	101.88
371.802	87.88
372.028	94.88
372.254	78.88
372.48	87.88
372.706	95.88
372.932	94.88
373.158	102.88
373.384	90.88
373.61	78.88
373.835	73.88
374.061	79.88
374.287	92.88
374.513	91.88
374.739	114.88
374.965	71.88
375.191	101.88
375.416	91.88
375.642	89.88
375.868	103.88
376.094	91.88
376.319	88.88
376.545	90.88
376.771	91.88
376.997	85.88
377.222	84.88
377.448	82.88
377.674	85.88
377.899	93.88
378.125	78.88
378.35	94.88
378.576	92.88
378.802	93.88
379.027	89.88
379.253	106.88
379.478	99.88
379.704	80.88
379.929	97.88
380.155	83.88
380.38	78.88
380.606	94.88
380.831	111.88
381.057	94.88
381.282	85.88
381.507	107.88
381.733	113.88
381.958	89.88
382.184	95.88
382.409	100.88
382.634	98.88
382.86	92.88
383.085	101.88
383.31	97.88
383.535	98.88
383.761	80.88
383.986	94.88
384.211	102.88
384.436	102.88
384.662	105.88
384.887	95.88
385.112	99.88
385.337	97.88
385.562	101.88
385.787	108.88
386.013	116.88
386.238	104.88
386.463	105.88
386.688	88.88
386.913	104.88
387.138	104.88
387.363	89.88
387.588	100.88
387.813	107.88
388.038	89.88
388.263	100.88
388.488	105.88
388.713	97.88
388.938	101.88
389.163	105.88
389.387	101.88
389.612	108.88
389.837	90.88
390.062	113.88
390.287	109.88
390.512	104.88
390.736	95.88
390.961	101.88
391.186	90.88
391.411	100.88
391.636	94.88
391.86	82.88
392.085	93.88
392.31	110.88
392.534	103.88
392.759	105.88
392.984	104.88
393.208	82.88
393.433	92.88
393.658	108.88
393.882	94.88
394.107	108.88
394.331	112.88
394.556	102.88
394.78	118.88
395.005	105.88
395.229	111.88
395.454	109.88
395.678	91.88
395.903	119.88
396.127	100.88
396.352	105.88
396.576	102.88
396.801	88.88
397.025	103.88
397.249	106.88
397.474	106.88
397.698	113.88
397.922	114.88
398.147	102.88
398.371	105.88
398.595	102.88
398.82	97.88
399.044	107.88
399.268	111.88
399.492	91.88
399.717	97.88
399.941	115.88
400.165	90.88
400.389	108.88
400.613	108.88
400.837	93.88
401.062	113.88
401.286	121.88
401.51	108.88
401.734	102.88
401.958	118.88
402.182	116.88
402.406	117.88
402.63	117.88
402.854	116.88
403.078	113.88
403.302	117.88
403.526	99.88
403.75	137.88
403.974	106.88
404.198	111.88
404.422	113.88
404.645	115.88
404.869	117.88
405.093	122.88
405.317	109.88
405.541	118.88
405.765	126.88
405.988	104.88
406.212	129.88
406.436	122.88
406.66	131.88
406.883	119.88
407.107	118.88
407.331	98.88
407.555	108.88
407.778	116.88
408.002	115.88
408.226	111.88
408.449	119.88
408.673	121.88
408.896	127.88
409.12	120.88
409.344	113.88
409.567	128.88
409.791	121.88
410.014	119.88
410.238	126.88
410.461	123.88
410.685	136.88
410.908	113.88
411.132	110.88
411.355	115.88
411.578	123.88
411.802	117.88
412.025	110.88
412.249	123.88
412.472	125.88
412.695	127.88
412.919	123.88
413.142	124.88
413.365	123.88
413.589	133.88
413.812	126.88
414.035	130.88
414.258	110.88
414.482	117.88
414.705	123.88
414.928	117.88
415.151	133.88
415.374	125.88
415.597	116.88
415.821	127.88
416.044	127.88
416.267	124.88
416.49	117.88
416.713	120.88
416.936	116.88
417.159	123.88
417.382	146.88
417.605	121.88
417.828	133.88
418.051	129.88
418.274	133.88
418.497	133.88
418.72	115.88
418.943	137.88
419.166	139.88
419.389	139.88
419.611	140.88
419.834	137.88
420.057	142.88
420.28	131.88
420.503	135.88
420.726	137.88
420.948	128.88
421.171	138.88
421.394	154.88
421.617	138.88
421.839	143.88
422.062	167.88
422.285	139.88
422.507	126.88
422.73	125.88
422.953	133.88
423.175	127.88
423.398	134.88
423.621	129.88
423.843	139.88
424.066	140.88
424.288	137.88
424.511	132.88
424.733	149.88
424.956	138.88
425.178	138.88
425.401	138.88
425.623	125.88
425.846	122.88
426.068	125.88
426.291	120.88
426.513	136.88
426.735	129.88
426.958	141.88
427.18	134.88
427.402	130.88
427.625	125.88
427.847	124.88
428.069	129.88
428.292	129.88
428.514	127.88
428.736	127.88
428.958	131.88
429.181	113.88
429.403	122.88
429.625	126.88
429.847	133.88
430.069	133.88
430.292	130.88
430.514	121.88
430.736	129.88
430.958	133.88
431.18	120.88
431.402	131.88
431.624	114.88
431.846	103.88
432.068	83.88
432.29	83.88
432.512	120.88
432.734	117.88
432.956	120.88
433.178	142.88
433.4	133.88
433.622	147.88
433.844	143.88
434.066	125.88
434.287	113.88
434.509	96.88
434.731	108.88
434.953	109.88
435.175	138.88
435.397	110.88
435.618	117.88
435.84	109.88
436.062	106.88
436.284	123.88
436.505	117.88
436.727	135.88
436.949	134.88
437.17	137.88
437.392	133.88
437.614	135.88
437.835	110.88
438.057	95.88
438.278	108.88
438.5	117.88
438.721	128.88
438.943	142.88
439.165	133.88
439.386	129.88
439.608	155.88
439.829	127.88
440.05	142.88
440.272	134.88
440.493	145.88
440.715	145.88
440.936	136.88
441.158	137.88
441.379	127.88
441.6	154.88
441.822	134.88
442.043	163.88
442.264	122.88
442.486	144.88
442.707	151.88
442.928	128.88
443.149	136.88
443.371	149.88
443.592	137.88
443.813	139.88
444.034	146.88
444.255	143.88
444.476	131.88
444.698	142.88
444.919	129.88
445.14	261.88
445.361	202.88
445.582	143.88
445.803	152.88
446.024	154.88
446.245	145.88
446.466	144.88
446.687	150.88
446.908	158.88
447.129	156.88
447.35	152.88
447.571	148.88
447.792	137.88
448.013	144.88
448.234	152.88
448.455	149.88
448.675	141.88
448.896	144.88
449.117	142.88
449.338	125.88
449.559	131.88
449.779	133.88
450	133.88
450.221	138.88
450.442	134.88
450.662	115.88
450.883	125.88
451.104	123.88
451.324	140.88
451.545	129.88
451.766	124.88
451.986	122.88
452.207	133.88
452.428	121.88
452.648	113.88
452.869	125.88
453.089	106.88
453.31	119.88
453.53	105.88
453.751	102.88
453.971	98.88
454.192	104.88
454.412	107.88
454.633	118.88
454.853	121.88
455.073	131.88
455.294	123.88
455.514	121.88
455.734	114.88
455.955	134.88
456.175	121.88
456.395	105.88
456.616	111.88
456.836	110.88
457.056	99.88
457.276	109.88
457.497	113.88
457.717	107.88
457.937	108.88
458.157	110.88
458.377	96.88
458.598	83.88
458.818	97.88
459.038	102.88
459.258	80.88
459.478	90.88
459.698	81.88
459.918	102.88
460.138	113.88
460.358	115.88
460.578	125.88
460.798	110.88
461.018	120.88
461.238	113.88
461.458	114.88
461.678	116.88
461.898	110.88
462.118	119.88
462.338	109.88
462.558	118.88
462.777	111.88
462.997	110.88
463.217	100.88
463.437	110.88
463.657	111.88
463.876	115.88
464.096	97.88
464.316	115.88
464.536	104.88
464.755	115.88
464.975	120.88
465.195	112.88
465.414	118.88
465.634	122.88
465.854	108.88
466.073	118.88
466.293	110.88
466.512	131.88
466.732	129.88
466.951	133.88
467.171	123.88
467.391	126.88
467.61	140.88
467.829	150.88
468.049	138.88
468.268	129.88
468.488	141.88
468.707	129.88
468.927	144.88
469.146	133.88
469.365	130.88
469.585	141.88
469.804	142.88
470.023	149.88
470.243	142.88
470.462	145.88
470.681	137.88
470.901	146.88
471.12	143.88
471.339	133.88
471.558	129.88
471.777	143.88
471.997	126.88
472.216	127.88
472.435	129.88
472.654	109.88
472.873	113.88
473.092	104.88
473.311	125.88
473.53	113.88
473.749	138.88
473.968	125.88
474.187	133.88
474.406	111.88
474.625	127.88
474.844	126.88
475.063	131.88
475.282	124.88
475.501	117.88
475.72	113.88
475.939	119.88
476.158	137.88
476.377	128.88
476.596	122.88
476.814	113.88
477.033	109.88
477.252	106.88
477.471	121.88
477.69	126.88
477.908	140.88
478.127	142.88
478.346	140.88
478.564	116.88
478.783	127.88
479.002	139.88
479.22	136.88
479.439	132.88
479.658	118.88
479.876	117.88
480.095	109.88
480.313	125.88
480.532	126.88
480.751	110.88
480.969	88.88
481.188	89.88
481.406	108.88
481.624	98.88
481.843	89.88
482.061	87.88
482.28	101.88
482.498	108.88
482.717	107.88
482.935	125.88
483.153	125.88
483.372	144.88
483.59	159.88
483.808	139.88
484.027	124.88
484.245	130.88
484.463	138.88
484.681	158.88
484.9	135.88
485.118	133.88
485.336	135.88
485.554	124.88
485.772	98.88
485.99	84.88
486.209	108.88
486.427	121.88
486.645	119.88
486.863	131.88
487.081	149.88
487.299	133.88
487.517	146.88
487.735	165.88
487.953	190.88
488.171	172.88
488.389	172.88
488.607	172.88
488.825	139.88
489.043	146.88
489.261	117.88
489.479	147.88
489.696	140.88
489.914	137.88
490.132	137.88
490.35	135.88
490.568	164.88
490.786	157.88
491.003	167.88
491.221	176.88
491.439	171.88
491.657	188.88
491.874	214.88
492.092	215.88
492.31	238.88
492.527	232.88
492.745	198.88
492.963	190.88
493.18	197.88
493.398	171.88
493.615	154.88
493.833	182.88
494.05	180.88
494.268	169.88
494.485	151.88
494.703	178.88
494.92	183.88
495.138	179.88
495.355	157.88
495.573	178.88
495.79	171.88
496.008	165.88
496.225	179.88
496.442	177.88
496.66	166.88
496.877	160.88
497.094	169.88
497.312	165.88
497.529	157.88
497.746	164.88
497.963	136.88
498.181	151.88
498.398	111.88
498.615	113.88
498.832	116.88
499.049	127.88
499.267	113.88
499.484	132.88
499.701	139.88
499.918	134.88
500.135	142.88
500.352	154.88
500.569	142.88
500.786	149.88
501.003	152.88
501.22	139.88
501.437	129.88
501.654	128.88
501.871	123.88
502.088	131.88
502.305	125.88
502.522	138.88
502.739	142.88
502.956	133.88
503.172	123.88
503.389	98.88
503.606	126.88
503.823	116.88
504.04	119.88
504.256	120.88
504.473	131.88
504.69	115.88
504.907	133.88
505.123	126.88
505.34	103.88
505.557	109.88
505.773	125.88
505.99	115.88
506.207	122.88
506.423	122.88
506.64	122.88
506.856	130.88
507.073	125.88
507.289	108.88
507.506	113.88
507.722	103.88
507.939	113.88
508.155	112.88
508.372	123.88
508.588	116.88
508.805	102.88
509.021	105.88
509.238	123.88
509.454	89.88
509.67	93.88
509.887	94.88
510.103	101.88
510.319	98.88
510.536	89.88
510.752	85.88
510.968	93.88
511.184	90.88
511.401	92.88
511.617	95.88
