Data from Location1.07152019.Energy5.Lamp.07192019.3%Agarose_HRD10591_14-31-45-015.txt Node
Date: Fri Jul 19 14:31:45 EDT 2019
User: cochatt
Spectrometer: HR+D1059
Trigger mode: 1
Integration Time (sec): 1.000000E-1
Scans to average: 1
Electric dark correction enabled: true
Nonlinearity correction enabled: false
Boxcar width: 0
XAxis mode: Wavelengths
Number of Pixels in Spectrum: 2048
>>>>>Begin Spectral Data<<<<<
223.165	-15.19
223.4	-15.19
223.635	-15.19
223.869	-6.19
224.104	-17.19
224.338	-17.19
224.573	-14.19
224.808	-11.19
225.042	-15.19
225.277	-3.19
225.511	-2.19
225.746	-7.19
225.98	4.81
226.215	18.81
226.449	2.81
226.683	22.81
226.918	25.81
227.152	33.81
227.387	28.81
227.621	17.81
227.856	32.81
228.09	41.81
228.324	48.81
228.559	51.81
228.793	62.81
229.027	59.81
229.262	60.81
229.496	72.81
229.73	70.81
229.964	73.81
230.199	78.81
230.433	84.81
230.667	83.81
230.901	70.81
231.136	76.81
231.37	85.81
231.604	82.81
231.838	83.81
232.072	76.81
232.306	93.81
232.541	78.81
232.775	89.81
233.009	81.81
233.243	82.81
233.477	88.81
233.711	89.81
233.945	72.81
234.179	88.81
234.413	85.81
234.647	79.81
234.881	82.81
235.115	78.81
235.349	69.81
235.583	84.81
235.817	71.81
236.051	66.81
236.285	75.81
236.519	71.81
236.753	70.81
236.987	77.81
237.221	80.81
237.455	82.81
237.689	77.81
237.922	74.81
238.156	74.81
238.39	71.81
238.624	74.81
238.858	71.81
239.091	78.81
239.325	58.81
239.559	76.81
239.793	76.81
240.027	64.81
240.26	63.81
240.494	73.81
240.728	76.81
240.961	56.81
241.195	69.81
241.429	65.81
241.662	70.81
241.896	60.81
242.13	79.81
242.363	82.81
242.597	70.81
242.83	76.81
243.064	65.81
243.298	68.81
243.531	85.81
243.765	76.81
243.998	78.81
244.232	75.81
244.465	72.81
244.699	77.81
244.932	74.81
245.166	73.81
245.399	74.81
245.633	77.81
245.866	77.81
246.099	62.81
246.333	88.81
246.566	76.81
246.8	84.81
247.033	65.81
247.266	68.81
247.5	67.81
247.733	72.81
247.966	78.81
248.2	78.81
248.433	68.81
248.666	87.81
248.899	72.81
249.133	87.81
249.366	78.81
249.599	76.81
249.832	74.81
250.066	85.81
250.299	86.81
250.532	85.81
250.765	75.81
250.998	78.81
251.231	73.81
251.465	79.81
251.698	65.81
251.931	80.81
252.164	63.81
252.397	75.81
252.63	71.81
252.863	76.81
253.096	74.81
253.329	75.81
253.562	76.81
253.795	63.81
254.028	78.81
254.261	75.81
254.494	75.81
254.727	67.81
254.96	86.81
255.193	76.81
255.426	67.81
255.659	70.81
255.892	81.81
256.124	73.81
256.357	74.81
256.59	74.81
256.823	72.81
257.056	83.81
257.289	60.81
257.521	66.81
257.754	70.81
257.987	65.81
258.22	67.81
258.452	68.81
258.685	84.81
258.918	78.81
259.151	67.81
259.383	87.81
259.616	75.81
259.849	93.81
260.081	77.81
260.314	63.81
260.547	77.81
260.779	88.81
261.012	80.81
261.244	70.81
261.477	80.81
261.71	88.81
261.942	65.81
262.175	85.81
262.407	86.81
262.64	76.81
262.872	65.81
263.105	81.81
263.337	104.81
263.57	80.81
263.802	75.81
264.035	86.81
264.267	63.81
264.499	74.81
264.732	74.81
264.964	74.81
265.197	75.81
265.429	79.81
265.661	79.81
265.894	70.81
266.126	94.81
266.358	88.81
266.591	86.81
266.823	98.81
267.055	76.81
267.287	89.81
267.52	77.81
267.752	72.81
267.984	90.81
268.216	94.81
268.448	77.81
268.681	73.81
268.913	91.81
269.145	90.81
269.377	86.81
269.609	84.81
269.841	70.81
270.073	80.81
270.306	78.81
270.538	82.81
270.77	82.81
271.002	78.81
271.234	82.81
271.466	82.81
271.698	85.81
271.93	76.81
272.162	84.81
272.394	75.81
272.626	75.81
272.858	81.81
273.09	82.81
273.322	85.81
273.553	84.81
273.785	69.81
274.017	90.81
274.249	75.81
274.481	84.81
274.713	83.81
274.945	86.81
275.176	78.81
275.408	77.81
275.64	79.81
275.872	73.81
276.104	89.81
276.335	85.81
276.567	82.81
276.799	72.81
277.031	84.81
277.262	80.81
277.494	96.81
277.726	85.81
277.957	88.81
278.189	75.81
278.421	72.81
278.652	67.81
278.884	91.81
279.115	88.81
279.347	80.81
279.579	81.81
279.81	88.81
280.042	89.81
280.273	70.81
280.505	72.81
280.736	82.81
280.968	78.81
281.199	78.81
281.431	81.81
281.662	85.81
281.894	69.81
282.125	91.81
282.356	78.81
282.588	89.81
282.819	68.81
283.051	93.81
283.282	76.81
283.513	75.81
283.745	67.81
283.976	85.81
284.207	76.81
284.439	72.81
284.67	90.81
284.901	85.81
285.132	80.81
285.364	85.81
285.595	86.81
285.826	88.81
286.057	84.81
286.288	90.81
286.52	83.81
286.751	72.81
286.982	83.81
287.213	79.81
287.444	91.81
287.675	83.81
287.906	86.81
288.138	81.81
288.369	85.81
288.6	67.81
288.831	85.81
289.062	74.81
289.293	79.81
289.524	86.81
289.755	76.81
289.986	79.81
290.217	79.81
290.448	76.81
290.679	74.81
290.91	92.81
291.141	85.81
291.371	86.81
291.602	83.81
291.833	83.81
292.064	81.81
292.295	87.81
292.526	89.81
292.757	86.81
292.987	79.81
293.218	74.81
293.449	77.81
293.68	84.81
293.91	82.81
294.141	78.81
294.372	89.81
294.603	65.81
294.833	82.81
295.064	90.81
295.295	83.81
295.525	84.81
295.756	74.81
295.987	68.81
296.217	78.81
296.448	98.81
296.679	84.81
296.909	75.81
297.14	93.81
297.37	92.81
297.601	85.81
297.831	81.81
298.062	76.81
298.292	80.81
298.523	87.81
298.753	82.81
298.984	90.81
299.214	83.81
299.445	88.81
299.675	83.81
299.905	88.81
300.136	86.81
300.366	83.81
300.597	77.81
300.827	82.81
301.057	77.81
301.288	96.81
301.518	83.81
301.748	78.81
301.979	89.81
302.209	79.81
302.439	89.81
302.669	86.81
302.9	92.81
303.13	78.81
303.36	79.81
303.59	86.81
303.82	77.81
304.051	86.81
304.281	75.81
304.511	93.81
304.741	86.81
304.971	89.81
305.201	92.81
305.431	92.81
305.661	81.81
305.891	86.81
306.121	102.81
306.352	99.81
306.582	78.81
306.812	92.81
307.042	68.81
307.272	74.81
307.502	79.81
307.731	71.81
307.961	81.81
308.191	96.81
308.421	75.81
308.651	81.81
308.881	72.81
309.111	85.81
309.341	84.81
309.571	82.81
309.8	82.81
310.03	78.81
310.26	90.81
310.49	84.81
310.72	91.81
310.949	85.81
311.179	85.81
311.409	90.81
311.639	83.81
311.868	74.81
312.098	89.81
312.328	76.81
312.557	76.81
312.787	91.81
313.017	62.81
313.246	90.81
313.476	74.81
313.706	78.81
313.935	85.81
314.165	78.81
314.394	93.81
314.624	78.81
314.853	98.81
315.083	70.81
315.312	83.81
315.542	88.81
315.771	83.81
316.001	99.81
316.23	83.81
316.46	86.81
316.689	87.81
316.919	78.81
317.148	92.81
317.377	67.81
317.607	93.81
317.836	93.81
318.065	88.81
318.295	88.81
318.524	81.81
318.753	96.81
318.983	87.81
319.212	93.81
319.441	84.81
319.67	99.81
319.9	94.81
320.129	90.81
320.358	81.81
320.587	75.81
320.816	76.81
321.046	86.81
321.275	95.81
321.504	88.81
321.733	97.81
321.962	88.81
322.191	84.81
322.42	89.81
322.649	79.81
322.878	82.81
323.108	90.81
323.337	77.81
323.566	85.81
323.795	83.81
324.024	96.81
324.253	67.81
324.482	87.81
324.71	73.81
324.939	66.81
325.168	82.81
325.397	95.81
325.626	78.81
325.855	83.81
326.084	77.81
326.313	84.81
326.542	82.81
326.77	68.81
326.999	85.81
327.228	79.81
327.457	77.81
327.686	80.81
327.914	81.81
328.143	86.81
328.372	100.81
328.6	85.81
328.829	79.81
329.058	82.81
329.287	88.81
329.515	64.81
329.744	101.81
329.972	85.81
330.201	83.81
330.43	90.81
330.658	80.81
330.887	87.81
331.115	86.81
331.344	79.81
331.572	80.81
331.801	83.81
332.03	78.81
332.258	82.81
332.486	85.81
332.715	79.81
332.943	83.81
333.172	85.81
333.4	85.81
333.629	83.81
333.857	85.81
334.085	80.81
334.314	88.81
334.542	93.81
334.771	84.81
334.999	93.81
335.227	81.81
335.455	100.81
335.684	91.81
335.912	82.81
336.14	80.81
336.369	73.81
336.597	82.81
336.825	87.81
337.053	81.81
337.281	64.81
337.51	85.81
337.738	88.81
337.966	84.81
338.194	88.81
338.422	70.81
338.65	80.81
338.878	89.81
339.106	86.81
339.334	73.81
339.562	81.81
339.79	86.81
340.018	77.81
340.246	90.81
340.474	86.81
340.702	69.81
340.93	72.81
341.158	68.81
341.386	81.81
341.614	86.81
341.842	70.81
342.07	83.81
342.298	81.81
342.526	73.81
342.754	81.81
342.981	74.81
343.209	94.81
343.437	93.81
343.665	70.81
343.893	75.81
344.12	83.81
344.348	104.81
344.576	87.81
344.804	71.81
345.031	86.81
345.259	78.81
345.487	68.81
345.714	87.81
345.942	86.81
346.17	80.81
346.397	78.81
346.625	88.81
346.853	95.81
347.08	81.81
347.308	90.81
347.535	90.81
347.763	75.81
347.99	83.81
348.218	86.81
348.445	88.81
348.673	80.81
348.9	82.81
349.128	87.81
349.355	88.81
349.583	75.81
349.81	69.81
350.037	102.81
350.265	81.81
350.492	79.81
350.72	97.81
350.947	94.81
351.174	78.81
351.402	79.81
351.629	84.81
351.856	85.81
352.083	89.81
352.311	85.81
352.538	75.81
352.765	84.81
352.992	87.81
353.22	89.81
353.447	78.81
353.674	86.81
353.901	89.81
354.128	89.81
354.355	75.81
354.583	87.81
354.81	87.81
355.037	88.81
355.264	92.81
355.491	84.81
355.718	76.81
355.945	82.81
356.172	84.81
356.399	83.81
356.626	79.81
356.853	83.81
357.08	83.81
357.307	81.81
357.534	85.81
357.761	79.81
357.988	88.81
358.215	67.81
358.441	79.81
358.668	73.81
358.895	89.81
359.122	80.81
359.349	84.81
359.576	84.81
359.802	84.81
360.029	98.81
360.256	78.81
360.483	93.81
360.709	77.81
360.936	84.81
361.163	88.81
361.39	67.81
361.616	81.81
361.843	87.81
362.07	94.81
362.296	98.81
362.523	80.81
362.749	88.81
362.976	98.81
363.203	78.81
363.429	81.81
363.656	80.81
363.882	59.81
364.109	86.81
364.335	88.81
364.562	82.81
364.788	78.81
365.015	84.81
365.241	83.81
365.468	85.81
365.694	98.81
365.92	69.81
366.147	89.81
366.373	83.81
366.599	78.81
366.826	78.81
367.052	80.81
367.278	83.81
367.505	69.81
367.731	85.81
367.957	93.81
368.184	85.81
368.41	92.81
368.636	90.81
368.862	88.81
369.089	94.81
369.315	90.81
369.541	90.81
369.767	88.81
369.993	77.81
370.219	88.81
370.445	75.81
370.672	92.81
370.898	79.81
371.124	82.81
371.35	90.81
371.576	82.81
371.802	83.81
372.028	98.81
372.254	91.81
372.48	82.81
372.706	84.81
372.932	82.81
373.158	91.81
373.384	84.81
373.61	84.81
373.835	80.81
374.061	91.81
374.287	80.81
374.513	96.81
374.739	89.81
374.965	85.81
375.191	92.81
375.416	96.81
375.642	75.81
375.868	88.81
376.094	85.81
376.319	90.81
376.545	85.81
376.771	96.81
376.997	84.81
377.222	99.81
377.448	84.81
377.674	98.81
377.899	94.81
378.125	88.81
378.35	95.81
378.576	88.81
378.802	76.81
379.027	91.81
379.253	84.81
379.478	93.81
379.704	100.81
379.929	82.81
380.155	82.81
380.38	90.81
380.606	91.81
380.831	89.81
381.057	96.81
381.282	83.81
381.507	96.81
381.733	89.81
381.958	93.81
382.184	98.81
382.409	90.81
382.634	97.81
382.86	94.81
383.085	98.81
383.31	92.81
383.535	96.81
383.761	97.81
383.986	83.81
384.211	85.81
384.436	90.81
384.662	99.81
384.887	96.81
385.112	100.81
385.337	92.81
385.562	93.81
385.787	102.81
386.013	92.81
386.238	109.81
386.463	92.81
386.688	105.81
386.913	93.81
387.138	100.81
387.363	102.81
387.588	101.81
387.813	92.81
388.038	106.81
388.263	100.81
388.488	94.81
388.713	87.81
388.938	80.81
389.163	95.81
389.387	111.81
389.612	91.81
389.837	94.81
390.062	101.81
390.287	96.81
390.512	84.81
390.736	89.81
390.961	115.81
391.186	106.81
391.411	101.81
391.636	105.81
391.86	103.81
392.085	94.81
392.31	85.81
392.534	112.81
392.759	110.81
392.984	100.81
393.208	107.81
393.433	105.81
393.658	103.81
393.882	96.81
394.107	96.81
394.331	99.81
394.556	91.81
394.78	98.81
395.005	100.81
395.229	104.81
395.454	100.81
395.678	95.81
395.903	109.81
396.127	90.81
396.352	105.81
396.576	110.81
396.801	98.81
397.025	107.81
397.249	98.81
397.474	98.81
397.698	93.81
397.922	106.81
398.147	100.81
398.371	85.81
398.595	107.81
398.82	101.81
399.044	107.81
399.268	114.81
399.492	104.81
399.717	109.81
399.941	111.81
400.165	104.81
400.389	101.81
400.613	103.81
400.837	107.81
401.062	121.81
401.286	106.81
401.51	112.81
401.734	121.81
401.958	106.81
402.182	106.81
402.406	120.81
402.63	106.81
402.854	112.81
403.078	130.81
403.302	118.81
403.526	101.81
403.75	114.81
403.974	123.81
404.198	109.81
404.422	115.81
404.645	97.81
404.869	122.81
405.093	122.81
405.317	125.81
405.541	120.81
405.765	104.81
405.988	98.81
406.212	123.81
406.436	122.81
406.66	125.81
406.883	112.81
407.107	94.81
407.331	108.81
407.555	116.81
407.778	89.81
408.002	109.81
408.226	106.81
408.449	107.81
408.673	123.81
408.896	112.81
409.12	104.81
409.344	123.81
409.567	116.81
409.791	98.81
410.014	125.81
410.238	114.81
410.461	121.81
410.685	128.81
410.908	120.81
411.132	123.81
411.355	124.81
411.578	128.81
411.802	127.81
412.025	120.81
412.249	119.81
412.472	135.81
412.695	94.81
412.919	116.81
413.142	116.81
413.365	121.81
413.589	124.81
413.812	120.81
414.035	124.81
414.258	113.81
414.482	113.81
414.705	120.81
414.928	117.81
415.151	120.81
415.374	124.81
415.597	112.81
415.821	106.81
416.044	117.81
416.267	112.81
416.49	122.81
416.713	123.81
416.936	132.81
417.159	128.81
417.382	117.81
417.605	120.81
417.828	130.81
418.051	127.81
418.274	146.81
418.497	108.81
418.72	133.81
418.943	131.81
419.166	128.81
419.389	123.81
419.611	140.81
419.834	132.81
420.057	117.81
420.28	117.81
420.503	132.81
420.726	114.81
420.948	118.81
421.171	121.81
421.394	114.81
421.617	138.81
421.839	140.81
422.062	142.81
422.285	131.81
422.507	137.81
422.73	118.81
422.953	126.81
423.175	125.81
423.398	122.81
423.621	139.81
423.843	125.81
424.066	121.81
424.288	130.81
424.511	133.81
424.733	143.81
424.956	148.81
425.178	129.81
425.401	139.81
425.623	149.81
425.846	135.81
426.068	118.81
426.291	120.81
426.513	126.81
426.735	130.81
426.958	136.81
427.18	121.81
427.402	138.81
427.625	123.81
427.847	127.81
428.069	131.81
428.292	123.81
428.514	119.81
428.736	121.81
428.958	115.81
429.181	124.81
429.403	134.81
429.625	132.81
429.847	116.81
430.069	134.81
430.292	128.81
430.514	116.81
430.736	118.81
430.958	107.81
431.18	124.81
431.402	137.81
431.624	108.81
431.846	91.81
432.068	98.81
432.29	97.81
432.512	109.81
432.734	119.81
432.956	140.81
433.178	124.81
433.4	131.81
433.622	136.81
433.844	132.81
434.066	116.81
434.287	97.81
434.509	97.81
434.731	96.81
434.953	108.81
435.175	120.81
435.397	121.81
435.618	117.81
435.84	114.81
436.062	114.81
436.284	115.81
436.505	128.81
436.727	130.81
436.949	142.81
437.17	126.81
437.392	124.81
437.614	138.81
437.835	112.81
438.057	104.81
438.278	106.81
438.5	125.81
438.721	116.81
438.943	131.81
439.165	119.81
439.386	135.81
439.608	146.81
439.829	146.81
440.05	134.81
440.272	140.81
440.493	130.81
440.715	137.81
440.936	150.81
441.158	135.81
441.379	152.81
441.6	148.81
441.822	145.81
442.043	130.81
442.264	149.81
442.486	148.81
442.707	151.81
442.928	130.81
443.149	146.81
443.371	122.81
443.592	122.81
443.813	133.81
444.034	130.81
444.255	129.81
444.476	132.81
444.698	138.81
444.919	158.81
445.14	267.81
445.361	201.81
445.582	134.81
445.803	124.81
446.024	143.81
446.245	154.81
446.466	143.81
446.687	140.81
446.908	140.81
447.129	148.81
447.35	157.81
447.571	156.81
447.792	146.81
448.013	141.81
448.234	142.81
448.455	148.81
448.675	124.81
448.896	148.81
449.117	131.81
449.338	132.81
449.559	145.81
449.779	129.81
450	145.81
450.221	140.81
450.442	140.81
450.662	118.81
450.883	139.81
451.104	127.81
451.324	125.81
451.545	127.81
451.766	127.81
451.986	131.81
452.207	112.81
452.428	114.81
452.648	122.81
452.869	121.81
453.089	117.81
453.31	107.81
453.53	109.81
453.751	103.81
453.971	108.81
454.192	96.81
454.412	103.81
454.633	113.81
454.853	105.81
455.073	116.81
455.294	109.81
455.514	122.81
455.734	126.81
455.955	119.81
456.175	110.81
456.395	98.81
456.616	109.81
456.836	101.81
457.056	105.81
457.276	116.81
457.497	108.81
457.717	100.81
457.937	105.81
458.157	113.81
458.377	102.81
458.598	99.81
458.818	101.81
459.038	88.81
459.258	90.81
459.478	72.81
459.698	77.81
459.918	87.81
460.138	110.81
460.358	113.81
460.578	127.81
460.798	107.81
461.018	114.81
461.238	109.81
461.458	108.81
461.678	109.81
461.898	116.81
462.118	106.81
462.338	115.81
462.558	101.81
462.777	102.81
462.997	120.81
463.217	108.81
463.437	101.81
463.657	99.81
463.876	102.81
464.096	100.81
464.316	91.81
464.536	86.81
464.755	115.81
464.975	109.81
465.195	112.81
465.414	120.81
465.634	110.81
465.854	122.81
466.073	120.81
466.293	122.81
466.512	119.81
466.732	128.81
466.951	129.81
467.171	108.81
467.391	120.81
467.61	144.81
467.829	121.81
468.049	130.81
468.268	122.81
468.488	136.81
468.707	125.81
468.927	139.81
469.146	130.81
469.365	131.81
469.585	126.81
469.804	131.81
470.023	142.81
470.243	148.81
470.462	145.81
470.681	140.81
470.901	132.81
471.12	127.81
471.339	146.81
471.558	137.81
471.777	125.81
471.997	136.81
472.216	108.81
472.435	116.81
472.654	109.81
472.873	106.81
473.092	110.81
473.311	109.81
473.53	128.81
473.749	130.81
473.968	128.81
474.187	120.81
474.406	121.81
474.625	132.81
474.844	136.81
475.063	123.81
475.282	114.81
475.501	127.81
475.72	110.81
475.939	124.81
476.158	131.81
476.377	121.81
476.596	123.81
476.814	109.81
477.033	114.81
477.252	98.81
477.471	130.81
477.69	142.81
477.908	148.81
478.127	129.81
478.346	126.81
478.564	134.81
478.783	127.81
479.002	123.81
479.22	136.81
479.439	139.81
479.658	128.81
479.876	119.81
480.095	109.81
480.313	112.81
480.532	116.81
480.751	98.81
480.969	95.81
481.188	86.81
481.406	94.81
481.624	86.81
481.843	94.81
482.061	99.81
482.28	98.81
482.498	112.81
482.717	94.81
482.935	130.81
483.153	138.81
483.372	144.81
483.59	139.81
483.808	150.81
484.027	125.81
484.245	136.81
484.463	151.81
484.681	152.81
484.9	158.81
485.118	138.81
485.336	132.81
485.554	115.81
485.772	98.81
485.99	98.81
486.209	106.81
486.427	112.81
486.645	114.81
486.863	134.81
487.081	146.81
487.299	128.81
487.517	153.81
487.735	171.81
487.953	176.81
488.171	181.81
488.389	171.81
488.607	163.81
488.825	154.81
489.043	124.81
489.261	135.81
489.479	133.81
489.696	123.81
489.914	138.81
490.132	129.81
490.35	154.81
490.568	154.81
490.786	149.81
491.003	176.81
491.221	173.81
491.439	179.81
491.657	185.81
491.874	196.81
492.092	210.81
492.31	256.81
492.527	229.81
492.745	197.81
492.963	182.81
493.18	178.81
493.398	172.81
493.615	171.81
493.833	176.81
494.05	178.81
494.268	163.81
494.485	167.81
494.703	146.81
494.92	176.81
495.138	161.81
495.355	158.81
495.573	170.81
495.79	181.81
496.008	167.81
496.225	140.81
496.442	166.81
496.66	173.81
496.877	169.81
497.094	156.81
497.312	160.81
497.529	146.81
497.746	157.81
497.963	143.81
498.181	133.81
498.398	109.81
498.615	122.81
498.832	108.81
499.049	105.81
499.267	112.81
499.484	134.81
499.701	125.81
499.918	143.81
500.135	140.81
500.352	133.81
500.569	141.81
500.786	133.81
501.003	155.81
501.22	123.81
501.437	139.81
501.654	120.81
501.871	134.81
502.088	135.81
502.305	136.81
502.522	126.81
502.739	126.81
502.956	130.81
503.172	114.81
503.389	117.81
503.606	123.81
503.823	132.81
504.04	124.81
504.256	131.81
504.473	106.81
504.69	107.81
504.907	114.81
505.123	110.81
505.34	123.81
505.557	115.81
505.773	117.81
505.99	113.81
506.207	128.81
506.423	133.81
506.64	125.81
506.856	124.81
507.073	108.81
507.289	121.81
507.506	112.81
507.722	121.81
507.939	118.81
508.155	108.81
508.372	114.81
508.588	120.81
508.805	105.81
509.021	98.81
509.238	118.81
509.454	114.81
509.67	102.81
509.887	98.81
510.103	98.81
510.319	96.81
510.536	89.81
510.752	73.81
510.968	84.81
511.184	78.81
511.401	86.81
511.617	105.81
511.833	82.81
512.049	95.81
512.265	85.81
