Data from Location1.07152019.Energy5.Lamp.07192019.3%Agarose_HRD10591_14-33-15-016.txt Node
Date: Fri Jul 19 14:33:15 EDT 2019
User: cochatt
Spectrometer: HR+D1059
Trigger mode: 1
Integration Time (sec): 1.000000E-1
Scans to average: 1
Electric dark correction enabled: true
Nonlinearity correction enabled: false
Boxcar width: 0
XAxis mode: Wavelengths
Number of Pixels in Spectrum: 2048
>>>>>Begin Spectral Data<<<<<
223.165	-18.75
223.4	-18.75
223.635	-18.75
223.869	-10.75
224.104	-18.75
224.338	-10.75
224.573	-20.75
224.808	-23.75
225.042	-17.75
225.277	-7.75
225.511	5.25
225.746	-3.75
225.98	12.25
226.215	6.25
226.449	30.25
226.683	19.25
226.918	16.25
227.152	43.25
227.387	34.25
227.621	53.25
227.856	38.25
228.09	42.25
228.324	41.25
228.559	43.25
228.793	53.25
229.027	59.25
229.262	64.25
229.496	47.25
229.73	73.25
229.964	79.25
230.199	68.25
230.433	71.25
230.667	74.25
230.901	73.25
231.136	75.25
231.37	83.25
231.604	74.25
231.838	80.25
232.072	85.25
232.306	88.25
232.541	75.25
232.775	86.25
233.009	85.25
233.243	84.25
233.477	76.25
233.711	79.25
233.945	61.25
234.179	75.25
234.413	75.25
234.647	86.25
234.881	73.25
235.115	69.25
235.349	80.25
235.583	78.25
235.817	71.25
236.051	81.25
236.285	86.25
236.519	66.25
236.753	79.25
236.987	74.25
237.221	81.25
237.455	67.25
237.689	76.25
237.922	82.25
238.156	91.25
238.39	73.25
238.624	79.25
238.858	79.25
239.091	88.25
239.325	75.25
239.559	76.25
239.793	87.25
240.027	72.25
240.26	72.25
240.494	85.25
240.728	67.25
240.961	74.25
241.195	88.25
241.429	93.25
241.662	83.25
241.896	78.25
242.13	92.25
242.363	81.25
242.597	62.25
242.83	80.25
243.064	77.25
243.298	84.25
243.531	84.25
243.765	69.25
243.998	84.25
244.232	87.25
244.465	76.25
244.699	74.25
244.932	99.25
245.166	78.25
245.399	82.25
245.633	71.25
245.866	81.25
246.099	69.25
246.333	75.25
246.566	76.25
246.8	75.25
247.033	71.25
247.266	62.25
247.5	63.25
247.733	74.25
247.966	88.25
248.2	79.25
248.433	85.25
248.666	88.25
248.899	74.25
249.133	68.25
249.366	79.25
249.599	85.25
249.832	78.25
250.066	61.25
250.299	81.25
250.532	70.25
250.765	94.25
250.998	83.25
251.231	72.25
251.465	85.25
251.698	85.25
251.931	93.25
252.164	71.25
252.397	92.25
252.63	67.25
252.863	66.25
253.096	68.25
253.329	81.25
253.562	73.25
253.795	87.25
254.028	82.25
254.261	91.25
254.494	75.25
254.727	91.25
254.96	91.25
255.193	80.25
255.426	75.25
255.659	85.25
255.892	74.25
256.124	81.25
256.357	78.25
256.59	95.25
256.823	85.25
257.056	89.25
257.289	64.25
257.521	85.25
257.754	77.25
257.987	81.25
258.22	68.25
258.452	95.25
258.685	83.25
258.918	79.25
259.151	72.25
259.383	70.25
259.616	85.25
259.849	79.25
260.081	85.25
260.314	79.25
260.547	80.25
260.779	75.25
261.012	78.25
261.244	79.25
261.477	85.25
261.71	84.25
261.942	83.25
262.175	87.25
262.407	90.25
262.64	83.25
262.872	72.25
263.105	74.25
263.337	79.25
263.57	75.25
263.802	87.25
264.035	79.25
264.267	75.25
264.499	92.25
264.732	77.25
264.964	76.25
265.197	90.25
265.429	77.25
265.661	86.25
265.894	87.25
266.126	79.25
266.358	80.25
266.591	83.25
266.823	83.25
267.055	83.25
267.287	76.25
267.52	81.25
267.752	79.25
267.984	79.25
268.216	81.25
268.448	71.25
268.681	83.25
268.913	74.25
269.145	89.25
269.377	86.25
269.609	84.25
269.841	88.25
270.073	81.25
270.306	90.25
270.538	73.25
270.77	74.25
271.002	83.25
271.234	85.25
271.466	85.25
271.698	82.25
271.93	84.25
272.162	85.25
272.394	75.25
272.626	81.25
272.858	77.25
273.09	77.25
273.322	80.25
273.553	90.25
273.785	81.25
274.017	88.25
274.249	79.25
274.481	78.25
274.713	79.25
274.945	90.25
275.176	76.25
275.408	76.25
275.64	87.25
275.872	75.25
276.104	89.25
276.335	102.25
276.567	88.25
276.799	87.25
277.031	79.25
277.262	85.25
277.494	69.25
277.726	90.25
277.957	80.25
278.189	75.25
278.421	81.25
278.652	87.25
278.884	94.25
279.115	92.25
279.347	94.25
279.579	82.25
279.81	92.25
280.042	77.25
280.273	72.25
280.505	78.25
280.736	89.25
280.968	80.25
281.199	89.25
281.431	71.25
281.662	79.25
281.894	78.25
282.125	76.25
282.356	83.25
282.588	78.25
282.819	77.25
283.051	78.25
283.282	92.25
283.513	97.25
283.745	85.25
283.976	93.25
284.207	82.25
284.439	71.25
284.67	80.25
284.901	81.25
285.132	79.25
285.364	76.25
285.595	86.25
285.826	75.25
286.057	76.25
286.288	93.25
286.52	75.25
286.751	92.25
286.982	89.25
287.213	88.25
287.444	81.25
287.675	85.25
287.906	100.25
288.138	98.25
288.369	89.25
288.6	79.25
288.831	76.25
289.062	85.25
289.293	82.25
289.524	83.25
289.755	87.25
289.986	82.25
290.217	96.25
290.448	84.25
290.679	83.25
290.91	98.25
291.141	86.25
291.371	71.25
291.602	89.25
291.833	81.25
292.064	90.25
292.295	76.25
292.526	87.25
292.757	92.25
292.987	97.25
293.218	94.25
293.449	79.25
293.68	90.25
293.91	73.25
294.141	75.25
294.372	78.25
294.603	81.25
294.833	87.25
295.064	93.25
295.295	77.25
295.525	81.25
295.756	75.25
295.987	84.25
296.217	87.25
296.448	93.25
296.679	93.25
296.909	87.25
297.14	72.25
297.37	81.25
297.601	84.25
297.831	84.25
298.062	91.25
298.292	89.25
298.523	76.25
298.753	87.25
298.984	94.25
299.214	86.25
299.445	89.25
299.675	79.25
299.905	88.25
300.136	83.25
300.366	81.25
300.597	82.25
300.827	88.25
301.057	85.25
301.288	78.25
301.518	87.25
301.748	84.25
301.979	84.25
302.209	87.25
302.439	71.25
302.669	89.25
302.9	99.25
303.13	83.25
303.36	75.25
303.59	88.25
303.82	96.25
304.051	92.25
304.281	96.25
304.511	95.25
304.741	95.25
304.971	94.25
305.201	84.25
305.431	70.25
305.661	82.25
305.891	90.25
306.121	69.25
306.352	82.25
306.582	74.25
306.812	75.25
307.042	84.25
307.272	83.25
307.502	81.25
307.731	77.25
307.961	80.25
308.191	86.25
308.421	67.25
308.651	95.25
308.881	97.25
309.111	85.25
309.341	89.25
309.571	84.25
309.8	82.25
310.03	95.25
310.26	77.25
310.49	90.25
310.72	85.25
310.949	84.25
311.179	69.25
311.409	75.25
311.639	82.25
311.868	85.25
312.098	88.25
312.328	75.25
312.557	83.25
312.787	82.25
313.017	82.25
313.246	82.25
313.476	66.25
313.706	83.25
313.935	83.25
314.165	83.25
314.394	85.25
314.624	92.25
314.853	92.25
315.083	86.25
315.312	97.25
315.542	99.25
315.771	91.25
316.001	92.25
316.23	98.25
316.46	77.25
316.689	84.25
316.919	83.25
317.148	75.25
317.377	88.25
317.607	92.25
317.836	73.25
318.065	86.25
318.295	78.25
318.524	86.25
318.753	85.25
318.983	74.25
319.212	87.25
319.441	84.25
319.67	86.25
319.9	92.25
320.129	90.25
320.358	70.25
320.587	81.25
320.816	72.25
321.046	69.25
321.275	86.25
321.504	78.25
321.733	76.25
321.962	73.25
322.191	88.25
322.42	100.25
322.649	96.25
322.878	79.25
323.108	85.25
323.337	84.25
323.566	92.25
323.795	83.25
324.024	94.25
324.253	78.25
324.482	77.25
324.71	95.25
324.939	85.25
325.168	94.25
325.397	85.25
325.626	79.25
325.855	98.25
326.084	75.25
326.313	80.25
326.542	83.25
326.77	81.25
326.999	75.25
327.228	87.25
327.457	85.25
327.686	84.25
327.914	88.25
328.143	87.25
328.372	82.25
328.6	78.25
328.829	88.25
329.058	87.25
329.287	78.25
329.515	67.25
329.744	83.25
329.972	82.25
330.201	74.25
330.43	83.25
330.658	75.25
330.887	89.25
331.115	86.25
331.344	77.25
331.572	95.25
331.801	105.25
332.03	78.25
332.258	91.25
332.486	85.25
332.715	93.25
332.943	70.25
333.172	89.25
333.4	72.25
333.629	76.25
333.857	74.25
334.085	87.25
334.314	90.25
334.542	75.25
334.771	75.25
334.999	85.25
335.227	91.25
335.455	80.25
335.684	90.25
335.912	98.25
336.14	78.25
336.369	92.25
336.597	84.25
336.825	82.25
337.053	84.25
337.281	88.25
337.51	86.25
337.738	78.25
337.966	79.25
338.194	84.25
338.422	92.25
338.65	104.25
338.878	99.25
339.106	99.25
339.334	82.25
339.562	85.25
339.79	89.25
340.018	70.25
340.246	88.25
340.474	90.25
340.702	89.25
340.93	84.25
341.158	75.25
341.386	68.25
341.614	83.25
341.842	69.25
342.07	93.25
342.298	84.25
342.526	79.25
342.754	81.25
342.981	84.25
343.209	77.25
343.437	95.25
343.665	77.25
343.893	77.25
344.12	101.25
344.348	73.25
344.576	87.25
344.804	86.25
345.031	91.25
345.259	87.25
345.487	83.25
345.714	86.25
345.942	93.25
346.17	86.25
346.397	76.25
346.625	90.25
346.853	76.25
347.08	78.25
347.308	69.25
347.535	79.25
347.763	77.25
347.99	73.25
348.218	75.25
348.445	82.25
348.673	86.25
348.9	73.25
349.128	79.25
349.355	94.25
349.583	97.25
349.81	75.25
350.037	86.25
350.265	76.25
350.492	102.25
350.72	83.25
350.947	85.25
351.174	89.25
351.402	79.25
351.629	82.25
351.856	82.25
352.083	78.25
352.311	70.25
352.538	94.25
352.765	88.25
352.992	87.25
353.22	78.25
353.447	84.25
353.674	95.25
353.901	86.25
354.128	84.25
354.355	61.25
354.583	90.25
354.81	84.25
355.037	79.25
355.264	79.25
355.491	78.25
355.718	93.25
355.945	85.25
356.172	79.25
356.399	86.25
356.626	77.25
356.853	63.25
357.08	68.25
357.307	78.25
357.534	90.25
357.761	75.25
357.988	89.25
358.215	72.25
358.441	73.25
358.668	83.25
358.895	84.25
359.122	93.25
359.349	89.25
359.576	85.25
359.802	71.25
360.029	76.25
360.256	81.25
360.483	91.25
360.709	76.25
360.936	82.25
361.163	94.25
361.39	83.25
361.616	71.25
361.843	82.25
362.07	81.25
362.296	87.25
362.523	81.25
362.749	93.25
362.976	76.25
363.203	84.25
363.429	70.25
363.656	90.25
363.882	76.25
364.109	82.25
364.335	85.25
364.562	101.25
364.788	80.25
365.015	83.25
365.241	76.25
365.468	78.25
365.694	86.25
365.92	78.25
366.147	77.25
366.373	83.25
366.599	73.25
366.826	91.25
367.052	73.25
367.278	87.25
367.505	83.25
367.731	92.25
367.957	82.25
368.184	89.25
368.41	96.25
368.636	81.25
368.862	91.25
369.089	86.25
369.315	99.25
369.541	86.25
369.767	95.25
369.993	86.25
370.219	103.25
370.445	77.25
370.672	87.25
370.898	98.25
371.124	84.25
371.35	80.25
371.576	88.25
371.802	89.25
372.028	92.25
372.254	88.25
372.48	89.25
372.706	95.25
372.932	95.25
373.158	77.25
373.384	85.25
373.61	93.25
373.835	95.25
374.061	93.25
374.287	90.25
374.513	98.25
374.739	83.25
374.965	83.25
375.191	88.25
375.416	95.25
375.642	91.25
375.868	90.25
376.094	90.25
376.319	94.25
376.545	92.25
376.771	93.25
376.997	96.25
377.222	90.25
377.448	89.25
377.674	90.25
377.899	86.25
378.125	85.25
378.35	96.25
378.576	86.25
378.802	90.25
379.027	97.25
379.253	94.25
379.478	100.25
379.704	95.25
379.929	105.25
380.155	107.25
380.38	93.25
380.606	99.25
380.831	95.25
381.057	93.25
381.282	102.25
381.507	94.25
381.733	110.25
381.958	100.25
382.184	96.25
382.409	102.25
382.634	101.25
382.86	96.25
383.085	85.25
383.31	77.25
383.535	116.25
383.761	101.25
383.986	97.25
384.211	86.25
384.436	124.25
384.662	90.25
384.887	98.25
385.112	99.25
385.337	105.25
385.562	87.25
385.787	91.25
386.013	108.25
386.238	92.25
386.463	99.25
386.688	89.25
386.913	92.25
387.138	87.25
387.363	105.25
387.588	96.25
387.813	112.25
388.038	103.25
388.263	93.25
388.488	102.25
388.713	85.25
388.938	103.25
389.163	105.25
389.387	97.25
389.612	114.25
389.837	90.25
390.062	98.25
390.287	101.25
390.512	102.25
390.736	95.25
390.961	99.25
391.186	97.25
391.411	102.25
391.636	103.25
391.86	97.25
392.085	87.25
392.31	101.25
392.534	123.25
392.759	100.25
392.984	97.25
393.208	102.25
393.433	104.25
393.658	109.25
393.882	97.25
394.107	92.25
394.331	109.25
394.556	108.25
394.78	111.25
395.005	105.25
395.229	98.25
395.454	123.25
395.678	96.25
395.903	109.25
396.127	119.25
396.352	128.25
396.576	106.25
396.801	105.25
397.025	107.25
397.249	117.25
397.474	102.25
397.698	100.25
397.922	113.25
398.147	95.25
398.371	104.25
398.595	118.25
398.82	111.25
399.044	103.25
399.268	102.25
399.492	113.25
399.717	115.25
399.941	101.25
400.165	123.25
400.389	100.25
400.613	100.25
400.837	119.25
401.062	105.25
401.286	91.25
401.51	101.25
401.734	98.25
401.958	109.25
402.182	107.25
402.406	105.25
402.63	108.25
402.854	116.25
403.078	117.25
403.302	104.25
403.526	109.25
403.75	114.25
403.974	119.25
404.198	115.25
404.422	119.25
404.645	117.25
404.869	118.25
405.093	119.25
405.317	120.25
405.541	122.25
405.765	115.25
405.988	99.25
406.212	117.25
406.436	115.25
406.66	106.25
406.883	119.25
407.107	127.25
407.331	117.25
407.555	117.25
407.778	129.25
408.002	131.25
408.226	122.25
408.449	126.25
408.673	140.25
408.896	110.25
409.12	113.25
409.344	128.25
409.567	122.25
409.791	111.25
410.014	125.25
410.238	118.25
410.461	116.25
410.685	129.25
410.908	117.25
411.132	116.25
411.355	125.25
411.578	127.25
411.802	116.25
412.025	129.25
412.249	131.25
412.472	132.25
412.695	124.25
412.919	133.25
413.142	109.25
413.365	125.25
413.589	118.25
413.812	115.25
414.035	108.25
414.258	120.25
414.482	126.25
414.705	120.25
414.928	106.25
415.151	124.25
415.374	123.25
415.597	123.25
415.821	124.25
416.044	127.25
416.267	119.25
416.49	110.25
416.713	115.25
416.936	124.25
417.159	136.25
417.382	114.25
417.605	115.25
417.828	126.25
418.051	115.25
418.274	121.25
418.497	121.25
418.72	127.25
418.943	129.25
419.166	138.25
419.389	157.25
419.611	113.25
419.834	120.25
420.057	138.25
420.28	121.25
420.503	127.25
420.726	129.25
420.948	133.25
421.171	125.25
421.394	118.25
421.617	142.25
421.839	142.25
422.062	140.25
422.285	125.25
422.507	133.25
422.73	131.25
422.953	138.25
423.175	131.25
423.398	138.25
423.621	134.25
423.843	127.25
424.066	136.25
424.288	141.25
424.511	137.25
424.733	135.25
424.956	129.25
425.178	148.25
425.401	142.25
425.623	135.25
425.846	134.25
426.068	125.25
426.291	141.25
426.513	125.25
426.735	133.25
426.958	140.25
427.18	148.25
427.402	125.25
427.625	133.25
427.847	126.25
428.069	126.25
428.292	125.25
428.514	141.25
428.736	122.25
428.958	128.25
429.181	135.25
429.403	133.25
429.625	142.25
429.847	127.25
430.069	137.25
430.292	135.25
430.514	122.25
430.736	139.25
430.958	106.25
431.18	123.25
431.402	119.25
431.624	122.25
431.846	102.25
432.068	105.25
432.29	107.25
432.512	118.25
432.734	115.25
432.956	121.25
433.178	133.25
433.4	134.25
433.622	132.25
433.844	143.25
434.066	106.25
434.287	94.25
434.509	98.25
434.731	113.25
434.953	116.25
435.175	130.25
435.397	113.25
435.618	114.25
435.84	118.25
436.062	121.25
436.284	137.25
436.505	137.25
436.727	134.25
436.949	154.25
437.17	133.25
437.392	111.25
437.614	122.25
437.835	121.25
438.057	105.25
438.278	132.25
438.5	132.25
438.721	147.25
438.943	139.25
439.165	137.25
439.386	150.25
439.608	141.25
439.829	131.25
440.05	148.25
440.272	143.25
440.493	145.25
440.715	138.25
440.936	149.25
441.158	134.25
441.379	137.25
441.6	146.25
441.822	139.25
442.043	147.25
442.264	143.25
442.486	136.25
442.707	146.25
442.928	135.25
443.149	141.25
443.371	127.25
443.592	134.25
443.813	138.25
444.034	147.25
444.255	151.25
444.476	148.25
444.698	124.25
444.919	135.25
445.14	226.25
445.361	183.25
445.582	153.25
445.803	154.25
446.024	145.25
446.245	159.25
446.466	157.25
446.687	153.25
446.908	147.25
447.129	150.25
447.35	155.25
447.571	132.25
447.792	141.25
448.013	132.25
448.234	143.25
448.455	135.25
448.675	131.25
448.896	141.25
449.117	127.25
449.338	135.25
449.559	138.25
449.779	139.25
450	143.25
450.221	133.25
450.442	148.25
450.662	122.25
450.883	129.25
451.104	123.25
451.324	115.25
451.545	143.25
451.766	126.25
451.986	136.25
452.207	127.25
452.428	133.25
452.648	142.25
452.869	134.25
453.089	116.25
453.31	100.25
453.53	105.25
453.751	117.25
453.971	101.25
454.192	120.25
454.412	107.25
454.633	97.25
454.853	128.25
455.073	126.25
455.294	137.25
455.514	131.25
455.734	115.25
455.955	102.25
456.175	123.25
456.395	117.25
456.616	113.25
456.836	113.25
457.056	107.25
457.276	115.25
457.497	123.25
457.717	100.25
457.937	114.25
458.157	111.25
458.377	99.25
458.598	104.25
458.818	97.25
459.038	83.25
459.258	87.25
459.478	87.25
459.698	101.25
459.918	101.25
460.138	99.25
460.358	106.25
460.578	110.25
460.798	119.25
461.018	123.25
461.238	107.25
461.458	117.25
461.678	120.25
461.898	109.25
462.118	109.25
462.338	113.25
462.558	113.25
462.777	121.25
462.997	115.25
463.217	115.25
463.437	109.25
463.657	104.25
463.876	100.25
464.096	113.25
464.316	107.25
464.536	120.25
464.755	113.25
464.975	113.25
465.195	117.25
465.414	114.25
465.634	110.25
465.854	113.25
466.073	113.25
466.293	132.25
466.512	127.25
466.732	127.25
466.951	136.25
467.171	129.25
467.391	124.25
467.61	139.25
467.829	133.25
468.049	144.25
468.268	124.25
468.488	131.25
468.707	129.25
468.927	138.25
469.146	134.25
469.365	142.25
469.585	110.25
469.804	142.25
470.023	122.25
470.243	130.25
470.462	131.25
470.681	143.25
470.901	126.25
471.12	127.25
471.339	136.25
471.558	135.25
471.777	133.25
471.997	124.25
472.216	126.25
472.435	113.25
472.654	102.25
472.873	111.25
473.092	110.25
473.311	133.25
473.53	139.25
473.749	123.25
473.968	136.25
474.187	111.25
474.406	106.25
474.625	123.25
474.844	130.25
475.063	123.25
475.282	121.25
475.501	119.25
475.72	120.25
475.939	115.25
476.158	128.25
476.377	145.25
476.596	124.25
476.814	127.25
477.033	117.25
477.252	109.25
477.471	130.25
477.69	131.25
477.908	131.25
478.127	138.25
478.346	153.25
478.564	129.25
478.783	145.25
479.002	134.25
479.22	137.25
479.439	137.25
479.658	104.25
479.876	110.25
480.095	115.25
480.313	121.25
480.532	117.25
480.751	102.25
480.969	91.25
481.188	90.25
481.406	102.25
481.624	90.25
481.843	95.25
482.061	112.25
482.28	129.25
482.498	119.25
482.717	98.25
482.935	109.25
483.153	163.25
483.372	144.25
483.59	157.25
483.808	133.25
484.027	132.25
484.245	145.25
484.463	161.25
484.681	153.25
484.9	150.25
485.118	145.25
485.336	136.25
485.554	117.25
485.772	106.25
485.99	101.25
486.209	121.25
486.427	122.25
486.645	112.25
486.863	139.25
487.081	149.25
487.299	129.25
487.517	127.25
487.735	163.25
487.953	185.25
488.171	193.25
488.389	180.25
488.607	151.25
488.825	141.25
489.043	129.25
489.261	139.25
489.479	133.25
489.696	130.25
489.914	143.25
490.132	138.25
490.35	139.25
490.568	173.25
490.786	170.25
491.003	165.25
491.221	175.25
491.439	183.25
491.657	188.25
491.874	192.25
492.092	225.25
492.31	226.25
492.527	245.25
492.745	201.25
492.963	198.25
493.18	185.25
493.398	174.25
493.615	183.25
493.833	167.25
494.05	183.25
494.268	168.25
494.485	167.25
494.703	166.25
494.92	172.25
495.138	172.25
495.355	183.25
495.573	156.25
495.79	168.25
496.008	158.25
496.225	161.25
496.442	168.25
496.66	179.25
496.877	178.25
497.094	169.25
497.312	153.25
497.529	163.25
497.746	137.25
497.963	129.25
498.181	138.25
498.398	127.25
498.615	108.25
498.832	113.25
499.049	126.25
499.267	133.25
499.484	129.25
499.701	136.25
499.918	132.25
500.135	152.25
500.352	138.25
500.569	139.25
500.786	149.25
501.003	137.25
501.22	154.25
501.437	152.25
501.654	124.25
501.871	148.25
502.088	139.25
502.305	129.25
502.522	139.25
502.739	133.25
502.956	119.25
503.172	130.25
503.389	118.25
503.606	113.25
503.823	119.25
504.04	113.25
504.256	130.25
504.473	111.25
504.69	125.25
504.907	117.25
505.123	111.25
505.34	113.25
505.557	123.25
505.773	126.25
505.99	113.25
506.207	125.25
506.423	114.25
506.64	135.25
506.856	131.25
507.073	111.25
507.289	118.25
507.506	116.25
507.722	122.25
507.939	110.25
508.155	113.25
508.372	137.25
508.588	124.25
508.805	121.25
509.021	113.25
509.238	100.25
509.454	113.25
509.67	105.25
509.887	100.25
510.103	105.25
510.319	99.25
510.536	94.25
510.752	81.25
510.968	89.25
511.184	90.25
511.401	76.25
511.617	89.25
