Data from Location1.07152019.Energy5.Lamp.07192019.3%Agarose_HRD10591_14-32-02-016.txt Node
Date: Fri Jul 19 14:32:02 EDT 2019
User: cochatt
Spectrometer: HR+D1059
Trigger mode: 1
Integration Time (sec): 1.000000E-1
Scans to average: 1
Electric dark correction enabled: true
Nonlinearity correction enabled: false
Boxcar width: 0
XAxis mode: Wavelengths
Number of Pixels in Spectrum: 2048
>>>>>Begin Spectral Data<<<<<
223.165	-17.31
223.4	-17.31
223.635	-17.31
223.869	-13.31
224.104	-5.31
224.338	-21.31
224.573	-26.31
224.808	-21.31
225.042	-9.31
225.277	2.69
225.511	-9.31
225.746	-1.31
225.98	8.69
226.215	12.69
226.449	16.69
226.683	15.69
226.918	43.69
227.152	24.69
227.387	26.69
227.621	33.69
227.856	45.69
228.09	49.69
228.324	55.69
228.559	48.69
228.793	64.69
229.027	60.69
229.262	56.69
229.496	72.69
229.73	80.69
229.964	66.69
230.199	61.69
230.433	69.69
230.667	88.69
230.901	68.69
231.136	73.69
231.37	90.69
231.604	64.69
231.838	73.69
232.072	75.69
232.306	90.69
232.541	82.69
232.775	80.69
233.009	69.69
233.243	75.69
233.477	77.69
233.711	77.69
233.945	87.69
234.179	84.69
234.413	87.69
234.647	74.69
234.881	80.69
235.115	64.69
235.349	72.69
235.583	69.69
235.817	83.69
236.051	92.69
236.285	85.69
236.519	76.69
236.753	85.69
236.987	92.69
237.221	87.69
237.455	74.69
237.689	74.69
237.922	79.69
238.156	78.69
238.39	74.69
238.624	69.69
238.858	71.69
239.091	70.69
239.325	64.69
239.559	74.69
239.793	73.69
240.027	75.69
240.26	84.69
240.494	92.69
240.728	79.69
240.961	91.69
241.195	82.69
241.429	71.69
241.662	75.69
241.896	75.69
242.13	77.69
242.363	67.69
242.597	72.69
242.83	77.69
243.064	72.69
243.298	89.69
243.531	80.69
243.765	83.69
243.998	84.69
244.232	75.69
244.465	80.69
244.699	75.69
244.932	88.69
245.166	67.69
245.399	83.69
245.633	76.69
245.866	83.69
246.099	83.69
246.333	70.69
246.566	84.69
246.8	85.69
247.033	72.69
247.266	78.69
247.5	92.69
247.733	90.69
247.966	73.69
248.2	71.69
248.433	77.69
248.666	84.69
248.899	91.69
249.133	79.69
249.366	96.69
249.599	88.69
249.832	83.69
250.066	84.69
250.299	85.69
250.532	93.69
250.765	79.69
250.998	85.69
251.231	89.69
251.465	68.69
251.698	82.69
251.931	95.69
252.164	94.69
252.397	78.69
252.63	78.69
252.863	79.69
253.096	95.69
253.329	79.69
253.562	90.69
253.795	79.69
254.028	75.69
254.261	83.69
254.494	71.69
254.727	69.69
254.96	74.69
255.193	83.69
255.426	83.69
255.659	85.69
255.892	64.69
256.124	66.69
256.357	75.69
256.59	76.69
256.823	84.69
257.056	77.69
257.289	84.69
257.521	81.69
257.754	81.69
257.987	73.69
258.22	71.69
258.452	82.69
258.685	61.69
258.918	80.69
259.151	75.69
259.383	95.69
259.616	78.69
259.849	74.69
260.081	67.69
260.314	75.69
260.547	80.69
260.779	81.69
261.012	79.69
261.244	76.69
261.477	90.69
261.71	85.69
261.942	89.69
262.175	77.69
262.407	82.69
262.64	55.69
262.872	74.69
263.105	63.69
263.337	91.69
263.57	80.69
263.802	91.69
264.035	90.69
264.267	108.69
264.499	102.69
264.732	82.69
264.964	90.69
265.197	90.69
265.429	91.69
265.661	70.69
265.894	89.69
266.126	85.69
266.358	81.69
266.591	82.69
266.823	75.69
267.055	78.69
267.287	86.69
267.52	77.69
267.752	87.69
267.984	85.69
268.216	88.69
268.448	91.69
268.681	89.69
268.913	81.69
269.145	83.69
269.377	83.69
269.609	88.69
269.841	84.69
270.073	71.69
270.306	73.69
270.538	80.69
270.77	85.69
271.002	89.69
271.234	83.69
271.466	92.69
271.698	90.69
271.93	79.69
272.162	75.69
272.394	83.69
272.626	84.69
272.858	83.69
273.09	78.69
273.322	79.69
273.553	89.69
273.785	80.69
274.017	88.69
274.249	92.69
274.481	79.69
274.713	71.69
274.945	96.69
275.176	79.69
275.408	91.69
275.64	74.69
275.872	98.69
276.104	92.69
276.335	84.69
276.567	77.69
276.799	80.69
277.031	78.69
277.262	73.69
277.494	88.69
277.726	93.69
277.957	76.69
278.189	83.69
278.421	81.69
278.652	90.69
278.884	72.69
279.115	80.69
279.347	75.69
279.579	86.69
279.81	82.69
280.042	68.69
280.273	97.69
280.505	90.69
280.736	85.69
280.968	74.69
281.199	77.69
281.431	84.69
281.662	75.69
281.894	70.69
282.125	87.69
282.356	79.69
282.588	92.69
282.819	91.69
283.051	83.69
283.282	83.69
283.513	80.69
283.745	82.69
283.976	80.69
284.207	89.69
284.439	90.69
284.67	83.69
284.901	99.69
285.132	81.69
285.364	79.69
285.595	84.69
285.826	76.69
286.057	93.69
286.288	93.69
286.52	73.69
286.751	85.69
286.982	80.69
287.213	70.69
287.444	87.69
287.675	87.69
287.906	85.69
288.138	80.69
288.369	84.69
288.6	81.69
288.831	82.69
289.062	76.69
289.293	69.69
289.524	82.69
289.755	73.69
289.986	92.69
290.217	92.69
290.448	74.69
290.679	90.69
290.91	86.69
291.141	85.69
291.371	79.69
291.602	79.69
291.833	74.69
292.064	80.69
292.295	89.69
292.526	86.69
292.757	88.69
292.987	91.69
293.218	90.69
293.449	77.69
293.68	79.69
293.91	83.69
294.141	88.69
294.372	83.69
294.603	95.69
294.833	84.69
295.064	79.69
295.295	75.69
295.525	79.69
295.756	92.69
295.987	74.69
296.217	74.69
296.448	82.69
296.679	101.69
296.909	91.69
297.14	96.69
297.37	100.69
297.601	85.69
297.831	86.69
298.062	81.69
298.292	91.69
298.523	99.69
298.753	92.69
298.984	92.69
299.214	80.69
299.445	87.69
299.675	80.69
299.905	74.69
300.136	91.69
300.366	90.69
300.597	91.69
300.827	81.69
301.057	81.69
301.288	78.69
301.518	75.69
301.748	76.69
301.979	84.69
302.209	82.69
302.439	88.69
302.669	104.69
302.9	88.69
303.13	84.69
303.36	86.69
303.59	83.69
303.82	96.69
304.051	84.69
304.281	75.69
304.511	69.69
304.741	78.69
304.971	79.69
305.201	89.69
305.431	84.69
305.661	92.69
305.891	96.69
306.121	96.69
306.352	62.69
306.582	90.69
306.812	71.69
307.042	80.69
307.272	90.69
307.502	76.69
307.731	79.69
307.961	84.69
308.191	83.69
308.421	97.69
308.651	78.69
308.881	82.69
309.111	87.69
309.341	85.69
309.571	80.69
309.8	95.69
310.03	86.69
310.26	90.69
310.49	86.69
310.72	94.69
310.949	78.69
311.179	74.69
311.409	88.69
311.639	91.69
311.868	88.69
312.098	86.69
312.328	84.69
312.557	82.69
312.787	77.69
313.017	91.69
313.246	84.69
313.476	77.69
313.706	98.69
313.935	84.69
314.165	100.69
314.394	92.69
314.624	84.69
314.853	77.69
315.083	92.69
315.312	88.69
315.542	100.69
315.771	80.69
316.001	79.69
316.23	79.69
316.46	83.69
316.689	90.69
316.919	87.69
317.148	88.69
317.377	82.69
317.607	89.69
317.836	85.69
318.065	74.69
318.295	89.69
318.524	85.69
318.753	89.69
318.983	91.69
319.212	87.69
319.441	87.69
319.67	81.69
319.9	86.69
320.129	81.69
320.358	80.69
320.587	88.69
320.816	78.69
321.046	81.69
321.275	88.69
321.504	82.69
321.733	75.69
321.962	92.69
322.191	79.69
322.42	81.69
322.649	77.69
322.878	92.69
323.108	82.69
323.337	81.69
323.566	69.69
323.795	99.69
324.024	92.69
324.253	82.69
324.482	95.69
324.71	97.69
324.939	92.69
325.168	73.69
325.397	88.69
325.626	95.69
325.855	92.69
326.084	86.69
326.313	77.69
326.542	68.69
326.77	79.69
326.999	91.69
327.228	86.69
327.457	88.69
327.686	81.69
327.914	91.69
328.143	78.69
328.372	78.69
328.6	80.69
328.829	79.69
329.058	76.69
329.287	79.69
329.515	78.69
329.744	82.69
329.972	92.69
330.201	64.69
330.43	80.69
330.658	73.69
330.887	84.69
331.115	90.69
331.344	71.69
331.572	99.69
331.801	86.69
332.03	82.69
332.258	74.69
332.486	72.69
332.715	93.69
332.943	91.69
333.172	89.69
333.4	82.69
333.629	91.69
333.857	97.69
334.085	83.69
334.314	81.69
334.542	95.69
334.771	99.69
334.999	79.69
335.227	86.69
335.455	82.69
335.684	71.69
335.912	95.69
336.14	80.69
336.369	83.69
336.597	83.69
336.825	101.69
337.053	79.69
337.281	88.69
337.51	75.69
337.738	94.69
337.966	82.69
338.194	79.69
338.422	86.69
338.65	91.69
338.878	92.69
339.106	81.69
339.334	82.69
339.562	93.69
339.79	87.69
340.018	85.69
340.246	94.69
340.474	86.69
340.702	75.69
340.93	78.69
341.158	90.69
341.386	79.69
341.614	90.69
341.842	91.69
342.07	87.69
342.298	82.69
342.526	76.69
342.754	94.69
342.981	79.69
343.209	70.69
343.437	92.69
343.665	102.69
343.893	92.69
344.12	81.69
344.348	93.69
344.576	86.69
344.804	90.69
345.031	85.69
345.259	72.69
345.487	90.69
345.714	82.69
345.942	70.69
346.17	87.69
346.397	90.69
346.625	98.69
346.853	66.69
347.08	54.69
347.308	94.69
347.535	85.69
347.763	85.69
347.99	77.69
348.218	65.69
348.445	86.69
348.673	86.69
348.9	97.69
349.128	81.69
349.355	80.69
349.583	82.69
349.81	86.69
350.037	92.69
350.265	98.69
350.492	85.69
350.72	79.69
350.947	68.69
351.174	85.69
351.402	76.69
351.629	69.69
351.856	84.69
352.083	78.69
352.311	101.69
352.538	91.69
352.765	91.69
352.992	96.69
353.22	83.69
353.447	88.69
353.674	78.69
353.901	80.69
354.128	85.69
354.355	80.69
354.583	81.69
354.81	94.69
355.037	74.69
355.264	87.69
355.491	84.69
355.718	81.69
355.945	86.69
356.172	75.69
356.399	70.69
356.626	74.69
356.853	75.69
357.08	84.69
357.307	92.69
357.534	75.69
357.761	80.69
357.988	85.69
358.215	82.69
358.441	82.69
358.668	77.69
358.895	80.69
359.122	81.69
359.349	94.69
359.576	87.69
359.802	90.69
360.029	83.69
360.256	78.69
360.483	86.69
360.709	87.69
360.936	90.69
361.163	73.69
361.39	86.69
361.616	75.69
361.843	84.69
362.07	90.69
362.296	83.69
362.523	91.69
362.749	78.69
362.976	74.69
363.203	80.69
363.429	80.69
363.656	86.69
363.882	92.69
364.109	84.69
364.335	98.69
364.562	78.69
364.788	88.69
365.015	94.69
365.241	80.69
365.468	83.69
365.694	80.69
365.92	99.69
366.147	86.69
366.373	81.69
366.599	86.69
366.826	77.69
367.052	79.69
367.278	80.69
367.505	74.69
367.731	90.69
367.957	93.69
368.184	72.69
368.41	79.69
368.636	95.69
368.862	96.69
369.089	92.69
369.315	93.69
369.541	90.69
369.767	86.69
369.993	103.69
370.219	94.69
370.445	82.69
370.672	75.69
370.898	92.69
371.124	104.69
371.35	98.69
371.576	95.69
371.802	84.69
372.028	98.69
372.254	90.69
372.48	92.69
372.706	94.69
372.932	99.69
373.158	82.69
373.384	105.69
373.61	78.69
373.835	92.69
374.061	100.69
374.287	88.69
374.513	100.69
374.739	91.69
374.965	90.69
375.191	93.69
375.416	96.69
375.642	91.69
375.868	88.69
376.094	87.69
376.319	101.69
376.545	92.69
376.771	97.69
376.997	92.69
377.222	84.69
377.448	94.69
377.674	103.69
377.899	88.69
378.125	92.69
378.35	100.69
378.576	90.69
378.802	92.69
379.027	85.69
379.253	88.69
379.478	106.69
379.704	86.69
379.929	93.69
380.155	106.69
380.38	92.69
380.606	91.69
380.831	102.69
381.057	86.69
381.282	87.69
381.507	98.69
381.733	97.69
381.958	105.69
382.184	84.69
382.409	88.69
382.634	82.69
382.86	86.69
383.085	94.69
383.31	95.69
383.535	92.69
383.761	108.69
383.986	91.69
384.211	90.69
384.436	98.69
384.662	94.69
384.887	101.69
385.112	98.69
385.337	96.69
385.562	92.69
385.787	87.69
386.013	103.69
386.238	94.69
386.463	92.69
386.688	106.69
386.913	84.69
387.138	109.69
387.363	110.69
387.588	93.69
387.813	102.69
388.038	95.69
388.263	103.69
388.488	100.69
388.713	99.69
388.938	107.69
389.163	114.69
389.387	88.69
389.612	98.69
389.837	84.69
390.062	102.69
390.287	95.69
390.512	100.69
390.736	102.69
390.961	99.69
391.186	100.69
391.411	80.69
391.636	106.69
391.86	87.69
392.085	90.69
392.31	88.69
392.534	103.69
392.759	87.69
392.984	109.69
393.208	100.69
393.433	101.69
393.658	100.69
393.882	95.69
394.107	109.69
394.331	111.69
394.556	102.69
394.78	119.69
395.005	112.69
395.229	95.69
395.454	95.69
395.678	99.69
395.903	120.69
396.127	110.69
396.352	86.69
396.576	106.69
396.801	92.69
397.025	96.69
397.249	102.69
397.474	115.69
397.698	110.69
397.922	109.69
398.147	106.69
398.371	109.69
398.595	111.69
398.82	114.69
399.044	106.69
399.268	94.69
399.492	104.69
399.717	124.69
399.941	107.69
400.165	103.69
400.389	119.69
400.613	108.69
400.837	114.69
401.062	99.69
401.286	122.69
401.51	93.69
401.734	110.69
401.958	102.69
402.182	124.69
402.406	116.69
402.63	109.69
402.854	105.69
403.078	98.69
403.302	115.69
403.526	113.69
403.75	120.69
403.974	119.69
404.198	115.69
404.422	123.69
404.645	103.69
404.869	101.69
405.093	101.69
405.317	104.69
405.541	121.69
405.765	116.69
405.988	118.69
406.212	120.69
406.436	120.69
406.66	119.69
406.883	120.69
407.107	123.69
407.331	120.69
407.555	124.69
407.778	106.69
408.002	98.69
408.226	116.69
408.449	117.69
408.673	130.69
408.896	132.69
409.12	117.69
409.344	101.69
409.567	134.69
409.791	118.69
410.014	119.69
410.238	118.69
410.461	114.69
410.685	109.69
410.908	117.69
411.132	128.69
411.355	123.69
411.578	124.69
411.802	119.69
412.025	114.69
412.249	122.69
412.472	111.69
412.695	116.69
412.919	122.69
413.142	121.69
413.365	110.69
413.589	114.69
413.812	125.69
414.035	115.69
414.258	114.69
414.482	125.69
414.705	114.69
414.928	123.69
415.151	108.69
415.374	119.69
415.597	122.69
415.821	129.69
416.044	127.69
416.267	127.69
416.49	119.69
416.713	118.69
416.936	145.69
417.159	136.69
417.382	111.69
417.605	119.69
417.828	136.69
418.051	137.69
418.274	123.69
418.497	132.69
418.72	135.69
418.943	133.69
419.166	135.69
419.389	130.69
419.611	125.69
419.834	143.69
420.057	139.69
420.28	122.69
420.503	134.69
420.726	116.69
420.948	136.69
421.171	123.69
421.394	142.69
421.617	150.69
421.839	147.69
422.062	134.69
422.285	138.69
422.507	132.69
422.73	123.69
422.953	137.69
423.175	124.69
423.398	127.69
423.621	140.69
423.843	132.69
424.066	117.69
424.288	126.69
424.511	135.69
424.733	125.69
424.956	129.69
425.178	125.69
425.401	125.69
425.623	135.69
425.846	115.69
426.068	131.69
426.291	128.69
426.513	130.69
426.735	118.69
426.958	124.69
427.18	106.69
427.402	140.69
427.625	138.69
427.847	119.69
428.069	126.69
428.292	128.69
428.514	135.69
428.736	114.69
428.958	122.69
429.181	146.69
429.403	131.69
429.625	114.69
429.847	133.69
430.069	122.69
430.292	127.69
430.514	144.69
430.736	123.69
430.958	124.69
431.18	105.69
431.402	122.69
431.624	106.69
431.846	107.69
432.068	111.69
432.29	100.69
432.512	116.69
432.734	115.69
432.956	130.69
433.178	140.69
433.4	151.69
433.622	142.69
433.844	132.69
434.066	128.69
434.287	104.69
434.509	101.69
434.731	104.69
434.953	109.69
435.175	127.69
435.397	136.69
435.618	125.69
435.84	119.69
436.062	104.69
436.284	120.69
436.505	137.69
436.727	127.69
436.949	118.69
437.17	108.69
437.392	126.69
437.614	122.69
437.835	106.69
438.057	110.69
438.278	105.69
438.5	120.69
438.721	124.69
438.943	138.69
439.165	121.69
439.386	126.69
439.608	151.69
439.829	148.69
440.05	164.69
440.272	147.69
440.493	130.69
440.715	147.69
440.936	155.69
441.158	137.69
441.379	154.69
441.6	150.69
441.822	151.69
442.043	162.69
442.264	142.69
442.486	139.69
442.707	128.69
442.928	136.69
443.149	130.69
443.371	139.69
443.592	134.69
443.813	124.69
444.034	140.69
444.255	141.69
444.476	134.69
444.698	140.69
444.919	136.69
445.14	280.69
445.361	195.69
445.582	144.69
445.803	152.69
446.024	138.69
446.245	156.69
446.466	154.69
446.687	155.69
446.908	153.69
447.129	140.69
447.35	143.69
447.571	148.69
447.792	148.69
448.013	148.69
448.234	151.69
448.455	156.69
448.675	168.69
448.896	142.69
449.117	148.69
449.338	152.69
449.559	139.69
449.779	141.69
450	129.69
450.221	154.69
450.442	145.69
450.662	130.69
450.883	108.69
451.104	133.69
451.324	136.69
451.545	144.69
451.766	136.69
451.986	119.69
452.207	136.69
452.428	131.69
452.648	132.69
452.869	117.69
453.089	114.69
453.31	109.69
453.53	110.69
453.751	111.69
453.971	104.69
454.192	118.69
454.412	98.69
454.633	111.69
454.853	111.69
455.073	126.69
455.294	126.69
455.514	122.69
455.734	127.69
455.955	130.69
456.175	116.69
456.395	102.69
456.616	120.69
456.836	112.69
457.056	108.69
457.276	109.69
457.497	108.69
457.717	112.69
457.937	127.69
458.157	107.69
458.377	116.69
458.598	91.69
458.818	97.69
459.038	85.69
459.258	99.69
459.478	90.69
459.698	84.69
459.918	86.69
460.138	87.69
460.358	114.69
460.578	124.69
460.798	128.69
461.018	120.69
461.238	118.69
461.458	125.69
461.678	118.69
461.898	110.69
462.118	98.69
462.338	123.69
462.558	109.69
462.777	116.69
462.997	102.69
463.217	112.69
463.437	121.69
463.657	108.69
463.876	92.69
464.096	114.69
464.316	111.69
464.536	103.69
464.755	117.69
464.975	126.69
465.195	108.69
465.414	123.69
465.634	114.69
465.854	113.69
466.073	117.69
466.293	126.69
466.512	139.69
466.732	146.69
466.951	121.69
467.171	131.69
467.391	144.69
467.61	140.69
467.829	131.69
468.049	127.69
468.268	122.69
468.488	123.69
468.707	147.69
468.927	122.69
469.146	143.69
469.365	144.69
469.585	140.69
469.804	145.69
470.023	137.69
470.243	130.69
470.462	143.69
470.681	147.69
470.901	143.69
471.12	137.69
471.339	143.69
471.558	146.69
471.777	145.69
471.997	124.69
472.216	117.69
472.435	122.69
472.654	116.69
472.873	111.69
473.092	123.69
473.311	122.69
473.53	133.69
473.749	128.69
473.968	124.69
474.187	113.69
474.406	127.69
474.625	132.69
474.844	126.69
475.063	139.69
475.282	125.69
475.501	120.69
475.72	116.69
475.939	125.69
476.158	127.69
476.377	126.69
476.596	131.69
476.814	108.69
477.033	117.69
477.252	120.69
477.471	115.69
477.69	136.69
477.908	133.69
478.127	127.69
478.346	126.69
478.564	142.69
478.783	140.69
479.002	138.69
479.22	127.69
479.439	128.69
479.658	120.69
479.876	126.69
480.095	112.69
480.313	110.69
480.532	118.69
480.751	112.69
480.969	78.69
481.188	93.69
481.406	82.69
481.624	97.69
481.843	103.69
482.061	93.69
482.28	106.69
482.498	119.69
482.717	106.69
482.935	133.69
483.153	130.69
483.372	157.69
483.59	149.69
483.808	128.69
484.027	118.69
484.245	142.69
484.463	141.69
484.681	170.69
484.9	148.69
485.118	144.69
485.336	134.69
485.554	117.69
485.772	108.69
485.99	92.69
486.209	102.69
486.427	95.69
486.645	114.69
486.863	125.69
487.081	155.69
487.299	127.69
487.517	139.69
487.735	169.69
487.953	174.69
488.171	183.69
488.389	175.69
488.607	156.69
488.825	141.69
489.043	134.69
489.261	118.69
489.479	132.69
489.696	139.69
489.914	141.69
490.132	154.69
490.35	147.69
490.568	164.69
490.786	175.69
491.003	171.69
491.221	180.69
491.439	184.69
491.657	186.69
491.874	203.69
492.092	228.69
492.31	244.69
492.527	224.69
492.745	206.69
492.963	173.69
493.18	192.69
493.398	192.69
493.615	189.69
493.833	166.69
494.05	170.69
494.268	162.69
494.485	158.69
494.703	165.69
494.92	171.69
495.138	155.69
495.355	175.69
495.573	164.69
495.79	159.69
496.008	162.69
496.225	149.69
496.442	166.69
496.66	171.69
496.877	164.69
497.094	165.69
497.312	155.69
497.529	164.69
497.746	149.69
497.963	132.69
498.181	137.69
498.398	121.69
498.615	114.69
498.832	110.69
499.049	104.69
499.267	120.69
499.484	106.69
499.701	126.69
499.918	134.69
500.135	139.69
500.352	119.69
500.569	132.69
500.786	138.69
501.003	146.69
501.22	128.69
501.437	133.69
501.654	137.69
501.871	121.69
502.088	113.69
502.305	130.69
502.522	131.69
502.739	118.69
502.956	125.69
503.172	120.69
503.389	120.69
503.606	126.69
503.823	119.69
504.04	116.69
504.256	130.69
504.473	114.69
504.69	118.69
504.907	124.69
505.123	114.69
505.34	119.69
505.557	118.69
505.773	124.69
505.99	125.69
506.207	126.69
506.423	118.69
506.64	125.69
506.856	121.69
507.073	122.69
507.289	109.69
507.506	122.69
507.722	102.69
507.939	120.69
508.155	114.69
508.372	109.69
508.588	107.69
508.805	112.69
509.021	93.69
509.238	99.69
509.454	103.69
509.67	99.69
509.887	99.69
510.103	99.69
510.319	95.69
510.536	80.69
510.752	90.69
510.968	98.69
511.184	85.69
511.401	80.69
511.617	80.69
511.833	93.69
