Data from Location1.07152019.Energy5.Lamp.07192019.3%Agarose_HRD10591_14-32-52-016.txt Node
Date: Fri Jul 19 14:32:52 EDT 2019
User: cochatt
Spectrometer: HR+D1059
Trigger mode: 1
Integration Time (sec): 1.000000E-1
Scans to average: 1
Electric dark correction enabled: true
Nonlinearity correction enabled: false
Boxcar width: 0
XAxis mode: Wavelengths
Number of Pixels in Spectrum: 2048
>>>>>Begin Spectral Data<<<<<
223.165	-17.56
223.4	-17.56
223.635	-17.56
223.869	-17.56
224.104	-8.56
224.338	-8.56
224.573	-16.56
224.808	-17.56
225.042	-12.56
225.277	-5.56
225.511	-1.56
225.746	10.44
225.98	5.44
226.215	13.44
226.449	18.44
226.683	8.44
226.918	28.44
227.152	21.44
227.387	35.44
227.621	42.44
227.856	40.44
228.09	42.44
228.324	52.44
228.559	59.44
228.793	59.44
229.027	55.44
229.262	80.44
229.496	73.44
229.73	76.44
229.964	65.44
230.199	87.44
230.433	58.44
230.667	74.44
230.901	65.44
231.136	78.44
231.37	74.44
231.604	77.44
231.838	82.44
232.072	87.44
232.306	92.44
232.541	105.44
232.775	91.44
233.009	84.44
233.243	91.44
233.477	85.44
233.711	99.44
233.945	88.44
234.179	73.44
234.413	91.44
234.647	67.44
234.881	84.44
235.115	77.44
235.349	74.44
235.583	86.44
235.817	89.44
236.051	89.44
236.285	80.44
236.519	80.44
236.753	85.44
236.987	79.44
237.221	75.44
237.455	78.44
237.689	84.44
237.922	85.44
238.156	79.44
238.39	78.44
238.624	73.44
238.858	66.44
239.091	79.44
239.325	85.44
239.559	80.44
239.793	75.44
240.027	78.44
240.26	58.44
240.494	75.44
240.728	77.44
240.961	68.44
241.195	79.44
241.429	87.44
241.662	82.44
241.896	97.44
242.13	73.44
242.363	81.44
242.597	76.44
242.83	91.44
243.064	77.44
243.298	79.44
243.531	76.44
243.765	68.44
243.998	80.44
244.232	71.44
244.465	72.44
244.699	93.44
244.932	85.44
245.166	76.44
245.399	94.44
245.633	76.44
245.866	67.44
246.099	90.44
246.333	87.44
246.566	90.44
246.8	74.44
247.033	77.44
247.266	82.44
247.5	80.44
247.733	80.44
247.966	87.44
248.2	69.44
248.433	81.44
248.666	98.44
248.899	94.44
249.133	94.44
249.366	81.44
249.599	65.44
249.832	83.44
250.066	79.44
250.299	74.44
250.532	71.44
250.765	89.44
250.998	75.44
251.231	75.44
251.465	69.44
251.698	83.44
251.931	75.44
252.164	82.44
252.397	92.44
252.63	97.44
252.863	88.44
253.096	85.44
253.329	77.44
253.562	61.44
253.795	78.44
254.028	93.44
254.261	81.44
254.494	73.44
254.727	90.44
254.96	80.44
255.193	71.44
255.426	72.44
255.659	84.44
255.892	88.44
256.124	87.44
256.357	79.44
256.59	73.44
256.823	73.44
257.056	85.44
257.289	76.44
257.521	83.44
257.754	85.44
257.987	88.44
258.22	78.44
258.452	73.44
258.685	81.44
258.918	86.44
259.151	82.44
259.383	74.44
259.616	92.44
259.849	104.44
260.081	84.44
260.314	81.44
260.547	74.44
260.779	72.44
261.012	65.44
261.244	78.44
261.477	83.44
261.71	82.44
261.942	80.44
262.175	84.44
262.407	84.44
262.64	79.44
262.872	89.44
263.105	80.44
263.337	90.44
263.57	85.44
263.802	71.44
264.035	83.44
264.267	68.44
264.499	76.44
264.732	79.44
264.964	77.44
265.197	90.44
265.429	84.44
265.661	89.44
265.894	82.44
266.126	86.44
266.358	82.44
266.591	88.44
266.823	71.44
267.055	89.44
267.287	70.44
267.52	67.44
267.752	91.44
267.984	75.44
268.216	86.44
268.448	80.44
268.681	89.44
268.913	89.44
269.145	88.44
269.377	80.44
269.609	78.44
269.841	84.44
270.073	78.44
270.306	91.44
270.538	89.44
270.77	71.44
271.002	88.44
271.234	87.44
271.466	85.44
271.698	83.44
271.93	84.44
272.162	78.44
272.394	77.44
272.626	85.44
272.858	90.44
273.09	82.44
273.322	94.44
273.553	80.44
273.785	67.44
274.017	82.44
274.249	88.44
274.481	86.44
274.713	78.44
274.945	69.44
275.176	76.44
275.408	87.44
275.64	89.44
275.872	95.44
276.104	81.44
276.335	92.44
276.567	83.44
276.799	77.44
277.031	87.44
277.262	76.44
277.494	77.44
277.726	73.44
277.957	86.44
278.189	79.44
278.421	81.44
278.652	83.44
278.884	91.44
279.115	77.44
279.347	96.44
279.579	74.44
279.81	78.44
280.042	80.44
280.273	74.44
280.505	80.44
280.736	65.44
280.968	90.44
281.199	79.44
281.431	80.44
281.662	93.44
281.894	83.44
282.125	80.44
282.356	79.44
282.588	86.44
282.819	78.44
283.051	89.44
283.282	90.44
283.513	89.44
283.745	86.44
283.976	87.44
284.207	94.44
284.439	97.44
284.67	78.44
284.901	99.44
285.132	92.44
285.364	94.44
285.595	69.44
285.826	75.44
286.057	96.44
286.288	82.44
286.52	76.44
286.751	87.44
286.982	62.44
287.213	73.44
287.444	89.44
287.675	100.44
287.906	85.44
288.138	84.44
288.369	92.44
288.6	77.44
288.831	78.44
289.062	80.44
289.293	96.44
289.524	78.44
289.755	79.44
289.986	73.44
290.217	72.44
290.448	87.44
290.679	84.44
290.91	81.44
291.141	85.44
291.371	88.44
291.602	79.44
291.833	88.44
292.064	91.44
292.295	73.44
292.526	90.44
292.757	83.44
292.987	93.44
293.218	90.44
293.449	79.44
293.68	80.44
293.91	90.44
294.141	91.44
294.372	87.44
294.603	96.44
294.833	79.44
295.064	56.44
295.295	83.44
295.525	88.44
295.756	89.44
295.987	72.44
296.217	81.44
296.448	84.44
296.679	82.44
296.909	75.44
297.14	86.44
297.37	89.44
297.601	89.44
297.831	66.44
298.062	83.44
298.292	93.44
298.523	87.44
298.753	77.44
298.984	85.44
299.214	86.44
299.445	84.44
299.675	84.44
299.905	89.44
300.136	96.44
300.366	78.44
300.597	88.44
300.827	94.44
301.057	75.44
301.288	101.44
301.518	93.44
301.748	80.44
301.979	91.44
302.209	91.44
302.439	89.44
302.669	80.44
302.9	91.44
303.13	69.44
303.36	71.44
303.59	97.44
303.82	91.44
304.051	98.44
304.281	87.44
304.511	94.44
304.741	93.44
304.971	88.44
305.201	82.44
305.431	80.44
305.661	81.44
305.891	76.44
306.121	85.44
306.352	83.44
306.582	80.44
306.812	95.44
307.042	66.44
307.272	84.44
307.502	93.44
307.731	86.44
307.961	81.44
308.191	77.44
308.421	86.44
308.651	97.44
308.881	83.44
309.111	83.44
309.341	69.44
309.571	78.44
309.8	73.44
310.03	90.44
310.26	77.44
310.49	89.44
310.72	80.44
310.949	89.44
311.179	84.44
311.409	70.44
311.639	85.44
311.868	87.44
312.098	75.44
312.328	85.44
312.557	93.44
312.787	77.44
313.017	93.44
313.246	79.44
313.476	84.44
313.706	88.44
313.935	83.44
314.165	81.44
314.394	74.44
314.624	76.44
314.853	85.44
315.083	92.44
315.312	100.44
315.542	92.44
315.771	84.44
316.001	93.44
316.23	75.44
316.46	80.44
316.689	86.44
316.919	82.44
317.148	93.44
317.377	84.44
317.607	98.44
317.836	91.44
318.065	85.44
318.295	81.44
318.524	80.44
318.753	78.44
318.983	85.44
319.212	81.44
319.441	76.44
319.67	89.44
319.9	88.44
320.129	85.44
320.358	83.44
320.587	87.44
320.816	87.44
321.046	81.44
321.275	83.44
321.504	94.44
321.733	73.44
321.962	81.44
322.191	79.44
322.42	84.44
322.649	74.44
322.878	99.44
323.108	90.44
323.337	77.44
323.566	87.44
323.795	73.44
324.024	79.44
324.253	79.44
324.482	92.44
324.71	92.44
324.939	89.44
325.168	93.44
325.397	92.44
325.626	84.44
325.855	89.44
326.084	72.44
326.313	87.44
326.542	89.44
326.77	80.44
326.999	91.44
327.228	83.44
327.457	86.44
327.686	99.44
327.914	88.44
328.143	87.44
328.372	89.44
328.6	84.44
328.829	92.44
329.058	82.44
329.287	74.44
329.515	73.44
329.744	79.44
329.972	80.44
330.201	93.44
330.43	91.44
330.658	82.44
330.887	88.44
331.115	88.44
331.344	87.44
331.572	90.44
331.801	76.44
332.03	81.44
332.258	78.44
332.486	77.44
332.715	93.44
332.943	87.44
333.172	79.44
333.4	88.44
333.629	66.44
333.857	82.44
334.085	88.44
334.314	81.44
334.542	79.44
334.771	85.44
334.999	87.44
335.227	75.44
335.455	87.44
335.684	90.44
335.912	84.44
336.14	89.44
336.369	86.44
336.597	82.44
336.825	84.44
337.053	75.44
337.281	90.44
337.51	78.44
337.738	76.44
337.966	85.44
338.194	70.44
338.422	83.44
338.65	87.44
338.878	78.44
339.106	74.44
339.334	79.44
339.562	70.44
339.79	85.44
340.018	91.44
340.246	79.44
340.474	88.44
340.702	93.44
340.93	80.44
341.158	69.44
341.386	87.44
341.614	90.44
341.842	92.44
342.07	80.44
342.298	79.44
342.526	87.44
342.754	99.44
342.981	87.44
343.209	90.44
343.437	102.44
343.665	95.44
343.893	90.44
344.12	80.44
344.348	86.44
344.576	83.44
344.804	80.44
345.031	79.44
345.259	86.44
345.487	86.44
345.714	76.44
345.942	77.44
346.17	73.44
346.397	79.44
346.625	84.44
346.853	87.44
347.08	79.44
347.308	99.44
347.535	88.44
347.763	83.44
347.99	82.44
348.218	84.44
348.445	86.44
348.673	81.44
348.9	97.44
349.128	92.44
349.355	81.44
349.583	68.44
349.81	89.44
350.037	92.44
350.265	82.44
350.492	77.44
350.72	82.44
350.947	75.44
351.174	80.44
351.402	85.44
351.629	86.44
351.856	83.44
352.083	82.44
352.311	90.44
352.538	97.44
352.765	88.44
352.992	87.44
353.22	84.44
353.447	86.44
353.674	77.44
353.901	69.44
354.128	100.44
354.355	84.44
354.583	90.44
354.81	85.44
355.037	79.44
355.264	87.44
355.491	77.44
355.718	78.44
355.945	80.44
356.172	81.44
356.399	94.44
356.626	80.44
356.853	85.44
357.08	83.44
357.307	83.44
357.534	80.44
357.761	68.44
357.988	79.44
358.215	92.44
358.441	78.44
358.668	92.44
358.895	80.44
359.122	79.44
359.349	78.44
359.576	92.44
359.802	78.44
360.029	85.44
360.256	109.44
360.483	75.44
360.709	89.44
360.936	93.44
361.163	83.44
361.39	84.44
361.616	97.44
361.843	72.44
362.07	89.44
362.296	84.44
362.523	80.44
362.749	88.44
362.976	80.44
363.203	92.44
363.429	83.44
363.656	82.44
363.882	85.44
364.109	83.44
364.335	82.44
364.562	104.44
364.788	81.44
365.015	79.44
365.241	91.44
365.468	90.44
365.694	68.44
365.92	86.44
366.147	85.44
366.373	92.44
366.599	78.44
366.826	87.44
367.052	96.44
367.278	107.44
367.505	81.44
367.731	86.44
367.957	74.44
368.184	93.44
368.41	96.44
368.636	96.44
368.862	95.44
369.089	91.44
369.315	99.44
369.541	94.44
369.767	100.44
369.993	92.44
370.219	90.44
370.445	84.44
370.672	87.44
370.898	84.44
371.124	89.44
371.35	92.44
371.576	88.44
371.802	91.44
372.028	95.44
372.254	94.44
372.48	81.44
372.706	99.44
372.932	89.44
373.158	99.44
373.384	102.44
373.61	98.44
373.835	97.44
374.061	83.44
374.287	82.44
374.513	95.44
374.739	85.44
374.965	84.44
375.191	100.44
375.416	98.44
375.642	96.44
375.868	96.44
376.094	95.44
376.319	102.44
376.545	98.44
376.771	94.44
376.997	100.44
377.222	94.44
377.448	88.44
377.674	100.44
377.899	98.44
378.125	94.44
378.35	90.44
378.576	92.44
378.802	101.44
379.027	103.44
379.253	101.44
379.478	95.44
379.704	102.44
379.929	97.44
380.155	93.44
380.38	103.44
380.606	102.44
380.831	97.44
381.057	104.44
381.282	89.44
381.507	115.44
381.733	95.44
381.958	98.44
382.184	89.44
382.409	96.44
382.634	100.44
382.86	102.44
383.085	103.44
383.31	96.44
383.535	95.44
383.761	77.44
383.986	97.44
384.211	104.44
384.436	94.44
384.662	99.44
384.887	88.44
385.112	101.44
385.337	90.44
385.562	88.44
385.787	104.44
386.013	116.44
386.238	91.44
386.463	91.44
386.688	108.44
386.913	97.44
387.138	111.44
387.363	95.44
387.588	110.44
387.813	107.44
388.038	100.44
388.263	103.44
388.488	105.44
388.713	113.44
388.938	93.44
389.163	107.44
389.387	83.44
389.612	111.44
389.837	120.44
390.062	101.44
390.287	85.44
390.512	103.44
390.736	91.44
390.961	90.44
391.186	95.44
391.411	117.44
391.636	106.44
391.86	109.44
392.085	102.44
392.31	118.44
392.534	97.44
392.759	89.44
392.984	111.44
393.208	108.44
393.433	97.44
393.658	102.44
393.882	108.44
394.107	107.44
394.331	106.44
394.556	104.44
394.78	105.44
395.005	107.44
395.229	106.44
395.454	91.44
395.678	115.44
395.903	104.44
396.127	115.44
396.352	127.44
396.576	106.44
396.801	104.44
397.025	99.44
397.249	98.44
397.474	113.44
397.698	105.44
397.922	124.44
398.147	102.44
398.371	107.44
398.595	116.44
398.82	107.44
399.044	99.44
399.268	107.44
399.492	116.44
399.717	97.44
399.941	114.44
400.165	108.44
400.389	118.44
400.613	109.44
400.837	106.44
401.062	119.44
401.286	117.44
401.51	107.44
401.734	112.44
401.958	121.44
402.182	116.44
402.406	111.44
402.63	118.44
402.854	119.44
403.078	124.44
403.302	112.44
403.526	129.44
403.75	114.44
403.974	116.44
404.198	127.44
404.422	113.44
404.645	115.44
404.869	115.44
405.093	119.44
405.317	120.44
405.541	125.44
405.765	115.44
405.988	120.44
406.212	131.44
406.436	111.44
406.66	113.44
406.883	121.44
407.107	126.44
407.331	123.44
407.555	111.44
407.778	109.44
408.002	118.44
408.226	112.44
408.449	101.44
408.673	111.44
408.896	109.44
409.12	120.44
409.344	121.44
409.567	119.44
409.791	119.44
410.014	119.44
410.238	124.44
410.461	113.44
410.685	127.44
410.908	112.44
411.132	124.44
411.355	110.44
411.578	124.44
411.802	115.44
412.025	117.44
412.249	136.44
412.472	127.44
412.695	105.44
412.919	115.44
413.142	113.44
413.365	119.44
413.589	119.44
413.812	120.44
414.035	114.44
414.258	115.44
414.482	123.44
414.705	122.44
414.928	127.44
415.151	134.44
415.374	110.44
415.597	105.44
415.821	119.44
416.044	115.44
416.267	132.44
416.49	124.44
416.713	129.44
416.936	130.44
417.159	119.44
417.382	113.44
417.605	117.44
417.828	109.44
418.051	129.44
418.274	134.44
418.497	123.44
418.72	127.44
418.943	120.44
419.166	128.44
419.389	129.44
419.611	131.44
419.834	127.44
420.057	119.44
420.28	128.44
420.503	118.44
420.726	143.44
420.948	143.44
421.171	135.44
421.394	134.44
421.617	143.44
421.839	131.44
422.062	140.44
422.285	140.44
422.507	139.44
422.73	136.44
422.953	135.44
423.175	131.44
423.398	124.44
423.621	134.44
423.843	124.44
424.066	131.44
424.288	129.44
424.511	142.44
424.733	155.44
424.956	143.44
425.178	138.44
425.401	150.44
425.623	154.44
425.846	142.44
426.068	141.44
426.291	131.44
426.513	124.44
426.735	124.44
426.958	127.44
427.18	126.44
427.402	126.44
427.625	132.44
427.847	119.44
428.069	125.44
428.292	128.44
428.514	126.44
428.736	126.44
428.958	115.44
429.181	116.44
429.403	144.44
429.625	127.44
429.847	127.44
430.069	121.44
430.292	131.44
430.514	122.44
430.736	120.44
430.958	127.44
431.18	131.44
431.402	107.44
431.624	136.44
431.846	122.44
432.068	105.44
432.29	98.44
432.512	123.44
432.734	127.44
432.956	119.44
433.178	125.44
433.4	126.44
433.622	133.44
433.844	146.44
434.066	119.44
434.287	110.44
434.509	88.44
434.731	109.44
434.953	115.44
435.175	110.44
435.397	141.44
435.618	121.44
435.84	115.44
436.062	116.44
436.284	123.44
436.505	123.44
436.727	135.44
436.949	127.44
437.17	128.44
437.392	144.44
437.614	133.44
437.835	112.44
438.057	110.44
438.278	118.44
438.5	128.44
438.721	136.44
438.943	124.44
439.165	150.44
439.386	130.44
439.608	117.44
439.829	136.44
440.05	145.44
440.272	149.44
440.493	133.44
440.715	136.44
440.936	152.44
441.158	132.44
441.379	141.44
441.6	140.44
441.822	137.44
442.043	133.44
442.264	142.44
442.486	124.44
442.707	136.44
442.928	156.44
443.149	135.44
443.371	120.44
443.592	135.44
443.813	135.44
444.034	123.44
444.255	135.44
444.476	153.44
444.698	149.44
444.919	144.44
445.14	254.44
445.361	193.44
445.582	150.44
445.803	154.44
446.024	155.44
446.245	155.44
446.466	161.44
446.687	156.44
446.908	165.44
447.129	136.44
447.35	139.44
447.571	164.44
447.792	142.44
448.013	144.44
448.234	141.44
448.455	161.44
448.675	150.44
448.896	135.44
449.117	134.44
449.338	133.44
449.559	141.44
449.779	128.44
450	131.44
450.221	142.44
450.442	119.44
450.662	135.44
450.883	140.44
451.104	133.44
451.324	124.44
451.545	144.44
451.766	140.44
451.986	119.44
452.207	120.44
452.428	120.44
452.648	114.44
452.869	122.44
453.089	120.44
453.31	119.44
453.53	121.44
453.751	96.44
453.971	115.44
454.192	117.44
454.412	110.44
454.633	113.44
454.853	110.44
455.073	123.44
455.294	126.44
455.514	108.44
455.734	117.44
455.955	121.44
456.175	109.44
456.395	106.44
456.616	116.44
456.836	110.44
457.056	110.44
457.276	108.44
457.497	104.44
457.717	106.44
457.937	112.44
458.157	97.44
458.377	119.44
458.598	100.44
458.818	101.44
459.038	83.44
459.258	103.44
459.478	90.44
459.698	107.44
459.918	82.44
460.138	106.44
460.358	113.44
460.578	105.44
460.798	119.44
461.018	108.44
461.238	125.44
461.458	109.44
461.678	106.44
461.898	105.44
462.118	125.44
462.338	119.44
462.558	112.44
462.777	111.44
462.997	113.44
463.217	121.44
463.437	115.44
463.657	93.44
463.876	101.44
464.096	122.44
464.316	101.44
464.536	100.44
464.755	116.44
464.975	111.44
465.195	110.44
465.414	113.44
465.634	131.44
465.854	111.44
466.073	121.44
466.293	112.44
466.512	137.44
466.732	113.44
466.951	119.44
467.171	127.44
467.391	128.44
467.61	143.44
467.829	128.44
468.049	126.44
468.268	139.44
468.488	127.44
468.707	134.44
468.927	139.44
469.146	129.44
469.365	135.44
469.585	141.44
469.804	132.44
470.023	151.44
470.243	135.44
470.462	138.44
470.681	121.44
470.901	138.44
471.12	153.44
471.339	149.44
471.558	151.44
471.777	150.44
471.997	123.44
472.216	126.44
472.435	116.44
472.654	120.44
472.873	109.44
473.092	116.44
473.311	129.44
473.53	137.44
473.749	135.44
473.968	139.44
474.187	119.44
474.406	112.44
474.625	125.44
474.844	137.44
475.063	124.44
475.282	127.44
475.501	120.44
475.72	134.44
475.939	130.44
476.158	119.44
476.377	139.44
476.596	121.44
476.814	124.44
477.033	104.44
477.252	108.44
477.471	99.44
477.69	131.44
477.908	135.44
478.127	137.44
478.346	144.44
478.564	133.44
478.783	125.44
479.002	141.44
479.22	138.44
479.439	126.44
479.658	107.44
479.876	119.44
480.095	119.44
480.313	103.44
480.532	113.44
480.751	101.44
480.969	111.44
481.188	97.44
481.406	93.44
481.624	75.44
481.843	97.44
482.061	88.44
482.28	112.44
482.498	125.44
482.717	119.44
482.935	110.44
483.153	148.44
483.372	146.44
483.59	140.44
483.808	136.44
484.027	142.44
484.245	142.44
484.463	160.44
484.681	166.44
484.9	147.44
485.118	145.44
485.336	125.44
485.554	112.44
485.772	91.44
485.99	112.44
486.209	111.44
486.427	108.44
486.645	125.44
486.863	136.44
487.081	146.44
487.299	128.44
487.517	135.44
487.735	160.44
487.953	168.44
488.171	188.44
488.389	168.44
488.607	155.44
488.825	131.44
489.043	123.44
489.261	139.44
489.479	136.44
489.696	137.44
489.914	149.44
490.132	148.44
490.35	146.44
490.568	180.44
490.786	174.44
491.003	179.44
491.221	179.44
491.439	188.44
491.657	181.44
491.874	198.44
492.092	220.44
492.31	239.44
492.527	236.44
492.745	199.44
492.963	199.44
493.18	174.44
493.398	171.44
493.615	180.44
493.833	164.44
494.05	180.44
494.268	176.44
494.485	159.44
494.703	186.44
494.92	188.44
495.138	168.44
495.355	169.44
495.573	166.44
495.79	173.44
496.008	186.44
496.225	159.44
496.442	175.44
496.66	175.44
496.877	161.44
497.094	163.44
497.312	159.44
497.529	165.44
497.746	159.44
497.963	143.44
498.181	121.44
498.398	118.44
498.615	115.44
498.832	124.44
499.049	111.44
499.267	141.44
499.484	135.44
499.701	127.44
499.918	141.44
500.135	142.44
500.352	139.44
500.569	147.44
500.786	148.44
501.003	135.44
501.22	139.44
501.437	142.44
501.654	127.44
501.871	131.44
502.088	127.44
502.305	135.44
502.522	129.44
502.739	131.44
502.956	131.44
503.172	117.44
503.389	139.44
503.606	121.44
503.823	112.44
504.04	127.44
504.256	117.44
504.473	125.44
504.69	116.44
504.907	124.44
505.123	126.44
505.34	129.44
505.557	117.44
505.773	116.44
505.99	118.44
506.207	113.44
506.423	126.44
506.64	121.44
506.856	118.44
507.073	124.44
507.289	117.44
507.506	126.44
507.722	113.44
507.939	109.44
508.155	129.44
508.372	116.44
508.588	117.44
508.805	118.44
509.021	105.44
509.238	110.44
509.454	104.44
509.67	104.44
509.887	113.44
510.103	102.44
510.319	89.44
510.536	89.44
510.752	84.44
510.968	87.44
511.184	75.44
511.401	85.44
