Data from Location1.07152019.Energy5.Lamp.07192019.3%Agarose_HRD10591_14-30-46-016.txt Node
Date: Fri Jul 19 14:30:46 EDT 2019
User: cochatt
Spectrometer: HR+D1059
Trigger mode: 1
Integration Time (sec): 1.000000E-1
Scans to average: 1
Electric dark correction enabled: true
Nonlinearity correction enabled: false
Boxcar width: 0
XAxis mode: Wavelengths
Number of Pixels in Spectrum: 2048
>>>>>Begin Spectral Data<<<<<
223.165	-15.06
223.4	-15.06
223.635	-15.06
223.869	-20.06
224.104	-22.06
224.338	-11.06
224.573	-17.06
224.808	-25.06
225.042	10.94
225.277	-5.06
225.511	-8.06
225.746	-0.06
225.98	9.94
226.215	15.94
226.449	12.94
226.683	19.94
226.918	26.94
227.152	26.94
227.387	37.94
227.621	29.94
227.856	40.94
228.09	35.94
228.324	48.94
228.559	48.94
228.793	52.94
229.027	67.94
229.262	62.94
229.496	70.94
229.73	73.94
229.964	78.94
230.199	58.94
230.433	68.94
230.667	86.94
230.901	70.94
231.136	60.94
231.37	73.94
231.604	68.94
231.838	73.94
232.072	74.94
232.306	75.94
232.541	78.94
232.775	74.94
233.009	64.94
233.243	80.94
233.477	81.94
233.711	77.94
233.945	79.94
234.179	65.94
234.413	69.94
234.647	68.94
234.881	63.94
235.115	70.94
235.349	66.94
235.583	76.94
235.817	78.94
236.051	72.94
236.285	72.94
236.519	75.94
236.753	76.94
236.987	92.94
237.221	75.94
237.455	73.94
237.689	92.94
237.922	81.94
238.156	79.94
238.39	82.94
238.624	79.94
238.858	79.94
239.091	71.94
239.325	67.94
239.559	79.94
239.793	72.94
240.027	70.94
240.26	67.94
240.494	75.94
240.728	69.94
240.961	76.94
241.195	87.94
241.429	84.94
241.662	67.94
241.896	54.94
242.13	54.94
242.363	73.94
242.597	78.94
242.83	67.94
243.064	73.94
243.298	73.94
243.531	63.94
243.765	74.94
243.998	65.94
244.232	74.94
244.465	76.94
244.699	77.94
244.932	70.94
245.166	75.94
245.399	91.94
245.633	80.94
245.866	82.94
246.099	75.94
246.333	79.94
246.566	68.94
246.8	81.94
247.033	72.94
247.266	76.94
247.5	75.94
247.733	74.94
247.966	75.94
248.2	71.94
248.433	75.94
248.666	81.94
248.899	78.94
249.133	73.94
249.366	74.94
249.599	89.94
249.832	74.94
250.066	80.94
250.299	73.94
250.532	78.94
250.765	86.94
250.998	75.94
251.231	73.94
251.465	72.94
251.698	58.94
251.931	75.94
252.164	60.94
252.397	63.94
252.63	68.94
252.863	66.94
253.096	76.94
253.329	79.94
253.562	78.94
253.795	64.94
254.028	66.94
254.261	69.94
254.494	70.94
254.727	76.94
254.96	74.94
255.193	73.94
255.426	80.94
255.659	59.94
255.892	77.94
256.124	72.94
256.357	87.94
256.59	80.94
256.823	68.94
257.056	78.94
257.289	70.94
257.521	70.94
257.754	71.94
257.987	78.94
258.22	78.94
258.452	71.94
258.685	78.94
258.918	76.94
259.151	81.94
259.383	75.94
259.616	75.94
259.849	78.94
260.081	69.94
260.314	79.94
260.547	77.94
260.779	65.94
261.012	73.94
261.244	82.94
261.477	87.94
261.71	79.94
261.942	77.94
262.175	68.94
262.407	62.94
262.64	73.94
262.872	78.94
263.105	75.94
263.337	82.94
263.57	76.94
263.802	77.94
264.035	64.94
264.267	73.94
264.499	77.94
264.732	79.94
264.964	71.94
265.197	61.94
265.429	75.94
265.661	65.94
265.894	73.94
266.126	72.94
266.358	84.94
266.591	81.94
266.823	63.94
267.055	80.94
267.287	78.94
267.52	80.94
267.752	84.94
267.984	80.94
268.216	74.94
268.448	75.94
268.681	83.94
268.913	79.94
269.145	84.94
269.377	72.94
269.609	82.94
269.841	82.94
270.073	73.94
270.306	67.94
270.538	68.94
270.77	87.94
271.002	82.94
271.234	62.94
271.466	70.94
271.698	81.94
271.93	84.94
272.162	79.94
272.394	69.94
272.626	70.94
272.858	77.94
273.09	70.94
273.322	85.94
273.553	75.94
273.785	87.94
274.017	63.94
274.249	72.94
274.481	83.94
274.713	74.94
274.945	85.94
275.176	66.94
275.408	85.94
275.64	64.94
275.872	83.94
276.104	84.94
276.335	71.94
276.567	79.94
276.799	71.94
277.031	76.94
277.262	72.94
277.494	83.94
277.726	81.94
277.957	91.94
278.189	85.94
278.421	79.94
278.652	86.94
278.884	80.94
279.115	70.94
279.347	76.94
279.579	82.94
279.81	80.94
280.042	86.94
280.273	80.94
280.505	74.94
280.736	83.94
280.968	83.94
281.199	80.94
281.431	73.94
281.662	87.94
281.894	56.94
282.125	65.94
282.356	77.94
282.588	71.94
282.819	89.94
283.051	90.94
283.282	75.94
283.513	91.94
283.745	75.94
283.976	77.94
284.207	85.94
284.439	75.94
284.67	80.94
284.901	76.94
285.132	89.94
285.364	89.94
285.595	80.94
285.826	86.94
286.057	88.94
286.288	83.94
286.52	75.94
286.751	73.94
286.982	89.94
287.213	83.94
287.444	73.94
287.675	73.94
287.906	82.94
288.138	83.94
288.369	71.94
288.6	83.94
288.831	72.94
289.062	83.94
289.293	77.94
289.524	69.94
289.755	83.94
289.986	73.94
290.217	84.94
290.448	86.94
290.679	83.94
290.91	89.94
291.141	71.94
291.371	80.94
291.602	70.94
291.833	88.94
292.064	65.94
292.295	76.94
292.526	78.94
292.757	72.94
292.987	76.94
293.218	86.94
293.449	77.94
293.68	79.94
293.91	62.94
294.141	76.94
294.372	67.94
294.603	72.94
294.833	76.94
295.064	77.94
295.295	74.94
295.525	74.94
295.756	88.94
295.987	82.94
296.217	87.94
296.448	84.94
296.679	98.94
296.909	80.94
297.14	94.94
297.37	74.94
297.601	77.94
297.831	82.94
298.062	75.94
298.292	79.94
298.523	80.94
298.753	86.94
298.984	81.94
299.214	69.94
299.445	85.94
299.675	89.94
299.905	70.94
300.136	71.94
300.366	79.94
300.597	72.94
300.827	66.94
301.057	84.94
301.288	80.94
301.518	81.94
301.748	80.94
301.979	84.94
302.209	78.94
302.439	74.94
302.669	83.94
302.9	82.94
303.13	86.94
303.36	83.94
303.59	73.94
303.82	84.94
304.051	84.94
304.281	75.94
304.511	78.94
304.741	96.94
304.971	88.94
305.201	84.94
305.431	88.94
305.661	78.94
305.891	84.94
306.121	87.94
306.352	80.94
306.582	77.94
306.812	90.94
307.042	100.94
307.272	74.94
307.502	88.94
307.731	87.94
307.961	72.94
308.191	89.94
308.421	87.94
308.651	80.94
308.881	89.94
309.111	75.94
309.341	64.94
309.571	76.94
309.8	78.94
310.03	84.94
310.26	88.94
310.49	74.94
310.72	84.94
310.949	78.94
311.179	81.94
311.409	75.94
311.639	80.94
311.868	79.94
312.098	89.94
312.328	80.94
312.557	89.94
312.787	83.94
313.017	82.94
313.246	86.94
313.476	77.94
313.706	78.94
313.935	86.94
314.165	83.94
314.394	80.94
314.624	84.94
314.853	76.94
315.083	91.94
315.312	85.94
315.542	76.94
315.771	93.94
316.001	70.94
316.23	76.94
316.46	72.94
316.689	87.94
316.919	74.94
317.148	94.94
317.377	88.94
317.607	81.94
317.836	67.94
318.065	84.94
318.295	90.94
318.524	81.94
318.753	92.94
318.983	76.94
319.212	82.94
319.441	67.94
319.67	71.94
319.9	85.94
320.129	76.94
320.358	76.94
320.587	87.94
320.816	74.94
321.046	82.94
321.275	88.94
321.504	91.94
321.733	88.94
321.962	75.94
322.191	88.94
322.42	87.94
322.649	84.94
322.878	89.94
323.108	86.94
323.337	95.94
323.566	80.94
323.795	90.94
324.024	80.94
324.253	80.94
324.482	84.94
324.71	71.94
324.939	87.94
325.168	88.94
325.397	80.94
325.626	86.94
325.855	75.94
326.084	81.94
326.313	82.94
326.542	74.94
326.77	78.94
326.999	80.94
327.228	70.94
327.457	81.94
327.686	81.94
327.914	83.94
328.143	88.94
328.372	86.94
328.6	80.94
328.829	95.94
329.058	87.94
329.287	79.94
329.515	84.94
329.744	99.94
329.972	83.94
330.201	78.94
330.43	62.94
330.658	91.94
330.887	94.94
331.115	70.94
331.344	75.94
331.572	81.94
331.801	76.94
332.03	84.94
332.258	87.94
332.486	80.94
332.715	90.94
332.943	62.94
333.172	78.94
333.4	85.94
333.629	83.94
333.857	73.94
334.085	62.94
334.314	86.94
334.542	90.94
334.771	85.94
334.999	74.94
335.227	81.94
335.455	74.94
335.684	82.94
335.912	76.94
336.14	80.94
336.369	83.94
336.597	83.94
336.825	68.94
337.053	80.94
337.281	84.94
337.51	79.94
337.738	79.94
337.966	84.94
338.194	83.94
338.422	80.94
338.65	80.94
338.878	72.94
339.106	102.94
339.334	84.94
339.562	83.94
339.79	80.94
340.018	86.94
340.246	86.94
340.474	68.94
340.702	87.94
340.93	78.94
341.158	92.94
341.386	82.94
341.614	83.94
341.842	75.94
342.07	78.94
342.298	89.94
342.526	89.94
342.754	69.94
342.981	74.94
343.209	76.94
343.437	91.94
343.665	88.94
343.893	75.94
344.12	76.94
344.348	70.94
344.576	80.94
344.804	76.94
345.031	88.94
345.259	74.94
345.487	91.94
345.714	75.94
345.942	88.94
346.17	90.94
346.397	77.94
346.625	81.94
346.853	80.94
347.08	70.94
347.308	84.94
347.535	71.94
347.763	99.94
347.99	75.94
348.218	95.94
348.445	80.94
348.673	81.94
348.9	83.94
349.128	81.94
349.355	76.94
349.583	82.94
349.81	87.94
350.037	71.94
350.265	87.94
350.492	79.94
350.72	87.94
350.947	84.94
351.174	79.94
351.402	83.94
351.629	82.94
351.856	78.94
352.083	73.94
352.311	76.94
352.538	78.94
352.765	63.94
352.992	84.94
353.22	80.94
353.447	79.94
353.674	84.94
353.901	71.94
354.128	79.94
354.355	96.94
354.583	92.94
354.81	59.94
355.037	82.94
355.264	81.94
355.491	86.94
355.718	88.94
355.945	81.94
356.172	76.94
356.399	77.94
356.626	88.94
356.853	89.94
357.08	78.94
357.307	80.94
357.534	90.94
357.761	70.94
357.988	70.94
358.215	82.94
358.441	74.94
358.668	77.94
358.895	77.94
359.122	74.94
359.349	80.94
359.576	101.94
359.802	76.94
360.029	79.94
360.256	79.94
360.483	82.94
360.709	82.94
360.936	91.94
361.163	95.94
361.39	82.94
361.616	89.94
361.843	74.94
362.07	69.94
362.296	87.94
362.523	73.94
362.749	83.94
362.976	94.94
363.203	76.94
363.429	91.94
363.656	84.94
363.882	88.94
364.109	81.94
364.335	88.94
364.562	88.94
364.788	83.94
365.015	78.94
365.241	75.94
365.468	92.94
365.694	89.94
365.92	82.94
366.147	84.94
366.373	83.94
366.599	91.94
366.826	85.94
367.052	88.94
367.278	86.94
367.505	84.94
367.731	99.94
367.957	78.94
368.184	87.94
368.41	94.94
368.636	108.94
368.862	87.94
369.089	85.94
369.315	81.94
369.541	77.94
369.767	90.94
369.993	84.94
370.219	81.94
370.445	75.94
370.672	81.94
370.898	90.94
371.124	85.94
371.35	94.94
371.576	80.94
371.802	88.94
372.028	73.94
372.254	85.94
372.48	73.94
372.706	88.94
372.932	89.94
373.158	85.94
373.384	91.94
373.61	77.94
373.835	91.94
374.061	86.94
374.287	81.94
374.513	83.94
374.739	85.94
374.965	73.94
375.191	90.94
375.416	68.94
375.642	86.94
375.868	101.94
376.094	90.94
376.319	95.94
376.545	82.94
376.771	83.94
376.997	82.94
377.222	93.94
377.448	87.94
377.674	94.94
377.899	76.94
378.125	85.94
378.35	86.94
378.576	91.94
378.802	77.94
379.027	95.94
379.253	94.94
379.478	87.94
379.704	88.94
379.929	97.94
380.155	84.94
380.38	66.94
380.606	98.94
380.831	101.94
381.057	76.94
381.282	92.94
381.507	104.94
381.733	90.94
381.958	101.94
382.184	94.94
382.409	76.94
382.634	80.94
382.86	74.94
383.085	89.94
383.31	93.94
383.535	89.94
383.761	88.94
383.986	87.94
384.211	99.94
384.436	93.94
384.662	92.94
384.887	90.94
385.112	99.94
385.337	83.94
385.562	101.94
385.787	88.94
386.013	94.94
386.238	91.94
386.463	92.94
386.688	90.94
386.913	93.94
387.138	101.94
387.363	99.94
387.588	96.94
387.813	104.94
388.038	87.94
388.263	96.94
388.488	91.94
388.713	97.94
388.938	99.94
389.163	99.94
389.387	106.94
389.612	84.94
389.837	92.94
390.062	107.94
390.287	83.94
390.512	86.94
390.736	89.94
390.961	83.94
391.186	91.94
391.411	103.94
391.636	112.94
391.86	103.94
392.085	99.94
392.31	97.94
392.534	106.94
392.759	97.94
392.984	91.94
393.208	91.94
393.433	103.94
393.658	100.94
393.882	86.94
394.107	108.94
394.331	100.94
394.556	110.94
394.78	103.94
395.005	102.94
395.229	97.94
395.454	97.94
395.678	89.94
395.903	114.94
396.127	107.94
396.352	107.94
396.576	102.94
396.801	111.94
397.025	108.94
397.249	97.94
397.474	116.94
397.698	94.94
397.922	106.94
398.147	90.94
398.371	111.94
398.595	100.94
398.82	104.94
399.044	103.94
399.268	110.94
399.492	107.94
399.717	93.94
399.941	92.94
400.165	96.94
400.389	98.94
400.613	105.94
400.837	117.94
401.062	90.94
401.286	107.94
401.51	117.94
401.734	115.94
401.958	104.94
402.182	107.94
402.406	116.94
402.63	102.94
402.854	102.94
403.078	122.94
403.302	116.94
403.526	95.94
403.75	112.94
403.974	101.94
404.198	112.94
404.422	118.94
404.645	107.94
404.869	111.94
405.093	104.94
405.317	104.94
405.541	121.94
405.765	118.94
405.988	116.94
406.212	110.94
406.436	97.94
406.66	106.94
406.883	106.94
407.107	107.94
407.331	116.94
407.555	111.94
407.778	104.94
408.002	103.94
408.226	113.94
408.449	109.94
408.673	112.94
408.896	115.94
409.12	99.94
409.344	105.94
409.567	103.94
409.791	131.94
410.014	113.94
410.238	98.94
410.461	102.94
410.685	120.94
410.908	110.94
411.132	104.94
411.355	115.94
411.578	113.94
411.802	119.94
412.025	119.94
412.249	118.94
412.472	120.94
412.695	121.94
412.919	123.94
413.142	112.94
413.365	108.94
413.589	114.94
413.812	119.94
414.035	126.94
414.258	105.94
414.482	114.94
414.705	130.94
414.928	121.94
415.151	121.94
415.374	121.94
415.597	122.94
415.821	124.94
416.044	112.94
416.267	124.94
416.49	134.94
416.713	131.94
416.936	117.94
417.159	120.94
417.382	122.94
417.605	113.94
417.828	129.94
418.051	113.94
418.274	127.94
418.497	126.94
418.72	132.94
418.943	130.94
419.166	126.94
419.389	130.94
419.611	119.94
419.834	138.94
420.057	122.94
420.28	115.94
420.503	124.94
420.726	131.94
420.948	127.94
421.171	129.94
421.394	155.94
421.617	131.94
421.839	116.94
422.062	138.94
422.285	127.94
422.507	130.94
422.73	119.94
422.953	117.94
423.175	119.94
423.398	122.94
423.621	120.94
423.843	129.94
424.066	128.94
424.288	134.94
424.511	133.94
424.733	138.94
424.956	130.94
425.178	130.94
425.401	146.94
425.623	127.94
425.846	111.94
426.068	118.94
426.291	118.94
426.513	139.94
426.735	116.94
426.958	118.94
427.18	121.94
427.402	134.94
427.625	133.94
427.847	116.94
428.069	122.94
428.292	128.94
428.514	131.94
428.736	127.94
428.958	128.94
429.181	108.94
429.403	123.94
429.625	123.94
429.847	122.94
430.069	126.94
430.292	119.94
430.514	107.94
430.736	107.94
430.958	143.94
431.18	114.94
431.402	108.94
431.624	123.94
431.846	107.94
432.068	93.94
432.29	96.94
432.512	108.94
432.734	113.94
432.956	126.94
433.178	119.94
433.4	121.94
433.622	134.94
433.844	138.94
434.066	117.94
434.287	106.94
434.509	94.94
434.731	100.94
434.953	104.94
435.175	103.94
435.397	132.94
435.618	120.94
435.84	111.94
436.062	106.94
436.284	122.94
436.505	128.94
436.727	123.94
436.949	111.94
437.17	127.94
437.392	124.94
437.614	125.94
437.835	106.94
438.057	100.94
438.278	114.94
438.5	121.94
438.721	121.94
438.943	135.94
439.165	128.94
439.386	143.94
439.608	135.94
439.829	150.94
440.05	146.94
440.272	128.94
440.493	133.94
440.715	126.94
440.936	141.94
441.158	136.94
441.379	132.94
441.6	143.94
441.822	150.94
442.043	139.94
442.264	128.94
442.486	132.94
442.707	140.94
442.928	120.94
443.149	128.94
443.371	134.94
443.592	125.94
443.813	129.94
444.034	145.94
444.255	137.94
444.476	121.94
444.698	134.94
444.919	135.94
445.14	255.94
445.361	198.94
445.582	144.94
445.803	142.94
446.024	125.94
446.245	154.94
446.466	144.94
446.687	160.94
446.908	147.94
447.129	154.94
447.35	155.94
447.571	133.94
447.792	137.94
448.013	134.94
448.234	131.94
448.455	127.94
448.675	125.94
448.896	133.94
449.117	131.94
449.338	123.94
449.559	132.94
449.779	127.94
450	139.94
450.221	129.94
450.442	145.94
450.662	132.94
450.883	130.94
451.104	121.94
451.324	126.94
451.545	143.94
451.766	130.94
451.986	115.94
452.207	104.94
452.428	126.94
452.648	112.94
452.869	130.94
453.089	111.94
453.31	117.94
453.53	96.94
453.751	90.94
453.971	95.94
454.192	103.94
454.412	102.94
454.633	122.94
454.853	103.94
455.073	111.94
455.294	118.94
455.514	119.94
455.734	113.94
455.955	97.94
456.175	107.94
456.395	101.94
456.616	100.94
456.836	99.94
457.056	104.94
457.276	102.94
457.497	95.94
457.717	97.94
457.937	116.94
458.157	106.94
458.377	119.94
458.598	98.94
458.818	87.94
459.038	90.94
459.258	77.94
459.478	89.94
459.698	79.94
459.918	104.94
460.138	98.94
460.358	109.94
460.578	113.94
460.798	98.94
461.018	121.94
461.238	126.94
461.458	118.94
461.678	117.94
461.898	92.94
462.118	120.94
462.338	107.94
462.558	115.94
462.777	115.94
462.997	113.94
463.217	105.94
463.437	110.94
463.657	101.94
463.876	103.94
464.096	101.94
464.316	105.94
464.536	102.94
464.755	119.94
464.975	120.94
465.195	125.94
465.414	101.94
465.634	105.94
465.854	101.94
466.073	130.94
466.293	128.94
466.512	127.94
466.732	120.94
466.951	116.94
467.171	135.94
467.391	123.94
467.61	112.94
467.829	136.94
468.049	122.94
468.268	124.94
468.488	128.94
468.707	116.94
468.927	140.94
469.146	138.94
469.365	131.94
469.585	128.94
469.804	130.94
470.023	127.94
470.243	120.94
470.462	131.94
470.681	128.94
470.901	130.94
471.12	135.94
471.339	132.94
471.558	132.94
471.777	134.94
471.997	133.94
472.216	134.94
472.435	108.94
472.654	117.94
472.873	94.94
473.092	113.94
473.311	125.94
473.53	119.94
473.749	121.94
473.968	131.94
474.187	127.94
474.406	115.94
474.625	117.94
474.844	131.94
475.063	110.94
475.282	124.94
475.501	118.94
475.72	121.94
475.939	116.94
476.158	118.94
476.377	113.94
476.596	108.94
476.814	109.94
477.033	112.94
477.252	119.94
477.471	107.94
477.69	121.94
477.908	139.94
478.127	136.94
478.346	141.94
478.564	142.94
478.783	116.94
479.002	122.94
479.22	129.94
479.439	138.94
479.658	114.94
479.876	131.94
480.095	100.94
480.313	102.94
480.532	127.94
480.751	108.94
480.969	99.94
481.188	85.94
481.406	73.94
481.624	93.94
481.843	86.94
482.061	95.94
482.28	92.94
482.498	108.94
482.717	107.94
482.935	129.94
483.153	134.94
483.372	146.94
483.59	149.94
483.808	135.94
484.027	124.94
484.245	134.94
484.463	144.94
484.681	157.94
484.9	148.94
485.118	131.94
485.336	124.94
485.554	106.94
485.772	102.94
485.99	102.94
486.209	87.94
486.427	95.94
486.645	122.94
486.863	128.94
487.081	144.94
487.299	146.94
487.517	138.94
487.735	162.94
487.953	175.94
488.171	182.94
488.389	174.94
488.607	158.94
488.825	126.94
489.043	116.94
489.261	134.94
489.479	134.94
489.696	132.94
489.914	126.94
490.132	136.94
490.35	152.94
490.568	163.94
490.786	164.94
491.003	184.94
491.221	166.94
491.439	172.94
491.657	177.94
491.874	205.94
492.092	217.94
492.31	231.94
492.527	211.94
492.745	215.94
492.963	179.94
493.18	185.94
493.398	185.94
493.615	182.94
493.833	152.94
494.05	156.94
494.268	175.94
494.485	161.94
494.703	175.94
494.92	170.94
495.138	178.94
495.355	174.94
495.573	159.94
495.79	155.94
496.008	163.94
496.225	144.94
496.442	159.94
496.66	149.94
496.877	157.94
497.094	147.94
497.312	171.94
497.529	147.94
497.746	151.94
497.963	146.94
498.181	124.94
498.398	104.94
498.615	122.94
498.832	112.94
499.049	116.94
499.267	127.94
499.484	116.94
499.701	140.94
499.918	144.94
500.135	123.94
500.352	120.94
500.569	135.94
500.786	132.94
501.003	153.94
501.22	130.94
501.437	139.94
501.654	144.94
501.871	140.94
502.088	126.94
502.305	134.94
502.522	108.94
502.739	126.94
502.956	124.94
503.172	118.94
503.389	122.94
503.606	124.94
503.823	128.94
504.04	132.94
504.256	128.94
504.473	110.94
504.69	126.94
504.907	123.94
505.123	118.94
505.34	114.94
505.557	104.94
505.773	127.94
505.99	123.94
506.207	114.94
506.423	118.94
506.64	106.94
506.856	118.94
507.073	131.94
507.289	101.94
507.506	124.94
507.722	112.94
507.939	112.94
508.155	118.94
508.372	116.94
508.588	114.94
508.805	107.94
509.021	112.94
509.238	101.94
509.454	111.94
509.67	102.94
509.887	91.94
510.103	98.94
510.319	110.94
510.536	91.94
510.752	100.94
510.968	95.94
511.184	67.94
511.401	76.94
511.617	88.94
511.833	87.94
512.049	93.94
512.265	98.94
