Data from Location1.07152019.Energy5.Lamp.07192019.3%Agarose_HRD10591_14-33-17-016.txt Node
Date: Fri Jul 19 14:33:17 EDT 2019
User: cochatt
Spectrometer: HR+D1059
Trigger mode: 1
Integration Time (sec): 1.000000E-1
Scans to average: 1
Electric dark correction enabled: true
Nonlinearity correction enabled: false
Boxcar width: 0
XAxis mode: Wavelengths
Number of Pixels in Spectrum: 2048
>>>>>Begin Spectral Data<<<<<
223.165	-26.81
223.4	-26.81
223.635	-26.81
223.869	-26.81
224.104	-11.81
224.338	-10.81
224.573	0.19
224.808	-22.81
225.042	-16.81
225.277	-10.81
225.511	-6.81
225.746	9.19
225.98	20.19
226.215	16.19
226.449	14.19
226.683	24.19
226.918	19.19
227.152	30.19
227.387	40.19
227.621	39.19
227.856	38.19
228.09	51.19
228.324	51.19
228.559	60.19
228.793	63.19
229.027	69.19
229.262	72.19
229.496	61.19
229.73	70.19
229.964	67.19
230.199	64.19
230.433	94.19
230.667	91.19
230.901	79.19
231.136	93.19
231.37	84.19
231.604	90.19
231.838	99.19
232.072	77.19
232.306	90.19
232.541	76.19
232.775	85.19
233.009	77.19
233.243	79.19
233.477	73.19
233.711	71.19
233.945	71.19
234.179	81.19
234.413	89.19
234.647	88.19
234.881	90.19
235.115	94.19
235.349	78.19
235.583	75.19
235.817	88.19
236.051	79.19
236.285	70.19
236.519	87.19
236.753	72.19
236.987	78.19
237.221	81.19
237.455	73.19
237.689	72.19
237.922	92.19
238.156	93.19
238.39	87.19
238.624	74.19
238.858	85.19
239.091	80.19
239.325	79.19
239.559	80.19
239.793	79.19
240.027	79.19
240.26	73.19
240.494	71.19
240.728	74.19
240.961	73.19
241.195	76.19
241.429	84.19
241.662	64.19
241.896	75.19
242.13	70.19
242.363	81.19
242.597	100.19
242.83	94.19
243.064	78.19
243.298	70.19
243.531	74.19
243.765	81.19
243.998	87.19
244.232	70.19
244.465	70.19
244.699	84.19
244.932	85.19
245.166	73.19
245.399	79.19
245.633	83.19
245.866	93.19
246.099	79.19
246.333	85.19
246.566	81.19
246.8	105.19
247.033	84.19
247.266	83.19
247.5	93.19
247.733	96.19
247.966	72.19
248.2	71.19
248.433	82.19
248.666	99.19
248.899	90.19
249.133	72.19
249.366	81.19
249.599	83.19
249.832	87.19
250.066	82.19
250.299	88.19
250.532	89.19
250.765	77.19
250.998	78.19
251.231	76.19
251.465	75.19
251.698	81.19
251.931	89.19
252.164	81.19
252.397	84.19
252.63	81.19
252.863	69.19
253.096	91.19
253.329	81.19
253.562	74.19
253.795	79.19
254.028	90.19
254.261	94.19
254.494	79.19
254.727	79.19
254.96	91.19
255.193	87.19
255.426	87.19
255.659	92.19
255.892	100.19
256.124	75.19
256.357	83.19
256.59	94.19
256.823	64.19
257.056	87.19
257.289	76.19
257.521	83.19
257.754	88.19
257.987	79.19
258.22	78.19
258.452	71.19
258.685	81.19
258.918	85.19
259.151	75.19
259.383	77.19
259.616	73.19
259.849	82.19
260.081	78.19
260.314	91.19
260.547	82.19
260.779	94.19
261.012	88.19
261.244	79.19
261.477	107.19
261.71	78.19
261.942	84.19
262.175	75.19
262.407	89.19
262.64	79.19
262.872	90.19
263.105	79.19
263.337	84.19
263.57	83.19
263.802	79.19
264.035	81.19
264.267	83.19
264.499	82.19
264.732	82.19
264.964	84.19
265.197	91.19
265.429	72.19
265.661	92.19
265.894	86.19
266.126	86.19
266.358	96.19
266.591	77.19
266.823	91.19
267.055	90.19
267.287	89.19
267.52	78.19
267.752	85.19
267.984	80.19
268.216	92.19
268.448	82.19
268.681	86.19
268.913	81.19
269.145	81.19
269.377	81.19
269.609	84.19
269.841	71.19
270.073	71.19
270.306	100.19
270.538	91.19
270.77	94.19
271.002	92.19
271.234	78.19
271.466	87.19
271.698	98.19
271.93	81.19
272.162	81.19
272.394	91.19
272.626	92.19
272.858	75.19
273.09	91.19
273.322	79.19
273.553	84.19
273.785	67.19
274.017	81.19
274.249	81.19
274.481	79.19
274.713	83.19
274.945	78.19
275.176	93.19
275.408	86.19
275.64	77.19
275.872	77.19
276.104	94.19
276.335	95.19
276.567	78.19
276.799	77.19
277.031	86.19
277.262	83.19
277.494	78.19
277.726	78.19
277.957	85.19
278.189	95.19
278.421	83.19
278.652	78.19
278.884	84.19
279.115	95.19
279.347	99.19
279.579	80.19
279.81	63.19
280.042	84.19
280.273	77.19
280.505	86.19
280.736	77.19
280.968	93.19
281.199	70.19
281.431	75.19
281.662	82.19
281.894	91.19
282.125	98.19
282.356	92.19
282.588	90.19
282.819	86.19
283.051	80.19
283.282	98.19
283.513	85.19
283.745	78.19
283.976	82.19
284.207	71.19
284.439	93.19
284.67	83.19
284.901	72.19
285.132	93.19
285.364	89.19
285.595	93.19
285.826	80.19
286.057	94.19
286.288	70.19
286.52	95.19
286.751	78.19
286.982	105.19
287.213	101.19
287.444	84.19
287.675	77.19
287.906	93.19
288.138	83.19
288.369	92.19
288.6	98.19
288.831	76.19
289.062	90.19
289.293	86.19
289.524	86.19
289.755	77.19
289.986	83.19
290.217	60.19
290.448	85.19
290.679	87.19
290.91	90.19
291.141	83.19
291.371	73.19
291.602	90.19
291.833	95.19
292.064	98.19
292.295	100.19
292.526	88.19
292.757	77.19
292.987	82.19
293.218	93.19
293.449	90.19
293.68	80.19
293.91	89.19
294.141	84.19
294.372	77.19
294.603	87.19
294.833	87.19
295.064	97.19
295.295	80.19
295.525	73.19
295.756	99.19
295.987	97.19
296.217	85.19
296.448	98.19
296.679	82.19
296.909	83.19
297.14	63.19
297.37	91.19
297.601	93.19
297.831	87.19
298.062	91.19
298.292	89.19
298.523	85.19
298.753	88.19
298.984	92.19
299.214	94.19
299.445	83.19
299.675	88.19
299.905	88.19
300.136	92.19
300.366	96.19
300.597	80.19
300.827	75.19
301.057	79.19
301.288	72.19
301.518	90.19
301.748	100.19
301.979	79.19
302.209	85.19
302.439	86.19
302.669	93.19
302.9	89.19
303.13	88.19
303.36	80.19
303.59	87.19
303.82	74.19
304.051	80.19
304.281	91.19
304.511	84.19
304.741	78.19
304.971	83.19
305.201	89.19
305.431	85.19
305.661	103.19
305.891	88.19
306.121	84.19
306.352	86.19
306.582	88.19
306.812	81.19
307.042	86.19
307.272	85.19
307.502	82.19
307.731	85.19
307.961	92.19
308.191	81.19
308.421	90.19
308.651	85.19
308.881	78.19
309.111	90.19
309.341	85.19
309.571	95.19
309.8	62.19
310.03	75.19
310.26	77.19
310.49	81.19
310.72	98.19
310.949	85.19
311.179	88.19
311.409	87.19
311.639	78.19
311.868	94.19
312.098	84.19
312.328	87.19
312.557	86.19
312.787	94.19
313.017	100.19
313.246	97.19
313.476	90.19
313.706	77.19
313.935	92.19
314.165	89.19
314.394	87.19
314.624	76.19
314.853	96.19
315.083	91.19
315.312	99.19
315.542	87.19
315.771	99.19
316.001	89.19
316.23	87.19
316.46	89.19
316.689	84.19
316.919	89.19
317.148	94.19
317.377	81.19
317.607	78.19
317.836	76.19
318.065	72.19
318.295	99.19
318.524	80.19
318.753	86.19
318.983	89.19
319.212	65.19
319.441	80.19
319.67	73.19
319.9	71.19
320.129	88.19
320.358	89.19
320.587	92.19
320.816	92.19
321.046	88.19
321.275	83.19
321.504	78.19
321.733	90.19
321.962	90.19
322.191	80.19
322.42	81.19
322.649	77.19
322.878	91.19
323.108	83.19
323.337	79.19
323.566	75.19
323.795	81.19
324.024	95.19
324.253	72.19
324.482	100.19
324.71	89.19
324.939	94.19
325.168	102.19
325.397	84.19
325.626	95.19
325.855	99.19
326.084	90.19
326.313	81.19
326.542	81.19
326.77	95.19
326.999	87.19
327.228	75.19
327.457	87.19
327.686	81.19
327.914	96.19
328.143	95.19
328.372	94.19
328.6	76.19
328.829	80.19
329.058	84.19
329.287	92.19
329.515	85.19
329.744	82.19
329.972	85.19
330.201	87.19
330.43	86.19
330.658	88.19
330.887	86.19
331.115	78.19
331.344	90.19
331.572	85.19
331.801	87.19
332.03	85.19
332.258	81.19
332.486	81.19
332.715	102.19
332.943	82.19
333.172	89.19
333.4	89.19
333.629	86.19
333.857	89.19
334.085	82.19
334.314	88.19
334.542	83.19
334.771	87.19
334.999	87.19
335.227	76.19
335.455	80.19
335.684	93.19
335.912	79.19
336.14	84.19
336.369	79.19
336.597	87.19
336.825	93.19
337.053	91.19
337.281	86.19
337.51	82.19
337.738	87.19
337.966	85.19
338.194	80.19
338.422	70.19
338.65	82.19
338.878	81.19
339.106	105.19
339.334	94.19
339.562	89.19
339.79	72.19
340.018	84.19
340.246	83.19
340.474	91.19
340.702	89.19
340.93	83.19
341.158	76.19
341.386	88.19
341.614	109.19
341.842	101.19
342.07	91.19
342.298	80.19
342.526	75.19
342.754	86.19
342.981	85.19
343.209	99.19
343.437	95.19
343.665	80.19
343.893	103.19
344.12	74.19
344.348	81.19
344.576	99.19
344.804	85.19
345.031	87.19
345.259	98.19
345.487	79.19
345.714	88.19
345.942	82.19
346.17	100.19
346.397	90.19
346.625	82.19
346.853	88.19
347.08	77.19
347.308	79.19
347.535	84.19
347.763	91.19
347.99	84.19
348.218	91.19
348.445	86.19
348.673	92.19
348.9	90.19
349.128	89.19
349.355	80.19
349.583	84.19
349.81	88.19
350.037	85.19
350.265	79.19
350.492	88.19
350.72	85.19
350.947	95.19
351.174	74.19
351.402	74.19
351.629	100.19
351.856	80.19
352.083	98.19
352.311	73.19
352.538	90.19
352.765	81.19
352.992	71.19
353.22	78.19
353.447	84.19
353.674	77.19
353.901	79.19
354.128	85.19
354.355	91.19
354.583	73.19
354.81	72.19
355.037	90.19
355.264	88.19
355.491	103.19
355.718	85.19
355.945	85.19
356.172	91.19
356.399	89.19
356.626	91.19
356.853	85.19
357.08	84.19
357.307	82.19
357.534	70.19
357.761	68.19
357.988	90.19
358.215	93.19
358.441	94.19
358.668	86.19
358.895	84.19
359.122	92.19
359.349	84.19
359.576	78.19
359.802	73.19
360.029	86.19
360.256	99.19
360.483	96.19
360.709	84.19
360.936	92.19
361.163	89.19
361.39	84.19
361.616	97.19
361.843	89.19
362.07	85.19
362.296	95.19
362.523	77.19
362.749	78.19
362.976	86.19
363.203	77.19
363.429	77.19
363.656	82.19
363.882	88.19
364.109	89.19
364.335	82.19
364.562	92.19
364.788	89.19
365.015	93.19
365.241	72.19
365.468	77.19
365.694	98.19
365.92	87.19
366.147	89.19
366.373	95.19
366.599	84.19
366.826	93.19
367.052	88.19
367.278	93.19
367.505	88.19
367.731	89.19
367.957	87.19
368.184	98.19
368.41	88.19
368.636	94.19
368.862	85.19
369.089	93.19
369.315	69.19
369.541	75.19
369.767	88.19
369.993	96.19
370.219	83.19
370.445	104.19
370.672	99.19
370.898	99.19
371.124	97.19
371.35	88.19
371.576	87.19
371.802	92.19
372.028	83.19
372.254	81.19
372.48	87.19
372.706	84.19
372.932	101.19
373.158	97.19
373.384	93.19
373.61	90.19
373.835	89.19
374.061	97.19
374.287	97.19
374.513	84.19
374.739	102.19
374.965	88.19
375.191	103.19
375.416	91.19
375.642	93.19
375.868	104.19
376.094	94.19
376.319	82.19
376.545	95.19
376.771	93.19
376.997	107.19
377.222	96.19
377.448	100.19
377.674	107.19
377.899	74.19
378.125	95.19
378.35	98.19
378.576	108.19
378.802	100.19
379.027	94.19
379.253	88.19
379.478	103.19
379.704	104.19
379.929	91.19
380.155	82.19
380.38	88.19
380.606	86.19
380.831	86.19
381.057	98.19
381.282	99.19
381.507	92.19
381.733	96.19
381.958	96.19
382.184	95.19
382.409	93.19
382.634	111.19
382.86	99.19
383.085	91.19
383.31	90.19
383.535	86.19
383.761	104.19
383.986	104.19
384.211	103.19
384.436	99.19
384.662	90.19
384.887	91.19
385.112	94.19
385.337	89.19
385.562	104.19
385.787	111.19
386.013	116.19
386.238	101.19
386.463	102.19
386.688	109.19
386.913	101.19
387.138	98.19
387.363	101.19
387.588	111.19
387.813	106.19
388.038	107.19
388.263	80.19
388.488	89.19
388.713	101.19
388.938	113.19
389.163	104.19
389.387	108.19
389.612	106.19
389.837	91.19
390.062	93.19
390.287	103.19
390.512	110.19
390.736	101.19
390.961	89.19
391.186	115.19
391.411	131.19
391.636	101.19
391.86	108.19
392.085	95.19
392.31	92.19
392.534	97.19
392.759	107.19
392.984	108.19
393.208	99.19
393.433	85.19
393.658	91.19
393.882	118.19
394.107	110.19
394.331	103.19
394.556	102.19
394.78	99.19
395.005	113.19
395.229	103.19
395.454	111.19
395.678	114.19
395.903	93.19
396.127	108.19
396.352	97.19
396.576	96.19
396.801	99.19
397.025	113.19
397.249	120.19
397.474	96.19
397.698	90.19
397.922	102.19
398.147	103.19
398.371	114.19
398.595	109.19
398.82	110.19
399.044	120.19
399.268	112.19
399.492	117.19
399.717	123.19
399.941	93.19
400.165	117.19
400.389	113.19
400.613	107.19
400.837	128.19
401.062	119.19
401.286	119.19
401.51	106.19
401.734	110.19
401.958	118.19
402.182	111.19
402.406	106.19
402.63	115.19
402.854	106.19
403.078	102.19
403.302	107.19
403.526	104.19
403.75	111.19
403.974	103.19
404.198	116.19
404.422	115.19
404.645	120.19
404.869	101.19
405.093	115.19
405.317	110.19
405.541	109.19
405.765	120.19
405.988	110.19
406.212	121.19
406.436	94.19
406.66	128.19
406.883	105.19
407.107	126.19
407.331	109.19
407.555	128.19
407.778	111.19
408.002	109.19
408.226	119.19
408.449	123.19
408.673	116.19
408.896	113.19
409.12	112.19
409.344	118.19
409.567	110.19
409.791	119.19
410.014	113.19
410.238	130.19
410.461	125.19
410.685	133.19
410.908	135.19
411.132	129.19
411.355	133.19
411.578	105.19
411.802	116.19
412.025	131.19
412.249	128.19
412.472	126.19
412.695	125.19
412.919	125.19
413.142	133.19
413.365	108.19
413.589	115.19
413.812	124.19
414.035	134.19
414.258	116.19
414.482	131.19
414.705	128.19
414.928	137.19
415.151	130.19
415.374	130.19
415.597	130.19
415.821	113.19
416.044	121.19
416.267	120.19
416.49	128.19
416.713	134.19
416.936	129.19
417.159	135.19
417.382	121.19
417.605	115.19
417.828	121.19
418.051	123.19
418.274	123.19
418.497	139.19
418.72	136.19
418.943	121.19
419.166	137.19
419.389	137.19
419.611	129.19
419.834	133.19
420.057	129.19
420.28	119.19
420.503	132.19
420.726	117.19
420.948	121.19
421.171	122.19
421.394	142.19
421.617	144.19
421.839	132.19
422.062	132.19
422.285	145.19
422.507	133.19
422.73	128.19
422.953	129.19
423.175	127.19
423.398	135.19
423.621	131.19
423.843	131.19
424.066	138.19
424.288	126.19
424.511	135.19
424.733	139.19
424.956	140.19
425.178	150.19
425.401	124.19
425.623	141.19
425.846	134.19
426.068	137.19
426.291	133.19
426.513	124.19
426.735	117.19
426.958	129.19
427.18	128.19
427.402	134.19
427.625	133.19
427.847	121.19
428.069	126.19
428.292	138.19
428.514	136.19
428.736	128.19
428.958	135.19
429.181	117.19
429.403	125.19
429.625	123.19
429.847	128.19
430.069	128.19
430.292	137.19
430.514	140.19
430.736	132.19
430.958	144.19
431.18	132.19
431.402	134.19
431.624	120.19
431.846	107.19
432.068	109.19
432.29	103.19
432.512	115.19
432.734	130.19
432.956	139.19
433.178	139.19
433.4	136.19
433.622	146.19
433.844	140.19
434.066	133.19
434.287	117.19
434.509	101.19
434.731	101.19
434.953	110.19
435.175	133.19
435.397	141.19
435.618	104.19
435.84	119.19
436.062	117.19
436.284	120.19
436.505	127.19
436.727	147.19
436.949	126.19
437.17	117.19
437.392	131.19
437.614	123.19
437.835	122.19
438.057	101.19
438.278	116.19
438.5	129.19
438.721	124.19
438.943	133.19
439.165	134.19
439.386	148.19
439.608	146.19
439.829	129.19
440.05	143.19
440.272	137.19
440.493	138.19
440.715	144.19
440.936	153.19
441.158	141.19
441.379	156.19
441.6	145.19
441.822	140.19
442.043	134.19
442.264	145.19
442.486	146.19
442.707	151.19
442.928	149.19
443.149	154.19
443.371	124.19
443.592	129.19
443.813	147.19
444.034	138.19
444.255	136.19
444.476	145.19
444.698	125.19
444.919	149.19
445.14	226.19
445.361	176.19
445.582	148.19
445.803	126.19
446.024	156.19
446.245	157.19
446.466	151.19
446.687	171.19
446.908	169.19
447.129	153.19
447.35	146.19
447.571	157.19
447.792	140.19
448.013	143.19
448.234	140.19
448.455	139.19
448.675	146.19
448.896	152.19
449.117	153.19
449.338	145.19
449.559	152.19
449.779	149.19
450	137.19
450.221	146.19
450.442	156.19
450.662	131.19
450.883	128.19
451.104	134.19
451.324	117.19
451.545	135.19
451.766	139.19
451.986	146.19
452.207	133.19
452.428	135.19
452.648	139.19
452.869	121.19
453.089	122.19
453.31	106.19
453.53	107.19
453.751	109.19
453.971	98.19
454.192	120.19
454.412	105.19
454.633	103.19
454.853	108.19
455.073	108.19
455.294	123.19
455.514	123.19
455.734	126.19
455.955	119.19
456.175	107.19
456.395	117.19
456.616	119.19
456.836	111.19
457.056	111.19
457.276	113.19
457.497	103.19
457.717	107.19
457.937	108.19
458.157	108.19
458.377	122.19
458.598	110.19
458.818	97.19
459.038	92.19
459.258	77.19
459.478	90.19
459.698	97.19
459.918	104.19
460.138	105.19
460.358	111.19
460.578	105.19
460.798	116.19
461.018	105.19
461.238	111.19
461.458	132.19
461.678	120.19
461.898	121.19
462.118	119.19
462.338	109.19
462.558	112.19
462.777	110.19
462.997	111.19
463.217	104.19
463.437	105.19
463.657	115.19
463.876	107.19
464.096	111.19
464.316	103.19
464.536	115.19
464.755	111.19
464.975	115.19
465.195	124.19
465.414	135.19
465.634	119.19
465.854	113.19
466.073	129.19
466.293	119.19
466.512	142.19
466.732	139.19
466.951	139.19
467.171	135.19
467.391	151.19
467.61	135.19
467.829	132.19
468.049	131.19
468.268	139.19
468.488	149.19
468.707	112.19
468.927	135.19
469.146	150.19
469.365	148.19
469.585	133.19
469.804	131.19
470.023	144.19
470.243	140.19
470.462	153.19
470.681	154.19
470.901	146.19
471.12	128.19
471.339	145.19
471.558	132.19
471.777	149.19
471.997	128.19
472.216	135.19
472.435	108.19
472.654	117.19
472.873	108.19
473.092	112.19
473.311	119.19
473.53	129.19
473.749	112.19
473.968	147.19
474.187	123.19
474.406	122.19
474.625	136.19
474.844	116.19
475.063	144.19
475.282	131.19
475.501	124.19
475.72	116.19
475.939	126.19
476.158	135.19
476.377	126.19
476.596	129.19
476.814	119.19
477.033	124.19
477.252	111.19
477.471	105.19
477.69	131.19
477.908	124.19
478.127	141.19
478.346	137.19
478.564	121.19
478.783	129.19
479.002	142.19
479.22	127.19
479.439	131.19
479.658	121.19
479.876	110.19
480.095	103.19
480.313	117.19
480.532	124.19
480.751	117.19
480.969	101.19
481.188	78.19
481.406	101.19
481.624	87.19
481.843	95.19
482.061	102.19
482.28	98.19
482.498	116.19
482.717	113.19
482.935	119.19
483.153	136.19
483.372	156.19
483.59	141.19
483.808	136.19
484.027	133.19
484.245	137.19
484.463	164.19
484.681	170.19
484.9	138.19
485.118	137.19
485.336	135.19
485.554	112.19
485.772	97.19
485.99	95.19
486.209	111.19
486.427	124.19
486.645	121.19
486.863	149.19
487.081	143.19
487.299	141.19
487.517	123.19
487.735	159.19
487.953	167.19
488.171	213.19
488.389	194.19
488.607	155.19
488.825	144.19
489.043	132.19
489.261	130.19
489.479	135.19
489.696	148.19
489.914	136.19
490.132	142.19
490.35	167.19
490.568	156.19
490.786	174.19
491.003	160.19
491.221	160.19
491.439	183.19
491.657	191.19
491.874	187.19
492.092	212.19
492.31	235.19
492.527	230.19
492.745	208.19
492.963	204.19
493.18	189.19
493.398	178.19
493.615	173.19
493.833	172.19
494.05	188.19
494.268	166.19
494.485	157.19
494.703	168.19
494.92	174.19
495.138	184.19
495.355	190.19
495.573	183.19
495.79	181.19
496.008	159.19
496.225	176.19
496.442	159.19
496.66	170.19
496.877	168.19
497.094	174.19
497.312	149.19
497.529	146.19
497.746	149.19
497.963	144.19
498.181	135.19
498.398	122.19
498.615	105.19
498.832	107.19
499.049	125.19
499.267	125.19
499.484	124.19
499.701	140.19
499.918	161.19
500.135	159.19
500.352	153.19
500.569	134.19
500.786	143.19
501.003	146.19
501.22	144.19
501.437	127.19
501.654	131.19
501.871	121.19
502.088	133.19
502.305	133.19
502.522	128.19
502.739	136.19
502.956	133.19
503.172	124.19
503.389	123.19
503.606	133.19
503.823	130.19
504.04	129.19
504.256	129.19
504.473	113.19
504.69	114.19
504.907	127.19
505.123	111.19
505.34	118.19
505.557	123.19
505.773	127.19
505.99	117.19
506.207	131.19
506.423	119.19
506.64	122.19
506.856	120.19
507.073	138.19
507.289	110.19
507.506	125.19
507.722	115.19
507.939	112.19
508.155	126.19
508.372	109.19
508.588	102.19
508.805	112.19
509.021	119.19
509.238	99.19
509.454	102.19
509.67	101.19
509.887	106.19
510.103	112.19
510.319	93.19
510.536	89.19
510.752	86.19
510.968	79.19
511.184	83.19
511.401	89.19
