Data from Location1.07152019.Energy5.Lamp.07192019.3%Agarose_HRD10591_14-32-36-016.txt Node
Date: Fri Jul 19 14:32:36 EDT 2019
User: cochatt
Spectrometer: HR+D1059
Trigger mode: 1
Integration Time (sec): 1.000000E-1
Scans to average: 1
Electric dark correction enabled: true
Nonlinearity correction enabled: false
Boxcar width: 0
XAxis mode: Wavelengths
Number of Pixels in Spectrum: 2048
>>>>>Begin Spectral Data<<<<<
223.165	-3.38
223.4	-3.38
223.635	-3.38
223.869	-8.38
224.104	-11.38
224.338	-5.38
224.573	-32.38
224.808	-29.38
225.042	-11.38
225.277	-9.38
225.511	2.62
225.746	15.62
225.98	12.62
226.215	5.62
226.449	18.62
226.683	16.62
226.918	13.62
227.152	25.62
227.387	26.62
227.621	23.62
227.856	27.62
228.09	29.62
228.324	41.62
228.559	50.62
228.793	47.62
229.027	58.62
229.262	64.62
229.496	59.62
229.73	71.62
229.964	61.62
230.199	74.62
230.433	64.62
230.667	72.62
230.901	79.62
231.136	63.62
231.37	83.62
231.604	86.62
231.838	85.62
232.072	73.62
232.306	78.62
232.541	92.62
232.775	60.62
233.009	78.62
233.243	88.62
233.477	90.62
233.711	87.62
233.945	79.62
234.179	70.62
234.413	65.62
234.647	83.62
234.881	89.62
235.115	60.62
235.349	68.62
235.583	86.62
235.817	67.62
236.051	63.62
236.285	84.62
236.519	72.62
236.753	70.62
236.987	79.62
237.221	66.62
237.455	55.62
237.689	59.62
237.922	69.62
238.156	78.62
238.39	70.62
238.624	75.62
238.858	64.62
239.091	74.62
239.325	74.62
239.559	66.62
239.793	73.62
240.027	76.62
240.26	64.62
240.494	75.62
240.728	58.62
240.961	73.62
241.195	66.62
241.429	79.62
241.662	59.62
241.896	75.62
242.13	74.62
242.363	64.62
242.597	79.62
242.83	73.62
243.064	61.62
243.298	66.62
243.531	78.62
243.765	74.62
243.998	68.62
244.232	84.62
244.465	75.62
244.699	75.62
244.932	78.62
245.166	69.62
245.399	63.62
245.633	63.62
245.866	69.62
246.099	60.62
246.333	64.62
246.566	72.62
246.8	82.62
247.033	67.62
247.266	73.62
247.5	73.62
247.733	71.62
247.966	77.62
248.2	70.62
248.433	63.62
248.666	67.62
248.899	74.62
249.133	69.62
249.366	78.62
249.599	72.62
249.832	83.62
250.066	81.62
250.299	73.62
250.532	86.62
250.765	76.62
250.998	73.62
251.231	77.62
251.465	74.62
251.698	74.62
251.931	71.62
252.164	66.62
252.397	63.62
252.63	61.62
252.863	75.62
253.096	65.62
253.329	72.62
253.562	58.62
253.795	72.62
254.028	76.62
254.261	75.62
254.494	90.62
254.727	75.62
254.96	69.62
255.193	85.62
255.426	68.62
255.659	87.62
255.892	78.62
256.124	70.62
256.357	66.62
256.59	65.62
256.823	78.62
257.056	77.62
257.289	76.62
257.521	89.62
257.754	71.62
257.987	75.62
258.22	65.62
258.452	62.62
258.685	82.62
258.918	64.62
259.151	68.62
259.383	77.62
259.616	62.62
259.849	80.62
260.081	70.62
260.314	68.62
260.547	68.62
260.779	74.62
261.012	65.62
261.244	85.62
261.477	78.62
261.71	77.62
261.942	80.62
262.175	83.62
262.407	86.62
262.64	75.62
262.872	69.62
263.105	79.62
263.337	68.62
263.57	63.62
263.802	69.62
264.035	67.62
264.267	82.62
264.499	81.62
264.732	78.62
264.964	74.62
265.197	79.62
265.429	75.62
265.661	72.62
265.894	69.62
266.126	62.62
266.358	76.62
266.591	79.62
266.823	79.62
267.055	67.62
267.287	75.62
267.52	77.62
267.752	85.62
267.984	80.62
268.216	75.62
268.448	66.62
268.681	78.62
268.913	81.62
269.145	76.62
269.377	77.62
269.609	75.62
269.841	86.62
270.073	79.62
270.306	85.62
270.538	81.62
270.77	95.62
271.002	77.62
271.234	79.62
271.466	93.62
271.698	65.62
271.93	78.62
272.162	69.62
272.394	79.62
272.626	75.62
272.858	77.62
273.09	74.62
273.322	92.62
273.553	76.62
273.785	83.62
274.017	79.62
274.249	79.62
274.481	74.62
274.713	79.62
274.945	65.62
275.176	82.62
275.408	77.62
275.64	83.62
275.872	72.62
276.104	86.62
276.335	71.62
276.567	60.62
276.799	61.62
277.031	83.62
277.262	72.62
277.494	85.62
277.726	83.62
277.957	79.62
278.189	81.62
278.421	79.62
278.652	72.62
278.884	82.62
279.115	76.62
279.347	81.62
279.579	81.62
279.81	95.62
280.042	76.62
280.273	69.62
280.505	79.62
280.736	72.62
280.968	68.62
281.199	77.62
281.431	68.62
281.662	83.62
281.894	87.62
282.125	95.62
282.356	80.62
282.588	82.62
282.819	76.62
283.051	75.62
283.282	81.62
283.513	82.62
283.745	82.62
283.976	71.62
284.207	69.62
284.439	85.62
284.67	78.62
284.901	81.62
285.132	89.62
285.364	80.62
285.595	83.62
285.826	79.62
286.057	85.62
286.288	68.62
286.52	89.62
286.751	81.62
286.982	82.62
287.213	82.62
287.444	80.62
287.675	91.62
287.906	87.62
288.138	70.62
288.369	75.62
288.6	89.62
288.831	81.62
289.062	97.62
289.293	80.62
289.524	77.62
289.755	85.62
289.986	78.62
290.217	73.62
290.448	80.62
290.679	79.62
290.91	90.62
291.141	76.62
291.371	83.62
291.602	85.62
291.833	87.62
292.064	68.62
292.295	82.62
292.526	86.62
292.757	84.62
292.987	70.62
293.218	73.62
293.449	72.62
293.68	71.62
293.91	67.62
294.141	73.62
294.372	79.62
294.603	72.62
294.833	80.62
295.064	88.62
295.295	86.62
295.525	75.62
295.756	97.62
295.987	92.62
296.217	79.62
296.448	87.62
296.679	83.62
296.909	67.62
297.14	75.62
297.37	67.62
297.601	62.62
297.831	69.62
298.062	81.62
298.292	85.62
298.523	75.62
298.753	83.62
298.984	87.62
299.214	76.62
299.445	67.62
299.675	63.62
299.905	78.62
300.136	82.62
300.366	79.62
300.597	85.62
300.827	84.62
301.057	80.62
301.288	73.62
301.518	61.62
301.748	73.62
301.979	82.62
302.209	71.62
302.439	72.62
302.669	78.62
302.9	73.62
303.13	82.62
303.36	84.62
303.59	86.62
303.82	77.62
304.051	76.62
304.281	68.62
304.511	65.62
304.741	85.62
304.971	77.62
305.201	82.62
305.431	86.62
305.661	78.62
305.891	83.62
306.121	83.62
306.352	82.62
306.582	89.62
306.812	84.62
307.042	90.62
307.272	80.62
307.502	81.62
307.731	74.62
307.961	83.62
308.191	71.62
308.421	68.62
308.651	89.62
308.881	75.62
309.111	88.62
309.341	64.62
309.571	69.62
309.8	72.62
310.03	80.62
310.26	74.62
310.49	67.62
310.72	77.62
310.949	67.62
311.179	88.62
311.409	86.62
311.639	67.62
311.868	74.62
312.098	74.62
312.328	75.62
312.557	84.62
312.787	98.62
313.017	82.62
313.246	69.62
313.476	95.62
313.706	82.62
313.935	85.62
314.165	76.62
314.394	75.62
314.624	76.62
314.853	78.62
315.083	98.62
315.312	65.62
315.542	82.62
315.771	88.62
316.001	90.62
316.23	78.62
316.46	71.62
316.689	70.62
316.919	76.62
317.148	66.62
317.377	82.62
317.607	75.62
317.836	75.62
318.065	85.62
318.295	63.62
318.524	63.62
318.753	80.62
318.983	79.62
319.212	75.62
319.441	81.62
319.67	86.62
319.9	71.62
320.129	67.62
320.358	88.62
320.587	77.62
320.816	84.62
321.046	58.62
321.275	76.62
321.504	76.62
321.733	94.62
321.962	76.62
322.191	77.62
322.42	78.62
322.649	76.62
322.878	70.62
323.108	84.62
323.337	67.62
323.566	81.62
323.795	70.62
324.024	79.62
324.253	86.62
324.482	70.62
324.71	80.62
324.939	73.62
325.168	88.62
325.397	89.62
325.626	66.62
325.855	70.62
326.084	87.62
326.313	79.62
326.542	63.62
326.77	88.62
326.999	89.62
327.228	89.62
327.457	74.62
327.686	75.62
327.914	86.62
328.143	82.62
328.372	85.62
328.6	90.62
328.829	71.62
329.058	81.62
329.287	67.62
329.515	75.62
329.744	76.62
329.972	86.62
330.201	83.62
330.43	75.62
330.658	77.62
330.887	62.62
331.115	75.62
331.344	78.62
331.572	97.62
331.801	81.62
332.03	83.62
332.258	66.62
332.486	76.62
332.715	68.62
332.943	78.62
333.172	94.62
333.4	74.62
333.629	77.62
333.857	67.62
334.085	80.62
334.314	66.62
334.542	74.62
334.771	77.62
334.999	81.62
335.227	84.62
335.455	80.62
335.684	72.62
335.912	86.62
336.14	91.62
336.369	86.62
336.597	79.62
336.825	73.62
337.053	81.62
337.281	66.62
337.51	87.62
337.738	79.62
337.966	71.62
338.194	91.62
338.422	87.62
338.65	80.62
338.878	73.62
339.106	87.62
339.334	79.62
339.562	73.62
339.79	70.62
340.018	94.62
340.246	77.62
340.474	84.62
340.702	73.62
340.93	66.62
341.158	67.62
341.386	87.62
341.614	83.62
341.842	62.62
342.07	80.62
342.298	87.62
342.526	67.62
342.754	80.62
342.981	77.62
343.209	86.62
343.437	72.62
343.665	74.62
343.893	73.62
344.12	69.62
344.348	81.62
344.576	85.62
344.804	73.62
345.031	80.62
345.259	79.62
345.487	78.62
345.714	84.62
345.942	74.62
346.17	76.62
346.397	81.62
346.625	73.62
346.853	73.62
347.08	81.62
347.308	76.62
347.535	73.62
347.763	70.62
347.99	74.62
348.218	71.62
348.445	81.62
348.673	74.62
348.9	74.62
349.128	57.62
349.355	79.62
349.583	62.62
349.81	87.62
350.037	74.62
350.265	79.62
350.492	76.62
350.72	81.62
350.947	78.62
351.174	75.62
351.402	75.62
351.629	90.62
351.856	78.62
352.083	76.62
352.311	88.62
352.538	84.62
352.765	70.62
352.992	68.62
353.22	86.62
353.447	80.62
353.674	84.62
353.901	85.62
354.128	76.62
354.355	78.62
354.583	80.62
354.81	85.62
355.037	89.62
355.264	77.62
355.491	77.62
355.718	72.62
355.945	73.62
356.172	71.62
356.399	73.62
356.626	85.62
356.853	80.62
357.08	59.62
357.307	85.62
357.534	68.62
357.761	64.62
357.988	68.62
358.215	87.62
358.441	82.62
358.668	98.62
358.895	69.62
359.122	73.62
359.349	66.62
359.576	80.62
359.802	82.62
360.029	77.62
360.256	82.62
360.483	70.62
360.709	59.62
360.936	90.62
361.163	73.62
361.39	70.62
361.616	90.62
361.843	80.62
362.07	75.62
362.296	70.62
362.523	72.62
362.749	82.62
362.976	79.62
363.203	87.62
363.429	71.62
363.656	73.62
363.882	83.62
364.109	77.62
364.335	87.62
364.562	87.62
364.788	79.62
365.015	74.62
365.241	82.62
365.468	84.62
365.694	73.62
365.92	79.62
366.147	64.62
366.373	89.62
366.599	61.62
366.826	85.62
367.052	86.62
367.278	69.62
367.505	82.62
367.731	91.62
367.957	101.62
368.184	66.62
368.41	72.62
368.636	83.62
368.862	93.62
369.089	80.62
369.315	87.62
369.541	82.62
369.767	86.62
369.993	93.62
370.219	80.62
370.445	74.62
370.672	79.62
370.898	88.62
371.124	83.62
371.35	76.62
371.576	89.62
371.802	96.62
372.028	86.62
372.254	69.62
372.48	87.62
372.706	77.62
372.932	84.62
373.158	90.62
373.384	89.62
373.61	96.62
373.835	95.62
374.061	90.62
374.287	80.62
374.513	81.62
374.739	95.62
374.965	88.62
375.191	102.62
375.416	104.62
375.642	77.62
375.868	75.62
376.094	84.62
376.319	83.62
376.545	89.62
376.771	81.62
376.997	85.62
377.222	93.62
377.448	96.62
377.674	69.62
377.899	99.62
378.125	89.62
378.35	89.62
378.576	103.62
378.802	82.62
379.027	89.62
379.253	95.62
379.478	98.62
379.704	83.62
379.929	88.62
380.155	93.62
380.38	78.62
380.606	81.62
380.831	83.62
381.057	102.62
381.282	102.62
381.507	98.62
381.733	72.62
381.958	94.62
382.184	92.62
382.409	95.62
382.634	88.62
382.86	87.62
383.085	84.62
383.31	97.62
383.535	104.62
383.761	94.62
383.986	91.62
384.211	85.62
384.436	103.62
384.662	95.62
384.887	95.62
385.112	87.62
385.337	109.62
385.562	86.62
385.787	82.62
386.013	106.62
386.238	75.62
386.463	100.62
386.688	90.62
386.913	101.62
387.138	97.62
387.363	106.62
387.588	107.62
387.813	96.62
388.038	103.62
388.263	92.62
388.488	77.62
388.713	103.62
388.938	100.62
389.163	103.62
389.387	89.62
389.612	97.62
389.837	100.62
390.062	111.62
390.287	81.62
390.512	94.62
390.736	87.62
390.961	103.62
391.186	102.62
391.411	99.62
391.636	100.62
391.86	105.62
392.085	91.62
392.31	100.62
392.534	98.62
392.759	93.62
392.984	112.62
393.208	112.62
393.433	96.62
393.658	88.62
393.882	96.62
394.107	98.62
394.331	102.62
394.556	111.62
394.78	115.62
395.005	92.62
395.229	97.62
395.454	98.62
395.678	89.62
395.903	92.62
396.127	106.62
396.352	96.62
396.576	87.62
396.801	115.62
397.025	96.62
397.249	105.62
397.474	87.62
397.698	97.62
397.922	99.62
398.147	94.62
398.371	86.62
398.595	97.62
398.82	111.62
399.044	106.62
399.268	97.62
399.492	109.62
399.717	104.62
399.941	102.62
400.165	103.62
400.389	91.62
400.613	96.62
400.837	112.62
401.062	99.62
401.286	118.62
401.51	99.62
401.734	116.62
401.958	112.62
402.182	106.62
402.406	117.62
402.63	95.62
402.854	98.62
403.078	107.62
403.302	103.62
403.526	95.62
403.75	106.62
403.974	109.62
404.198	115.62
404.422	115.62
404.645	109.62
404.869	129.62
405.093	122.62
405.317	111.62
405.541	99.62
405.765	98.62
405.988	114.62
406.212	113.62
406.436	105.62
406.66	104.62
406.883	91.62
407.107	131.62
407.331	107.62
407.555	107.62
407.778	105.62
408.002	117.62
408.226	91.62
408.449	105.62
408.673	112.62
408.896	101.62
409.12	103.62
409.344	122.62
409.567	102.62
409.791	112.62
410.014	115.62
410.238	116.62
410.461	109.62
410.685	100.62
410.908	111.62
411.132	125.62
411.355	103.62
411.578	113.62
411.802	109.62
412.025	113.62
412.249	114.62
412.472	111.62
412.695	129.62
412.919	110.62
413.142	111.62
413.365	104.62
413.589	105.62
413.812	107.62
414.035	129.62
414.258	127.62
414.482	121.62
414.705	129.62
414.928	120.62
415.151	105.62
415.374	116.62
415.597	121.62
415.821	129.62
416.044	123.62
416.267	119.62
416.49	123.62
416.713	137.62
416.936	124.62
417.159	110.62
417.382	119.62
417.605	101.62
417.828	135.62
418.051	121.62
418.274	129.62
418.497	139.62
418.72	114.62
418.943	125.62
419.166	114.62
419.389	119.62
419.611	149.62
419.834	133.62
420.057	135.62
420.28	126.62
420.503	125.62
420.726	141.62
420.948	119.62
421.171	136.62
421.394	129.62
421.617	127.62
421.839	126.62
422.062	139.62
422.285	125.62
422.507	115.62
422.73	138.62
422.953	127.62
423.175	125.62
423.398	125.62
423.621	119.62
423.843	123.62
424.066	130.62
424.288	137.62
424.511	135.62
424.733	146.62
424.956	133.62
425.178	139.62
425.401	126.62
425.623	126.62
425.846	127.62
426.068	121.62
426.291	124.62
426.513	113.62
426.735	121.62
426.958	123.62
427.18	117.62
427.402	113.62
427.625	123.62
427.847	117.62
428.069	122.62
428.292	130.62
428.514	121.62
428.736	117.62
428.958	122.62
429.181	119.62
429.403	128.62
429.625	135.62
429.847	124.62
430.069	120.62
430.292	139.62
430.514	118.62
430.736	119.62
430.958	124.62
431.18	123.62
431.402	125.62
431.624	103.62
431.846	96.62
432.068	91.62
432.29	87.62
432.512	84.62
432.734	109.62
432.956	135.62
433.178	125.62
433.4	129.62
433.622	125.62
433.844	123.62
434.066	103.62
434.287	94.62
434.509	102.62
434.731	96.62
434.953	102.62
435.175	113.62
435.397	113.62
435.618	100.62
435.84	103.62
436.062	122.62
436.284	109.62
436.505	120.62
436.727	123.62
436.949	110.62
437.17	126.62
437.392	127.62
437.614	106.62
437.835	116.62
438.057	112.62
438.278	106.62
438.5	108.62
438.721	117.62
438.943	128.62
439.165	150.62
439.386	138.62
439.608	150.62
439.829	142.62
440.05	140.62
440.272	145.62
440.493	129.62
440.715	150.62
440.936	135.62
441.158	139.62
441.379	126.62
441.6	128.62
441.822	148.62
442.043	125.62
442.264	145.62
442.486	129.62
442.707	127.62
442.928	131.62
443.149	148.62
443.371	137.62
443.592	141.62
443.813	121.62
444.034	137.62
444.255	147.62
444.476	135.62
444.698	132.62
444.919	132.62
445.14	262.62
445.361	183.62
445.582	149.62
445.803	133.62
446.024	129.62
446.245	147.62
446.466	135.62
446.687	148.62
446.908	141.62
447.129	142.62
447.35	144.62
447.571	143.62
447.792	133.62
448.013	151.62
448.234	133.62
448.455	137.62
448.675	135.62
448.896	131.62
449.117	119.62
449.338	133.62
449.559	119.62
449.779	144.62
450	125.62
450.221	131.62
450.442	128.62
450.662	135.62
450.883	125.62
451.104	143.62
451.324	122.62
451.545	132.62
451.766	129.62
451.986	133.62
452.207	118.62
452.428	116.62
452.648	125.62
452.869	108.62
453.089	112.62
453.31	120.62
453.53	94.62
453.751	99.62
453.971	98.62
454.192	95.62
454.412	105.62
454.633	127.62
454.853	115.62
455.073	119.62
455.294	117.62
455.514	117.62
455.734	120.62
455.955	115.62
456.175	105.62
456.395	97.62
456.616	81.62
456.836	92.62
457.056	109.62
457.276	106.62
457.497	85.62
457.717	93.62
457.937	111.62
458.157	94.62
458.377	97.62
458.598	96.62
458.818	75.62
459.038	86.62
459.258	85.62
459.478	81.62
459.698	83.62
459.918	108.62
460.138	112.62
460.358	98.62
460.578	92.62
460.798	106.62
461.018	116.62
461.238	113.62
461.458	106.62
461.678	102.62
461.898	109.62
462.118	115.62
462.338	103.62
462.558	115.62
462.777	99.62
462.997	94.62
463.217	117.62
463.437	103.62
463.657	99.62
463.876	106.62
464.096	105.62
464.316	110.62
464.536	93.62
464.755	111.62
464.975	98.62
465.195	111.62
465.414	108.62
465.634	112.62
465.854	102.62
466.073	113.62
466.293	123.62
466.512	133.62
466.732	130.62
466.951	121.62
467.171	129.62
467.391	130.62
467.61	139.62
467.829	128.62
468.049	129.62
468.268	133.62
468.488	125.62
468.707	141.62
468.927	136.62
469.146	133.62
469.365	132.62
469.585	121.62
469.804	131.62
470.023	142.62
470.243	133.62
470.462	133.62
470.681	142.62
470.901	119.62
471.12	129.62
471.339	138.62
471.558	139.62
471.777	134.62
471.997	117.62
472.216	112.62
472.435	104.62
472.654	103.62
472.873	107.62
473.092	107.62
473.311	114.62
473.53	120.62
473.749	99.62
473.968	123.62
474.187	119.62
474.406	107.62
474.625	114.62
474.844	112.62
475.063	127.62
475.282	136.62
475.501	121.62
475.72	119.62
475.939	107.62
476.158	117.62
476.377	114.62
476.596	121.62
476.814	119.62
477.033	94.62
477.252	111.62
477.471	102.62
477.69	136.62
477.908	125.62
478.127	143.62
478.346	141.62
478.564	141.62
478.783	126.62
479.002	131.62
479.22	123.62
479.439	113.62
479.658	131.62
479.876	99.62
480.095	107.62
480.313	112.62
480.532	110.62
480.751	113.62
480.969	90.62
481.188	74.62
481.406	74.62
481.624	81.62
481.843	94.62
482.061	111.62
482.28	115.62
482.498	119.62
482.717	113.62
482.935	112.62
483.153	120.62
483.372	138.62
483.59	145.62
483.808	145.62
484.027	126.62
484.245	128.62
484.463	129.62
484.681	151.62
484.9	136.62
485.118	128.62
485.336	138.62
485.554	113.62
485.772	100.62
485.99	99.62
486.209	105.62
486.427	116.62
486.645	114.62
486.863	125.62
487.081	118.62
487.299	137.62
487.517	120.62
487.735	146.62
487.953	178.62
488.171	175.62
488.389	165.62
488.607	144.62
488.825	134.62
489.043	107.62
489.261	117.62
489.479	133.62
489.696	127.62
489.914	125.62
490.132	138.62
490.35	137.62
490.568	134.62
490.786	150.62
491.003	153.62
491.221	175.62
491.439	171.62
491.657	197.62
491.874	181.62
492.092	220.62
492.31	227.62
492.527	213.62
492.745	195.62
492.963	195.62
493.18	184.62
493.398	169.62
493.615	167.62
493.833	166.62
494.05	164.62
494.268	161.62
494.485	169.62
494.703	173.62
494.92	170.62
495.138	181.62
495.355	164.62
495.573	164.62
495.79	154.62
496.008	154.62
496.225	160.62
496.442	150.62
496.66	169.62
496.877	142.62
497.094	146.62
497.312	161.62
497.529	166.62
497.746	152.62
497.963	136.62
498.181	119.62
498.398	124.62
498.615	129.62
498.832	120.62
499.049	126.62
499.267	127.62
499.484	123.62
499.701	121.62
499.918	135.62
500.135	122.62
500.352	144.62
500.569	140.62
500.786	141.62
501.003	140.62
501.22	128.62
501.437	134.62
501.654	135.62
501.871	118.62
502.088	114.62
502.305	135.62
502.522	133.62
502.739	132.62
502.956	119.62
503.172	116.62
503.389	102.62
503.606	119.62
503.823	137.62
504.04	105.62
504.256	110.62
504.473	116.62
504.69	117.62
504.907	117.62
505.123	111.62
505.34	123.62
505.557	116.62
505.773	109.62
505.99	115.62
506.207	102.62
506.423	120.62
506.64	106.62
506.856	118.62
507.073	125.62
507.289	118.62
507.506	128.62
507.722	110.62
507.939	110.62
508.155	106.62
508.372	113.62
508.588	99.62
508.805	103.62
509.021	99.62
509.238	104.62
509.454	99.62
509.67	95.62
509.887	76.62
510.103	98.62
510.319	75.62
510.536	99.62
510.752	95.62
510.968	75.62
511.184	69.62
511.401	74.62
511.617	82.62
511.833	70.62
512.049	91.62
512.265	95.62
512.481	88.62
512.698	103.62
