Data from Location1.07152019.Energy5.Lamp.07192019.3%Agarose_HRD10591_14-31-09-016.txt Node
Date: Fri Jul 19 14:31:09 EDT 2019
User: cochatt
Spectrometer: HR+D1059
Trigger mode: 1
Integration Time (sec): 1.000000E-1
Scans to average: 1
Electric dark correction enabled: true
Nonlinearity correction enabled: false
Boxcar width: 0
XAxis mode: Wavelengths
Number of Pixels in Spectrum: 2048
>>>>>Begin Spectral Data<<<<<
223.165	-12
223.4	-12
223.635	-12
223.869	-6
224.104	-11
224.338	-21
224.573	-3
224.808	-15
225.042	-11
225.277	-7
225.511	-8
225.746	6
225.98	9
226.215	4
226.449	21
226.683	5
226.918	17
227.152	32
227.387	41
227.621	45
227.856	43
228.09	52
228.324	54
228.559	49
228.793	49
229.027	55
229.262	52
229.496	48
229.73	80
229.964	79
230.199	76
230.433	75
230.667	59
230.901	63
231.136	76
231.37	83
231.604	77
231.838	76
232.072	82
232.306	77
232.541	91
232.775	82
233.009	77
233.243	78
233.477	83
233.711	79
233.945	76
234.179	92
234.413	90
234.647	99
234.881	80
235.115	83
235.349	82
235.583	104
235.817	65
236.051	76
236.285	85
236.519	67
236.753	84
236.987	81
237.221	71
237.455	62
237.689	75
237.922	74
238.156	83
238.39	79
238.624	86
238.858	74
239.091	72
239.325	75
239.559	70
239.793	77
240.027	68
240.26	74
240.494	69
240.728	72
240.961	74
241.195	71
241.429	75
241.662	75
241.896	82
242.13	71
242.363	91
242.597	85
242.83	93
243.064	82
243.298	71
243.531	75
243.765	80
243.998	79
244.232	78
244.465	82
244.699	64
244.932	70
245.166	65
245.399	60
245.633	84
245.866	78
246.099	83
246.333	83
246.566	55
246.8	81
247.033	80
247.266	69
247.5	80
247.733	85
247.966	70
248.2	76
248.433	81
248.666	76
248.899	88
249.133	78
249.366	80
249.599	74
249.832	71
250.066	87
250.299	92
250.532	85
250.765	79
250.998	72
251.231	80
251.465	83
251.698	80
251.931	82
252.164	81
252.397	63
252.63	75
252.863	77
253.096	80
253.329	79
253.562	73
253.795	85
254.028	79
254.261	74
254.494	84
254.727	78
254.96	84
255.193	84
255.426	83
255.659	83
255.892	78
256.124	86
256.357	78
256.59	71
256.823	71
257.056	77
257.289	79
257.521	77
257.754	74
257.987	86
258.22	84
258.452	76
258.685	88
258.918	83
259.151	84
259.383	89
259.616	77
259.849	82
260.081	82
260.314	83
260.547	88
260.779	82
261.012	79
261.244	85
261.477	77
261.71	78
261.942	84
262.175	83
262.407	80
262.64	78
262.872	78
263.105	77
263.337	77
263.57	73
263.802	74
264.035	91
264.267	62
264.499	81
264.732	76
264.964	81
265.197	87
265.429	79
265.661	85
265.894	84
266.126	90
266.358	78
266.591	69
266.823	89
267.055	87
267.287	75
267.52	88
267.752	81
267.984	80
268.216	78
268.448	98
268.681	79
268.913	92
269.145	78
269.377	76
269.609	81
269.841	83
270.073	75
270.306	76
270.538	77
270.77	66
271.002	84
271.234	90
271.466	94
271.698	76
271.93	89
272.162	73
272.394	82
272.626	87
272.858	69
273.09	73
273.322	87
273.553	85
273.785	82
274.017	84
274.249	80
274.481	87
274.713	80
274.945	84
275.176	76
275.408	88
275.64	98
275.872	93
276.104	87
276.335	86
276.567	88
276.799	86
277.031	83
277.262	72
277.494	82
277.726	68
277.957	78
278.189	77
278.421	95
278.652	79
278.884	86
279.115	67
279.347	82
279.579	95
279.81	74
280.042	84
280.273	87
280.505	77
280.736	82
280.968	87
281.199	83
281.431	78
281.662	83
281.894	93
282.125	93
282.356	83
282.588	93
282.819	90
283.051	85
283.282	85
283.513	100
283.745	86
283.976	90
284.207	86
284.439	92
284.67	88
284.901	84
285.132	85
285.364	87
285.595	85
285.826	76
286.057	99
286.288	86
286.52	85
286.751	86
286.982	83
287.213	82
287.444	74
287.675	84
287.906	86
288.138	85
288.369	76
288.6	87
288.831	78
289.062	82
289.293	87
289.524	70
289.755	79
289.986	84
290.217	85
290.448	79
290.679	82
290.91	90
291.141	85
291.371	69
291.602	83
291.833	85
292.064	77
292.295	80
292.526	85
292.757	87
292.987	82
293.218	82
293.449	88
293.68	73
293.91	86
294.141	88
294.372	67
294.603	79
294.833	85
295.064	70
295.295	86
295.525	83
295.756	90
295.987	88
296.217	85
296.448	80
296.679	89
296.909	80
297.14	78
297.37	83
297.601	86
297.831	73
298.062	94
298.292	87
298.523	77
298.753	79
298.984	68
299.214	78
299.445	73
299.675	94
299.905	93
300.136	71
300.366	83
300.597	76
300.827	88
301.057	76
301.288	84
301.518	99
301.748	89
301.979	85
302.209	95
302.439	69
302.669	86
302.9	84
303.13	90
303.36	96
303.59	75
303.82	93
304.051	87
304.281	95
304.511	94
304.741	99
304.971	81
305.201	101
305.431	95
305.661	91
305.891	86
306.121	95
306.352	82
306.582	90
306.812	94
307.042	96
307.272	90
307.502	89
307.731	73
307.961	90
308.191	83
308.421	99
308.651	80
308.881	94
309.111	94
309.341	81
309.571	71
309.8	84
310.03	86
310.26	74
310.49	79
310.72	102
310.949	78
311.179	89
311.409	83
311.639	99
311.868	83
312.098	94
312.328	89
312.557	98
312.787	104
313.017	81
313.246	83
313.476	72
313.706	92
313.935	87
314.165	89
314.394	79
314.624	91
314.853	91
315.083	79
315.312	84
315.542	99
315.771	90
316.001	74
316.23	90
316.46	87
316.689	91
316.919	82
317.148	88
317.377	88
317.607	98
317.836	78
318.065	74
318.295	94
318.524	95
318.753	65
318.983	81
319.212	82
319.441	93
319.67	87
319.9	86
320.129	92
320.358	87
320.587	93
320.816	87
321.046	102
321.275	95
321.504	85
321.733	78
321.962	90
322.191	90
322.42	84
322.649	95
322.878	91
323.108	88
323.337	75
323.566	74
323.795	89
324.024	99
324.253	91
324.482	74
324.71	83
324.939	86
325.168	76
325.397	85
325.626	78
325.855	88
326.084	75
326.313	84
326.542	89
326.77	81
326.999	76
327.228	87
327.457	97
327.686	83
327.914	80
328.143	85
328.372	83
328.6	79
328.829	79
329.058	79
329.287	83
329.515	74
329.744	92
329.972	91
330.201	89
330.43	74
330.658	83
330.887	81
331.115	84
331.344	92
331.572	74
331.801	89
332.03	96
332.258	78
332.486	82
332.715	90
332.943	67
333.172	85
333.4	82
333.629	92
333.857	89
334.085	79
334.314	88
334.542	92
334.771	92
334.999	91
335.227	93
335.455	78
335.684	92
335.912	98
336.14	80
336.369	67
336.597	79
336.825	79
337.053	92
337.281	97
337.51	87
337.738	98
337.966	75
338.194	94
338.422	86
338.65	77
338.878	88
339.106	92
339.334	92
339.562	93
339.79	75
340.018	85
340.246	70
340.474	77
340.702	79
340.93	89
341.158	79
341.386	76
341.614	80
341.842	84
342.07	90
342.298	92
342.526	90
342.754	91
342.981	89
343.209	79
343.437	91
343.665	75
343.893	94
344.12	100
344.348	92
344.576	77
344.804	114
345.031	73
345.259	83
345.487	86
345.714	83
345.942	74
346.17	88
346.397	84
346.625	78
346.853	88
347.08	75
347.308	81
347.535	91
347.763	80
347.99	89
348.218	76
348.445	85
348.673	106
348.9	89
349.128	84
349.355	87
349.583	74
349.81	79
350.037	90
350.265	86
350.492	86
350.72	84
350.947	88
351.174	96
351.402	95
351.629	90
351.856	82
352.083	99
352.311	101
352.538	84
352.765	74
352.992	95
353.22	84
353.447	87
353.674	87
353.901	82
354.128	96
354.355	97
354.583	70
354.81	81
355.037	79
355.264	91
355.491	86
355.718	78
355.945	82
356.172	86
356.399	87
356.626	87
356.853	84
357.08	85
357.307	80
357.534	87
357.761	97
357.988	82
358.215	83
358.441	88
358.668	88
358.895	77
359.122	72
359.349	80
359.576	78
359.802	79
360.029	81
360.256	86
360.483	97
360.709	86
360.936	92
361.163	94
361.39	75
361.616	80
361.843	83
362.07	67
362.296	83
362.523	67
362.749	87
362.976	85
363.203	92
363.429	89
363.656	87
363.882	97
364.109	84
364.335	75
364.562	90
364.788	81
365.015	91
365.241	98
365.468	78
365.694	73
365.92	85
366.147	83
366.373	93
366.599	89
366.826	88
367.052	79
367.278	83
367.505	88
367.731	87
367.957	92
368.184	85
368.41	79
368.636	84
368.862	96
369.089	78
369.315	80
369.541	98
369.767	88
369.993	91
370.219	95
370.445	87
370.672	84
370.898	95
371.124	94
371.35	92
371.576	88
371.802	83
372.028	75
372.254	83
372.48	85
372.706	104
372.932	95
373.158	101
373.384	100
373.61	103
373.835	89
374.061	108
374.287	98
374.513	91
374.739	90
374.965	81
375.191	94
375.416	98
375.642	91
375.868	93
376.094	97
376.319	101
376.545	91
376.771	95
376.997	89
377.222	87
377.448	90
377.674	100
377.899	91
378.125	104
378.35	82
378.576	100
378.802	87
379.027	94
379.253	81
379.478	80
379.704	90
379.929	95
380.155	111
380.38	115
380.606	97
380.831	97
381.057	100
381.282	100
381.507	104
381.733	112
381.958	93
382.184	96
382.409	108
382.634	95
382.86	98
383.085	98
383.31	94
383.535	93
383.761	110
383.986	105
384.211	94
384.436	105
384.662	93
384.887	77
385.112	95
385.337	106
385.562	85
385.787	111
386.013	92
386.238	102
386.463	106
386.688	82
386.913	106
387.138	88
387.363	82
387.588	102
387.813	100
388.038	103
388.263	108
388.488	92
388.713	87
388.938	98
389.163	94
389.387	91
389.612	104
389.837	104
390.062	96
390.287	94
390.512	103
390.736	107
390.961	99
391.186	94
391.411	115
391.636	112
391.86	99
392.085	112
392.31	97
392.534	92
392.759	106
392.984	114
393.208	98
393.433	116
393.658	116
393.882	97
394.107	92
394.331	117
394.556	112
394.78	98
395.005	99
395.229	104
395.454	104
395.678	105
395.903	110
396.127	104
396.352	106
396.576	95
396.801	101
397.025	108
397.249	116
397.474	114
397.698	104
397.922	116
398.147	101
398.371	106
398.595	114
398.82	114
399.044	114
399.268	122
399.492	109
399.717	107
399.941	105
400.165	119
400.389	99
400.613	106
400.837	99
401.062	114
401.286	112
401.51	100
401.734	111
401.958	116
402.182	112
402.406	112
402.63	108
402.854	109
403.078	121
403.302	116
403.526	105
403.75	128
403.974	117
404.198	115
404.422	126
404.645	112
404.869	109
405.093	130
405.317	117
405.541	127
405.765	119
405.988	114
406.212	115
406.436	115
406.66	118
406.883	117
407.107	110
407.331	112
407.555	125
407.778	115
408.002	107
408.226	115
408.449	99
408.673	128
408.896	114
409.12	106
409.344	129
409.567	102
409.791	119
410.014	108
410.238	114
410.461	108
410.685	117
410.908	110
411.132	126
411.355	120
411.578	127
411.802	117
412.025	110
412.249	119
412.472	109
412.695	117
412.919	109
413.142	95
413.365	126
413.589	115
413.812	116
414.035	127
414.258	126
414.482	130
414.705	119
414.928	120
415.151	107
415.374	105
415.597	122
415.821	135
416.044	122
416.267	127
416.49	122
416.713	119
416.936	111
417.159	138
417.382	122
417.605	120
417.828	118
418.051	123
418.274	118
418.497	120
418.72	125
418.943	110
419.166	148
419.389	125
419.611	132
419.834	124
420.057	108
420.28	142
420.503	129
420.726	124
420.948	124
421.171	135
421.394	140
421.617	137
421.839	163
422.062	134
422.285	127
422.507	134
422.73	125
422.953	119
423.175	124
423.398	128
423.621	130
423.843	126
424.066	133
424.288	135
424.511	140
424.733	132
424.956	136
425.178	138
425.401	128
425.623	131
425.846	127
426.068	119
426.291	124
426.513	128
426.735	136
426.958	128
427.18	126
427.402	126
427.625	123
427.847	125
428.069	129
428.292	128
428.514	132
428.736	114
428.958	124
429.181	121
429.403	109
429.625	130
429.847	118
430.069	135
430.292	125
430.514	125
430.736	140
430.958	125
431.18	119
431.402	120
431.624	124
431.846	110
432.068	106
432.29	104
432.512	95
432.734	115
432.956	128
433.178	134
433.4	140
433.622	134
433.844	138
434.066	126
434.287	107
434.509	89
434.731	105
434.953	105
435.175	126
435.397	122
435.618	114
435.84	109
436.062	105
436.284	122
436.505	125
436.727	133
436.949	122
437.17	124
437.392	124
437.614	122
437.835	112
438.057	111
438.278	110
438.5	116
438.721	122
438.943	126
439.165	130
439.386	149
439.608	144
439.829	129
440.05	141
440.272	146
440.493	137
440.715	152
440.936	148
441.158	140
441.379	136
441.6	146
441.822	154
442.043	143
442.264	133
442.486	139
442.707	134
442.928	129
443.149	129
443.371	142
443.592	125
443.813	139
444.034	126
444.255	131
444.476	128
444.698	136
444.919	145
445.14	247
445.361	196
445.582	139
445.803	143
446.024	136
446.245	162
446.466	148
446.687	148
446.908	151
447.129	148
447.35	148
447.571	138
447.792	146
448.013	142
448.234	140
448.455	150
448.675	135
448.896	134
449.117	133
449.338	135
449.559	137
449.779	127
450	126
450.221	122
450.442	127
450.662	130
450.883	123
451.104	132
451.324	132
451.545	135
451.766	133
451.986	112
452.207	123
452.428	127
452.648	122
452.869	102
453.089	123
453.31	103
453.53	116
453.751	101
453.971	98
454.192	96
454.412	108
454.633	114
454.853	111
455.073	130
455.294	116
455.514	128
455.734	123
455.955	117
456.175	122
456.395	108
456.616	107
456.836	106
457.056	115
457.276	105
457.497	103
457.717	93
457.937	98
458.157	105
458.377	114
458.598	102
458.818	86
459.038	91
459.258	98
459.478	91
459.698	98
459.918	99
460.138	101
460.358	114
460.578	116
460.798	123
461.018	119
461.238	102
461.458	119
461.678	103
461.898	114
462.118	109
462.338	113
462.558	96
462.777	114
462.997	98
463.217	130
463.437	108
463.657	111
463.876	115
464.096	106
464.316	102
464.536	117
464.755	117
464.975	118
465.195	109
465.414	111
465.634	112
465.854	100
466.073	116
466.293	124
466.512	143
466.732	133
466.951	134
467.171	134
467.391	142
467.61	132
467.829	124
468.049	141
468.268	137
468.488	136
468.707	134
468.927	141
469.146	127
469.365	139
469.585	145
469.804	143
470.023	132
470.243	147
470.462	150
470.681	140
470.901	121
471.12	137
471.339	132
471.558	136
471.777	131
471.997	140
472.216	125
472.435	124
472.654	115
472.873	98
473.092	117
473.311	127
473.53	132
473.749	126
473.968	113
474.187	121
474.406	118
474.625	134
474.844	138
475.063	138
475.282	128
475.501	118
475.72	110
475.939	124
476.158	120
476.377	125
476.596	122
476.814	123
477.033	99
477.252	115
477.471	139
477.69	122
477.908	136
478.127	137
478.346	136
478.564	135
478.783	145
479.002	129
479.22	134
479.439	134
479.658	129
479.876	112
480.095	122
480.313	90
480.532	130
480.751	95
480.969	96
481.188	92
481.406	91
481.624	88
481.843	88
482.061	90
482.28	115
482.498	111
482.717	99
482.935	124
483.153	127
483.372	149
483.59	163
483.808	138
484.027	141
484.245	130
484.463	131
484.681	160
484.9	148
485.118	142
485.336	130
485.554	106
485.772	99
485.99	120
486.209	121
486.427	112
486.645	118
486.863	145
487.081	140
487.299	138
487.517	137
487.735	161
487.953	180
488.171	170
488.389	156
488.607	149
488.825	150
489.043	108
489.261	125
489.479	126
489.696	139
489.914	128
490.132	122
490.35	148
490.568	158
490.786	168
491.003	173
491.221	174
491.439	171
491.657	188
491.874	202
492.092	230
492.31	242
492.527	215
492.745	185
492.963	188
493.18	173
493.398	173
493.615	183
493.833	171
494.05	171
494.268	173
494.485	168
494.703	164
494.92	182
495.138	154
495.355	159
495.573	162
495.79	165
496.008	169
496.225	172
496.442	173
496.66	143
496.877	158
497.094	174
497.312	149
497.529	162
497.746	130
497.963	131
498.181	128
498.398	119
498.615	120
498.832	118
499.049	106
499.267	123
499.484	126
499.701	128
499.918	123
500.135	122
500.352	132
500.569	141
500.786	143
501.003	139
501.22	137
501.437	149
501.654	144
501.871	123
502.088	143
502.305	125
502.522	131
502.739	137
502.956	125
503.172	130
503.389	116
503.606	109
503.823	126
504.04	121
504.256	129
504.473	117
504.69	120
504.907	114
505.123	119
505.34	113
505.557	120
505.773	118
505.99	108
506.207	126
506.423	116
506.64	125
506.856	111
507.073	130
507.289	116
507.506	128
507.722	121
507.939	109
508.155	129
508.372	119
508.588	109
508.805	120
509.021	117
509.238	114
509.454	106
509.67	91
509.887	90
510.103	80
510.319	92
510.536	93
510.752	84
510.968	89
511.184	99
511.401	91
511.617	98
511.833	77
512.049	90
512.265	83
512.481	78
512.698	91
512.914	101
513.13	94
513.346	79
513.562	78
513.778	93
513.994	101
514.21	90
514.426	93
514.642	81
514.858	92
515.074	90
515.29	95
515.506	90
515.721	92
515.937	96
516.153	98
516.369	82
516.585	94
516.801	90
517.016	96
517.232	97
517.448	108
517.664	93
517.879	114
518.095	107
518.311	92
518.527	99
518.742	102
518.958	94
519.173	118
519.389	113
519.605	100
519.82	103
520.036	104
520.251	103
520.467	92
520.682	90
520.898	84
521.113	97
521.329	83
521.544	77
521.76	92
521.975	89
522.19	98
522.406	99
522.621	95
522.836	93
523.052	111
523.267	114
523.482	112
523.698	116
523.913	104
524.128	106
524.343	114
524.559	126
524.774	119
524.989	95
525.204	136
525.419	116
525.634	103
525.849	100
526.064	107
526.28	90
526.495	95
526.71	85
526.925	80
527.14	88
527.355	65
527.57	84
527.785	81
527.999	104
528.214	99
528.429	98
528.644	97
528.859	130
529.074	141
529.289	158
529.503	151
529.718	136
529.933	124
530.148	100
530.363	98
530.577	89
530.792	89
531.007	91
531.221	85
531.436	89
531.651	98
531.865	82
532.08	94
532.295	80
532.509	73
532.724	96
532.938	96
533.153	90
533.367	92
533.582	109
533.796	140
534.011	103
534.225	98
534.44	85
534.654	98
534.868	101
535.083	102
535.297	124
535.511	105
535.726	109
535.94	94
536.154	88
536.369	88
536.583	84
536.797	90
537.011	92
537.225	90
537.44	91
537.654	92
537.868	104
538.082	82
538.296	89
538.51	94
538.724	111
538.938	126
539.153	123
539.367	112
539.581	115
539.795	102
540.009	91
540.222	102
540.436	111
540.65	119
540.864	132
541.078	144
541.292	143
541.506	155
541.72	160
541.934	197
542.147	199
542.361	173
542.575	163
542.789	155
543.002	154
543.216	135
543.43	117
543.644	132
543.857	134
544.071	159
544.285	154
544.498	157
544.712	142
544.925	158
545.139	165
545.352	170
545.566	170
545.779	148
545.993	153
546.206	163
546.42	143
546.633	154
546.847	164
547.06	163
547.274	157
547.487	169
547.7	181
547.914	183
548.127	174
548.34	173
548.554	153
548.767	149
548.98	166
549.193	145
549.407	162
549.62	151
549.833	143
550.046	161
550.259	137
550.473	157
550.686	151
550.899	142
551.112	136
551.325	133
551.538	150
551.751	124
551.964	118
552.177	127
552.39	132
552.603	147
552.816	152
553.029	179
553.242	153
553.455	158
553.667	158
553.88	156
554.093	150
554.306	142
554.519	159
554.732	158
554.944	150
555.157	136
555.37	143
555.583	148
555.795	145
556.008	144
556.221	130
556.433	150
556.646	148
556.859	150
557.071	140
557.284	136
557.496	143
557.709	148
557.921	151
558.134	148
558.346	144
558.559	136
558.771	144
558.984	135
559.196	132
559.409	117
559.621	121
559.833	114
560.046	134
560.258	124
560.47	124
560.683	125
560.895	138
561.107	132
561.32	139
561.532	121
561.744	119
561.956	133
562.168	132
562.381	127
562.593	138
562.805	128
563.017	121
563.229	131
563.441	140
563.653	125
563.865	135
564.077	130
564.289	126
564.501	126
564.713	129
564.925	125
565.137	118
565.349	112
565.561	114
565.773	124
565.985	120
566.197	120
566.408	118
566.62	107
566.832	105
567.044	115
567.255	111
567.467	105
567.679	96
567.891	90
568.102	112
568.314	100
568.526	87
568.737	96
568.949	83
569.161	86
569.372	81
569.584	85
569.795	87
570.007	90
570.218	95
570.43	96
570.641	108
570.853	104
571.064	97
571.276	98
571.487	91
571.698	99
571.91	103
572.121	102
572.333	100
572.544	99
572.755	97
572.966	91
573.178	109
573.389	94
573.6	93
573.811	92
574.023	84
574.234	93
574.445	89
574.656	82
574.867	92
575.078	94
575.289	83
575.501	104
575.712	96
575.923	88
576.134	84
576.345	87
576.556	90
576.767	107
576.978	99
577.188	97
577.399	89
