Data from Location1.07152019.Energy5.Lamp.07192019.3%Agarose_HRD10591_14-30-25-014.txt Node
Date: Fri Jul 19 14:30:25 EDT 2019
User: cochatt
Spectrometer: HR+D1059
Trigger mode: 1
Integration Time (sec): 1.000000E-1
Scans to average: 1
Electric dark correction enabled: true
Nonlinearity correction enabled: false
Boxcar width: 0
XAxis mode: Wavelengths
Number of Pixels in Spectrum: 2048
>>>>>Begin Spectral Data<<<<<
223.165	-3.88
223.4	-3.88
223.635	-3.88
223.869	-0.88
224.104	-13.88
224.338	-15.88
224.573	-5.88
224.808	-7.88
225.042	-5.88
225.277	-9.88
225.511	-19.88
225.746	-2.88
225.98	-15.88
226.215	13.12
226.449	20.12
226.683	14.12
226.918	33.12
227.152	22.12
227.387	35.12
227.621	43.12
227.856	44.12
228.09	47.12
228.324	46.12
228.559	62.12
228.793	59.12
229.027	64.12
229.262	73.12
229.496	69.12
229.73	66.12
229.964	67.12
230.199	76.12
230.433	61.12
230.667	78.12
230.901	68.12
231.136	82.12
231.37	67.12
231.604	78.12
231.838	86.12
232.072	78.12
232.306	76.12
232.541	68.12
232.775	86.12
233.009	92.12
233.243	73.12
233.477	84.12
233.711	74.12
233.945	70.12
234.179	74.12
234.413	81.12
234.647	76.12
234.881	89.12
235.115	89.12
235.349	84.12
235.583	83.12
235.817	74.12
236.051	100.12
236.285	101.12
236.519	64.12
236.753	78.12
236.987	77.12
237.221	86.12
237.455	85.12
237.689	89.12
237.922	81.12
238.156	80.12
238.39	65.12
238.624	82.12
238.858	84.12
239.091	76.12
239.325	72.12
239.559	88.12
239.793	74.12
240.027	86.12
240.26	69.12
240.494	90.12
240.728	64.12
240.961	83.12
241.195	81.12
241.429	79.12
241.662	74.12
241.896	79.12
242.13	61.12
242.363	76.12
242.597	85.12
242.83	82.12
243.064	76.12
243.298	69.12
243.531	83.12
243.765	85.12
243.998	80.12
244.232	67.12
244.465	81.12
244.699	79.12
244.932	88.12
245.166	87.12
245.399	85.12
245.633	87.12
245.866	85.12
246.099	78.12
246.333	79.12
246.566	87.12
246.8	98.12
247.033	95.12
247.266	88.12
247.5	79.12
247.733	89.12
247.966	89.12
248.2	87.12
248.433	71.12
248.666	83.12
248.899	88.12
249.133	81.12
249.366	84.12
249.599	89.12
249.832	81.12
250.066	80.12
250.299	89.12
250.532	92.12
250.765	84.12
250.998	79.12
251.231	76.12
251.465	79.12
251.698	90.12
251.931	78.12
252.164	90.12
252.397	89.12
252.63	78.12
252.863	70.12
253.096	61.12
253.329	83.12
253.562	86.12
253.795	87.12
254.028	88.12
254.261	72.12
254.494	79.12
254.727	85.12
254.96	95.12
255.193	86.12
255.426	88.12
255.659	66.12
255.892	85.12
256.124	84.12
256.357	87.12
256.59	84.12
256.823	84.12
257.056	90.12
257.289	79.12
257.521	95.12
257.754	84.12
257.987	77.12
258.22	84.12
258.452	73.12
258.685	72.12
258.918	81.12
259.151	79.12
259.383	77.12
259.616	85.12
259.849	84.12
260.081	101.12
260.314	90.12
260.547	79.12
260.779	85.12
261.012	91.12
261.244	79.12
261.477	87.12
261.71	91.12
261.942	83.12
262.175	96.12
262.407	89.12
262.64	81.12
262.872	87.12
263.105	95.12
263.337	77.12
263.57	92.12
263.802	93.12
264.035	85.12
264.267	79.12
264.499	91.12
264.732	85.12
264.964	90.12
265.197	90.12
265.429	88.12
265.661	71.12
265.894	77.12
266.126	99.12
266.358	89.12
266.591	76.12
266.823	87.12
267.055	78.12
267.287	90.12
267.52	84.12
267.752	86.12
267.984	83.12
268.216	95.12
268.448	83.12
268.681	90.12
268.913	87.12
269.145	80.12
269.377	92.12
269.609	84.12
269.841	98.12
270.073	78.12
270.306	77.12
270.538	70.12
270.77	74.12
271.002	87.12
271.234	82.12
271.466	63.12
271.698	84.12
271.93	85.12
272.162	86.12
272.394	90.12
272.626	72.12
272.858	82.12
273.09	84.12
273.322	98.12
273.553	93.12
273.785	75.12
274.017	83.12
274.249	85.12
274.481	81.12
274.713	75.12
274.945	96.12
275.176	87.12
275.408	63.12
275.64	83.12
275.872	76.12
276.104	81.12
276.335	89.12
276.567	88.12
276.799	91.12
277.031	81.12
277.262	80.12
277.494	95.12
277.726	86.12
277.957	83.12
278.189	85.12
278.421	90.12
278.652	91.12
278.884	81.12
279.115	86.12
279.347	90.12
279.579	87.12
279.81	93.12
280.042	95.12
280.273	96.12
280.505	79.12
280.736	81.12
280.968	85.12
281.199	100.12
281.431	88.12
281.662	80.12
281.894	75.12
282.125	75.12
282.356	78.12
282.588	92.12
282.819	94.12
283.051	87.12
283.282	93.12
283.513	97.12
283.745	89.12
283.976	94.12
284.207	84.12
284.439	91.12
284.67	80.12
284.901	86.12
285.132	77.12
285.364	90.12
285.595	106.12
285.826	79.12
286.057	95.12
286.288	80.12
286.52	80.12
286.751	92.12
286.982	70.12
287.213	80.12
287.444	80.12
287.675	88.12
287.906	84.12
288.138	93.12
288.369	82.12
288.6	85.12
288.831	83.12
289.062	80.12
289.293	83.12
289.524	84.12
289.755	91.12
289.986	87.12
290.217	70.12
290.448	92.12
290.679	88.12
290.91	91.12
291.141	82.12
291.371	75.12
291.602	78.12
291.833	75.12
292.064	81.12
292.295	84.12
292.526	87.12
292.757	91.12
292.987	102.12
293.218	77.12
293.449	77.12
293.68	96.12
293.91	88.12
294.141	76.12
294.372	85.12
294.603	83.12
294.833	89.12
295.064	72.12
295.295	92.12
295.525	88.12
295.756	97.12
295.987	82.12
296.217	88.12
296.448	82.12
296.679	92.12
296.909	92.12
297.14	73.12
297.37	87.12
297.601	86.12
297.831	89.12
298.062	81.12
298.292	78.12
298.523	87.12
298.753	89.12
298.984	93.12
299.214	82.12
299.445	97.12
299.675	94.12
299.905	101.12
300.136	85.12
300.366	99.12
300.597	75.12
300.827	72.12
301.057	82.12
301.288	82.12
301.518	93.12
301.748	82.12
301.979	88.12
302.209	91.12
302.439	86.12
302.669	86.12
302.9	93.12
303.13	96.12
303.36	79.12
303.59	80.12
303.82	85.12
304.051	88.12
304.281	89.12
304.511	95.12
304.741	97.12
304.971	98.12
305.201	94.12
305.431	91.12
305.661	88.12
305.891	83.12
306.121	93.12
306.352	92.12
306.582	76.12
306.812	86.12
307.042	86.12
307.272	96.12
307.502	88.12
307.731	83.12
307.961	85.12
308.191	90.12
308.421	87.12
308.651	93.12
308.881	92.12
309.111	97.12
309.341	97.12
309.571	79.12
309.8	88.12
310.03	98.12
310.26	99.12
310.49	91.12
310.72	75.12
310.949	105.12
311.179	85.12
311.409	72.12
311.639	96.12
311.868	80.12
312.098	94.12
312.328	79.12
312.557	98.12
312.787	96.12
313.017	96.12
313.246	90.12
313.476	84.12
313.706	86.12
313.935	82.12
314.165	92.12
314.394	86.12
314.624	88.12
314.853	96.12
315.083	95.12
315.312	79.12
315.542	82.12
315.771	99.12
316.001	89.12
316.23	75.12
316.46	86.12
316.689	78.12
316.919	78.12
317.148	85.12
317.377	82.12
317.607	89.12
317.836	87.12
318.065	90.12
318.295	84.12
318.524	99.12
318.753	83.12
318.983	95.12
319.212	92.12
319.441	99.12
319.67	88.12
319.9	90.12
320.129	82.12
320.358	77.12
320.587	86.12
320.816	74.12
321.046	94.12
321.275	109.12
321.504	87.12
321.733	82.12
321.962	88.12
322.191	99.12
322.42	78.12
322.649	87.12
322.878	82.12
323.108	90.12
323.337	88.12
323.566	83.12
323.795	92.12
324.024	86.12
324.253	88.12
324.482	77.12
324.71	73.12
324.939	85.12
325.168	92.12
325.397	73.12
325.626	76.12
325.855	77.12
326.084	92.12
326.313	89.12
326.542	94.12
326.77	92.12
326.999	87.12
327.228	86.12
327.457	89.12
327.686	79.12
327.914	88.12
328.143	81.12
328.372	76.12
328.6	88.12
328.829	86.12
329.058	104.12
329.287	95.12
329.515	101.12
329.744	89.12
329.972	92.12
330.201	96.12
330.43	92.12
330.658	81.12
330.887	88.12
331.115	82.12
331.344	88.12
331.572	88.12
331.801	74.12
332.03	82.12
332.258	81.12
332.486	93.12
332.715	87.12
332.943	94.12
333.172	91.12
333.4	81.12
333.629	80.12
333.857	87.12
334.085	98.12
334.314	97.12
334.542	86.12
334.771	84.12
334.999	88.12
335.227	90.12
335.455	73.12
335.684	79.12
335.912	88.12
336.14	88.12
336.369	80.12
336.597	87.12
336.825	90.12
337.053	106.12
337.281	73.12
337.51	80.12
337.738	103.12
337.966	82.12
338.194	85.12
338.422	80.12
338.65	88.12
338.878	95.12
339.106	74.12
339.334	98.12
339.562	85.12
339.79	86.12
340.018	93.12
340.246	71.12
340.474	82.12
340.702	76.12
340.93	69.12
341.158	70.12
341.386	82.12
341.614	90.12
341.842	86.12
342.07	86.12
342.298	84.12
342.526	77.12
342.754	73.12
342.981	82.12
343.209	85.12
343.437	95.12
343.665	76.12
343.893	88.12
344.12	92.12
344.348	93.12
344.576	79.12
344.804	95.12
345.031	92.12
345.259	86.12
345.487	82.12
345.714	88.12
345.942	98.12
346.17	97.12
346.397	89.12
346.625	75.12
346.853	103.12
347.08	92.12
347.308	89.12
347.535	91.12
347.763	101.12
347.99	96.12
348.218	97.12
348.445	89.12
348.673	95.12
348.9	89.12
349.128	90.12
349.355	82.12
349.583	91.12
349.81	96.12
350.037	86.12
350.265	93.12
350.492	78.12
350.72	87.12
350.947	91.12
351.174	87.12
351.402	96.12
351.629	83.12
351.856	88.12
352.083	84.12
352.311	77.12
352.538	87.12
352.765	95.12
352.992	97.12
353.22	86.12
353.447	85.12
353.674	81.12
353.901	84.12
354.128	69.12
354.355	88.12
354.583	98.12
354.81	81.12
355.037	70.12
355.264	81.12
355.491	77.12
355.718	74.12
355.945	85.12
356.172	89.12
356.399	83.12
356.626	86.12
356.853	87.12
357.08	97.12
357.307	97.12
357.534	87.12
357.761	94.12
357.988	90.12
358.215	81.12
358.441	93.12
358.668	80.12
358.895	94.12
359.122	78.12
359.349	95.12
359.576	78.12
359.802	90.12
360.029	83.12
360.256	87.12
360.483	93.12
360.709	97.12
360.936	76.12
361.163	97.12
361.39	83.12
361.616	90.12
361.843	87.12
362.07	89.12
362.296	104.12
362.523	98.12
362.749	80.12
362.976	75.12
363.203	91.12
363.429	83.12
363.656	72.12
363.882	82.12
364.109	96.12
364.335	100.12
364.562	85.12
364.788	87.12
365.015	85.12
365.241	89.12
365.468	92.12
365.694	84.12
365.92	96.12
366.147	72.12
366.373	85.12
366.599	89.12
366.826	90.12
367.052	86.12
367.278	90.12
367.505	80.12
367.731	95.12
367.957	106.12
368.184	88.12
368.41	79.12
368.636	105.12
368.862	89.12
369.089	87.12
369.315	96.12
369.541	95.12
369.767	94.12
369.993	98.12
370.219	100.12
370.445	98.12
370.672	90.12
370.898	91.12
371.124	91.12
371.35	74.12
371.576	109.12
371.802	100.12
372.028	85.12
372.254	108.12
372.48	102.12
372.706	83.12
372.932	100.12
373.158	88.12
373.384	101.12
373.61	88.12
373.835	84.12
374.061	87.12
374.287	97.12
374.513	98.12
374.739	88.12
374.965	96.12
375.191	89.12
375.416	101.12
375.642	95.12
375.868	103.12
376.094	98.12
376.319	85.12
376.545	86.12
376.771	93.12
376.997	91.12
377.222	87.12
377.448	90.12
377.674	97.12
377.899	91.12
378.125	97.12
378.35	88.12
378.576	102.12
378.802	91.12
379.027	99.12
379.253	92.12
379.478	96.12
379.704	104.12
379.929	101.12
380.155	87.12
380.38	91.12
380.606	89.12
380.831	90.12
381.057	103.12
381.282	106.12
381.507	102.12
381.733	81.12
381.958	101.12
382.184	97.12
382.409	79.12
382.634	109.12
382.86	98.12
383.085	91.12
383.31	103.12
383.535	96.12
383.761	100.12
383.986	113.12
384.211	108.12
384.436	97.12
384.662	93.12
384.887	94.12
385.112	96.12
385.337	101.12
385.562	95.12
385.787	114.12
386.013	113.12
386.238	83.12
386.463	101.12
386.688	90.12
386.913	104.12
387.138	94.12
387.363	88.12
387.588	102.12
387.813	109.12
388.038	105.12
388.263	103.12
388.488	108.12
388.713	97.12
388.938	110.12
389.163	109.12
389.387	100.12
389.612	96.12
389.837	111.12
390.062	110.12
390.287	111.12
390.512	97.12
390.736	83.12
390.961	100.12
391.186	121.12
391.411	116.12
391.636	120.12
391.86	125.12
392.085	96.12
392.31	110.12
392.534	103.12
392.759	96.12
392.984	97.12
393.208	107.12
393.433	105.12
393.658	96.12
393.882	99.12
394.107	98.12
394.331	102.12
394.556	102.12
394.78	111.12
395.005	103.12
395.229	121.12
395.454	111.12
395.678	111.12
395.903	98.12
396.127	105.12
396.352	96.12
396.576	110.12
396.801	108.12
397.025	107.12
397.249	101.12
397.474	116.12
397.698	111.12
397.922	97.12
398.147	113.12
398.371	104.12
398.595	111.12
398.82	116.12
399.044	97.12
399.268	108.12
399.492	125.12
399.717	119.12
399.941	125.12
400.165	117.12
400.389	116.12
400.613	113.12
400.837	118.12
401.062	110.12
401.286	102.12
401.51	113.12
401.734	114.12
401.958	123.12
402.182	112.12
402.406	112.12
402.63	109.12
402.854	114.12
403.078	113.12
403.302	124.12
403.526	116.12
403.75	120.12
403.974	140.12
404.198	110.12
404.422	126.12
404.645	119.12
404.869	113.12
405.093	115.12
405.317	116.12
405.541	118.12
405.765	130.12
405.988	116.12
406.212	120.12
406.436	120.12
406.66	119.12
406.883	109.12
407.107	123.12
407.331	113.12
407.555	129.12
407.778	117.12
408.002	116.12
408.226	122.12
408.449	116.12
408.673	119.12
408.896	117.12
409.12	129.12
409.344	122.12
409.567	113.12
409.791	126.12
410.014	126.12
410.238	114.12
410.461	120.12
410.685	127.12
410.908	113.12
411.132	111.12
411.355	136.12
411.578	127.12
411.802	130.12
412.025	111.12
412.249	139.12
412.472	113.12
412.695	114.12
412.919	126.12
413.142	121.12
413.365	117.12
413.589	124.12
413.812	126.12
414.035	128.12
414.258	125.12
414.482	115.12
414.705	120.12
414.928	126.12
415.151	113.12
415.374	117.12
415.597	124.12
415.821	124.12
416.044	130.12
416.267	129.12
416.49	122.12
416.713	129.12
416.936	129.12
417.159	118.12
417.382	131.12
417.605	110.12
417.828	130.12
418.051	142.12
418.274	127.12
418.497	139.12
418.72	131.12
418.943	127.12
419.166	128.12
419.389	139.12
419.611	129.12
419.834	132.12
420.057	131.12
420.28	140.12
420.503	124.12
420.726	126.12
420.948	133.12
421.171	138.12
421.394	142.12
421.617	140.12
421.839	141.12
422.062	136.12
422.285	121.12
422.507	130.12
422.73	137.12
422.953	130.12
423.175	130.12
423.398	129.12
423.621	121.12
423.843	135.12
424.066	141.12
424.288	128.12
424.511	154.12
424.733	142.12
424.956	148.12
425.178	144.12
425.401	139.12
425.623	142.12
425.846	131.12
426.068	126.12
426.291	147.12
426.513	132.12
426.735	130.12
426.958	143.12
427.18	125.12
427.402	144.12
427.625	135.12
427.847	124.12
428.069	128.12
428.292	134.12
428.514	126.12
428.736	139.12
428.958	131.12
429.181	114.12
429.403	127.12
429.625	142.12
429.847	143.12
430.069	126.12
430.292	127.12
430.514	122.12
430.736	113.12
430.958	126.12
431.18	138.12
431.402	126.12
431.624	113.12
431.846	113.12
432.068	94.12
432.29	95.12
432.512	123.12
432.734	130.12
432.956	144.12
433.178	129.12
433.4	139.12
433.622	138.12
433.844	140.12
434.066	132.12
434.287	110.12
434.509	94.12
434.731	100.12
434.953	106.12
435.175	122.12
435.397	108.12
435.618	120.12
435.84	112.12
436.062	122.12
436.284	121.12
436.505	127.12
436.727	132.12
436.949	115.12
437.17	128.12
437.392	123.12
437.614	127.12
437.835	116.12
438.057	108.12
438.278	120.12
438.5	120.12
438.721	139.12
438.943	142.12
439.165	153.12
439.386	134.12
439.608	140.12
439.829	140.12
440.05	134.12
440.272	133.12
440.493	142.12
440.715	149.12
440.936	167.12
441.158	146.12
441.379	134.12
441.6	156.12
441.822	146.12
442.043	131.12
442.264	127.12
442.486	138.12
442.707	120.12
442.928	141.12
443.149	152.12
443.371	146.12
443.592	139.12
443.813	134.12
444.034	138.12
444.255	154.12
444.476	128.12
444.698	142.12
444.919	142.12
445.14	280.12
445.361	206.12
445.582	154.12
445.803	142.12
446.024	137.12
446.245	160.12
446.466	132.12
446.687	148.12
446.908	145.12
447.129	158.12
447.35	158.12
447.571	143.12
447.792	147.12
448.013	154.12
448.234	127.12
448.455	138.12
448.675	142.12
448.896	134.12
449.117	145.12
449.338	132.12
449.559	129.12
449.779	146.12
450	125.12
450.221	123.12
450.442	141.12
450.662	135.12
450.883	126.12
451.104	129.12
451.324	126.12
451.545	144.12
451.766	140.12
451.986	122.12
452.207	128.12
452.428	135.12
452.648	128.12
452.869	121.12
453.089	120.12
453.31	126.12
453.53	120.12
453.751	106.12
453.971	112.12
454.192	110.12
454.412	124.12
454.633	110.12
454.853	128.12
455.073	130.12
455.294	121.12
455.514	138.12
455.734	110.12
455.955	120.12
456.175	118.12
456.395	107.12
456.616	108.12
456.836	122.12
457.056	104.12
457.276	105.12
457.497	105.12
457.717	111.12
457.937	111.12
458.157	115.12
458.377	117.12
458.598	108.12
458.818	110.12
459.038	69.12
459.258	83.12
459.478	92.12
459.698	96.12
459.918	114.12
460.138	110.12
460.358	100.12
460.578	125.12
460.798	118.12
461.018	95.12
461.238	116.12
461.458	108.12
461.678	111.12
461.898	107.12
462.118	115.12
462.338	119.12
462.558	109.12
462.777	106.12
462.997	121.12
463.217	111.12
463.437	106.12
463.657	106.12
463.876	123.12
464.096	110.12
464.316	107.12
464.536	121.12
464.755	119.12
464.975	126.12
465.195	114.12
465.414	119.12
465.634	120.12
465.854	131.12
466.073	117.12
466.293	118.12
466.512	118.12
466.732	124.12
466.951	120.12
467.171	118.12
467.391	128.12
467.61	132.12
467.829	127.12
468.049	126.12
468.268	119.12
468.488	132.12
468.707	133.12
468.927	145.12
469.146	144.12
469.365	151.12
469.585	150.12
469.804	138.12
470.023	151.12
470.243	148.12
470.462	127.12
470.681	136.12
470.901	140.12
471.12	151.12
471.339	150.12
471.558	134.12
471.777	136.12
471.997	123.12
472.216	123.12
472.435	120.12
472.654	112.12
472.873	113.12
473.092	127.12
473.311	138.12
473.53	127.12
473.749	122.12
473.968	134.12
474.187	133.12
474.406	111.12
474.625	128.12
474.844	126.12
475.063	123.12
475.282	108.12
475.501	124.12
475.72	128.12
475.939	127.12
476.158	132.12
476.377	126.12
476.596	119.12
476.814	114.12
477.033	103.12
477.252	135.12
477.471	117.12
477.69	129.12
477.908	137.12
478.127	138.12
478.346	150.12
478.564	119.12
478.783	137.12
479.002	139.12
479.22	132.12
479.439	132.12
479.658	122.12
479.876	119.12
480.095	118.12
480.313	125.12
480.532	125.12
480.751	139.12
480.969	90.12
481.188	106.12
481.406	99.12
481.624	81.12
481.843	88.12
482.061	99.12
482.28	107.12
482.498	125.12
482.717	126.12
482.935	126.12
483.153	137.12
483.372	158.12
483.59	147.12
483.808	141.12
484.027	134.12
484.245	118.12
484.463	128.12
484.681	168.12
484.9	136.12
485.118	150.12
485.336	132.12
485.554	108.12
485.772	102.12
485.99	107.12
486.209	121.12
486.427	120.12
486.645	130.12
486.863	141.12
487.081	130.12
487.299	128.12
487.517	154.12
487.735	171.12
487.953	178.12
488.171	177.12
488.389	166.12
488.607	170.12
488.825	149.12
489.043	132.12
489.261	139.12
489.479	140.12
489.696	132.12
489.914	127.12
490.132	125.12
490.35	137.12
490.568	170.12
490.786	164.12
491.003	171.12
491.221	169.12
491.439	173.12
491.657	181.12
491.874	211.12
492.092	210.12
492.31	241.12
492.527	225.12
492.745	216.12
492.963	188.12
493.18	180.12
493.398	195.12
493.615	181.12
493.833	181.12
494.05	181.12
494.268	193.12
494.485	175.12
494.703	176.12
494.92	188.12
495.138	192.12
495.355	159.12
495.573	172.12
495.79	169.12
496.008	187.12
496.225	168.12
496.442	175.12
496.66	170.12
496.877	169.12
497.094	160.12
497.312	154.12
497.529	160.12
497.746	157.12
497.963	150.12
498.181	137.12
498.398	127.12
498.615	121.12
498.832	123.12
499.049	122.12
499.267	129.12
499.484	130.12
499.701	129.12
499.918	145.12
500.135	142.12
500.352	123.12
500.569	140.12
500.786	150.12
501.003	152.12
501.22	136.12
501.437	128.12
501.654	145.12
501.871	142.12
502.088	134.12
502.305	131.12
502.522	125.12
502.739	137.12
502.956	124.12
503.172	116.12
503.389	132.12
503.606	111.12
503.823	121.12
504.04	128.12
504.256	119.12
504.473	122.12
504.69	122.12
504.907	118.12
505.123	133.12
505.34	120.12
505.557	115.12
505.773	116.12
505.99	124.12
506.207	124.12
506.423	120.12
506.64	121.12
506.856	115.12
507.073	113.12
507.289	137.12
507.506	113.12
507.722	118.12
507.939	122.12
508.155	108.12
508.372	126.12
508.588	111.12
508.805	118.12
509.021	101.12
509.238	109.12
509.454	102.12
509.67	101.12
509.887	95.12
510.103	100.12
510.319	97.12
510.536	106.12
510.752	91.12
510.968	85.12
511.184	98.12
