Data from Location1.07152019.Energy5.Lamp.07192019.3%Agarose_HRD10591_14-30-49-015.txt Node
Date: Fri Jul 19 14:30:49 EDT 2019
User: cochatt
Spectrometer: HR+D1059
Trigger mode: 1
Integration Time (sec): 1.000000E-1
Scans to average: 1
Electric dark correction enabled: true
Nonlinearity correction enabled: false
Boxcar width: 0
XAxis mode: Wavelengths
Number of Pixels in Spectrum: 2048
>>>>>Begin Spectral Data<<<<<
223.165	-25.19
223.4	-25.19
223.635	-25.19
223.869	-14.19
224.104	-9.19
224.338	-20.19
224.573	-10.19
224.808	-10.19
225.042	-5.19
225.277	-8.19
225.511	-0.19
225.746	9.81
225.98	8.81
226.215	-12.19
226.449	10.81
226.683	18.81
226.918	33.81
227.152	32.81
227.387	31.81
227.621	28.81
227.856	42.81
228.09	32.81
228.324	33.81
228.559	58.81
228.793	68.81
229.027	67.81
229.262	67.81
229.496	65.81
229.73	69.81
229.964	67.81
230.199	79.81
230.433	68.81
230.667	79.81
230.901	87.81
231.136	79.81
231.37	91.81
231.604	67.81
231.838	95.81
232.072	75.81
232.306	81.81
232.541	84.81
232.775	88.81
233.009	92.81
233.243	77.81
233.477	99.81
233.711	90.81
233.945	85.81
234.179	72.81
234.413	80.81
234.647	83.81
234.881	67.81
235.115	79.81
235.349	77.81
235.583	63.81
235.817	63.81
236.051	70.81
236.285	81.81
236.519	68.81
236.753	76.81
236.987	87.81
237.221	77.81
237.455	76.81
237.689	79.81
237.922	70.81
238.156	81.81
238.39	79.81
238.624	77.81
238.858	86.81
239.091	83.81
239.325	91.81
239.559	70.81
239.793	78.81
240.027	72.81
240.26	83.81
240.494	80.81
240.728	72.81
240.961	85.81
241.195	74.81
241.429	75.81
241.662	81.81
241.896	69.81
242.13	78.81
242.363	68.81
242.597	74.81
242.83	92.81
243.064	85.81
243.298	81.81
243.531	86.81
243.765	73.81
243.998	89.81
244.232	81.81
244.465	93.81
244.699	75.81
244.932	69.81
245.166	81.81
245.399	77.81
245.633	77.81
245.866	95.81
246.099	88.81
246.333	77.81
246.566	87.81
246.8	87.81
247.033	67.81
247.266	82.81
247.5	65.81
247.733	78.81
247.966	78.81
248.2	78.81
248.433	68.81
248.666	87.81
248.899	94.81
249.133	83.81
249.366	89.81
249.599	72.81
249.832	77.81
250.066	82.81
250.299	78.81
250.532	91.81
250.765	73.81
250.998	79.81
251.231	88.81
251.465	92.81
251.698	90.81
251.931	71.81
252.164	67.81
252.397	79.81
252.63	101.81
252.863	90.81
253.096	85.81
253.329	86.81
253.562	77.81
253.795	87.81
254.028	81.81
254.261	73.81
254.494	95.81
254.727	96.81
254.96	83.81
255.193	89.81
255.426	81.81
255.659	79.81
255.892	83.81
256.124	80.81
256.357	88.81
256.59	90.81
256.823	73.81
257.056	73.81
257.289	73.81
257.521	83.81
257.754	87.81
257.987	81.81
258.22	98.81
258.452	76.81
258.685	97.81
258.918	87.81
259.151	80.81
259.383	89.81
259.616	85.81
259.849	87.81
260.081	94.81
260.314	72.81
260.547	106.81
260.779	88.81
261.012	79.81
261.244	91.81
261.477	99.81
261.71	81.81
261.942	80.81
262.175	74.81
262.407	82.81
262.64	81.81
262.872	89.81
263.105	79.81
263.337	99.81
263.57	93.81
263.802	93.81
264.035	89.81
264.267	81.81
264.499	94.81
264.732	89.81
264.964	75.81
265.197	73.81
265.429	95.81
265.661	57.81
265.894	81.81
266.126	76.81
266.358	89.81
266.591	96.81
266.823	86.81
267.055	100.81
267.287	75.81
267.52	84.81
267.752	78.81
267.984	101.81
268.216	85.81
268.448	104.81
268.681	94.81
268.913	66.81
269.145	82.81
269.377	81.81
269.609	95.81
269.841	87.81
270.073	96.81
270.306	95.81
270.538	89.81
270.77	81.81
271.002	87.81
271.234	78.81
271.466	97.81
271.698	88.81
271.93	85.81
272.162	86.81
272.394	92.81
272.626	96.81
272.858	85.81
273.09	81.81
273.322	94.81
273.553	78.81
273.785	87.81
274.017	93.81
274.249	89.81
274.481	73.81
274.713	90.81
274.945	82.81
275.176	87.81
275.408	89.81
275.64	69.81
275.872	81.81
276.104	81.81
276.335	91.81
276.567	87.81
276.799	96.81
277.031	68.81
277.262	87.81
277.494	87.81
277.726	98.81
277.957	96.81
278.189	90.81
278.421	74.81
278.652	97.81
278.884	95.81
279.115	94.81
279.347	90.81
279.579	95.81
279.81	77.81
280.042	76.81
280.273	74.81
280.505	69.81
280.736	81.81
280.968	91.81
281.199	79.81
281.431	85.81
281.662	76.81
281.894	83.81
282.125	98.81
282.356	89.81
282.588	83.81
282.819	99.81
283.051	89.81
283.282	89.81
283.513	77.81
283.745	94.81
283.976	90.81
284.207	104.81
284.439	98.81
284.67	90.81
284.901	91.81
285.132	87.81
285.364	83.81
285.595	91.81
285.826	88.81
286.057	94.81
286.288	87.81
286.52	93.81
286.751	97.81
286.982	95.81
287.213	86.81
287.444	80.81
287.675	82.81
287.906	98.81
288.138	83.81
288.369	82.81
288.6	94.81
288.831	94.81
289.062	82.81
289.293	74.81
289.524	83.81
289.755	77.81
289.986	100.81
290.217	78.81
290.448	87.81
290.679	89.81
290.91	95.81
291.141	81.81
291.371	96.81
291.602	88.81
291.833	76.81
292.064	80.81
292.295	92.81
292.526	89.81
292.757	96.81
292.987	86.81
293.218	83.81
293.449	98.81
293.68	88.81
293.91	83.81
294.141	77.81
294.372	75.81
294.603	90.81
294.833	93.81
295.064	93.81
295.295	95.81
295.525	78.81
295.756	91.81
295.987	94.81
296.217	95.81
296.448	89.81
296.679	87.81
296.909	95.81
297.14	96.81
297.37	99.81
297.601	90.81
297.831	89.81
298.062	95.81
298.292	83.81
298.523	96.81
298.753	88.81
298.984	87.81
299.214	92.81
299.445	88.81
299.675	83.81
299.905	85.81
300.136	90.81
300.366	98.81
300.597	97.81
300.827	81.81
301.057	88.81
301.288	96.81
301.518	87.81
301.748	86.81
301.979	83.81
302.209	73.81
302.439	77.81
302.669	76.81
302.9	86.81
303.13	89.81
303.36	76.81
303.59	64.81
303.82	87.81
304.051	82.81
304.281	79.81
304.511	96.81
304.741	96.81
304.971	83.81
305.201	90.81
305.431	83.81
305.661	87.81
305.891	80.81
306.121	85.81
306.352	90.81
306.582	85.81
306.812	94.81
307.042	94.81
307.272	79.81
307.502	90.81
307.731	90.81
307.961	98.81
308.191	83.81
308.421	95.81
308.651	94.81
308.881	82.81
309.111	74.81
309.341	93.81
309.571	85.81
309.8	77.81
310.03	81.81
310.26	88.81
310.49	93.81
310.72	101.81
310.949	87.81
311.179	87.81
311.409	64.81
311.639	96.81
311.868	91.81
312.098	74.81
312.328	103.81
312.557	89.81
312.787	79.81
313.017	96.81
313.246	65.81
313.476	89.81
313.706	111.81
313.935	94.81
314.165	92.81
314.394	104.81
314.624	90.81
314.853	96.81
315.083	93.81
315.312	82.81
315.542	83.81
315.771	80.81
316.001	81.81
316.23	87.81
316.46	87.81
316.689	80.81
316.919	74.81
317.148	87.81
317.377	83.81
317.607	93.81
317.836	80.81
318.065	79.81
318.295	90.81
318.524	68.81
318.753	89.81
318.983	92.81
319.212	92.81
319.441	89.81
319.67	78.81
319.9	94.81
320.129	100.81
320.358	87.81
320.587	105.81
320.816	89.81
321.046	81.81
321.275	89.81
321.504	83.81
321.733	81.81
321.962	97.81
322.191	82.81
322.42	77.81
322.649	90.81
322.878	95.81
323.108	79.81
323.337	87.81
323.566	89.81
323.795	93.81
324.024	88.81
324.253	93.81
324.482	89.81
324.71	81.81
324.939	98.81
325.168	93.81
325.397	93.81
325.626	84.81
325.855	89.81
326.084	98.81
326.313	87.81
326.542	81.81
326.77	90.81
326.999	83.81
327.228	97.81
327.457	86.81
327.686	90.81
327.914	86.81
328.143	88.81
328.372	83.81
328.6	97.81
328.829	79.81
329.058	89.81
329.287	85.81
329.515	75.81
329.744	95.81
329.972	80.81
330.201	95.81
330.43	92.81
330.658	87.81
330.887	94.81
331.115	83.81
331.344	95.81
331.572	91.81
331.801	90.81
332.03	92.81
332.258	92.81
332.486	88.81
332.715	81.81
332.943	89.81
333.172	96.81
333.4	86.81
333.629	90.81
333.857	70.81
334.085	78.81
334.314	96.81
334.542	96.81
334.771	90.81
334.999	86.81
335.227	99.81
335.455	96.81
335.684	85.81
335.912	84.81
336.14	97.81
336.369	96.81
336.597	91.81
336.825	101.81
337.053	93.81
337.281	81.81
337.51	90.81
337.738	87.81
337.966	102.81
338.194	82.81
338.422	83.81
338.65	93.81
338.878	85.81
339.106	97.81
339.334	89.81
339.562	92.81
339.79	97.81
340.018	90.81
340.246	92.81
340.474	88.81
340.702	86.81
340.93	92.81
341.158	92.81
341.386	94.81
341.614	86.81
341.842	106.81
342.07	101.81
342.298	94.81
342.526	82.81
342.754	83.81
342.981	83.81
343.209	76.81
343.437	83.81
343.665	97.81
343.893	88.81
344.12	82.81
344.348	73.81
344.576	102.81
344.804	91.81
345.031	87.81
345.259	89.81
345.487	89.81
345.714	86.81
345.942	90.81
346.17	90.81
346.397	92.81
346.625	75.81
346.853	89.81
347.08	81.81
347.308	91.81
347.535	94.81
347.763	77.81
347.99	91.81
348.218	83.81
348.445	73.81
348.673	89.81
348.9	96.81
349.128	94.81
349.355	88.81
349.583	94.81
349.81	88.81
350.037	82.81
350.265	89.81
350.492	95.81
350.72	77.81
350.947	87.81
351.174	86.81
351.402	89.81
351.629	93.81
351.856	89.81
352.083	85.81
352.311	92.81
352.538	82.81
352.765	89.81
352.992	85.81
353.22	94.81
353.447	87.81
353.674	105.81
353.901	86.81
354.128	87.81
354.355	81.81
354.583	97.81
354.81	83.81
355.037	101.81
355.264	89.81
355.491	89.81
355.718	86.81
355.945	97.81
356.172	93.81
356.399	93.81
356.626	77.81
356.853	78.81
357.08	90.81
357.307	80.81
357.534	87.81
357.761	82.81
357.988	94.81
358.215	114.81
358.441	86.81
358.668	84.81
358.895	84.81
359.122	95.81
359.349	92.81
359.576	88.81
359.802	92.81
360.029	87.81
360.256	93.81
360.483	96.81
360.709	82.81
360.936	87.81
361.163	86.81
361.39	75.81
361.616	92.81
361.843	87.81
362.07	93.81
362.296	92.81
362.523	99.81
362.749	88.81
362.976	76.81
363.203	95.81
363.429	96.81
363.656	84.81
363.882	84.81
364.109	77.81
364.335	97.81
364.562	74.81
364.788	110.81
365.015	83.81
365.241	81.81
365.468	105.81
365.694	83.81
365.92	81.81
366.147	91.81
366.373	91.81
366.599	106.81
366.826	86.81
367.052	93.81
367.278	83.81
367.505	98.81
367.731	97.81
367.957	104.81
368.184	94.81
368.41	95.81
368.636	99.81
368.862	91.81
369.089	90.81
369.315	93.81
369.541	102.81
369.767	97.81
369.993	94.81
370.219	86.81
370.445	91.81
370.672	88.81
370.898	94.81
371.124	91.81
371.35	94.81
371.576	98.81
371.802	98.81
372.028	80.81
372.254	94.81
372.48	84.81
372.706	85.81
372.932	87.81
373.158	83.81
373.384	106.81
373.61	91.81
373.835	90.81
374.061	85.81
374.287	79.81
374.513	109.81
374.739	110.81
374.965	95.81
375.191	100.81
375.416	97.81
375.642	74.81
375.868	98.81
376.094	94.81
376.319	112.81
376.545	103.81
376.771	93.81
376.997	108.81
377.222	96.81
377.448	99.81
377.674	95.81
377.899	106.81
378.125	91.81
378.35	97.81
378.576	105.81
378.802	95.81
379.027	111.81
379.253	112.81
379.478	106.81
379.704	111.81
379.929	106.81
380.155	104.81
380.38	97.81
380.606	98.81
380.831	102.81
381.057	98.81
381.282	102.81
381.507	106.81
381.733	106.81
381.958	94.81
382.184	90.81
382.409	104.81
382.634	93.81
382.86	102.81
383.085	102.81
383.31	99.81
383.535	99.81
383.761	111.81
383.986	103.81
384.211	111.81
384.436	100.81
384.662	96.81
384.887	109.81
385.112	92.81
385.337	104.81
385.562	109.81
385.787	111.81
386.013	110.81
386.238	108.81
386.463	105.81
386.688	91.81
386.913	106.81
387.138	91.81
387.363	94.81
387.588	107.81
387.813	107.81
388.038	110.81
388.263	102.81
388.488	93.81
388.713	100.81
388.938	101.81
389.163	117.81
389.387	123.81
389.612	98.81
389.837	105.81
390.062	110.81
390.287	96.81
390.512	93.81
390.736	103.81
390.961	109.81
391.186	114.81
391.411	126.81
391.636	109.81
391.86	101.81
392.085	112.81
392.31	106.81
392.534	125.81
392.759	112.81
392.984	113.81
393.208	110.81
393.433	110.81
393.658	106.81
393.882	100.81
394.107	107.81
394.331	108.81
394.556	104.81
394.78	113.81
395.005	122.81
395.229	103.81
395.454	112.81
395.678	119.81
395.903	118.81
396.127	109.81
396.352	98.81
396.576	112.81
396.801	117.81
397.025	112.81
397.249	107.81
397.474	99.81
397.698	105.81
397.922	123.81
398.147	112.81
398.371	103.81
398.595	115.81
398.82	91.81
399.044	113.81
399.268	104.81
399.492	115.81
399.717	106.81
399.941	104.81
400.165	113.81
400.389	125.81
400.613	117.81
400.837	122.81
401.062	125.81
401.286	109.81
401.51	118.81
401.734	93.81
401.958	109.81
402.182	124.81
402.406	111.81
402.63	128.81
402.854	98.81
403.078	129.81
403.302	116.81
403.526	103.81
403.75	119.81
403.974	123.81
404.198	116.81
404.422	133.81
404.645	114.81
404.869	119.81
405.093	129.81
405.317	112.81
405.541	125.81
405.765	127.81
405.988	125.81
406.212	126.81
406.436	128.81
406.66	120.81
406.883	138.81
407.107	118.81
407.331	102.81
407.555	119.81
407.778	123.81
408.002	125.81
408.226	123.81
408.449	112.81
408.673	120.81
408.896	124.81
409.12	121.81
409.344	115.81
409.567	119.81
409.791	128.81
410.014	123.81
410.238	117.81
410.461	113.81
410.685	139.81
410.908	133.81
411.132	136.81
411.355	128.81
411.578	134.81
411.802	110.81
412.025	124.81
412.249	118.81
412.472	123.81
412.695	133.81
412.919	122.81
413.142	127.81
413.365	125.81
413.589	122.81
413.812	140.81
414.035	135.81
414.258	106.81
414.482	112.81
414.705	126.81
414.928	130.81
415.151	137.81
415.374	128.81
415.597	122.81
415.821	136.81
416.044	131.81
416.267	139.81
416.49	144.81
416.713	123.81
416.936	114.81
417.159	126.81
417.382	131.81
417.605	132.81
417.828	133.81
418.051	112.81
418.274	139.81
418.497	123.81
418.72	132.81
418.943	144.81
419.166	133.81
419.389	143.81
419.611	139.81
419.834	132.81
420.057	139.81
420.28	150.81
420.503	141.81
420.726	133.81
420.948	132.81
421.171	128.81
421.394	138.81
421.617	148.81
421.839	142.81
422.062	140.81
422.285	143.81
422.507	122.81
422.73	130.81
422.953	130.81
423.175	112.81
423.398	130.81
423.621	133.81
423.843	143.81
424.066	131.81
424.288	133.81
424.511	145.81
424.733	156.81
424.956	159.81
425.178	128.81
425.401	137.81
425.623	143.81
425.846	130.81
426.068	142.81
426.291	129.81
426.513	131.81
426.735	130.81
426.958	145.81
427.18	136.81
427.402	132.81
427.625	129.81
427.847	135.81
428.069	129.81
428.292	125.81
428.514	114.81
428.736	127.81
428.958	127.81
429.181	127.81
429.403	139.81
429.625	141.81
429.847	142.81
430.069	123.81
430.292	125.81
430.514	136.81
430.736	132.81
430.958	140.81
431.18	124.81
431.402	129.81
431.624	124.81
431.846	111.81
432.068	92.81
432.29	100.81
432.512	117.81
432.734	121.81
432.956	145.81
433.178	146.81
433.4	138.81
433.622	137.81
433.844	146.81
434.066	135.81
434.287	109.81
434.509	110.81
434.731	108.81
434.953	126.81
435.175	120.81
435.397	124.81
435.618	124.81
435.84	115.81
436.062	121.81
436.284	113.81
436.505	127.81
436.727	144.81
436.949	138.81
437.17	130.81
437.392	130.81
437.614	130.81
437.835	137.81
438.057	107.81
438.278	114.81
438.5	117.81
438.721	139.81
438.943	139.81
439.165	145.81
439.386	142.81
439.608	144.81
439.829	154.81
440.05	137.81
440.272	129.81
440.493	141.81
440.715	146.81
440.936	147.81
441.158	143.81
441.379	139.81
441.6	155.81
441.822	140.81
442.043	143.81
442.264	147.81
442.486	125.81
442.707	134.81
442.928	141.81
443.149	153.81
443.371	139.81
443.592	133.81
443.813	138.81
444.034	154.81
444.255	151.81
444.476	128.81
444.698	137.81
444.919	138.81
445.14	254.81
445.361	197.81
445.582	155.81
445.803	151.81
446.024	135.81
446.245	154.81
446.466	153.81
446.687	148.81
446.908	157.81
447.129	145.81
447.35	128.81
447.571	151.81
447.792	143.81
448.013	147.81
448.234	145.81
448.455	142.81
448.675	144.81
448.896	137.81
449.117	136.81
449.338	137.81
449.559	152.81
449.779	145.81
450	145.81
450.221	151.81
450.442	137.81
450.662	145.81
450.883	131.81
451.104	133.81
451.324	129.81
451.545	129.81
451.766	149.81
451.986	129.81
452.207	128.81
452.428	128.81
452.648	132.81
452.869	127.81
453.089	113.81
453.31	111.81
453.53	123.81
453.751	110.81
453.971	99.81
454.192	110.81
454.412	124.81
454.633	128.81
454.853	114.81
455.073	121.81
455.294	120.81
455.514	136.81
455.734	129.81
455.955	119.81
456.175	113.81
456.395	111.81
456.616	119.81
456.836	122.81
457.056	110.81
457.276	106.81
457.497	110.81
457.717	134.81
457.937	114.81
458.157	110.81
458.377	99.81
458.598	100.81
458.818	95.81
459.038	91.81
459.258	101.81
459.478	103.81
459.698	89.81
459.918	105.81
460.138	118.81
460.358	100.81
460.578	121.81
460.798	119.81
461.018	113.81
461.238	115.81
461.458	114.81
461.678	120.81
461.898	121.81
462.118	131.81
462.338	115.81
462.558	122.81
462.777	116.81
462.997	99.81
463.217	126.81
463.437	119.81
463.657	105.81
463.876	124.81
464.096	112.81
464.316	108.81
464.536	122.81
464.755	114.81
464.975	122.81
465.195	110.81
465.414	130.81
465.634	124.81
465.854	109.81
466.073	129.81
466.293	121.81
466.512	123.81
466.732	128.81
466.951	133.81
467.171	128.81
467.391	137.81
467.61	134.81
467.829	125.81
468.049	127.81
468.268	140.81
468.488	125.81
468.707	141.81
468.927	128.81
469.146	136.81
469.365	133.81
469.585	137.81
469.804	148.81
470.023	135.81
470.243	151.81
470.462	143.81
470.681	150.81
470.901	145.81
471.12	137.81
471.339	137.81
471.558	135.81
471.777	142.81
471.997	132.81
472.216	133.81
472.435	115.81
472.654	107.81
472.873	105.81
473.092	108.81
473.311	112.81
473.53	141.81
473.749	126.81
473.968	130.81
474.187	122.81
474.406	129.81
474.625	129.81
474.844	126.81
475.063	118.81
475.282	125.81
475.501	122.81
475.72	130.81
475.939	118.81
476.158	147.81
476.377	143.81
476.596	135.81
476.814	124.81
477.033	115.81
477.252	122.81
477.471	112.81
477.69	122.81
477.908	130.81
478.127	131.81
478.346	150.81
478.564	144.81
478.783	131.81
479.002	141.81
479.22	147.81
479.439	139.81
479.658	135.81
479.876	112.81
480.095	115.81
480.313	124.81
480.532	132.81
480.751	113.81
480.969	91.81
481.188	71.81
481.406	81.81
481.624	90.81
481.843	82.81
482.061	96.81
482.28	107.81
482.498	125.81
482.717	97.81
482.935	120.81
483.153	150.81
483.372	144.81
483.59	145.81
483.808	141.81
484.027	131.81
484.245	139.81
484.463	147.81
484.681	151.81
484.9	141.81
485.118	133.81
485.336	126.81
485.554	105.81
485.772	101.81
485.99	111.81
486.209	113.81
486.427	106.81
486.645	119.81
486.863	143.81
487.081	146.81
487.299	140.81
487.517	135.81
487.735	147.81
487.953	168.81
488.171	190.81
488.389	182.81
488.607	174.81
488.825	151.81
489.043	125.81
489.261	134.81
489.479	148.81
489.696	154.81
489.914	149.81
490.132	150.81
490.35	151.81
490.568	169.81
490.786	173.81
491.003	186.81
491.221	171.81
491.439	172.81
491.657	208.81
491.874	203.81
492.092	204.81
492.31	236.81
492.527	237.81
492.745	203.81
492.963	195.81
493.18	201.81
493.398	184.81
493.615	189.81
493.833	190.81
494.05	185.81
494.268	169.81
494.485	156.81
494.703	158.81
494.92	174.81
495.138	165.81
495.355	169.81
495.573	167.81
495.79	155.81
496.008	167.81
496.225	183.81
496.442	163.81
496.66	153.81
496.877	153.81
497.094	154.81
497.312	172.81
497.529	159.81
497.746	153.81
497.963	133.81
498.181	133.81
498.398	128.81
498.615	114.81
498.832	117.81
499.049	129.81
499.267	124.81
499.484	123.81
499.701	128.81
499.918	138.81
500.135	129.81
500.352	147.81
500.569	142.81
500.786	148.81
501.003	143.81
501.22	138.81
501.437	130.81
501.654	127.81
501.871	127.81
502.088	129.81
502.305	128.81
502.522	126.81
502.739	134.81
502.956	153.81
503.172	125.81
503.389	127.81
503.606	119.81
503.823	125.81
504.04	121.81
504.256	125.81
504.473	109.81
504.69	125.81
504.907	130.81
505.123	120.81
505.34	123.81
505.557	117.81
505.773	108.81
505.99	121.81
506.207	126.81
506.423	120.81
506.64	116.81
506.856	126.81
507.073	115.81
507.289	111.81
507.506	115.81
507.722	125.81
507.939	112.81
508.155	115.81
508.372	112.81
508.588	122.81
508.805	141.81
509.021	105.81
509.238	118.81
509.454	104.81
509.67	111.81
509.887	82.81
510.103	107.81
510.319	77.81
510.536	93.81
510.752	83.81
510.968	72.81
