Data from Location1.07152019.Energy5.Lamp.07192019.3%Agarose_HRD10591_14-31-10-015.txt Node
Date: Fri Jul 19 14:31:10 EDT 2019
User: cochatt
Spectrometer: HR+D1059
Trigger mode: 1
Integration Time (sec): 1.000000E-1
Scans to average: 1
Electric dark correction enabled: true
Nonlinearity correction enabled: false
Boxcar width: 0
XAxis mode: Wavelengths
Number of Pixels in Spectrum: 2048
>>>>>Begin Spectral Data<<<<<
223.165	-15.5
223.4	-15.5
223.635	-15.5
223.869	-9.5
224.104	-8.5
224.338	-16.5
224.573	-10.5
224.808	-16.5
225.042	-9.5
225.277	-6.5
225.511	-2.5
225.746	12.5
225.98	6.5
226.215	1.5
226.449	11.5
226.683	20.5
226.918	27.5
227.152	15.5
227.387	30.5
227.621	49.5
227.856	63.5
228.09	50.5
228.324	46.5
228.559	72.5
228.793	63.5
229.027	69.5
229.262	75.5
229.496	72.5
229.73	67.5
229.964	88.5
230.199	72.5
230.433	81.5
230.667	73.5
230.901	75.5
231.136	95.5
231.37	88.5
231.604	82.5
231.838	88.5
232.072	86.5
232.306	89.5
232.541	89.5
232.775	72.5
233.009	72.5
233.243	90.5
233.477	77.5
233.711	74.5
233.945	91.5
234.179	72.5
234.413	73.5
234.647	89.5
234.881	72.5
235.115	88.5
235.349	86.5
235.583	78.5
235.817	85.5
236.051	79.5
236.285	81.5
236.519	85.5
236.753	91.5
236.987	89.5
237.221	90.5
237.455	96.5
237.689	89.5
237.922	77.5
238.156	83.5
238.39	66.5
238.624	74.5
238.858	65.5
239.091	96.5
239.325	78.5
239.559	76.5
239.793	59.5
240.027	81.5
240.26	81.5
240.494	89.5
240.728	81.5
240.961	75.5
241.195	72.5
241.429	83.5
241.662	75.5
241.896	72.5
242.13	82.5
242.363	76.5
242.597	87.5
242.83	90.5
243.064	76.5
243.298	86.5
243.531	75.5
243.765	73.5
243.998	74.5
244.232	72.5
244.465	80.5
244.699	75.5
244.932	81.5
245.166	87.5
245.399	79.5
245.633	79.5
245.866	87.5
246.099	92.5
246.333	82.5
246.566	92.5
246.8	90.5
247.033	69.5
247.266	89.5
247.5	80.5
247.733	82.5
247.966	78.5
248.2	83.5
248.433	70.5
248.666	82.5
248.899	75.5
249.133	74.5
249.366	79.5
249.599	92.5
249.832	85.5
250.066	90.5
250.299	79.5
250.532	86.5
250.765	73.5
250.998	79.5
251.231	76.5
251.465	90.5
251.698	89.5
251.931	93.5
252.164	77.5
252.397	90.5
252.63	71.5
252.863	79.5
253.096	79.5
253.329	73.5
253.562	85.5
253.795	91.5
254.028	82.5
254.261	79.5
254.494	85.5
254.727	92.5
254.96	91.5
255.193	90.5
255.426	102.5
255.659	87.5
255.892	88.5
256.124	90.5
256.357	90.5
256.59	84.5
256.823	81.5
257.056	85.5
257.289	63.5
257.521	77.5
257.754	74.5
257.987	73.5
258.22	87.5
258.452	89.5
258.685	72.5
258.918	90.5
259.151	87.5
259.383	72.5
259.616	83.5
259.849	93.5
260.081	76.5
260.314	89.5
260.547	97.5
260.779	94.5
261.012	78.5
261.244	76.5
261.477	83.5
261.71	91.5
261.942	75.5
262.175	69.5
262.407	72.5
262.64	60.5
262.872	91.5
263.105	89.5
263.337	92.5
263.57	77.5
263.802	91.5
264.035	90.5
264.267	77.5
264.499	87.5
264.732	86.5
264.964	74.5
265.197	86.5
265.429	86.5
265.661	87.5
265.894	77.5
266.126	84.5
266.358	82.5
266.591	85.5
266.823	87.5
267.055	92.5
267.287	88.5
267.52	79.5
267.752	97.5
267.984	84.5
268.216	82.5
268.448	87.5
268.681	85.5
268.913	88.5
269.145	82.5
269.377	80.5
269.609	77.5
269.841	90.5
270.073	92.5
270.306	84.5
270.538	68.5
270.77	89.5
271.002	85.5
271.234	82.5
271.466	86.5
271.698	84.5
271.93	88.5
272.162	83.5
272.394	82.5
272.626	91.5
272.858	83.5
273.09	90.5
273.322	102.5
273.553	83.5
273.785	85.5
274.017	86.5
274.249	86.5
274.481	82.5
274.713	87.5
274.945	90.5
275.176	79.5
275.408	95.5
275.64	72.5
275.872	82.5
276.104	92.5
276.335	81.5
276.567	76.5
276.799	90.5
277.031	86.5
277.262	81.5
277.494	94.5
277.726	83.5
277.957	79.5
278.189	88.5
278.421	86.5
278.652	88.5
278.884	84.5
279.115	80.5
279.347	65.5
279.579	90.5
279.81	83.5
280.042	91.5
280.273	88.5
280.505	80.5
280.736	87.5
280.968	87.5
281.199	93.5
281.431	64.5
281.662	85.5
281.894	75.5
282.125	87.5
282.356	87.5
282.588	87.5
282.819	82.5
283.051	73.5
283.282	88.5
283.513	91.5
283.745	85.5
283.976	82.5
284.207	72.5
284.439	68.5
284.67	82.5
284.901	102.5
285.132	92.5
285.364	97.5
285.595	89.5
285.826	88.5
286.057	82.5
286.288	73.5
286.52	99.5
286.751	86.5
286.982	71.5
287.213	71.5
287.444	91.5
287.675	88.5
287.906	92.5
288.138	99.5
288.369	88.5
288.6	87.5
288.831	89.5
289.062	85.5
289.293	96.5
289.524	88.5
289.755	86.5
289.986	81.5
290.217	79.5
290.448	82.5
290.679	89.5
290.91	100.5
291.141	81.5
291.371	82.5
291.602	75.5
291.833	97.5
292.064	80.5
292.295	90.5
292.526	95.5
292.757	80.5
292.987	83.5
293.218	89.5
293.449	87.5
293.68	91.5
293.91	98.5
294.141	96.5
294.372	102.5
294.603	87.5
294.833	93.5
295.064	89.5
295.295	85.5
295.525	81.5
295.756	84.5
295.987	73.5
296.217	89.5
296.448	91.5
296.679	75.5
296.909	86.5
297.14	76.5
297.37	92.5
297.601	89.5
297.831	83.5
298.062	83.5
298.292	76.5
298.523	81.5
298.753	86.5
298.984	72.5
299.214	96.5
299.445	73.5
299.675	89.5
299.905	96.5
300.136	88.5
300.366	91.5
300.597	89.5
300.827	84.5
301.057	95.5
301.288	74.5
301.518	85.5
301.748	91.5
301.979	92.5
302.209	92.5
302.439	90.5
302.669	90.5
302.9	87.5
303.13	101.5
303.36	98.5
303.59	79.5
303.82	96.5
304.051	80.5
304.281	88.5
304.511	86.5
304.741	92.5
304.971	89.5
305.201	83.5
305.431	66.5
305.661	87.5
305.891	97.5
306.121	75.5
306.352	90.5
306.582	83.5
306.812	72.5
307.042	89.5
307.272	100.5
307.502	81.5
307.731	97.5
307.961	94.5
308.191	94.5
308.421	87.5
308.651	79.5
308.881	84.5
309.111	83.5
309.341	82.5
309.571	103.5
309.8	87.5
310.03	81.5
310.26	94.5
310.49	94.5
310.72	79.5
310.949	88.5
311.179	95.5
311.409	89.5
311.639	89.5
311.868	80.5
312.098	71.5
312.328	90.5
312.557	82.5
312.787	94.5
313.017	89.5
313.246	98.5
313.476	78.5
313.706	101.5
313.935	97.5
314.165	83.5
314.394	90.5
314.624	87.5
314.853	88.5
315.083	87.5
315.312	78.5
315.542	83.5
315.771	92.5
316.001	102.5
316.23	83.5
316.46	99.5
316.689	88.5
316.919	90.5
317.148	87.5
317.377	81.5
317.607	86.5
317.836	90.5
318.065	87.5
318.295	77.5
318.524	73.5
318.753	88.5
318.983	89.5
319.212	91.5
319.441	83.5
319.67	86.5
319.9	77.5
320.129	86.5
320.358	93.5
320.587	82.5
320.816	89.5
321.046	88.5
321.275	98.5
321.504	77.5
321.733	81.5
321.962	78.5
322.191	90.5
322.42	82.5
322.649	96.5
322.878	80.5
323.108	93.5
323.337	87.5
323.566	102.5
323.795	80.5
324.024	92.5
324.253	91.5
324.482	85.5
324.71	83.5
324.939	92.5
325.168	95.5
325.397	74.5
325.626	90.5
325.855	78.5
326.084	90.5
326.313	90.5
326.542	88.5
326.77	100.5
326.999	86.5
327.228	79.5
327.457	98.5
327.686	71.5
327.914	86.5
328.143	93.5
328.372	99.5
328.6	80.5
328.829	86.5
329.058	103.5
329.287	87.5
329.515	96.5
329.744	103.5
329.972	91.5
330.201	81.5
330.43	87.5
330.658	79.5
330.887	84.5
331.115	95.5
331.344	87.5
331.572	87.5
331.801	81.5
332.03	93.5
332.258	97.5
332.486	88.5
332.715	90.5
332.943	80.5
333.172	94.5
333.4	94.5
333.629	92.5
333.857	102.5
334.085	100.5
334.314	82.5
334.542	88.5
334.771	83.5
334.999	83.5
335.227	81.5
335.455	78.5
335.684	88.5
335.912	84.5
336.14	97.5
336.369	76.5
336.597	85.5
336.825	94.5
337.053	76.5
337.281	97.5
337.51	84.5
337.738	90.5
337.966	88.5
338.194	76.5
338.422	90.5
338.65	80.5
338.878	82.5
339.106	81.5
339.334	104.5
339.562	94.5
339.79	89.5
340.018	85.5
340.246	83.5
340.474	83.5
340.702	89.5
340.93	89.5
341.158	83.5
341.386	90.5
341.614	69.5
341.842	73.5
342.07	98.5
342.298	96.5
342.526	84.5
342.754	89.5
342.981	91.5
343.209	104.5
343.437	94.5
343.665	91.5
343.893	86.5
344.12	80.5
344.348	81.5
344.576	72.5
344.804	81.5
345.031	84.5
345.259	99.5
345.487	88.5
345.714	76.5
345.942	82.5
346.17	78.5
346.397	98.5
346.625	83.5
346.853	71.5
347.08	72.5
347.308	89.5
347.535	87.5
347.763	84.5
347.99	87.5
348.218	84.5
348.445	95.5
348.673	77.5
348.9	79.5
349.128	88.5
349.355	80.5
349.583	89.5
349.81	102.5
350.037	103.5
350.265	90.5
350.492	71.5
350.72	83.5
350.947	97.5
351.174	95.5
351.402	92.5
351.629	104.5
351.856	78.5
352.083	80.5
352.311	84.5
352.538	97.5
352.765	87.5
352.992	95.5
353.22	74.5
353.447	87.5
353.674	93.5
353.901	91.5
354.128	88.5
354.355	82.5
354.583	94.5
354.81	92.5
355.037	102.5
355.264	73.5
355.491	98.5
355.718	92.5
355.945	88.5
356.172	87.5
356.399	90.5
356.626	77.5
356.853	89.5
357.08	91.5
357.307	93.5
357.534	95.5
357.761	73.5
357.988	78.5
358.215	89.5
358.441	73.5
358.668	97.5
358.895	78.5
359.122	93.5
359.349	85.5
359.576	79.5
359.802	76.5
360.029	85.5
360.256	78.5
360.483	83.5
360.709	90.5
360.936	88.5
361.163	87.5
361.39	74.5
361.616	89.5
361.843	80.5
362.07	87.5
362.296	84.5
362.523	70.5
362.749	88.5
362.976	85.5
363.203	94.5
363.429	93.5
363.656	93.5
363.882	88.5
364.109	96.5
364.335	98.5
364.562	73.5
364.788	85.5
365.015	83.5
365.241	85.5
365.468	85.5
365.694	78.5
365.92	81.5
366.147	79.5
366.373	72.5
366.599	87.5
366.826	87.5
367.052	77.5
367.278	89.5
367.505	93.5
367.731	95.5
367.957	101.5
368.184	95.5
368.41	96.5
368.636	94.5
368.862	81.5
369.089	89.5
369.315	92.5
369.541	92.5
369.767	97.5
369.993	97.5
370.219	86.5
370.445	79.5
370.672	100.5
370.898	87.5
371.124	92.5
371.35	88.5
371.576	92.5
371.802	96.5
372.028	99.5
372.254	88.5
372.48	91.5
372.706	69.5
372.932	77.5
373.158	96.5
373.384	92.5
373.61	74.5
373.835	89.5
374.061	83.5
374.287	104.5
374.513	97.5
374.739	98.5
374.965	88.5
375.191	98.5
375.416	96.5
375.642	88.5
375.868	90.5
376.094	103.5
376.319	101.5
376.545	98.5
376.771	89.5
376.997	91.5
377.222	102.5
377.448	78.5
377.674	101.5
377.899	108.5
378.125	104.5
378.35	102.5
378.576	101.5
378.802	109.5
379.027	91.5
379.253	89.5
379.478	88.5
379.704	111.5
379.929	88.5
380.155	92.5
380.38	91.5
380.606	107.5
380.831	88.5
381.057	97.5
381.282	85.5
381.507	95.5
381.733	98.5
381.958	94.5
382.184	86.5
382.409	95.5
382.634	96.5
382.86	104.5
383.085	89.5
383.31	103.5
383.535	89.5
383.761	97.5
383.986	100.5
384.211	101.5
384.436	108.5
384.662	90.5
384.887	99.5
385.112	109.5
385.337	90.5
385.562	108.5
385.787	94.5
386.013	104.5
386.238	102.5
386.463	101.5
386.688	96.5
386.913	96.5
387.138	94.5
387.363	95.5
387.588	104.5
387.813	110.5
388.038	102.5
388.263	102.5
388.488	107.5
388.713	103.5
388.938	93.5
389.163	102.5
389.387	96.5
389.612	88.5
389.837	114.5
390.062	110.5
390.287	95.5
390.512	109.5
390.736	109.5
390.961	105.5
391.186	111.5
391.411	100.5
391.636	99.5
391.86	114.5
392.085	100.5
392.31	108.5
392.534	108.5
392.759	119.5
392.984	107.5
393.208	97.5
393.433	101.5
393.658	98.5
393.882	116.5
394.107	99.5
394.331	111.5
394.556	104.5
394.78	111.5
395.005	119.5
395.229	103.5
395.454	97.5
395.678	108.5
395.903	104.5
396.127	110.5
396.352	103.5
396.576	114.5
396.801	108.5
397.025	107.5
397.249	94.5
397.474	106.5
397.698	99.5
397.922	114.5
398.147	103.5
398.371	105.5
398.595	114.5
398.82	107.5
399.044	124.5
399.268	107.5
399.492	117.5
399.717	115.5
399.941	116.5
400.165	122.5
400.389	124.5
400.613	112.5
400.837	112.5
401.062	117.5
401.286	111.5
401.51	110.5
401.734	120.5
401.958	119.5
402.182	118.5
402.406	97.5
402.63	100.5
402.854	108.5
403.078	131.5
403.302	111.5
403.526	116.5
403.75	109.5
403.974	107.5
404.198	117.5
404.422	110.5
404.645	109.5
404.869	124.5
405.093	120.5
405.317	127.5
405.541	109.5
405.765	100.5
405.988	123.5
406.212	113.5
406.436	120.5
406.66	105.5
406.883	113.5
407.107	125.5
407.331	119.5
407.555	125.5
407.778	110.5
408.002	135.5
408.226	123.5
408.449	125.5
408.673	117.5
408.896	119.5
409.12	104.5
409.344	127.5
409.567	111.5
409.791	123.5
410.014	117.5
410.238	113.5
410.461	126.5
410.685	110.5
410.908	120.5
411.132	129.5
411.355	104.5
411.578	122.5
411.802	117.5
412.025	115.5
412.249	115.5
412.472	130.5
412.695	103.5
412.919	125.5
413.142	129.5
413.365	125.5
413.589	134.5
413.812	133.5
414.035	128.5
414.258	131.5
414.482	119.5
414.705	121.5
414.928	125.5
415.151	114.5
415.374	122.5
415.597	126.5
415.821	129.5
416.044	123.5
416.267	129.5
416.49	121.5
416.713	133.5
416.936	132.5
417.159	114.5
417.382	125.5
417.605	139.5
417.828	130.5
418.051	127.5
418.274	136.5
418.497	125.5
418.72	129.5
418.943	141.5
419.166	126.5
419.389	143.5
419.611	136.5
419.834	129.5
420.057	136.5
420.28	142.5
420.503	137.5
420.726	128.5
420.948	142.5
421.171	128.5
421.394	135.5
421.617	138.5
421.839	143.5
422.062	138.5
422.285	129.5
422.507	128.5
422.73	139.5
422.953	135.5
423.175	131.5
423.398	137.5
423.621	144.5
423.843	124.5
424.066	139.5
424.288	143.5
424.511	142.5
424.733	160.5
424.956	156.5
425.178	131.5
425.401	120.5
425.623	128.5
425.846	159.5
426.068	141.5
426.291	145.5
426.513	137.5
426.735	133.5
426.958	128.5
427.18	145.5
427.402	140.5
427.625	129.5
427.847	129.5
428.069	119.5
428.292	118.5
428.514	120.5
428.736	122.5
428.958	143.5
429.181	137.5
429.403	115.5
429.625	109.5
429.847	134.5
430.069	126.5
430.292	124.5
430.514	135.5
430.736	109.5
430.958	121.5
431.18	133.5
431.402	116.5
431.624	132.5
431.846	128.5
432.068	115.5
432.29	101.5
432.512	119.5
432.734	114.5
432.956	133.5
433.178	139.5
433.4	134.5
433.622	143.5
433.844	135.5
434.066	123.5
434.287	125.5
434.509	98.5
434.731	93.5
434.953	110.5
435.175	115.5
435.397	137.5
435.618	114.5
435.84	114.5
436.062	112.5
436.284	123.5
436.505	133.5
436.727	126.5
436.949	117.5
437.17	110.5
437.392	124.5
437.614	115.5
437.835	106.5
438.057	109.5
438.278	113.5
438.5	127.5
438.721	141.5
438.943	136.5
439.165	147.5
439.386	129.5
439.608	131.5
439.829	137.5
440.05	141.5
440.272	145.5
440.493	147.5
440.715	137.5
440.936	145.5
441.158	153.5
441.379	138.5
441.6	133.5
441.822	141.5
442.043	145.5
442.264	146.5
442.486	155.5
442.707	131.5
442.928	146.5
443.149	152.5
443.371	131.5
443.592	147.5
443.813	148.5
444.034	151.5
444.255	144.5
444.476	137.5
444.698	131.5
444.919	143.5
445.14	252.5
445.361	208.5
445.582	159.5
445.803	144.5
446.024	140.5
446.245	149.5
446.466	158.5
446.687	153.5
446.908	170.5
447.129	178.5
447.35	151.5
447.571	149.5
447.792	152.5
448.013	144.5
448.234	144.5
448.455	146.5
448.675	135.5
448.896	135.5
449.117	138.5
449.338	129.5
449.559	142.5
449.779	130.5
450	137.5
450.221	137.5
450.442	139.5
450.662	138.5
450.883	138.5
451.104	135.5
451.324	147.5
451.545	137.5
451.766	131.5
451.986	130.5
452.207	137.5
452.428	130.5
452.648	127.5
452.869	121.5
453.089	126.5
453.31	102.5
453.53	108.5
453.751	111.5
453.971	97.5
454.192	107.5
454.412	121.5
454.633	103.5
454.853	117.5
455.073	119.5
455.294	119.5
455.514	111.5
455.734	106.5
455.955	117.5
456.175	115.5
456.395	114.5
456.616	109.5
456.836	102.5
457.056	97.5
457.276	99.5
457.497	110.5
457.717	111.5
457.937	114.5
458.157	114.5
458.377	126.5
458.598	110.5
458.818	110.5
459.038	90.5
459.258	95.5
459.478	92.5
459.698	107.5
459.918	103.5
460.138	107.5
460.358	133.5
460.578	126.5
460.798	128.5
461.018	107.5
461.238	112.5
461.458	121.5
461.678	117.5
461.898	117.5
462.118	129.5
462.338	126.5
462.558	119.5
462.777	109.5
462.997	112.5
463.217	110.5
463.437	124.5
463.657	99.5
463.876	112.5
464.096	119.5
464.316	102.5
464.536	122.5
464.755	112.5
464.975	120.5
465.195	115.5
465.414	125.5
465.634	111.5
465.854	126.5
466.073	117.5
466.293	123.5
466.512	143.5
466.732	126.5
466.951	119.5
467.171	138.5
467.391	137.5
467.61	137.5
467.829	122.5
468.049	144.5
468.268	129.5
468.488	136.5
468.707	143.5
468.927	137.5
469.146	150.5
469.365	138.5
469.585	142.5
469.804	156.5
470.023	129.5
470.243	138.5
470.462	144.5
470.681	152.5
470.901	146.5
471.12	148.5
471.339	155.5
471.558	145.5
471.777	148.5
471.997	135.5
472.216	123.5
472.435	117.5
472.654	109.5
472.873	117.5
473.092	130.5
473.311	137.5
473.53	119.5
473.749	137.5
473.968	134.5
474.187	126.5
474.406	123.5
474.625	127.5
474.844	125.5
475.063	126.5
475.282	129.5
475.501	122.5
475.72	119.5
475.939	123.5
476.158	130.5
476.377	125.5
476.596	127.5
476.814	89.5
477.033	108.5
477.252	113.5
477.471	121.5
477.69	128.5
477.908	154.5
478.127	142.5
478.346	151.5
478.564	133.5
478.783	121.5
479.002	150.5
479.22	147.5
479.439	131.5
479.658	122.5
479.876	109.5
480.095	104.5
480.313	125.5
480.532	124.5
480.751	109.5
480.969	104.5
481.188	95.5
481.406	96.5
481.624	88.5
481.843	93.5
482.061	101.5
482.28	113.5
482.498	115.5
482.717	114.5
482.935	119.5
483.153	137.5
483.372	155.5
483.59	170.5
483.808	152.5
484.027	127.5
484.245	133.5
484.463	141.5
484.681	160.5
484.9	154.5
485.118	127.5
485.336	145.5
485.554	98.5
485.772	105.5
485.99	110.5
486.209	122.5
486.427	108.5
486.645	111.5
486.863	151.5
487.081	156.5
487.299	137.5
487.517	149.5
487.735	169.5
487.953	185.5
488.171	194.5
488.389	174.5
488.607	173.5
488.825	145.5
489.043	138.5
489.261	128.5
489.479	142.5
489.696	156.5
489.914	128.5
490.132	143.5
490.35	146.5
490.568	181.5
490.786	166.5
491.003	176.5
491.221	183.5
491.439	181.5
491.657	195.5
491.874	201.5
492.092	238.5
492.31	247.5
492.527	227.5
492.745	198.5
492.963	177.5
493.18	199.5
493.398	177.5
493.615	190.5
493.833	174.5
494.05	170.5
494.268	185.5
494.485	183.5
494.703	172.5
494.92	174.5
495.138	175.5
495.355	173.5
495.573	189.5
495.79	165.5
496.008	167.5
496.225	183.5
496.442	162.5
496.66	153.5
496.877	173.5
497.094	160.5
497.312	159.5
497.529	170.5
497.746	138.5
497.963	140.5
498.181	129.5
498.398	130.5
498.615	125.5
498.832	129.5
499.049	109.5
499.267	137.5
499.484	119.5
499.701	144.5
499.918	149.5
500.135	125.5
500.352	144.5
500.569	151.5
500.786	157.5
501.003	137.5
501.22	143.5
501.437	149.5
501.654	149.5
501.871	138.5
502.088	126.5
502.305	143.5
502.522	148.5
502.739	133.5
502.956	129.5
503.172	140.5
503.389	127.5
503.606	127.5
503.823	136.5
504.04	131.5
504.256	129.5
504.473	113.5
504.69	127.5
504.907	137.5
505.123	126.5
505.34	135.5
505.557	127.5
505.773	127.5
505.99	126.5
506.207	110.5
506.423	111.5
506.64	113.5
506.856	127.5
507.073	130.5
507.289	139.5
507.506	108.5
507.722	108.5
507.939	117.5
508.155	129.5
508.372	113.5
508.588	122.5
508.805	108.5
509.021	104.5
509.238	118.5
509.454	113.5
509.67	90.5
509.887	111.5
510.103	101.5
510.319	110.5
510.536	103.5
510.752	102.5
510.968	85.5
511.184	93.5
511.401	90.5
511.617	101.5
511.833	107.5
512.049	101.5
512.265	88.5
512.481	89.5
512.698	108.5
512.914	98.5
513.13	91.5
513.346	79.5
513.562	98.5
513.778	97.5
513.994	90.5
514.21	103.5
514.426	102.5
514.642	112.5
514.858	90.5
515.074	89.5
515.29	85.5
515.506	98.5
515.721	87.5
515.937	90.5
516.153	88.5
516.369	91.5
516.585	86.5
516.801	88.5
517.016	93.5
517.232	76.5
517.448	84.5
517.664	109.5
517.879	96.5
518.095	101.5
518.311	84.5
518.527	98.5
518.742	95.5
518.958	106.5
519.173	103.5
519.389	119.5
519.605	108.5
519.82	117.5
520.036	105.5
520.251	112.5
520.467	99.5
520.682	97.5
520.898	86.5
521.113	83.5
521.329	83.5
521.544	94.5
521.76	91.5
521.975	97.5
522.19	85.5
522.406	75.5
522.621	104.5
522.836	102.5
523.052	105.5
523.267	112.5
523.482	101.5
523.698	121.5
523.913	104.5
524.128	131.5
524.343	114.5
524.559	131.5
524.774	119.5
524.989	129.5
525.204	111.5
525.419	127.5
525.634	114.5
525.849	119.5
526.064	121.5
526.28	101.5
526.495	93.5
526.71	98.5
526.925	87.5
527.14	83.5
527.355	78.5
527.57	99.5
527.785	97.5
527.999	93.5
528.214	112.5
528.429	112.5
528.644	128.5
528.859	125.5
529.074	153.5
529.289	163.5
529.503	169.5
529.718	136.5
529.933	131.5
530.148	113.5
530.363	102.5
