Data from Location1.07152019.Energy5.Lamp.07192019.3%Agarose_HRD10591_14-31-32-017.txt Node
Date: Fri Jul 19 14:31:32 EDT 2019
User: cochatt
Spectrometer: HR+D1059
Trigger mode: 1
Integration Time (sec): 1.000000E-1
Scans to average: 1
Electric dark correction enabled: true
Nonlinearity correction enabled: false
Boxcar width: 0
XAxis mode: Wavelengths
Number of Pixels in Spectrum: 2048
>>>>>Begin Spectral Data<<<<<
223.165	-7.75
223.4	-7.75
223.635	-7.75
223.869	-18.75
224.104	-12.75
224.338	-18.75
224.573	-24.75
224.808	-5.75
225.042	-6.75
225.277	-9.75
225.511	14.25
225.746	4.25
225.98	-0.75
226.215	3.25
226.449	6.25
226.683	29.25
226.918	27.25
227.152	21.25
227.387	25.25
227.621	31.25
227.856	39.25
228.09	38.25
228.324	55.25
228.559	48.25
228.793	52.25
229.027	42.25
229.262	79.25
229.496	65.25
229.73	73.25
229.964	61.25
230.199	56.25
230.433	85.25
230.667	77.25
230.901	70.25
231.136	76.25
231.37	77.25
231.604	83.25
231.838	84.25
232.072	82.25
232.306	71.25
232.541	80.25
232.775	83.25
233.009	87.25
233.243	78.25
233.477	66.25
233.711	85.25
233.945	79.25
234.179	82.25
234.413	85.25
234.647	82.25
234.881	76.25
235.115	83.25
235.349	78.25
235.583	82.25
235.817	70.25
236.051	74.25
236.285	75.25
236.519	74.25
236.753	81.25
236.987	60.25
237.221	71.25
237.455	83.25
237.689	73.25
237.922	68.25
238.156	84.25
238.39	74.25
238.624	75.25
238.858	74.25
239.091	82.25
239.325	84.25
239.559	80.25
239.793	76.25
240.027	84.25
240.26	81.25
240.494	65.25
240.728	72.25
240.961	84.25
241.195	69.25
241.429	66.25
241.662	72.25
241.896	74.25
242.13	83.25
242.363	75.25
242.597	76.25
242.83	76.25
243.064	82.25
243.298	73.25
243.531	67.25
243.765	66.25
243.998	60.25
244.232	79.25
244.465	67.25
244.699	77.25
244.932	63.25
245.166	79.25
245.399	73.25
245.633	61.25
245.866	72.25
246.099	66.25
246.333	82.25
246.566	91.25
246.8	95.25
247.033	78.25
247.266	81.25
247.5	66.25
247.733	99.25
247.966	80.25
248.2	63.25
248.433	82.25
248.666	75.25
248.899	84.25
249.133	79.25
249.366	90.25
249.599	76.25
249.832	80.25
250.066	75.25
250.299	69.25
250.532	74.25
250.765	83.25
250.998	69.25
251.231	58.25
251.465	79.25
251.698	81.25
251.931	77.25
252.164	68.25
252.397	84.25
252.63	66.25
252.863	65.25
253.096	69.25
253.329	82.25
253.562	72.25
253.795	50.25
254.028	68.25
254.261	84.25
254.494	76.25
254.727	81.25
254.96	82.25
255.193	84.25
255.426	69.25
255.659	61.25
255.892	86.25
256.124	80.25
256.357	81.25
256.59	77.25
256.823	75.25
257.056	82.25
257.289	83.25
257.521	76.25
257.754	73.25
257.987	88.25
258.22	89.25
258.452	73.25
258.685	79.25
258.918	72.25
259.151	80.25
259.383	84.25
259.616	82.25
259.849	71.25
260.081	70.25
260.314	89.25
260.547	72.25
260.779	75.25
261.012	77.25
261.244	90.25
261.477	79.25
261.71	79.25
261.942	89.25
262.175	68.25
262.407	77.25
262.64	79.25
262.872	73.25
263.105	82.25
263.337	70.25
263.57	58.25
263.802	75.25
264.035	81.25
264.267	76.25
264.499	78.25
264.732	91.25
264.964	98.25
265.197	83.25
265.429	91.25
265.661	83.25
265.894	70.25
266.126	82.25
266.358	66.25
266.591	70.25
266.823	87.25
267.055	67.25
267.287	81.25
267.52	100.25
267.752	85.25
267.984	80.25
268.216	81.25
268.448	86.25
268.681	78.25
268.913	85.25
269.145	82.25
269.377	76.25
269.609	78.25
269.841	89.25
270.073	81.25
270.306	80.25
270.538	82.25
270.77	76.25
271.002	87.25
271.234	79.25
271.466	74.25
271.698	83.25
271.93	78.25
272.162	80.25
272.394	85.25
272.626	75.25
272.858	83.25
273.09	80.25
273.322	84.25
273.553	72.25
273.785	84.25
274.017	66.25
274.249	85.25
274.481	87.25
274.713	87.25
274.945	95.25
275.176	80.25
275.408	91.25
275.64	78.25
275.872	87.25
276.104	78.25
276.335	78.25
276.567	87.25
276.799	72.25
277.031	63.25
277.262	88.25
277.494	86.25
277.726	86.25
277.957	78.25
278.189	72.25
278.421	84.25
278.652	90.25
278.884	82.25
279.115	70.25
279.347	83.25
279.579	74.25
279.81	85.25
280.042	87.25
280.273	78.25
280.505	93.25
280.736	86.25
280.968	86.25
281.199	80.25
281.431	86.25
281.662	71.25
281.894	83.25
282.125	77.25
282.356	91.25
282.588	71.25
282.819	81.25
283.051	89.25
283.282	73.25
283.513	76.25
283.745	89.25
283.976	86.25
284.207	84.25
284.439	88.25
284.67	92.25
284.901	87.25
285.132	84.25
285.364	111.25
285.595	67.25
285.826	69.25
286.057	77.25
286.288	79.25
286.52	79.25
286.751	83.25
286.982	82.25
287.213	74.25
287.444	76.25
287.675	86.25
287.906	80.25
288.138	100.25
288.369	82.25
288.6	90.25
288.831	69.25
289.062	72.25
289.293	69.25
289.524	82.25
289.755	85.25
289.986	76.25
290.217	79.25
290.448	77.25
290.679	93.25
290.91	80.25
291.141	70.25
291.371	75.25
291.602	80.25
291.833	73.25
292.064	84.25
292.295	82.25
292.526	77.25
292.757	92.25
292.987	88.25
293.218	85.25
293.449	77.25
293.68	92.25
293.91	73.25
294.141	82.25
294.372	80.25
294.603	86.25
294.833	66.25
295.064	97.25
295.295	77.25
295.525	83.25
295.756	70.25
295.987	83.25
296.217	84.25
296.448	72.25
296.679	85.25
296.909	84.25
297.14	88.25
297.37	85.25
297.601	102.25
297.831	92.25
298.062	74.25
298.292	78.25
298.523	86.25
298.753	89.25
298.984	88.25
299.214	68.25
299.445	74.25
299.675	84.25
299.905	84.25
300.136	90.25
300.366	84.25
300.597	73.25
300.827	88.25
301.057	81.25
301.288	76.25
301.518	83.25
301.748	75.25
301.979	84.25
302.209	98.25
302.439	88.25
302.669	84.25
302.9	83.25
303.13	80.25
303.36	88.25
303.59	81.25
303.82	97.25
304.051	87.25
304.281	94.25
304.511	80.25
304.741	79.25
304.971	70.25
305.201	73.25
305.431	84.25
305.661	97.25
305.891	80.25
306.121	67.25
306.352	91.25
306.582	95.25
306.812	83.25
307.042	94.25
307.272	82.25
307.502	80.25
307.731	87.25
307.961	82.25
308.191	87.25
308.421	82.25
308.651	88.25
308.881	81.25
309.111	93.25
309.341	82.25
309.571	84.25
309.8	74.25
310.03	77.25
310.26	89.25
310.49	87.25
310.72	101.25
310.949	88.25
311.179	81.25
311.409	72.25
311.639	83.25
311.868	82.25
312.098	78.25
312.328	84.25
312.557	77.25
312.787	87.25
313.017	70.25
313.246	70.25
313.476	75.25
313.706	82.25
313.935	88.25
314.165	76.25
314.394	87.25
314.624	81.25
314.853	76.25
315.083	73.25
315.312	83.25
315.542	79.25
315.771	81.25
316.001	88.25
316.23	80.25
316.46	97.25
316.689	84.25
316.919	77.25
317.148	91.25
317.377	81.25
317.607	79.25
317.836	78.25
318.065	87.25
318.295	89.25
318.524	73.25
318.753	66.25
318.983	85.25
319.212	85.25
319.441	73.25
319.67	80.25
319.9	68.25
320.129	84.25
320.358	82.25
320.587	84.25
320.816	78.25
321.046	93.25
321.275	84.25
321.504	66.25
321.733	96.25
321.962	79.25
322.191	73.25
322.42	61.25
322.649	80.25
322.878	90.25
323.108	91.25
323.337	87.25
323.566	81.25
323.795	85.25
324.024	96.25
324.253	80.25
324.482	64.25
324.71	64.25
324.939	87.25
325.168	78.25
325.397	87.25
325.626	76.25
325.855	75.25
326.084	72.25
326.313	79.25
326.542	78.25
326.77	72.25
326.999	87.25
327.228	75.25
327.457	74.25
327.686	90.25
327.914	88.25
328.143	74.25
328.372	79.25
328.6	74.25
328.829	71.25
329.058	83.25
329.287	71.25
329.515	60.25
329.744	76.25
329.972	91.25
330.201	81.25
330.43	80.25
330.658	86.25
330.887	82.25
331.115	85.25
331.344	71.25
331.572	96.25
331.801	77.25
332.03	85.25
332.258	67.25
332.486	71.25
332.715	86.25
332.943	79.25
333.172	73.25
333.4	84.25
333.629	77.25
333.857	82.25
334.085	72.25
334.314	84.25
334.542	88.25
334.771	83.25
334.999	81.25
335.227	75.25
335.455	79.25
335.684	74.25
335.912	75.25
336.14	71.25
336.369	73.25
336.597	81.25
336.825	89.25
337.053	91.25
337.281	72.25
337.51	102.25
337.738	100.25
337.966	92.25
338.194	75.25
338.422	77.25
338.65	81.25
338.878	72.25
339.106	86.25
339.334	80.25
339.562	83.25
339.79	80.25
340.018	73.25
340.246	85.25
340.474	89.25
340.702	91.25
340.93	92.25
341.158	84.25
341.386	63.25
341.614	76.25
341.842	77.25
342.07	84.25
342.298	83.25
342.526	75.25
342.754	72.25
342.981	80.25
343.209	88.25
343.437	87.25
343.665	84.25
343.893	77.25
344.12	84.25
344.348	86.25
344.576	83.25
344.804	86.25
345.031	90.25
345.259	84.25
345.487	83.25
345.714	79.25
345.942	77.25
346.17	95.25
346.397	74.25
346.625	85.25
346.853	90.25
347.08	91.25
347.308	83.25
347.535	94.25
347.763	85.25
347.99	67.25
348.218	76.25
348.445	70.25
348.673	71.25
348.9	97.25
349.128	87.25
349.355	86.25
349.583	86.25
349.81	75.25
350.037	67.25
350.265	99.25
350.492	80.25
350.72	85.25
350.947	76.25
351.174	90.25
351.402	86.25
351.629	88.25
351.856	84.25
352.083	83.25
352.311	83.25
352.538	80.25
352.765	74.25
352.992	94.25
353.22	83.25
353.447	85.25
353.674	86.25
353.901	83.25
354.128	81.25
354.355	86.25
354.583	86.25
354.81	85.25
355.037	84.25
355.264	89.25
355.491	77.25
355.718	74.25
355.945	84.25
356.172	74.25
356.399	99.25
356.626	80.25
356.853	90.25
357.08	76.25
357.307	82.25
357.534	101.25
357.761	76.25
357.988	74.25
358.215	79.25
358.441	75.25
358.668	78.25
358.895	85.25
359.122	94.25
359.349	84.25
359.576	89.25
359.802	84.25
360.029	75.25
360.256	72.25
360.483	80.25
360.709	81.25
360.936	89.25
361.163	91.25
361.39	74.25
361.616	89.25
361.843	85.25
362.07	87.25
362.296	98.25
362.523	93.25
362.749	79.25
362.976	83.25
363.203	92.25
363.429	81.25
363.656	85.25
363.882	83.25
364.109	82.25
364.335	81.25
364.562	90.25
364.788	76.25
365.015	79.25
365.241	88.25
365.468	81.25
365.694	72.25
365.92	82.25
366.147	80.25
366.373	86.25
366.599	80.25
366.826	78.25
367.052	89.25
367.278	93.25
367.505	102.25
367.731	91.25
367.957	93.25
368.184	73.25
368.41	75.25
368.636	89.25
368.862	77.25
369.089	93.25
369.315	75.25
369.541	85.25
369.767	93.25
369.993	88.25
370.219	75.25
370.445	81.25
370.672	80.25
370.898	85.25
371.124	91.25
371.35	85.25
371.576	91.25
371.802	95.25
372.028	88.25
372.254	92.25
372.48	81.25
372.706	94.25
372.932	77.25
373.158	84.25
373.384	75.25
373.61	97.25
373.835	82.25
374.061	86.25
374.287	83.25
374.513	90.25
374.739	79.25
374.965	97.25
375.191	71.25
375.416	89.25
375.642	86.25
375.868	94.25
376.094	101.25
376.319	91.25
376.545	83.25
376.771	89.25
376.997	79.25
377.222	95.25
377.448	95.25
377.674	93.25
377.899	99.25
378.125	107.25
378.35	89.25
378.576	89.25
378.802	88.25
379.027	87.25
379.253	84.25
379.478	92.25
379.704	92.25
379.929	93.25
380.155	90.25
380.38	85.25
380.606	83.25
380.831	88.25
381.057	103.25
381.282	92.25
381.507	100.25
381.733	92.25
381.958	87.25
382.184	104.25
382.409	94.25
382.634	91.25
382.86	87.25
383.085	94.25
383.31	97.25
383.535	109.25
383.761	111.25
383.986	103.25
384.211	93.25
384.436	70.25
384.662	93.25
384.887	92.25
385.112	97.25
385.337	97.25
385.562	97.25
385.787	93.25
386.013	104.25
386.238	91.25
386.463	88.25
386.688	101.25
386.913	99.25
387.138	98.25
387.363	84.25
387.588	92.25
387.813	96.25
388.038	100.25
388.263	88.25
388.488	88.25
388.713	102.25
388.938	96.25
389.163	103.25
389.387	103.25
389.612	96.25
389.837	100.25
390.062	99.25
390.287	103.25
390.512	118.25
390.736	96.25
390.961	95.25
391.186	97.25
391.411	100.25
391.636	102.25
391.86	103.25
392.085	103.25
392.31	106.25
392.534	105.25
392.759	101.25
392.984	105.25
393.208	109.25
393.433	82.25
393.658	113.25
393.882	98.25
394.107	94.25
394.331	114.25
394.556	103.25
394.78	100.25
395.005	102.25
395.229	91.25
395.454	106.25
395.678	100.25
395.903	108.25
396.127	115.25
396.352	109.25
396.576	100.25
396.801	101.25
397.025	104.25
397.249	114.25
397.474	121.25
397.698	105.25
397.922	126.25
398.147	103.25
398.371	98.25
398.595	100.25
398.82	103.25
399.044	95.25
399.268	107.25
399.492	118.25
399.717	107.25
399.941	105.25
400.165	108.25
400.389	107.25
400.613	99.25
400.837	123.25
401.062	115.25
401.286	124.25
401.51	103.25
401.734	96.25
401.958	116.25
402.182	112.25
402.406	108.25
402.63	103.25
402.854	104.25
403.078	121.25
403.302	109.25
403.526	115.25
403.75	107.25
403.974	114.25
404.198	120.25
404.422	113.25
404.645	100.25
404.869	101.25
405.093	106.25
405.317	111.25
405.541	117.25
405.765	102.25
405.988	102.25
406.212	125.25
406.436	101.25
406.66	116.25
406.883	117.25
407.107	117.25
407.331	116.25
407.555	113.25
407.778	108.25
408.002	105.25
408.226	112.25
408.449	121.25
408.673	106.25
408.896	129.25
409.12	111.25
409.344	117.25
409.567	113.25
409.791	117.25
410.014	121.25
410.238	108.25
410.461	98.25
410.685	112.25
410.908	121.25
411.132	96.25
411.355	119.25
411.578	126.25
411.802	111.25
412.025	120.25
412.249	111.25
412.472	115.25
412.695	115.25
412.919	121.25
413.142	108.25
413.365	122.25
413.589	128.25
413.812	122.25
414.035	111.25
414.258	114.25
414.482	121.25
414.705	132.25
414.928	111.25
415.151	117.25
415.374	115.25
415.597	120.25
415.821	104.25
416.044	118.25
416.267	121.25
416.49	121.25
416.713	113.25
416.936	106.25
417.159	115.25
417.382	129.25
417.605	120.25
417.828	128.25
418.051	127.25
418.274	124.25
418.497	137.25
418.72	130.25
418.943	131.25
419.166	121.25
419.389	136.25
419.611	122.25
419.834	133.25
420.057	123.25
420.28	129.25
420.503	129.25
420.726	133.25
420.948	124.25
421.171	126.25
421.394	128.25
421.617	132.25
421.839	140.25
422.062	136.25
422.285	125.25
422.507	124.25
422.73	113.25
422.953	122.25
423.175	124.25
423.398	136.25
423.621	137.25
423.843	127.25
424.066	127.25
424.288	144.25
424.511	148.25
424.733	139.25
424.956	133.25
425.178	133.25
425.401	155.25
425.623	134.25
425.846	138.25
426.068	122.25
426.291	117.25
426.513	121.25
426.735	135.25
426.958	135.25
427.18	138.25
427.402	139.25
427.625	130.25
427.847	129.25
428.069	131.25
428.292	138.25
428.514	129.25
428.736	147.25
428.958	134.25
429.181	121.25
429.403	133.25
429.625	134.25
429.847	124.25
430.069	135.25
430.292	127.25
430.514	115.25
430.736	113.25
430.958	123.25
431.18	112.25
431.402	129.25
431.624	127.25
431.846	109.25
432.068	99.25
432.29	87.25
432.512	97.25
432.734	127.25
432.956	121.25
433.178	136.25
433.4	126.25
433.622	128.25
433.844	131.25
434.066	117.25
434.287	94.25
434.509	84.25
434.731	98.25
434.953	105.25
435.175	122.25
435.397	123.25
435.618	106.25
435.84	127.25
436.062	116.25
436.284	125.25
436.505	127.25
436.727	124.25
436.949	120.25
437.17	110.25
437.392	115.25
437.614	112.25
437.835	101.25
438.057	110.25
438.278	114.25
438.5	125.25
438.721	120.25
438.943	135.25
439.165	144.25
439.386	125.25
439.608	147.25
439.829	138.25
440.05	140.25
440.272	143.25
440.493	124.25
440.715	133.25
440.936	132.25
441.158	143.25
441.379	141.25
441.6	156.25
441.822	138.25
442.043	139.25
442.264	125.25
442.486	128.25
442.707	141.25
442.928	141.25
443.149	141.25
443.371	142.25
443.592	141.25
443.813	129.25
444.034	134.25
444.255	140.25
444.476	123.25
444.698	149.25
444.919	123.25
445.14	264.25
445.361	214.25
445.582	148.25
445.803	151.25
446.024	125.25
446.245	139.25
446.466	144.25
446.687	147.25
446.908	142.25
447.129	158.25
447.35	150.25
447.571	150.25
447.792	142.25
448.013	130.25
448.234	126.25
448.455	129.25
448.675	138.25
448.896	127.25
449.117	142.25
449.338	133.25
449.559	143.25
449.779	137.25
450	137.25
450.221	119.25
450.442	138.25
450.662	125.25
450.883	124.25
451.104	132.25
451.324	121.25
451.545	129.25
451.766	131.25
451.986	120.25
452.207	131.25
452.428	138.25
452.648	122.25
452.869	115.25
453.089	133.25
453.31	109.25
453.53	103.25
453.751	105.25
453.971	100.25
454.192	106.25
454.412	115.25
454.633	111.25
454.853	121.25
455.073	120.25
455.294	139.25
455.514	109.25
455.734	125.25
455.955	104.25
456.175	115.25
456.395	107.25
456.616	98.25
456.836	128.25
457.056	110.25
457.276	99.25
457.497	108.25
457.717	107.25
457.937	109.25
458.157	101.25
458.377	97.25
458.598	109.25
458.818	88.25
459.038	84.25
459.258	71.25
459.478	64.25
459.698	88.25
459.918	92.25
460.138	109.25
460.358	104.25
460.578	116.25
460.798	108.25
461.018	113.25
461.238	112.25
461.458	115.25
461.678	122.25
461.898	107.25
462.118	113.25
462.338	108.25
462.558	113.25
462.777	110.25
462.997	98.25
463.217	102.25
463.437	104.25
463.657	96.25
463.876	113.25
464.096	100.25
464.316	92.25
464.536	104.25
464.755	119.25
464.975	109.25
465.195	99.25
465.414	107.25
465.634	103.25
465.854	107.25
466.073	131.25
466.293	119.25
466.512	119.25
466.732	134.25
466.951	137.25
467.171	127.25
467.391	129.25
467.61	123.25
467.829	127.25
468.049	124.25
468.268	123.25
468.488	125.25
468.707	130.25
468.927	131.25
469.146	126.25
469.365	130.25
469.585	141.25
469.804	131.25
470.023	116.25
470.243	129.25
470.462	136.25
470.681	132.25
470.901	128.25
471.12	155.25
471.339	135.25
471.558	122.25
471.777	149.25
471.997	133.25
472.216	121.25
472.435	117.25
472.654	87.25
472.873	107.25
473.092	112.25
473.311	115.25
473.53	115.25
473.749	120.25
473.968	129.25
474.187	124.25
474.406	117.25
474.625	112.25
474.844	117.25
475.063	135.25
475.282	121.25
475.501	120.25
475.72	144.25
475.939	139.25
476.158	120.25
476.377	129.25
476.596	122.25
476.814	111.25
477.033	119.25
477.252	107.25
477.471	120.25
477.69	123.25
477.908	131.25
478.127	129.25
478.346	138.25
478.564	113.25
478.783	134.25
479.002	138.25
479.22	135.25
479.439	132.25
479.658	138.25
479.876	116.25
480.095	100.25
480.313	132.25
480.532	116.25
480.751	113.25
480.969	98.25
481.188	81.25
481.406	76.25
481.624	87.25
481.843	90.25
482.061	92.25
482.28	114.25
482.498	115.25
482.717	120.25
482.935	112.25
483.153	132.25
483.372	155.25
483.59	137.25
483.808	128.25
484.027	120.25
484.245	129.25
484.463	151.25
484.681	153.25
484.9	128.25
485.118	136.25
485.336	122.25
485.554	104.25
485.772	103.25
485.99	112.25
486.209	108.25
486.427	114.25
486.645	117.25
486.863	141.25
487.081	147.25
487.299	136.25
487.517	143.25
487.735	155.25
487.953	183.25
488.171	179.25
488.389	151.25
488.607	147.25
488.825	134.25
489.043	123.25
489.261	127.25
489.479	125.25
489.696	131.25
489.914	120.25
490.132	136.25
490.35	139.25
490.568	133.25
490.786	160.25
491.003	179.25
491.221	179.25
491.439	181.25
491.657	163.25
491.874	193.25
492.092	230.25
492.31	229.25
492.527	216.25
492.745	219.25
492.963	187.25
493.18	172.25
493.398	169.25
493.615	157.25
493.833	175.25
494.05	176.25
494.268	175.25
494.485	161.25
494.703	178.25
494.92	153.25
495.138	175.25
495.355	163.25
495.573	153.25
495.79	163.25
496.008	159.25
496.225	169.25
496.442	175.25
496.66	157.25
496.877	145.25
497.094	179.25
497.312	160.25
497.529	152.25
497.746	153.25
497.963	141.25
498.181	135.25
498.398	123.25
498.615	112.25
498.832	115.25
499.049	113.25
499.267	115.25
499.484	128.25
499.701	124.25
499.918	131.25
500.135	152.25
500.352	140.25
500.569	150.25
500.786	146.25
501.003	134.25
501.22	135.25
501.437	136.25
501.654	123.25
501.871	127.25
502.088	133.25
502.305	125.25
502.522	111.25
502.739	118.25
502.956	139.25
503.172	126.25
503.389	117.25
503.606	120.25
503.823	127.25
504.04	127.25
504.256	115.25
504.473	111.25
504.69	123.25
504.907	118.25
505.123	113.25
505.34	108.25
505.557	104.25
505.773	104.25
505.99	116.25
506.207	112.25
506.423	115.25
506.64	108.25
506.856	123.25
507.073	126.25
507.289	130.25
507.506	117.25
507.722	114.25
507.939	123.25
508.155	108.25
508.372	115.25
508.588	122.25
508.805	120.25
509.021	97.25
509.238	91.25
509.454	96.25
509.67	101.25
509.887	103.25
510.103	98.25
510.319	85.25
510.536	82.25
510.752	87.25
510.968	77.25
511.184	83.25
511.401	70.25
511.617	83.25
511.833	87.25
512.049	93.25
