Data from Location1.07152019.Energy5.Lamp.07192019.3%Agarose_HRD10591_14-30-11-018.txt Node
Date: Fri Jul 19 14:30:11 EDT 2019
User: cochatt
Spectrometer: HR+D1059
Trigger mode: 1
Integration Time (sec): 1.000000E-1
Scans to average: 1
Electric dark correction enabled: true
Nonlinearity correction enabled: false
Boxcar width: 0
XAxis mode: Wavelengths
Number of Pixels in Spectrum: 2048
>>>>>Begin Spectral Data<<<<<
223.165	-5.06
223.4	-5.06
223.635	-5.06
223.869	-12.06
224.104	-28.06
224.338	-3.06
224.573	-16.06
224.808	-10.06
225.042	-21.06
225.277	-12.06
225.511	6.94
225.746	8.94
225.98	1.94
226.215	16.94
226.449	17.94
226.683	24.94
226.918	17.94
227.152	11.94
227.387	27.94
227.621	42.94
227.856	29.94
228.09	29.94
228.324	43.94
228.559	66.94
228.793	43.94
229.027	36.94
229.262	62.94
229.496	63.94
229.73	62.94
229.964	64.94
230.199	74.94
230.433	88.94
230.667	88.94
230.901	97.94
231.136	76.94
231.37	70.94
231.604	79.94
231.838	71.94
232.072	85.94
232.306	94.94
232.541	70.94
232.775	91.94
233.009	92.94
233.243	78.94
233.477	80.94
233.711	87.94
233.945	93.94
234.179	84.94
234.413	82.94
234.647	79.94
234.881	73.94
235.115	81.94
235.349	82.94
235.583	81.94
235.817	83.94
236.051	70.94
236.285	76.94
236.519	59.94
236.753	80.94
236.987	75.94
237.221	71.94
237.455	69.94
237.689	90.94
237.922	74.94
238.156	80.94
238.39	65.94
238.624	51.94
238.858	65.94
239.091	75.94
239.325	90.94
239.559	79.94
239.793	75.94
240.027	74.94
240.26	66.94
240.494	83.94
240.728	71.94
240.961	79.94
241.195	70.94
241.429	76.94
241.662	71.94
241.896	74.94
242.13	83.94
242.363	67.94
242.597	75.94
242.83	77.94
243.064	81.94
243.298	81.94
243.531	62.94
243.765	78.94
243.998	71.94
244.232	77.94
244.465	78.94
244.699	73.94
244.932	64.94
245.166	83.94
245.399	66.94
245.633	67.94
245.866	82.94
246.099	81.94
246.333	60.94
246.566	90.94
246.8	74.94
247.033	82.94
247.266	77.94
247.5	78.94
247.733	83.94
247.966	83.94
248.2	70.94
248.433	92.94
248.666	82.94
248.899	90.94
249.133	81.94
249.366	79.94
249.599	77.94
249.832	82.94
250.066	83.94
250.299	76.94
250.532	79.94
250.765	78.94
250.998	81.94
251.231	69.94
251.465	76.94
251.698	79.94
251.931	75.94
252.164	79.94
252.397	83.94
252.63	80.94
252.863	79.94
253.096	77.94
253.329	89.94
253.562	84.94
253.795	81.94
254.028	77.94
254.261	77.94
254.494	91.94
254.727	79.94
254.96	89.94
255.193	70.94
255.426	95.94
255.659	78.94
255.892	76.94
256.124	76.94
256.357	91.94
256.59	91.94
256.823	92.94
257.056	70.94
257.289	82.94
257.521	73.94
257.754	75.94
257.987	66.94
258.22	90.94
258.452	76.94
258.685	87.94
258.918	79.94
259.151	71.94
259.383	69.94
259.616	80.94
259.849	77.94
260.081	83.94
260.314	78.94
260.547	85.94
260.779	83.94
261.012	91.94
261.244	75.94
261.477	80.94
261.71	79.94
261.942	90.94
262.175	91.94
262.407	95.94
262.64	83.94
262.872	62.94
263.105	89.94
263.337	76.94
263.57	77.94
263.802	78.94
264.035	83.94
264.267	69.94
264.499	88.94
264.732	89.94
264.964	85.94
265.197	92.94
265.429	63.94
265.661	89.94
265.894	77.94
266.126	83.94
266.358	79.94
266.591	73.94
266.823	70.94
267.055	74.94
267.287	95.94
267.52	78.94
267.752	82.94
267.984	83.94
268.216	60.94
268.448	76.94
268.681	82.94
268.913	85.94
269.145	90.94
269.377	91.94
269.609	85.94
269.841	74.94
270.073	82.94
270.306	76.94
270.538	70.94
270.77	73.94
271.002	80.94
271.234	82.94
271.466	74.94
271.698	88.94
271.93	82.94
272.162	74.94
272.394	88.94
272.626	86.94
272.858	89.94
273.09	89.94
273.322	90.94
273.553	92.94
273.785	75.94
274.017	89.94
274.249	75.94
274.481	90.94
274.713	90.94
274.945	90.94
275.176	87.94
275.408	93.94
275.64	81.94
275.872	89.94
276.104	87.94
276.335	102.94
276.567	88.94
276.799	85.94
277.031	75.94
277.262	85.94
277.494	74.94
277.726	99.94
277.957	82.94
278.189	69.94
278.421	84.94
278.652	79.94
278.884	73.94
279.115	82.94
279.347	85.94
279.579	71.94
279.81	79.94
280.042	87.94
280.273	89.94
280.505	92.94
280.736	84.94
280.968	78.94
281.199	93.94
281.431	81.94
281.662	91.94
281.894	66.94
282.125	79.94
282.356	73.94
282.588	89.94
282.819	68.94
283.051	98.94
283.282	84.94
283.513	77.94
283.745	93.94
283.976	76.94
284.207	84.94
284.439	96.94
284.67	84.94
284.901	86.94
285.132	100.94
285.364	85.94
285.595	95.94
285.826	89.94
286.057	93.94
286.288	77.94
286.52	79.94
286.751	66.94
286.982	75.94
287.213	79.94
287.444	85.94
287.675	69.94
287.906	94.94
288.138	88.94
288.369	89.94
288.6	94.94
288.831	79.94
289.062	85.94
289.293	87.94
289.524	88.94
289.755	82.94
289.986	86.94
290.217	73.94
290.448	79.94
290.679	81.94
290.91	81.94
291.141	88.94
291.371	87.94
291.602	103.94
291.833	77.94
292.064	81.94
292.295	83.94
292.526	89.94
292.757	101.94
292.987	72.94
293.218	97.94
293.449	66.94
293.68	94.94
293.91	68.94
294.141	74.94
294.372	70.94
294.603	80.94
294.833	91.94
295.064	73.94
295.295	78.94
295.525	93.94
295.756	79.94
295.987	87.94
296.217	90.94
296.448	78.94
296.679	89.94
296.909	91.94
297.14	88.94
297.37	77.94
297.601	77.94
297.831	86.94
298.062	81.94
298.292	78.94
298.523	85.94
298.753	82.94
298.984	90.94
299.214	85.94
299.445	92.94
299.675	83.94
299.905	89.94
300.136	86.94
300.366	90.94
300.597	91.94
300.827	90.94
301.057	69.94
301.288	93.94
301.518	82.94
301.748	92.94
301.979	92.94
302.209	90.94
302.439	85.94
302.669	92.94
302.9	84.94
303.13	76.94
303.36	82.94
303.59	91.94
303.82	84.94
304.051	81.94
304.281	78.94
304.511	90.94
304.741	77.94
304.971	83.94
305.201	84.94
305.431	93.94
305.661	79.94
305.891	92.94
306.121	91.94
306.352	92.94
306.582	76.94
306.812	94.94
307.042	95.94
307.272	81.94
307.502	90.94
307.731	96.94
307.961	86.94
308.191	101.94
308.421	93.94
308.651	103.94
308.881	87.94
309.111	84.94
309.341	72.94
309.571	87.94
309.8	96.94
310.03	82.94
310.26	90.94
310.49	98.94
310.72	82.94
310.949	94.94
311.179	80.94
311.409	90.94
311.639	80.94
311.868	84.94
312.098	79.94
312.328	87.94
312.557	93.94
312.787	82.94
313.017	83.94
313.246	83.94
313.476	91.94
313.706	102.94
313.935	95.94
314.165	82.94
314.394	75.94
314.624	60.94
314.853	72.94
315.083	86.94
315.312	90.94
315.542	76.94
315.771	70.94
316.001	86.94
316.23	84.94
316.46	88.94
316.689	84.94
316.919	83.94
317.148	78.94
317.377	83.94
317.607	90.94
317.836	92.94
318.065	91.94
318.295	75.94
318.524	73.94
318.753	108.94
318.983	87.94
319.212	80.94
319.441	93.94
319.67	84.94
319.9	77.94
320.129	86.94
320.358	92.94
320.587	89.94
320.816	74.94
321.046	76.94
321.275	91.94
321.504	71.94
321.733	89.94
321.962	77.94
322.191	93.94
322.42	98.94
322.649	90.94
322.878	100.94
323.108	98.94
323.337	82.94
323.566	87.94
323.795	71.94
324.024	85.94
324.253	71.94
324.482	85.94
324.71	94.94
324.939	81.94
325.168	75.94
325.397	85.94
325.626	95.94
325.855	88.94
326.084	83.94
326.313	65.94
326.542	71.94
326.77	89.94
326.999	70.94
327.228	78.94
327.457	81.94
327.686	97.94
327.914	82.94
328.143	98.94
328.372	85.94
328.6	77.94
328.829	82.94
329.058	79.94
329.287	94.94
329.515	76.94
329.744	77.94
329.972	82.94
330.201	82.94
330.43	88.94
330.658	79.94
330.887	79.94
331.115	83.94
331.344	90.94
331.572	86.94
331.801	82.94
332.03	79.94
332.258	95.94
332.486	75.94
332.715	74.94
332.943	76.94
333.172	71.94
333.4	91.94
333.629	87.94
333.857	90.94
334.085	90.94
334.314	88.94
334.542	87.94
334.771	78.94
334.999	89.94
335.227	89.94
335.455	81.94
335.684	80.94
335.912	103.94
336.14	77.94
336.369	86.94
336.597	95.94
336.825	77.94
337.053	81.94
337.281	76.94
337.51	76.94
337.738	100.94
337.966	86.94
338.194	87.94
338.422	92.94
338.65	94.94
338.878	98.94
339.106	77.94
339.334	93.94
339.562	85.94
339.79	78.94
340.018	90.94
340.246	85.94
340.474	90.94
340.702	85.94
340.93	73.94
341.158	79.94
341.386	80.94
341.614	80.94
341.842	98.94
342.07	99.94
342.298	92.94
342.526	87.94
342.754	76.94
342.981	87.94
343.209	87.94
343.437	95.94
343.665	76.94
343.893	81.94
344.12	95.94
344.348	71.94
344.576	89.94
344.804	70.94
345.031	85.94
345.259	70.94
345.487	74.94
345.714	85.94
345.942	77.94
346.17	80.94
346.397	77.94
346.625	77.94
346.853	82.94
347.08	69.94
347.308	85.94
347.535	82.94
347.763	85.94
347.99	83.94
348.218	83.94
348.445	90.94
348.673	74.94
348.9	85.94
349.128	93.94
349.355	92.94
349.583	87.94
349.81	83.94
350.037	74.94
350.265	85.94
350.492	80.94
350.72	83.94
350.947	93.94
351.174	83.94
351.402	89.94
351.629	67.94
351.856	81.94
352.083	92.94
352.311	82.94
352.538	70.94
352.765	92.94
352.992	93.94
353.22	80.94
353.447	96.94
353.674	76.94
353.901	90.94
354.128	83.94
354.355	83.94
354.583	87.94
354.81	87.94
355.037	79.94
355.264	79.94
355.491	81.94
355.718	85.94
355.945	88.94
356.172	91.94
356.399	84.94
356.626	85.94
356.853	85.94
357.08	80.94
357.307	81.94
357.534	67.94
357.761	79.94
357.988	95.94
358.215	101.94
358.441	95.94
358.668	89.94
358.895	84.94
359.122	69.94
359.349	80.94
359.576	82.94
359.802	83.94
360.029	82.94
360.256	76.94
360.483	83.94
360.709	83.94
360.936	86.94
361.163	87.94
361.39	90.94
361.616	84.94
361.843	77.94
362.07	87.94
362.296	78.94
362.523	93.94
362.749	76.94
362.976	67.94
363.203	97.94
363.429	95.94
363.656	95.94
363.882	93.94
364.109	87.94
364.335	90.94
364.562	68.94
364.788	74.94
365.015	94.94
365.241	92.94
365.468	84.94
365.694	83.94
365.92	93.94
366.147	77.94
366.373	79.94
366.599	104.94
366.826	82.94
367.052	84.94
367.278	95.94
367.505	92.94
367.731	93.94
367.957	76.94
368.184	79.94
368.41	96.94
368.636	97.94
368.862	87.94
369.089	94.94
369.315	86.94
369.541	91.94
369.767	94.94
369.993	78.94
370.219	88.94
370.445	97.94
370.672	85.94
370.898	89.94
371.124	90.94
371.35	87.94
371.576	100.94
371.802	74.94
372.028	94.94
372.254	83.94
372.48	88.94
372.706	93.94
372.932	89.94
373.158	79.94
373.384	89.94
373.61	95.94
373.835	109.94
374.061	83.94
374.287	98.94
374.513	84.94
374.739	93.94
374.965	81.94
375.191	86.94
375.416	98.94
375.642	82.94
375.868	79.94
376.094	90.94
376.319	76.94
376.545	91.94
376.771	85.94
376.997	102.94
377.222	84.94
377.448	94.94
377.674	87.94
377.899	83.94
378.125	101.94
378.35	95.94
378.576	94.94
378.802	96.94
379.027	103.94
379.253	95.94
379.478	99.94
379.704	76.94
379.929	95.94
380.155	102.94
380.38	92.94
380.606	101.94
380.831	97.94
381.057	107.94
381.282	85.94
381.507	85.94
381.733	105.94
381.958	107.94
382.184	86.94
382.409	81.94
382.634	102.94
382.86	95.94
383.085	96.94
383.31	99.94
383.535	86.94
383.761	100.94
383.986	101.94
384.211	114.94
384.436	92.94
384.662	91.94
384.887	84.94
385.112	85.94
385.337	97.94
385.562	99.94
385.787	87.94
386.013	100.94
386.238	90.94
386.463	99.94
386.688	102.94
386.913	94.94
387.138	92.94
387.363	106.94
387.588	98.94
387.813	99.94
388.038	100.94
388.263	106.94
388.488	98.94
388.713	111.94
388.938	90.94
389.163	101.94
389.387	95.94
389.612	97.94
389.837	101.94
390.062	106.94
390.287	104.94
390.512	107.94
390.736	95.94
390.961	105.94
391.186	93.94
391.411	106.94
391.636	115.94
391.86	102.94
392.085	102.94
392.31	115.94
392.534	103.94
392.759	91.94
392.984	86.94
393.208	121.94
393.433	95.94
393.658	107.94
393.882	115.94
394.107	95.94
394.331	101.94
394.556	113.94
394.78	107.94
395.005	104.94
395.229	100.94
395.454	109.94
395.678	99.94
395.903	103.94
396.127	113.94
396.352	106.94
396.576	109.94
396.801	107.94
397.025	100.94
397.249	91.94
397.474	109.94
397.698	109.94
397.922	105.94
398.147	117.94
398.371	121.94
398.595	109.94
398.82	120.94
399.044	100.94
399.268	116.94
399.492	115.94
399.717	109.94
399.941	110.94
400.165	111.94
400.389	108.94
400.613	109.94
400.837	100.94
401.062	112.94
401.286	101.94
401.51	105.94
401.734	111.94
401.958	101.94
402.182	108.94
402.406	116.94
402.63	109.94
402.854	108.94
403.078	108.94
403.302	110.94
403.526	117.94
403.75	113.94
403.974	116.94
404.198	110.94
404.422	115.94
404.645	102.94
404.869	118.94
405.093	107.94
405.317	116.94
405.541	115.94
405.765	123.94
405.988	125.94
406.212	88.94
406.436	114.94
406.66	127.94
406.883	122.94
407.107	117.94
407.331	102.94
407.555	126.94
407.778	121.94
408.002	121.94
408.226	119.94
408.449	125.94
408.673	115.94
408.896	119.94
409.12	103.94
409.344	113.94
409.567	108.94
409.791	113.94
410.014	125.94
410.238	115.94
410.461	102.94
410.685	121.94
410.908	123.94
411.132	115.94
411.355	115.94
411.578	141.94
411.802	118.94
412.025	121.94
412.249	113.94
412.472	117.94
412.695	131.94
412.919	141.94
413.142	121.94
413.365	134.94
413.589	122.94
413.812	107.94
414.035	123.94
414.258	110.94
414.482	120.94
414.705	125.94
414.928	118.94
415.151	120.94
415.374	131.94
415.597	134.94
415.821	113.94
416.044	128.94
416.267	116.94
416.49	122.94
416.713	118.94
416.936	117.94
417.159	129.94
417.382	123.94
417.605	125.94
417.828	124.94
418.051	130.94
418.274	121.94
418.497	134.94
418.72	127.94
418.943	121.94
419.166	129.94
419.389	135.94
419.611	121.94
419.834	139.94
420.057	129.94
420.28	123.94
420.503	129.94
420.726	123.94
420.948	130.94
421.171	134.94
421.394	125.94
421.617	111.94
421.839	142.94
422.062	128.94
422.285	133.94
422.507	127.94
422.73	131.94
422.953	121.94
423.175	126.94
423.398	122.94
423.621	132.94
423.843	129.94
424.066	149.94
424.288	148.94
424.511	149.94
424.733	126.94
424.956	123.94
425.178	149.94
425.401	132.94
425.623	139.94
425.846	133.94
426.068	125.94
426.291	130.94
426.513	131.94
426.735	127.94
426.958	123.94
427.18	133.94
427.402	118.94
427.625	133.94
427.847	127.94
428.069	127.94
428.292	115.94
428.514	121.94
428.736	123.94
428.958	124.94
429.181	129.94
429.403	131.94
429.625	127.94
429.847	134.94
430.069	130.94
430.292	117.94
430.514	127.94
430.736	117.94
430.958	122.94
431.18	127.94
431.402	139.94
431.624	119.94
431.846	101.94
432.068	86.94
432.29	79.94
432.512	103.94
432.734	121.94
432.956	133.94
433.178	144.94
433.4	124.94
433.622	132.94
433.844	147.94
434.066	124.94
434.287	110.94
434.509	106.94
434.731	98.94
434.953	104.94
435.175	120.94
435.397	124.94
435.618	113.94
435.84	120.94
436.062	111.94
436.284	117.94
436.505	125.94
436.727	128.94
436.949	120.94
437.17	122.94
437.392	109.94
437.614	133.94
437.835	116.94
438.057	106.94
438.278	124.94
438.5	119.94
438.721	123.94
438.943	135.94
439.165	122.94
439.386	126.94
439.608	133.94
439.829	137.94
440.05	124.94
440.272	140.94
440.493	147.94
440.715	135.94
440.936	143.94
441.158	147.94
441.379	150.94
441.6	146.94
441.822	137.94
442.043	142.94
442.264	145.94
442.486	134.94
442.707	143.94
442.928	154.94
443.149	138.94
443.371	146.94
443.592	137.94
443.813	137.94
444.034	130.94
444.255	137.94
444.476	138.94
444.698	152.94
444.919	154.94
445.14	280.94
445.361	203.94
445.582	149.94
445.803	137.94
446.024	151.94
446.245	155.94
446.466	159.94
446.687	152.94
446.908	154.94
447.129	166.94
447.35	138.94
447.571	137.94
447.792	136.94
448.013	139.94
448.234	140.94
448.455	135.94
448.675	143.94
448.896	131.94
449.117	145.94
449.338	145.94
449.559	122.94
449.779	129.94
450	126.94
450.221	113.94
450.442	130.94
450.662	124.94
450.883	133.94
451.104	133.94
451.324	126.94
451.545	126.94
451.766	138.94
451.986	130.94
452.207	126.94
452.428	129.94
452.648	128.94
452.869	129.94
453.089	119.94
453.31	133.94
453.53	121.94
453.751	117.94
453.971	90.94
454.192	101.94
454.412	125.94
454.633	105.94
454.853	118.94
455.073	133.94
455.294	108.94
455.514	125.94
455.734	119.94
455.955	105.94
456.175	122.94
456.395	109.94
456.616	98.94
456.836	112.94
457.056	97.94
457.276	105.94
457.497	108.94
457.717	114.94
457.937	133.94
458.157	97.94
458.377	94.94
458.598	95.94
458.818	97.94
459.038	81.94
459.258	74.94
459.478	88.94
459.698	84.94
459.918	102.94
460.138	102.94
460.358	112.94
460.578	104.94
460.798	121.94
461.018	119.94
461.238	109.94
461.458	109.94
461.678	102.94
461.898	103.94
462.118	113.94
462.338	97.94
462.558	108.94
462.777	102.94
462.997	109.94
463.217	94.94
463.437	115.94
463.657	119.94
463.876	115.94
464.096	83.94
464.316	123.94
464.536	120.94
464.755	130.94
464.975	125.94
465.195	104.94
465.414	111.94
465.634	104.94
465.854	113.94
466.073	121.94
466.293	118.94
466.512	124.94
466.732	125.94
466.951	127.94
467.171	123.94
467.391	137.94
467.61	143.94
467.829	106.94
468.049	125.94
468.268	145.94
468.488	147.94
468.707	144.94
468.927	118.94
469.146	122.94
469.365	132.94
469.585	137.94
469.804	126.94
470.023	138.94
470.243	136.94
470.462	141.94
470.681	129.94
470.901	141.94
471.12	132.94
471.339	139.94
471.558	138.94
471.777	136.94
471.997	131.94
472.216	133.94
472.435	124.94
472.654	101.94
472.873	113.94
473.092	117.94
473.311	124.94
473.53	131.94
473.749	126.94
473.968	125.94
474.187	117.94
474.406	126.94
474.625	125.94
474.844	133.94
475.063	138.94
475.282	127.94
475.501	112.94
475.72	117.94
475.939	125.94
476.158	114.94
476.377	130.94
476.596	120.94
476.814	102.94
477.033	100.94
477.252	121.94
477.471	118.94
477.69	125.94
477.908	133.94
478.127	143.94
478.346	124.94
478.564	133.94
478.783	124.94
479.002	136.94
479.22	137.94
479.439	130.94
479.658	125.94
479.876	110.94
480.095	106.94
480.313	101.94
480.532	118.94
480.751	121.94
480.969	100.94
481.188	92.94
481.406	85.94
481.624	83.94
481.843	91.94
482.061	99.94
482.28	101.94
482.498	108.94
482.717	116.94
482.935	121.94
483.153	135.94
483.372	142.94
483.59	158.94
483.808	145.94
484.027	119.94
484.245	139.94
484.463	155.94
484.681	158.94
484.9	159.94
485.118	140.94
485.336	109.94
485.554	108.94
485.772	110.94
485.99	103.94
486.209	106.94
486.427	119.94
486.645	117.94
486.863	139.94
487.081	140.94
487.299	129.94
487.517	139.94
487.735	162.94
487.953	189.94
488.171	189.94
488.389	163.94
488.607	152.94
488.825	149.94
489.043	118.94
489.261	125.94
489.479	136.94
489.696	145.94
489.914	143.94
490.132	131.94
490.35	144.94
490.568	156.94
490.786	159.94
491.003	159.94
491.221	166.94
491.439	170.94
491.657	193.94
491.874	187.94
492.092	218.94
492.31	241.94
492.527	235.94
492.745	205.94
492.963	189.94
493.18	168.94
493.398	177.94
493.615	171.94
493.833	161.94
494.05	180.94
494.268	153.94
494.485	179.94
494.703	173.94
494.92	161.94
495.138	151.94
495.355	157.94
495.573	158.94
495.79	148.94
496.008	146.94
496.225	164.94
496.442	159.94
496.66	156.94
496.877	167.94
497.094	165.94
497.312	159.94
497.529	156.94
497.746	140.94
497.963	134.94
498.181	113.94
498.398	115.94
498.615	127.94
498.832	118.94
499.049	106.94
499.267	110.94
499.484	131.94
499.701	123.94
499.918	139.94
500.135	136.94
500.352	119.94
500.569	149.94
500.786	139.94
501.003	122.94
501.22	140.94
501.437	125.94
501.654	143.94
501.871	133.94
502.088	131.94
502.305	129.94
502.522	132.94
502.739	116.94
502.956	129.94
503.172	124.94
503.389	123.94
503.606	120.94
503.823	133.94
504.04	101.94
504.256	119.94
504.473	113.94
504.69	121.94
504.907	116.94
505.123	123.94
505.34	119.94
505.557	136.94
505.773	118.94
505.99	118.94
506.207	117.94
506.423	126.94
506.64	104.94
506.856	117.94
507.073	104.94
507.289	113.94
507.506	112.94
507.722	101.94
507.939	98.94
508.155	119.94
508.372	133.94
508.588	120.94
508.805	125.94
509.021	95.94
509.238	114.94
509.454	105.94
509.67	102.94
509.887	93.94
510.103	93.94
510.319	97.94
510.536	103.94
510.752	77.94
510.968	81.94
511.184	78.94
511.401	84.94
511.617	81.94
