Data from Location1.07152019.Energy5.Lamp.07192019.3%Agarose_HRD10591_14-32-05-015.txt Node
Date: Fri Jul 19 14:32:05 EDT 2019
User: cochatt
Spectrometer: HR+D1059
Trigger mode: 1
Integration Time (sec): 1.000000E-1
Scans to average: 1
Electric dark correction enabled: true
Nonlinearity correction enabled: false
Boxcar width: 0
XAxis mode: Wavelengths
Number of Pixels in Spectrum: 2048
>>>>>Begin Spectral Data<<<<<
223.165	-7.06
223.4	-7.06
223.635	-7.06
223.869	-11.06
224.104	-26.06
224.338	-14.06
224.573	-25.06
224.808	-18.06
225.042	-19.06
225.277	-10.06
225.511	-3.06
225.746	7.94
225.98	3.94
226.215	14.94
226.449	16.94
226.683	19.94
226.918	31.94
227.152	37.94
227.387	31.94
227.621	21.94
227.856	37.94
228.09	45.94
228.324	42.94
228.559	55.94
228.793	61.94
229.027	67.94
229.262	68.94
229.496	64.94
229.73	69.94
229.964	71.94
230.199	71.94
230.433	70.94
230.667	77.94
230.901	98.94
231.136	72.94
231.37	89.94
231.604	74.94
231.838	80.94
232.072	76.94
232.306	81.94
232.541	82.94
232.775	80.94
233.009	76.94
233.243	84.94
233.477	84.94
233.711	78.94
233.945	89.94
234.179	80.94
234.413	76.94
234.647	80.94
234.881	88.94
235.115	99.94
235.349	90.94
235.583	74.94
235.817	58.94
236.051	85.94
236.285	92.94
236.519	89.94
236.753	85.94
236.987	59.94
237.221	80.94
237.455	93.94
237.689	65.94
237.922	74.94
238.156	76.94
238.39	69.94
238.624	77.94
238.858	79.94
239.091	79.94
239.325	70.94
239.559	77.94
239.793	69.94
240.027	90.94
240.26	57.94
240.494	84.94
240.728	73.94
240.961	79.94
241.195	83.94
241.429	81.94
241.662	82.94
241.896	74.94
242.13	64.94
242.363	79.94
242.597	77.94
242.83	74.94
243.064	80.94
243.298	78.94
243.531	87.94
243.765	92.94
243.998	84.94
244.232	79.94
244.465	91.94
244.699	81.94
244.932	81.94
245.166	76.94
245.399	86.94
245.633	76.94
245.866	75.94
246.099	79.94
246.333	77.94
246.566	87.94
246.8	79.94
247.033	78.94
247.266	78.94
247.5	75.94
247.733	72.94
247.966	80.94
248.2	82.94
248.433	77.94
248.666	87.94
248.899	90.94
249.133	68.94
249.366	96.94
249.599	76.94
249.832	81.94
250.066	88.94
250.299	73.94
250.532	71.94
250.765	85.94
250.998	78.94
251.231	72.94
251.465	77.94
251.698	86.94
251.931	88.94
252.164	81.94
252.397	80.94
252.63	73.94
252.863	87.94
253.096	84.94
253.329	87.94
253.562	84.94
253.795	86.94
254.028	86.94
254.261	87.94
254.494	66.94
254.727	79.94
254.96	74.94
255.193	87.94
255.426	74.94
255.659	64.94
255.892	77.94
256.124	69.94
256.357	78.94
256.59	83.94
256.823	87.94
257.056	81.94
257.289	73.94
257.521	84.94
257.754	82.94
257.987	70.94
258.22	75.94
258.452	62.94
258.685	80.94
258.918	83.94
259.151	94.94
259.383	79.94
259.616	79.94
259.849	98.94
260.081	95.94
260.314	78.94
260.547	89.94
260.779	88.94
261.012	81.94
261.244	78.94
261.477	82.94
261.71	85.94
261.942	82.94
262.175	88.94
262.407	82.94
262.64	68.94
262.872	78.94
263.105	85.94
263.337	82.94
263.57	80.94
263.802	79.94
264.035	89.94
264.267	69.94
264.499	76.94
264.732	85.94
264.964	83.94
265.197	79.94
265.429	93.94
265.661	76.94
265.894	71.94
266.126	73.94
266.358	96.94
266.591	73.94
266.823	80.94
267.055	80.94
267.287	88.94
267.52	76.94
267.752	96.94
267.984	101.94
268.216	95.94
268.448	88.94
268.681	93.94
268.913	87.94
269.145	80.94
269.377	84.94
269.609	91.94
269.841	77.94
270.073	88.94
270.306	87.94
270.538	69.94
270.77	84.94
271.002	99.94
271.234	73.94
271.466	83.94
271.698	81.94
271.93	82.94
272.162	88.94
272.394	95.94
272.626	94.94
272.858	90.94
273.09	84.94
273.322	77.94
273.553	74.94
273.785	94.94
274.017	86.94
274.249	85.94
274.481	93.94
274.713	91.94
274.945	82.94
275.176	91.94
275.408	81.94
275.64	79.94
275.872	83.94
276.104	82.94
276.335	85.94
276.567	94.94
276.799	72.94
277.031	77.94
277.262	96.94
277.494	84.94
277.726	76.94
277.957	91.94
278.189	87.94
278.421	86.94
278.652	84.94
278.884	79.94
279.115	80.94
279.347	89.94
279.579	76.94
279.81	88.94
280.042	102.94
280.273	76.94
280.505	77.94
280.736	88.94
280.968	105.94
281.199	83.94
281.431	72.94
281.662	75.94
281.894	89.94
282.125	82.94
282.356	82.94
282.588	83.94
282.819	74.94
283.051	100.94
283.282	85.94
283.513	93.94
283.745	92.94
283.976	78.94
284.207	99.94
284.439	85.94
284.67	94.94
284.901	85.94
285.132	81.94
285.364	88.94
285.595	86.94
285.826	92.94
286.057	88.94
286.288	76.94
286.52	86.94
286.751	73.94
286.982	86.94
287.213	83.94
287.444	78.94
287.675	73.94
287.906	72.94
288.138	84.94
288.369	74.94
288.6	78.94
288.831	86.94
289.062	73.94
289.293	80.94
289.524	85.94
289.755	79.94
289.986	87.94
290.217	75.94
290.448	78.94
290.679	82.94
290.91	86.94
291.141	81.94
291.371	81.94
291.602	79.94
291.833	87.94
292.064	80.94
292.295	88.94
292.526	82.94
292.757	80.94
292.987	85.94
293.218	89.94
293.449	96.94
293.68	96.94
293.91	81.94
294.141	85.94
294.372	78.94
294.603	81.94
294.833	100.94
295.064	89.94
295.295	80.94
295.525	63.94
295.756	78.94
295.987	91.94
296.217	97.94
296.448	79.94
296.679	88.94
296.909	88.94
297.14	93.94
297.37	101.94
297.601	91.94
297.831	94.94
298.062	74.94
298.292	65.94
298.523	81.94
298.753	75.94
298.984	69.94
299.214	93.94
299.445	93.94
299.675	76.94
299.905	73.94
300.136	89.94
300.366	88.94
300.597	91.94
300.827	83.94
301.057	88.94
301.288	67.94
301.518	102.94
301.748	92.94
301.979	92.94
302.209	82.94
302.439	91.94
302.669	77.94
302.9	77.94
303.13	91.94
303.36	82.94
303.59	93.94
303.82	78.94
304.051	71.94
304.281	71.94
304.511	86.94
304.741	91.94
304.971	75.94
305.201	86.94
305.431	82.94
305.661	86.94
305.891	84.94
306.121	79.94
306.352	87.94
306.582	90.94
306.812	83.94
307.042	77.94
307.272	100.94
307.502	91.94
307.731	74.94
307.961	91.94
308.191	91.94
308.421	80.94
308.651	85.94
308.881	100.94
309.111	82.94
309.341	83.94
309.571	79.94
309.8	80.94
310.03	84.94
310.26	80.94
310.49	81.94
310.72	81.94
310.949	93.94
311.179	94.94
311.409	91.94
311.639	93.94
311.868	79.94
312.098	84.94
312.328	90.94
312.557	94.94
312.787	84.94
313.017	77.94
313.246	84.94
313.476	96.94
313.706	97.94
313.935	100.94
314.165	92.94
314.394	87.94
314.624	75.94
314.853	82.94
315.083	92.94
315.312	93.94
315.542	88.94
315.771	91.94
316.001	86.94
316.23	91.94
316.46	85.94
316.689	90.94
316.919	82.94
317.148	84.94
317.377	87.94
317.607	74.94
317.836	89.94
318.065	90.94
318.295	75.94
318.524	75.94
318.753	77.94
318.983	96.94
319.212	83.94
319.441	71.94
319.67	99.94
319.9	85.94
320.129	86.94
320.358	93.94
320.587	75.94
320.816	77.94
321.046	82.94
321.275	89.94
321.504	77.94
321.733	89.94
321.962	76.94
322.191	103.94
322.42	92.94
322.649	85.94
322.878	77.94
323.108	95.94
323.337	78.94
323.566	96.94
323.795	82.94
324.024	93.94
324.253	94.94
324.482	89.94
324.71	97.94
324.939	85.94
325.168	80.94
325.397	79.94
325.626	88.94
325.855	95.94
326.084	90.94
326.313	81.94
326.542	83.94
326.77	83.94
326.999	81.94
327.228	86.94
327.457	85.94
327.686	85.94
327.914	84.94
328.143	91.94
328.372	89.94
328.6	95.94
328.829	75.94
329.058	99.94
329.287	88.94
329.515	75.94
329.744	86.94
329.972	84.94
330.201	83.94
330.43	79.94
330.658	93.94
330.887	95.94
331.115	74.94
331.344	75.94
331.572	99.94
331.801	85.94
332.03	84.94
332.258	92.94
332.486	83.94
332.715	82.94
332.943	91.94
333.172	85.94
333.4	76.94
333.629	75.94
333.857	80.94
334.085	95.94
334.314	85.94
334.542	80.94
334.771	93.94
334.999	79.94
335.227	99.94
335.455	83.94
335.684	88.94
335.912	92.94
336.14	90.94
336.369	84.94
336.597	73.94
336.825	91.94
337.053	92.94
337.281	97.94
337.51	88.94
337.738	80.94
337.966	85.94
338.194	80.94
338.422	87.94
338.65	103.94
338.878	88.94
339.106	86.94
339.334	92.94
339.562	82.94
339.79	92.94
340.018	91.94
340.246	78.94
340.474	88.94
340.702	80.94
340.93	104.94
341.158	102.94
341.386	94.94
341.614	83.94
341.842	82.94
342.07	87.94
342.298	83.94
342.526	86.94
342.754	90.94
342.981	75.94
343.209	72.94
343.437	76.94
343.665	89.94
343.893	84.94
344.12	85.94
344.348	73.94
344.576	104.94
344.804	78.94
345.031	70.94
345.259	81.94
345.487	90.94
345.714	91.94
345.942	83.94
346.17	84.94
346.397	86.94
346.625	92.94
346.853	91.94
347.08	91.94
347.308	95.94
347.535	98.94
347.763	87.94
347.99	94.94
348.218	81.94
348.445	88.94
348.673	88.94
348.9	87.94
349.128	95.94
349.355	88.94
349.583	89.94
349.81	83.94
350.037	94.94
350.265	93.94
350.492	84.94
350.72	84.94
350.947	81.94
351.174	76.94
351.402	87.94
351.629	90.94
351.856	86.94
352.083	88.94
352.311	87.94
352.538	70.94
352.765	90.94
352.992	80.94
353.22	85.94
353.447	97.94
353.674	94.94
353.901	92.94
354.128	87.94
354.355	83.94
354.583	81.94
354.81	90.94
355.037	83.94
355.264	79.94
355.491	77.94
355.718	78.94
355.945	85.94
356.172	91.94
356.399	82.94
356.626	93.94
356.853	86.94
357.08	84.94
357.307	83.94
357.534	68.94
357.761	79.94
357.988	92.94
358.215	71.94
358.441	88.94
358.668	82.94
358.895	82.94
359.122	83.94
359.349	80.94
359.576	82.94
359.802	83.94
360.029	81.94
360.256	77.94
360.483	81.94
360.709	80.94
360.936	88.94
361.163	84.94
361.39	88.94
361.616	78.94
361.843	73.94
362.07	97.94
362.296	90.94
362.523	81.94
362.749	98.94
362.976	91.94
363.203	92.94
363.429	91.94
363.656	89.94
363.882	73.94
364.109	83.94
364.335	94.94
364.562	85.94
364.788	94.94
365.015	94.94
365.241	101.94
365.468	80.94
365.694	95.94
365.92	84.94
366.147	104.94
366.373	91.94
366.599	87.94
366.826	90.94
367.052	82.94
367.278	87.94
367.505	95.94
367.731	89.94
367.957	89.94
368.184	100.94
368.41	87.94
368.636	96.94
368.862	92.94
369.089	92.94
369.315	93.94
369.541	81.94
369.767	88.94
369.993	93.94
370.219	86.94
370.445	91.94
370.672	115.94
370.898	92.94
371.124	87.94
371.35	97.94
371.576	88.94
371.802	100.94
372.028	100.94
372.254	90.94
372.48	81.94
372.706	100.94
372.932	83.94
373.158	87.94
373.384	108.94
373.61	96.94
373.835	88.94
374.061	92.94
374.287	90.94
374.513	87.94
374.739	94.94
374.965	96.94
375.191	100.94
375.416	100.94
375.642	90.94
375.868	91.94
376.094	88.94
376.319	105.94
376.545	103.94
376.771	85.94
376.997	90.94
377.222	90.94
377.448	85.94
377.674	92.94
377.899	111.94
378.125	87.94
378.35	94.94
378.576	99.94
378.802	100.94
379.027	92.94
379.253	86.94
379.478	80.94
379.704	93.94
379.929	79.94
380.155	96.94
380.38	94.94
380.606	101.94
380.831	85.94
381.057	104.94
381.282	104.94
381.507	96.94
381.733	100.94
381.958	91.94
382.184	86.94
382.409	79.94
382.634	91.94
382.86	107.94
383.085	102.94
383.31	95.94
383.535	79.94
383.761	89.94
383.986	117.94
384.211	109.94
384.436	101.94
384.662	98.94
384.887	92.94
385.112	96.94
385.337	105.94
385.562	105.94
385.787	87.94
386.013	89.94
386.238	101.94
386.463	88.94
386.688	93.94
386.913	99.94
387.138	85.94
387.363	97.94
387.588	111.94
387.813	87.94
388.038	99.94
388.263	97.94
388.488	107.94
388.713	107.94
388.938	99.94
389.163	111.94
389.387	98.94
389.612	101.94
389.837	100.94
390.062	103.94
390.287	106.94
390.512	119.94
390.736	103.94
390.961	105.94
391.186	103.94
391.411	94.94
391.636	90.94
391.86	118.94
392.085	107.94
392.31	115.94
392.534	98.94
392.759	102.94
392.984	101.94
393.208	95.94
393.433	103.94
393.658	106.94
393.882	97.94
394.107	89.94
394.331	103.94
394.556	112.94
394.78	109.94
395.005	94.94
395.229	103.94
395.454	101.94
395.678	104.94
395.903	101.94
396.127	94.94
396.352	105.94
396.576	111.94
396.801	105.94
397.025	104.94
397.249	111.94
397.474	98.94
397.698	103.94
397.922	110.94
398.147	115.94
398.371	126.94
398.595	110.94
398.82	110.94
399.044	120.94
399.268	107.94
399.492	105.94
399.717	108.94
399.941	95.94
400.165	94.94
400.389	111.94
400.613	109.94
400.837	115.94
401.062	116.94
401.286	115.94
401.51	117.94
401.734	94.94
401.958	112.94
402.182	93.94
402.406	108.94
402.63	104.94
402.854	112.94
403.078	110.94
403.302	118.94
403.526	125.94
403.75	119.94
403.974	100.94
404.198	108.94
404.422	115.94
404.645	109.94
404.869	121.94
405.093	122.94
405.317	108.94
405.541	126.94
405.765	130.94
405.988	120.94
406.212	122.94
406.436	104.94
406.66	115.94
406.883	116.94
407.107	111.94
407.331	129.94
407.555	127.94
407.778	118.94
408.002	92.94
408.226	122.94
408.449	117.94
408.673	137.94
408.896	124.94
409.12	118.94
409.344	119.94
409.567	119.94
409.791	120.94
410.014	134.94
410.238	123.94
410.461	112.94
410.685	120.94
410.908	107.94
411.132	127.94
411.355	107.94
411.578	119.94
411.802	116.94
412.025	125.94
412.249	116.94
412.472	109.94
412.695	114.94
412.919	106.94
413.142	103.94
413.365	118.94
413.589	135.94
413.812	126.94
414.035	133.94
414.258	119.94
414.482	122.94
414.705	105.94
414.928	128.94
415.151	127.94
415.374	108.94
415.597	115.94
415.821	103.94
416.044	126.94
416.267	119.94
416.49	135.94
416.713	126.94
416.936	118.94
417.159	121.94
417.382	117.94
417.605	109.94
417.828	122.94
418.051	127.94
418.274	149.94
418.497	125.94
418.72	125.94
418.943	125.94
419.166	123.94
419.389	125.94
419.611	130.94
419.834	134.94
420.057	142.94
420.28	131.94
420.503	128.94
420.726	129.94
420.948	128.94
421.171	146.94
421.394	122.94
421.617	143.94
421.839	128.94
422.062	120.94
422.285	135.94
422.507	129.94
422.73	125.94
422.953	131.94
423.175	124.94
423.398	144.94
423.621	127.94
423.843	127.94
424.066	132.94
424.288	142.94
424.511	134.94
424.733	134.94
424.956	131.94
425.178	151.94
425.401	155.94
425.623	127.94
425.846	125.94
426.068	128.94
426.291	126.94
426.513	142.94
426.735	129.94
426.958	124.94
427.18	122.94
427.402	113.94
427.625	127.94
427.847	119.94
428.069	135.94
428.292	125.94
428.514	148.94
428.736	127.94
428.958	123.94
429.181	124.94
429.403	121.94
429.625	132.94
429.847	133.94
430.069	119.94
430.292	127.94
430.514	139.94
430.736	118.94
430.958	143.94
431.18	134.94
431.402	125.94
431.624	115.94
431.846	117.94
432.068	108.94
432.29	107.94
432.512	117.94
432.734	119.94
432.956	137.94
433.178	149.94
433.4	134.94
433.622	135.94
433.844	152.94
434.066	130.94
434.287	112.94
434.509	91.94
434.731	106.94
434.953	120.94
435.175	125.94
435.397	112.94
435.618	114.94
435.84	94.94
436.062	121.94
436.284	115.94
436.505	135.94
436.727	117.94
436.949	127.94
437.17	123.94
437.392	122.94
437.614	107.94
437.835	108.94
438.057	117.94
438.278	108.94
438.5	126.94
438.721	119.94
438.943	145.94
439.165	144.94
439.386	135.94
439.608	136.94
439.829	141.94
440.05	134.94
440.272	154.94
440.493	143.94
440.715	137.94
440.936	146.94
441.158	141.94
441.379	151.94
441.6	144.94
441.822	145.94
442.043	145.94
442.264	140.94
442.486	138.94
442.707	138.94
442.928	144.94
443.149	148.94
443.371	137.94
443.592	139.94
443.813	146.94
444.034	145.94
444.255	151.94
444.476	139.94
444.698	160.94
444.919	142.94
445.14	277.94
445.361	203.94
445.582	146.94
445.803	137.94
446.024	138.94
446.245	142.94
446.466	161.94
446.687	150.94
446.908	154.94
447.129	150.94
447.35	152.94
447.571	159.94
447.792	163.94
448.013	149.94
448.234	135.94
448.455	125.94
448.675	133.94
448.896	131.94
449.117	141.94
449.338	149.94
449.559	137.94
449.779	123.94
450	133.94
450.221	133.94
450.442	129.94
450.662	133.94
450.883	130.94
451.104	128.94
451.324	127.94
451.545	129.94
451.766	131.94
451.986	145.94
452.207	122.94
452.428	113.94
452.648	119.94
452.869	123.94
453.089	123.94
453.31	115.94
453.53	106.94
453.751	112.94
453.971	93.94
454.192	100.94
454.412	99.94
454.633	117.94
454.853	119.94
455.073	125.94
455.294	127.94
455.514	125.94
455.734	128.94
455.955	135.94
456.175	105.94
456.395	101.94
456.616	107.94
456.836	100.94
457.056	112.94
457.276	101.94
457.497	113.94
457.717	106.94
457.937	112.94
458.157	117.94
458.377	104.94
458.598	94.94
458.818	99.94
459.038	99.94
459.258	96.94
459.478	91.94
459.698	96.94
459.918	94.94
460.138	102.94
460.358	126.94
460.578	129.94
460.798	123.94
461.018	112.94
461.238	116.94
461.458	131.94
461.678	111.94
461.898	116.94
462.118	123.94
462.338	118.94
462.558	104.94
462.777	112.94
462.997	109.94
463.217	123.94
463.437	115.94
463.657	108.94
463.876	106.94
464.096	101.94
464.316	117.94
464.536	105.94
464.755	117.94
464.975	115.94
465.195	103.94
465.414	123.94
465.634	106.94
465.854	131.94
466.073	123.94
466.293	110.94
466.512	131.94
466.732	131.94
466.951	132.94
467.171	124.94
467.391	133.94
467.61	134.94
467.829	131.94
468.049	125.94
468.268	126.94
468.488	131.94
468.707	131.94
468.927	128.94
469.146	139.94
469.365	131.94
469.585	141.94
469.804	162.94
470.023	144.94
470.243	131.94
470.462	145.94
470.681	140.94
470.901	149.94
471.12	148.94
471.339	128.94
471.558	128.94
471.777	141.94
471.997	141.94
472.216	124.94
472.435	103.94
472.654	112.94
472.873	121.94
473.092	118.94
473.311	115.94
473.53	119.94
473.749	136.94
473.968	139.94
474.187	126.94
474.406	116.94
474.625	124.94
474.844	127.94
475.063	120.94
475.282	135.94
475.501	113.94
475.72	122.94
475.939	122.94
476.158	125.94
476.377	127.94
476.596	116.94
476.814	109.94
477.033	124.94
477.252	116.94
477.471	119.94
477.69	134.94
477.908	141.94
478.127	133.94
478.346	127.94
478.564	142.94
478.783	128.94
479.002	131.94
479.22	132.94
479.439	136.94
479.658	117.94
479.876	103.94
480.095	103.94
480.313	116.94
480.532	133.94
480.751	127.94
480.969	100.94
481.188	89.94
481.406	94.94
481.624	82.94
481.843	99.94
482.061	105.94
482.28	119.94
482.498	115.94
482.717	124.94
482.935	118.94
483.153	140.94
483.372	137.94
483.59	149.94
483.808	130.94
484.027	123.94
484.245	141.94
484.463	143.94
484.681	174.94
484.9	157.94
485.118	139.94
485.336	143.94
485.554	105.94
485.772	97.94
485.99	104.94
486.209	106.94
486.427	113.94
486.645	124.94
486.863	143.94
487.081	145.94
487.299	139.94
487.517	120.94
487.735	165.94
487.953	185.94
488.171	178.94
488.389	157.94
488.607	153.94
488.825	136.94
489.043	139.94
489.261	141.94
489.479	144.94
489.696	140.94
489.914	137.94
490.132	147.94
490.35	163.94
490.568	157.94
490.786	171.94
491.003	172.94
491.221	173.94
491.439	178.94
491.657	173.94
491.874	179.94
492.092	231.94
492.31	234.94
492.527	230.94
492.745	204.94
492.963	189.94
493.18	192.94
493.398	179.94
493.615	165.94
493.833	176.94
494.05	185.94
494.268	163.94
494.485	172.94
494.703	176.94
494.92	177.94
495.138	177.94
495.355	168.94
495.573	153.94
495.79	184.94
496.008	166.94
496.225	166.94
496.442	156.94
496.66	171.94
496.877	164.94
497.094	166.94
497.312	173.94
497.529	163.94
497.746	151.94
497.963	142.94
498.181	124.94
498.398	123.94
498.615	123.94
498.832	105.94
499.049	123.94
499.267	117.94
499.484	104.94
499.701	117.94
499.918	149.94
500.135	137.94
500.352	144.94
500.569	140.94
500.786	142.94
501.003	139.94
501.22	148.94
501.437	145.94
501.654	137.94
501.871	115.94
502.088	141.94
502.305	124.94
502.522	118.94
502.739	133.94
502.956	130.94
503.172	110.94
503.389	126.94
503.606	110.94
503.823	124.94
504.04	121.94
504.256	119.94
504.473	114.94
504.69	131.94
504.907	136.94
505.123	119.94
505.34	121.94
505.557	111.94
505.773	129.94
505.99	117.94
506.207	118.94
506.423	128.94
506.64	113.94
506.856	119.94
507.073	128.94
507.289	126.94
507.506	115.94
507.722	109.94
507.939	115.94
508.155	117.94
508.372	111.94
508.588	112.94
508.805	125.94
509.021	103.94
509.238	103.94
509.454	104.94
509.67	100.94
509.887	97.94
510.103	104.94
510.319	97.94
510.536	97.94
510.752	85.94
510.968	85.94
511.184	79.94
511.401	98.94
