Data from Location1.07152019.Energy5.Lamp.07192019.3%Agarose_HRD10591_14-31-22-015.txt Node
Date: Fri Jul 19 14:31:22 EDT 2019
User: cochatt
Spectrometer: HR+D1059
Trigger mode: 1
Integration Time (sec): 1.000000E-1
Scans to average: 1
Electric dark correction enabled: true
Nonlinearity correction enabled: false
Boxcar width: 0
XAxis mode: Wavelengths
Number of Pixels in Spectrum: 2048
>>>>>Begin Spectral Data<<<<<
223.165	-15.69
223.4	-15.69
223.635	-15.69
223.869	-34.69
224.104	-19.69
224.338	-15.69
224.573	-17.69
224.808	-9.69
225.042	-16.69
225.277	-14.69
225.511	-12.69
225.746	14.31
225.98	3.31
226.215	35.31
226.449	26.31
226.683	27.31
226.918	21.31
227.152	29.31
227.387	25.31
227.621	26.31
227.856	44.31
228.09	41.31
228.324	47.31
228.559	49.31
228.793	57.31
229.027	53.31
229.262	55.31
229.496	60.31
229.73	69.31
229.964	67.31
230.199	78.31
230.433	78.31
230.667	71.31
230.901	74.31
231.136	77.31
231.37	81.31
231.604	89.31
231.838	84.31
232.072	81.31
232.306	80.31
232.541	83.31
232.775	86.31
233.009	78.31
233.243	71.31
233.477	94.31
233.711	75.31
233.945	74.31
234.179	85.31
234.413	89.31
234.647	75.31
234.881	90.31
235.115	78.31
235.349	85.31
235.583	79.31
235.817	81.31
236.051	73.31
236.285	84.31
236.519	76.31
236.753	72.31
236.987	65.31
237.221	79.31
237.455	78.31
237.689	79.31
237.922	75.31
238.156	76.31
238.39	79.31
238.624	86.31
238.858	74.31
239.091	73.31
239.325	72.31
239.559	68.31
239.793	79.31
240.027	77.31
240.26	72.31
240.494	83.31
240.728	71.31
240.961	75.31
241.195	78.31
241.429	72.31
241.662	57.31
241.896	77.31
242.13	67.31
242.363	76.31
242.597	88.31
242.83	88.31
243.064	85.31
243.298	81.31
243.531	84.31
243.765	60.31
243.998	84.31
244.232	63.31
244.465	91.31
244.699	79.31
244.932	85.31
245.166	73.31
245.399	74.31
245.633	93.31
245.866	67.31
246.099	79.31
246.333	88.31
246.566	78.31
246.8	87.31
247.033	65.31
247.266	73.31
247.5	68.31
247.733	76.31
247.966	74.31
248.2	79.31
248.433	87.31
248.666	69.31
248.899	63.31
249.133	80.31
249.366	93.31
249.599	86.31
249.832	81.31
250.066	89.31
250.299	78.31
250.532	82.31
250.765	83.31
250.998	59.31
251.231	82.31
251.465	73.31
251.698	78.31
251.931	67.31
252.164	86.31
252.397	88.31
252.63	84.31
252.863	75.31
253.096	81.31
253.329	72.31
253.562	85.31
253.795	87.31
254.028	92.31
254.261	85.31
254.494	81.31
254.727	73.31
254.96	85.31
255.193	82.31
255.426	77.31
255.659	73.31
255.892	78.31
256.124	67.31
256.357	75.31
256.59	82.31
256.823	81.31
257.056	73.31
257.289	73.31
257.521	88.31
257.754	97.31
257.987	70.31
258.22	82.31
258.452	78.31
258.685	82.31
258.918	83.31
259.151	90.31
259.383	82.31
259.616	80.31
259.849	83.31
260.081	75.31
260.314	76.31
260.547	83.31
260.779	70.31
261.012	72.31
261.244	79.31
261.477	76.31
261.71	72.31
261.942	77.31
262.175	82.31
262.407	75.31
262.64	89.31
262.872	75.31
263.105	88.31
263.337	74.31
263.57	75.31
263.802	77.31
264.035	76.31
264.267	69.31
264.499	67.31
264.732	78.31
264.964	85.31
265.197	82.31
265.429	87.31
265.661	74.31
265.894	74.31
266.126	84.31
266.358	86.31
266.591	89.31
266.823	80.31
267.055	79.31
267.287	91.31
267.52	79.31
267.752	87.31
267.984	64.31
268.216	67.31
268.448	86.31
268.681	87.31
268.913	78.31
269.145	84.31
269.377	82.31
269.609	69.31
269.841	89.31
270.073	75.31
270.306	77.31
270.538	76.31
270.77	86.31
271.002	78.31
271.234	84.31
271.466	79.31
271.698	74.31
271.93	66.31
272.162	80.31
272.394	73.31
272.626	85.31
272.858	88.31
273.09	81.31
273.322	85.31
273.553	66.31
273.785	75.31
274.017	84.31
274.249	77.31
274.481	89.31
274.713	65.31
274.945	74.31
275.176	78.31
275.408	94.31
275.64	84.31
275.872	75.31
276.104	72.31
276.335	83.31
276.567	93.31
276.799	69.31
277.031	65.31
277.262	68.31
277.494	85.31
277.726	82.31
277.957	72.31
278.189	80.31
278.421	80.31
278.652	81.31
278.884	79.31
279.115	76.31
279.347	78.31
279.579	84.31
279.81	72.31
280.042	84.31
280.273	79.31
280.505	83.31
280.736	84.31
280.968	87.31
281.199	83.31
281.431	69.31
281.662	88.31
281.894	82.31
282.125	92.31
282.356	82.31
282.588	83.31
282.819	92.31
283.051	86.31
283.282	86.31
283.513	83.31
283.745	76.31
283.976	93.31
284.207	85.31
284.439	78.31
284.67	80.31
284.901	85.31
285.132	88.31
285.364	93.31
285.595	85.31
285.826	83.31
286.057	79.31
286.288	86.31
286.52	87.31
286.751	78.31
286.982	95.31
287.213	100.31
287.444	77.31
287.675	87.31
287.906	86.31
288.138	77.31
288.369	93.31
288.6	89.31
288.831	77.31
289.062	93.31
289.293	80.31
289.524	88.31
289.755	100.31
289.986	76.31
290.217	97.31
290.448	95.31
290.679	78.31
290.91	88.31
291.141	87.31
291.371	83.31
291.602	83.31
291.833	78.31
292.064	76.31
292.295	80.31
292.526	71.31
292.757	79.31
292.987	82.31
293.218	84.31
293.449	87.31
293.68	86.31
293.91	88.31
294.141	78.31
294.372	83.31
294.603	97.31
294.833	74.31
295.064	77.31
295.295	72.31
295.525	87.31
295.756	87.31
295.987	74.31
296.217	87.31
296.448	74.31
296.679	96.31
296.909	94.31
297.14	88.31
297.37	83.31
297.601	84.31
297.831	79.31
298.062	80.31
298.292	84.31
298.523	89.31
298.753	85.31
298.984	78.31
299.214	78.31
299.445	98.31
299.675	98.31
299.905	84.31
300.136	80.31
300.366	88.31
300.597	103.31
300.827	82.31
301.057	89.31
301.288	91.31
301.518	75.31
301.748	80.31
301.979	66.31
302.209	88.31
302.439	72.31
302.669	87.31
302.9	85.31
303.13	90.31
303.36	92.31
303.59	103.31
303.82	79.31
304.051	79.31
304.281	76.31
304.511	87.31
304.741	83.31
304.971	78.31
305.201	78.31
305.431	77.31
305.661	95.31
305.891	95.31
306.121	95.31
306.352	87.31
306.582	95.31
306.812	94.31
307.042	91.31
307.272	86.31
307.502	84.31
307.731	87.31
307.961	78.31
308.191	93.31
308.421	103.31
308.651	85.31
308.881	81.31
309.111	78.31
309.341	88.31
309.571	79.31
309.8	84.31
310.03	87.31
310.26	75.31
310.49	92.31
310.72	71.31
310.949	86.31
311.179	89.31
311.409	78.31
311.639	89.31
311.868	84.31
312.098	90.31
312.328	75.31
312.557	90.31
312.787	83.31
313.017	97.31
313.246	92.31
313.476	82.31
313.706	83.31
313.935	82.31
314.165	97.31
314.394	82.31
314.624	89.31
314.853	90.31
315.083	82.31
315.312	82.31
315.542	85.31
315.771	82.31
316.001	86.31
316.23	97.31
316.46	92.31
316.689	85.31
316.919	97.31
317.148	82.31
317.377	94.31
317.607	76.31
317.836	75.31
318.065	74.31
318.295	89.31
318.524	93.31
318.753	83.31
318.983	63.31
319.212	99.31
319.441	99.31
319.67	98.31
319.9	89.31
320.129	85.31
320.358	92.31
320.587	93.31
320.816	90.31
321.046	78.31
321.275	92.31
321.504	80.31
321.733	82.31
321.962	85.31
322.191	86.31
322.42	84.31
322.649	77.31
322.878	96.31
323.108	74.31
323.337	85.31
323.566	89.31
323.795	99.31
324.024	91.31
324.253	99.31
324.482	94.31
324.71	94.31
324.939	92.31
325.168	91.31
325.397	86.31
325.626	85.31
325.855	59.31
326.084	75.31
326.313	90.31
326.542	81.31
326.77	83.31
326.999	95.31
327.228	83.31
327.457	85.31
327.686	93.31
327.914	92.31
328.143	94.31
328.372	90.31
328.6	75.31
328.829	83.31
329.058	79.31
329.287	92.31
329.515	69.31
329.744	74.31
329.972	79.31
330.201	89.31
330.43	83.31
330.658	91.31
330.887	101.31
331.115	85.31
331.344	78.31
331.572	76.31
331.801	87.31
332.03	86.31
332.258	82.31
332.486	93.31
332.715	85.31
332.943	87.31
333.172	85.31
333.4	85.31
333.629	87.31
333.857	75.31
334.085	78.31
334.314	91.31
334.542	89.31
334.771	92.31
334.999	75.31
335.227	70.31
335.455	83.31
335.684	78.31
335.912	81.31
336.14	59.31
336.369	76.31
336.597	87.31
336.825	86.31
337.053	99.31
337.281	88.31
337.51	86.31
337.738	84.31
337.966	90.31
338.194	75.31
338.422	82.31
338.65	75.31
338.878	89.31
339.106	80.31
339.334	93.31
339.562	88.31
339.79	90.31
340.018	82.31
340.246	92.31
340.474	79.31
340.702	78.31
340.93	72.31
341.158	97.31
341.386	93.31
341.614	94.31
341.842	92.31
342.07	81.31
342.298	83.31
342.526	89.31
342.754	80.31
342.981	89.31
343.209	83.31
343.437	90.31
343.665	88.31
343.893	83.31
344.12	96.31
344.348	92.31
344.576	82.31
344.804	89.31
345.031	84.31
345.259	80.31
345.487	85.31
345.714	87.31
345.942	93.31
346.17	82.31
346.397	78.31
346.625	78.31
346.853	91.31
347.08	75.31
347.308	84.31
347.535	83.31
347.763	91.31
347.99	94.31
348.218	75.31
348.445	69.31
348.673	91.31
348.9	98.31
349.128	101.31
349.355	83.31
349.583	83.31
349.81	90.31
350.037	99.31
350.265	98.31
350.492	96.31
350.72	78.31
350.947	87.31
351.174	91.31
351.402	86.31
351.629	84.31
351.856	89.31
352.083	94.31
352.311	90.31
352.538	89.31
352.765	88.31
352.992	102.31
353.22	104.31
353.447	89.31
353.674	82.31
353.901	93.31
354.128	86.31
354.355	84.31
354.583	84.31
354.81	78.31
355.037	81.31
355.264	78.31
355.491	91.31
355.718	79.31
355.945	88.31
356.172	83.31
356.399	84.31
356.626	96.31
356.853	76.31
357.08	86.31
357.307	86.31
357.534	82.31
357.761	89.31
357.988	97.31
358.215	92.31
358.441	66.31
358.668	79.31
358.895	85.31
359.122	94.31
359.349	88.31
359.576	83.31
359.802	68.31
360.029	94.31
360.256	93.31
360.483	84.31
360.709	85.31
360.936	97.31
361.163	94.31
361.39	95.31
361.616	76.31
361.843	84.31
362.07	80.31
362.296	72.31
362.523	76.31
362.749	78.31
362.976	93.31
363.203	85.31
363.429	85.31
363.656	87.31
363.882	74.31
364.109	94.31
364.335	86.31
364.562	86.31
364.788	78.31
365.015	83.31
365.241	98.31
365.468	101.31
365.694	78.31
365.92	79.31
366.147	76.31
366.373	85.31
366.599	83.31
366.826	85.31
367.052	85.31
367.278	89.31
367.505	76.31
367.731	83.31
367.957	92.31
368.184	89.31
368.41	95.31
368.636	90.31
368.862	82.31
369.089	99.31
369.315	102.31
369.541	88.31
369.767	85.31
369.993	102.31
370.219	75.31
370.445	91.31
370.672	86.31
370.898	99.31
371.124	89.31
371.35	98.31
371.576	90.31
371.802	90.31
372.028	82.31
372.254	98.31
372.48	98.31
372.706	82.31
372.932	87.31
373.158	84.31
373.384	100.31
373.61	95.31
373.835	85.31
374.061	97.31
374.287	87.31
374.513	98.31
374.739	92.31
374.965	88.31
375.191	95.31
375.416	93.31
375.642	83.31
375.868	95.31
376.094	100.31
376.319	97.31
376.545	81.31
376.771	97.31
376.997	76.31
377.222	100.31
377.448	98.31
377.674	97.31
377.899	92.31
378.125	84.31
378.35	84.31
378.576	101.31
378.802	89.31
379.027	88.31
379.253	80.31
379.478	87.31
379.704	95.31
379.929	109.31
380.155	83.31
380.38	86.31
380.606	97.31
380.831	96.31
381.057	94.31
381.282	93.31
381.507	96.31
381.733	91.31
381.958	102.31
382.184	101.31
382.409	100.31
382.634	97.31
382.86	92.31
383.085	92.31
383.31	107.31
383.535	89.31
383.761	92.31
383.986	92.31
384.211	89.31
384.436	102.31
384.662	95.31
384.887	101.31
385.112	83.31
385.337	91.31
385.562	87.31
385.787	92.31
386.013	98.31
386.238	95.31
386.463	101.31
386.688	103.31
386.913	97.31
387.138	87.31
387.363	102.31
387.588	104.31
387.813	100.31
388.038	99.31
388.263	108.31
388.488	104.31
388.713	103.31
388.938	106.31
389.163	98.31
389.387	113.31
389.612	113.31
389.837	99.31
390.062	103.31
390.287	102.31
390.512	118.31
390.736	100.31
390.961	96.31
391.186	110.31
391.411	97.31
391.636	105.31
391.86	93.31
392.085	97.31
392.31	107.31
392.534	99.31
392.759	110.31
392.984	109.31
393.208	118.31
393.433	113.31
393.658	97.31
393.882	96.31
394.107	111.31
394.331	108.31
394.556	105.31
394.78	90.31
395.005	110.31
395.229	114.31
395.454	101.31
395.678	95.31
395.903	106.31
396.127	108.31
396.352	106.31
396.576	94.31
396.801	102.31
397.025	104.31
397.249	98.31
397.474	109.31
397.698	109.31
397.922	115.31
398.147	116.31
398.371	108.31
398.595	103.31
398.82	93.31
399.044	98.31
399.268	122.31
399.492	119.31
399.717	114.31
399.941	109.31
400.165	107.31
400.389	111.31
400.613	115.31
400.837	123.31
401.062	106.31
401.286	113.31
401.51	97.31
401.734	119.31
401.958	110.31
402.182	118.31
402.406	111.31
402.63	107.31
402.854	109.31
403.078	115.31
403.302	116.31
403.526	113.31
403.75	106.31
403.974	105.31
404.198	111.31
404.422	118.31
404.645	123.31
404.869	99.31
405.093	108.31
405.317	120.31
405.541	120.31
405.765	119.31
405.988	117.31
406.212	111.31
406.436	123.31
406.66	121.31
406.883	120.31
407.107	110.31
407.331	118.31
407.555	98.31
407.778	119.31
408.002	109.31
408.226	120.31
408.449	129.31
408.673	108.31
408.896	132.31
409.12	99.31
409.344	118.31
409.567	93.31
409.791	123.31
410.014	122.31
410.238	126.31
410.461	108.31
410.685	116.31
410.908	119.31
411.132	110.31
411.355	105.31
411.578	111.31
411.802	115.31
412.025	101.31
412.249	107.31
412.472	112.31
412.695	123.31
412.919	126.31
413.142	131.31
413.365	131.31
413.589	124.31
413.812	125.31
414.035	118.31
414.258	99.31
414.482	123.31
414.705	130.31
414.928	127.31
415.151	126.31
415.374	124.31
415.597	121.31
415.821	116.31
416.044	130.31
416.267	131.31
416.49	118.31
416.713	118.31
416.936	116.31
417.159	134.31
417.382	130.31
417.605	119.31
417.828	118.31
418.051	122.31
418.274	124.31
418.497	141.31
418.72	120.31
418.943	132.31
419.166	125.31
419.389	150.31
419.611	141.31
419.834	147.31
420.057	131.31
420.28	131.31
420.503	131.31
420.726	130.31
420.948	138.31
421.171	135.31
421.394	125.31
421.617	147.31
421.839	128.31
422.062	130.31
422.285	135.31
422.507	137.31
422.73	133.31
422.953	117.31
423.175	125.31
423.398	110.31
423.621	137.31
423.843	143.31
424.066	135.31
424.288	143.31
424.511	127.31
424.733	144.31
424.956	137.31
425.178	148.31
425.401	118.31
425.623	137.31
425.846	129.31
426.068	134.31
426.291	131.31
426.513	129.31
426.735	118.31
426.958	138.31
427.18	126.31
427.402	127.31
427.625	133.31
427.847	124.31
428.069	128.31
428.292	145.31
428.514	126.31
428.736	129.31
428.958	132.31
429.181	135.31
429.403	130.31
429.625	129.31
429.847	120.31
430.069	139.31
430.292	135.31
430.514	136.31
430.736	97.31
430.958	122.31
431.18	142.31
431.402	127.31
431.624	121.31
431.846	113.31
432.068	90.31
432.29	101.31
432.512	108.31
432.734	121.31
432.956	121.31
433.178	134.31
433.4	113.31
433.622	127.31
433.844	137.31
434.066	128.31
434.287	120.31
434.509	90.31
434.731	96.31
434.953	107.31
435.175	120.31
435.397	133.31
435.618	129.31
435.84	114.31
436.062	115.31
436.284	122.31
436.505	121.31
436.727	129.31
436.949	119.31
437.17	121.31
437.392	125.31
437.614	129.31
437.835	110.31
438.057	86.31
438.278	110.31
438.5	122.31
438.721	122.31
438.943	149.31
439.165	139.31
439.386	144.31
439.608	151.31
439.829	143.31
440.05	125.31
440.272	125.31
440.493	149.31
440.715	138.31
440.936	139.31
441.158	135.31
441.379	138.31
441.6	132.31
441.822	138.31
442.043	146.31
442.264	134.31
442.486	129.31
442.707	141.31
442.928	123.31
443.149	129.31
443.371	137.31
443.592	145.31
443.813	142.31
444.034	127.31
444.255	142.31
444.476	120.31
444.698	134.31
444.919	139.31
445.14	256.31
445.361	201.31
445.582	135.31
445.803	140.31
446.024	139.31
446.245	149.31
446.466	155.31
446.687	153.31
446.908	151.31
447.129	137.31
447.35	141.31
447.571	142.31
447.792	142.31
448.013	136.31
448.234	145.31
448.455	150.31
448.675	144.31
448.896	157.31
449.117	139.31
449.338	127.31
449.559	139.31
449.779	129.31
450	141.31
450.221	131.31
450.442	146.31
450.662	134.31
450.883	123.31
451.104	136.31
451.324	123.31
451.545	142.31
451.766	129.31
451.986	121.31
452.207	113.31
452.428	132.31
452.648	135.31
452.869	107.31
453.089	114.31
453.31	97.31
453.53	113.31
453.751	111.31
453.971	92.31
454.192	94.31
454.412	99.31
454.633	114.31
454.853	124.31
455.073	119.31
455.294	115.31
455.514	126.31
455.734	108.31
455.955	107.31
456.175	105.31
456.395	122.31
456.616	99.31
456.836	113.31
457.056	98.31
457.276	99.31
457.497	100.31
457.717	107.31
457.937	106.31
458.157	104.31
458.377	105.31
458.598	95.31
458.818	95.31
459.038	87.31
459.258	89.31
459.478	84.31
459.698	89.31
459.918	93.31
460.138	83.31
460.358	110.31
460.578	119.31
460.798	126.31
461.018	116.31
461.238	108.31
461.458	103.31
461.678	104.31
461.898	104.31
462.118	124.31
462.338	111.31
462.558	115.31
462.777	97.31
462.997	115.31
463.217	100.31
463.437	92.31
463.657	92.31
463.876	113.31
464.096	107.31
464.316	113.31
464.536	119.31
464.755	130.31
464.975	115.31
465.195	110.31
465.414	133.31
465.634	93.31
465.854	113.31
466.073	120.31
466.293	122.31
466.512	135.31
466.732	106.31
466.951	125.31
467.171	125.31
467.391	140.31
467.61	141.31
467.829	129.31
468.049	133.31
468.268	133.31
468.488	133.31
468.707	138.31
468.927	129.31
469.146	132.31
469.365	137.31
469.585	146.31
469.804	141.31
470.023	137.31
470.243	158.31
470.462	128.31
470.681	126.31
470.901	125.31
471.12	141.31
471.339	139.31
471.558	134.31
471.777	129.31
471.997	146.31
472.216	131.31
472.435	102.31
472.654	100.31
472.873	113.31
473.092	107.31
473.311	124.31
473.53	123.31
473.749	145.31
473.968	129.31
474.187	108.31
474.406	114.31
474.625	133.31
474.844	131.31
475.063	121.31
475.282	128.31
475.501	123.31
475.72	126.31
475.939	135.31
476.158	139.31
476.377	126.31
476.596	123.31
476.814	111.31
477.033	90.31
477.252	124.31
477.471	115.31
477.69	138.31
477.908	131.31
478.127	128.31
478.346	134.31
478.564	137.31
478.783	126.31
479.002	142.31
479.22	122.31
479.439	127.31
479.658	120.31
479.876	117.31
480.095	113.31
480.313	118.31
480.532	130.31
480.751	118.31
480.969	98.31
481.188	100.31
481.406	97.31
481.624	70.31
481.843	90.31
482.061	107.31
482.28	115.31
482.498	124.31
482.717	110.31
482.935	100.31
483.153	136.31
483.372	165.31
483.59	147.31
483.808	143.31
484.027	124.31
484.245	128.31
484.463	136.31
484.681	139.31
484.9	141.31
485.118	158.31
485.336	130.31
485.554	110.31
485.772	98.31
485.99	89.31
486.209	103.31
486.427	112.31
486.645	113.31
486.863	129.31
487.081	142.31
487.299	145.31
487.517	135.31
487.735	171.31
487.953	184.31
488.171	185.31
488.389	168.31
488.607	161.31
488.825	127.31
489.043	133.31
489.261	129.31
489.479	141.31
489.696	135.31
489.914	150.31
490.132	147.31
490.35	138.31
490.568	157.31
490.786	161.31
491.003	177.31
491.221	182.31
491.439	202.31
491.657	187.31
491.874	201.31
492.092	232.31
492.31	249.31
492.527	243.31
492.745	211.31
492.963	182.31
493.18	179.31
493.398	172.31
493.615	174.31
493.833	186.31
494.05	177.31
494.268	166.31
494.485	171.31
494.703	170.31
494.92	165.31
495.138	153.31
495.355	170.31
495.573	152.31
495.79	147.31
496.008	168.31
496.225	167.31
496.442	161.31
496.66	165.31
496.877	162.31
497.094	170.31
497.312	153.31
497.529	161.31
497.746	152.31
497.963	138.31
498.181	138.31
498.398	114.31
498.615	129.31
498.832	103.31
499.049	109.31
499.267	120.31
499.484	134.31
499.701	118.31
499.918	129.31
500.135	119.31
500.352	152.31
500.569	141.31
500.786	137.31
501.003	140.31
501.22	147.31
501.437	139.31
501.654	131.31
501.871	142.31
502.088	127.31
502.305	130.31
502.522	124.31
502.739	134.31
502.956	126.31
503.172	137.31
503.389	119.31
503.606	115.31
503.823	118.31
504.04	104.31
504.256	121.31
504.473	119.31
504.69	111.31
504.907	119.31
505.123	101.31
505.34	120.31
505.557	108.31
505.773	119.31
505.99	108.31
506.207	104.31
506.423	116.31
506.64	127.31
506.856	109.31
507.073	131.31
507.289	117.31
507.506	115.31
507.722	111.31
507.939	108.31
508.155	114.31
508.372	101.31
508.588	109.31
508.805	108.31
509.021	117.31
509.238	117.31
509.454	89.31
509.67	91.31
509.887	92.31
510.103	108.31
510.319	98.31
510.536	77.31
510.752	90.31
510.968	86.31
511.184	90.31
511.401	79.31
511.617	95.31
511.833	96.31
