Data from Location1.07152019.Energy5.Lamp.07192019.3%Agarose_HRD10591_14-31-51-016.txt Node
Date: Fri Jul 19 14:31:51 EDT 2019
User: cochatt
Spectrometer: HR+D1059
Trigger mode: 1
Integration Time (sec): 1.000000E-1
Scans to average: 1
Electric dark correction enabled: true
Nonlinearity correction enabled: false
Boxcar width: 0
XAxis mode: Wavelengths
Number of Pixels in Spectrum: 2048
>>>>>Begin Spectral Data<<<<<
223.165	-30.25
223.4	-30.25
223.635	-30.25
223.869	-14.25
224.104	-13.25
224.338	-18.25
224.573	-4.25
224.808	-14.25
225.042	-13.25
225.277	-9.25
225.511	6.75
225.746	7.75
225.98	0.75
226.215	11.75
226.449	21.75
226.683	21.75
226.918	21.75
227.152	24.75
227.387	35.75
227.621	24.75
227.856	57.75
228.09	37.75
228.324	53.75
228.559	56.75
228.793	61.75
229.027	64.75
229.262	65.75
229.496	70.75
229.73	71.75
229.964	54.75
230.199	74.75
230.433	58.75
230.667	63.75
230.901	86.75
231.136	83.75
231.37	86.75
231.604	87.75
231.838	69.75
232.072	68.75
232.306	89.75
232.541	90.75
232.775	80.75
233.009	94.75
233.243	79.75
233.477	75.75
233.711	79.75
233.945	74.75
234.179	79.75
234.413	90.75
234.647	72.75
234.881	74.75
235.115	91.75
235.349	80.75
235.583	85.75
235.817	86.75
236.051	79.75
236.285	67.75
236.519	81.75
236.753	87.75
236.987	97.75
237.221	81.75
237.455	69.75
237.689	70.75
237.922	81.75
238.156	69.75
238.39	90.75
238.624	86.75
238.858	71.75
239.091	73.75
239.325	78.75
239.559	78.75
239.793	82.75
240.027	92.75
240.26	80.75
240.494	78.75
240.728	77.75
240.961	70.75
241.195	77.75
241.429	68.75
241.662	62.75
241.896	75.75
242.13	66.75
242.363	77.75
242.597	74.75
242.83	75.75
243.064	85.75
243.298	82.75
243.531	76.75
243.765	74.75
243.998	81.75
244.232	77.75
244.465	69.75
244.699	75.75
244.932	75.75
245.166	76.75
245.399	68.75
245.633	73.75
245.866	89.75
246.099	93.75
246.333	71.75
246.566	83.75
246.8	81.75
247.033	76.75
247.266	84.75
247.5	88.75
247.733	76.75
247.966	92.75
248.2	55.75
248.433	69.75
248.666	86.75
248.899	79.75
249.133	88.75
249.366	91.75
249.599	74.75
249.832	75.75
250.066	93.75
250.299	76.75
250.532	72.75
250.765	81.75
250.998	82.75
251.231	79.75
251.465	70.75
251.698	83.75
251.931	86.75
252.164	73.75
252.397	81.75
252.63	81.75
252.863	85.75
253.096	78.75
253.329	70.75
253.562	86.75
253.795	86.75
254.028	74.75
254.261	71.75
254.494	94.75
254.727	78.75
254.96	75.75
255.193	77.75
255.426	72.75
255.659	75.75
255.892	91.75
256.124	96.75
256.357	87.75
256.59	87.75
256.823	70.75
257.056	90.75
257.289	83.75
257.521	91.75
257.754	77.75
257.987	87.75
258.22	86.75
258.452	71.75
258.685	76.75
258.918	75.75
259.151	83.75
259.383	84.75
259.616	62.75
259.849	73.75
260.081	83.75
260.314	78.75
260.547	93.75
260.779	81.75
261.012	80.75
261.244	65.75
261.477	95.75
261.71	82.75
261.942	73.75
262.175	87.75
262.407	80.75
262.64	83.75
262.872	78.75
263.105	83.75
263.337	79.75
263.57	88.75
263.802	84.75
264.035	75.75
264.267	87.75
264.499	88.75
264.732	82.75
264.964	89.75
265.197	81.75
265.429	66.75
265.661	90.75
265.894	82.75
266.126	77.75
266.358	73.75
266.591	78.75
266.823	89.75
267.055	82.75
267.287	86.75
267.52	76.75
267.752	83.75
267.984	78.75
268.216	93.75
268.448	79.75
268.681	81.75
268.913	78.75
269.145	78.75
269.377	78.75
269.609	73.75
269.841	86.75
270.073	83.75
270.306	76.75
270.538	67.75
270.77	86.75
271.002	80.75
271.234	85.75
271.466	75.75
271.698	82.75
271.93	83.75
272.162	71.75
272.394	78.75
272.626	67.75
272.858	83.75
273.09	76.75
273.322	91.75
273.553	55.75
273.785	75.75
274.017	71.75
274.249	83.75
274.481	77.75
274.713	78.75
274.945	84.75
275.176	95.75
275.408	85.75
275.64	77.75
275.872	66.75
276.104	63.75
276.335	91.75
276.567	101.75
276.799	87.75
277.031	79.75
277.262	84.75
277.494	83.75
277.726	81.75
277.957	74.75
278.189	91.75
278.421	93.75
278.652	79.75
278.884	85.75
279.115	82.75
279.347	77.75
279.579	78.75
279.81	86.75
280.042	98.75
280.273	77.75
280.505	95.75
280.736	79.75
280.968	83.75
281.199	88.75
281.431	93.75
281.662	81.75
281.894	76.75
282.125	89.75
282.356	86.75
282.588	83.75
282.819	80.75
283.051	71.75
283.282	93.75
283.513	102.75
283.745	87.75
283.976	96.75
284.207	86.75
284.439	78.75
284.67	82.75
284.901	88.75
285.132	78.75
285.364	83.75
285.595	62.75
285.826	61.75
286.057	77.75
286.288	90.75
286.52	95.75
286.751	72.75
286.982	82.75
287.213	74.75
287.444	82.75
287.675	66.75
287.906	89.75
288.138	82.75
288.369	84.75
288.6	80.75
288.831	72.75
289.062	90.75
289.293	83.75
289.524	83.75
289.755	76.75
289.986	82.75
290.217	88.75
290.448	70.75
290.679	83.75
290.91	75.75
291.141	86.75
291.371	83.75
291.602	79.75
291.833	87.75
292.064	81.75
292.295	88.75
292.526	92.75
292.757	86.75
292.987	83.75
293.218	86.75
293.449	88.75
293.68	89.75
293.91	99.75
294.141	81.75
294.372	87.75
294.603	89.75
294.833	97.75
295.064	77.75
295.295	81.75
295.525	90.75
295.756	85.75
295.987	82.75
296.217	67.75
296.448	82.75
296.679	84.75
296.909	82.75
297.14	82.75
297.37	91.75
297.601	83.75
297.831	92.75
298.062	93.75
298.292	88.75
298.523	87.75
298.753	67.75
298.984	73.75
299.214	76.75
299.445	97.75
299.675	85.75
299.905	106.75
300.136	77.75
300.366	92.75
300.597	76.75
300.827	85.75
301.057	82.75
301.288	75.75
301.518	85.75
301.748	98.75
301.979	86.75
302.209	81.75
302.439	84.75
302.669	80.75
302.9	86.75
303.13	79.75
303.36	89.75
303.59	80.75
303.82	85.75
304.051	102.75
304.281	74.75
304.511	82.75
304.741	75.75
304.971	83.75
305.201	78.75
305.431	82.75
305.661	83.75
305.891	92.75
306.121	83.75
306.352	81.75
306.582	90.75
306.812	89.75
307.042	91.75
307.272	70.75
307.502	73.75
307.731	81.75
307.961	73.75
308.191	83.75
308.421	94.75
308.651	79.75
308.881	88.75
309.111	86.75
309.341	91.75
309.571	77.75
309.8	77.75
310.03	93.75
310.26	101.75
310.49	88.75
310.72	80.75
310.949	87.75
311.179	74.75
311.409	87.75
311.639	89.75
311.868	90.75
312.098	77.75
312.328	75.75
312.557	83.75
312.787	84.75
313.017	92.75
313.246	82.75
313.476	88.75
313.706	89.75
313.935	80.75
314.165	74.75
314.394	81.75
314.624	75.75
314.853	82.75
315.083	71.75
315.312	85.75
315.542	92.75
315.771	79.75
316.001	73.75
316.23	71.75
316.46	77.75
316.689	90.75
316.919	82.75
317.148	88.75
317.377	77.75
317.607	71.75
317.836	80.75
318.065	83.75
318.295	87.75
318.524	82.75
318.753	87.75
318.983	77.75
319.212	85.75
319.441	92.75
319.67	73.75
319.9	88.75
320.129	84.75
320.358	76.75
320.587	86.75
320.816	89.75
321.046	76.75
321.275	88.75
321.504	73.75
321.733	81.75
321.962	79.75
322.191	97.75
322.42	78.75
322.649	91.75
322.878	92.75
323.108	83.75
323.337	91.75
323.566	77.75
323.795	85.75
324.024	87.75
324.253	75.75
324.482	78.75
324.71	92.75
324.939	92.75
325.168	77.75
325.397	77.75
325.626	80.75
325.855	81.75
326.084	80.75
326.313	90.75
326.542	85.75
326.77	81.75
326.999	84.75
327.228	96.75
327.457	93.75
327.686	91.75
327.914	88.75
328.143	92.75
328.372	85.75
328.6	84.75
328.829	82.75
329.058	66.75
329.287	77.75
329.515	83.75
329.744	77.75
329.972	90.75
330.201	78.75
330.43	89.75
330.658	71.75
330.887	82.75
331.115	75.75
331.344	85.75
331.572	92.75
331.801	74.75
332.03	75.75
332.258	83.75
332.486	82.75
332.715	83.75
332.943	77.75
333.172	85.75
333.4	92.75
333.629	84.75
333.857	78.75
334.085	89.75
334.314	83.75
334.542	99.75
334.771	79.75
334.999	82.75
335.227	94.75
335.455	73.75
335.684	89.75
335.912	83.75
336.14	86.75
336.369	80.75
336.597	86.75
336.825	74.75
337.053	70.75
337.281	76.75
337.51	80.75
337.738	85.75
337.966	80.75
338.194	75.75
338.422	88.75
338.65	76.75
338.878	76.75
339.106	79.75
339.334	90.75
339.562	83.75
339.79	86.75
340.018	79.75
340.246	86.75
340.474	91.75
340.702	72.75
340.93	81.75
341.158	83.75
341.386	76.75
341.614	90.75
341.842	81.75
342.07	82.75
342.298	91.75
342.526	81.75
342.754	83.75
342.981	90.75
343.209	85.75
343.437	92.75
343.665	89.75
343.893	73.75
344.12	88.75
344.348	85.75
344.576	75.75
344.804	75.75
345.031	97.75
345.259	82.75
345.487	73.75
345.714	86.75
345.942	63.75
346.17	86.75
346.397	81.75
346.625	88.75
346.853	78.75
347.08	75.75
347.308	87.75
347.535	81.75
347.763	85.75
347.99	93.75
348.218	94.75
348.445	76.75
348.673	89.75
348.9	84.75
349.128	82.75
349.355	78.75
349.583	83.75
349.81	79.75
350.037	80.75
350.265	76.75
350.492	76.75
350.72	93.75
350.947	80.75
351.174	82.75
351.402	85.75
351.629	81.75
351.856	79.75
352.083	80.75
352.311	86.75
352.538	78.75
352.765	78.75
352.992	68.75
353.22	87.75
353.447	94.75
353.674	88.75
353.901	66.75
354.128	77.75
354.355	81.75
354.583	85.75
354.81	86.75
355.037	92.75
355.264	73.75
355.491	86.75
355.718	87.75
355.945	87.75
356.172	87.75
356.399	73.75
356.626	90.75
356.853	85.75
357.08	98.75
357.307	78.75
357.534	68.75
357.761	86.75
357.988	86.75
358.215	80.75
358.441	76.75
358.668	89.75
358.895	92.75
359.122	86.75
359.349	94.75
359.576	86.75
359.802	79.75
360.029	75.75
360.256	85.75
360.483	86.75
360.709	85.75
360.936	82.75
361.163	88.75
361.39	99.75
361.616	80.75
361.843	76.75
362.07	78.75
362.296	91.75
362.523	93.75
362.749	76.75
362.976	84.75
363.203	90.75
363.429	94.75
363.656	82.75
363.882	76.75
364.109	75.75
364.335	81.75
364.562	79.75
364.788	92.75
365.015	63.75
365.241	92.75
365.468	88.75
365.694	80.75
365.92	95.75
366.147	80.75
366.373	86.75
366.599	94.75
366.826	77.75
367.052	85.75
367.278	84.75
367.505	95.75
367.731	83.75
367.957	92.75
368.184	91.75
368.41	88.75
368.636	92.75
368.862	95.75
369.089	92.75
369.315	92.75
369.541	82.75
369.767	70.75
369.993	85.75
370.219	100.75
370.445	96.75
370.672	90.75
370.898	83.75
371.124	88.75
371.35	105.75
371.576	101.75
371.802	86.75
372.028	94.75
372.254	103.75
372.48	107.75
372.706	100.75
372.932	91.75
373.158	89.75
373.384	72.75
373.61	97.75
373.835	94.75
374.061	97.75
374.287	82.75
374.513	90.75
374.739	97.75
374.965	90.75
375.191	100.75
375.416	99.75
375.642	92.75
375.868	92.75
376.094	87.75
376.319	88.75
376.545	94.75
376.771	87.75
376.997	85.75
377.222	76.75
377.448	93.75
377.674	90.75
377.899	89.75
378.125	86.75
378.35	110.75
378.576	80.75
378.802	105.75
379.027	89.75
379.253	96.75
379.478	95.75
379.704	93.75
379.929	100.75
380.155	104.75
380.38	121.75
380.606	101.75
380.831	97.75
381.057	98.75
381.282	92.75
381.507	93.75
381.733	95.75
381.958	89.75
382.184	88.75
382.409	98.75
382.634	111.75
382.86	102.75
383.085	94.75
383.31	104.75
383.535	86.75
383.761	106.75
383.986	107.75
384.211	96.75
384.436	99.75
384.662	97.75
384.887	114.75
385.112	105.75
385.337	106.75
385.562	101.75
385.787	98.75
386.013	102.75
386.238	99.75
386.463	108.75
386.688	85.75
386.913	102.75
387.138	108.75
387.363	97.75
387.588	89.75
387.813	92.75
388.038	109.75
388.263	101.75
388.488	103.75
388.713	97.75
388.938	105.75
389.163	92.75
389.387	89.75
389.612	93.75
389.837	94.75
390.062	95.75
390.287	101.75
390.512	101.75
390.736	92.75
390.961	98.75
391.186	99.75
391.411	90.75
391.636	100.75
391.86	92.75
392.085	100.75
392.31	91.75
392.534	99.75
392.759	91.75
392.984	98.75
393.208	106.75
393.433	93.75
393.658	115.75
393.882	107.75
394.107	95.75
394.331	108.75
394.556	119.75
394.78	107.75
395.005	114.75
395.229	97.75
395.454	100.75
395.678	113.75
395.903	103.75
396.127	105.75
396.352	117.75
396.576	110.75
396.801	107.75
397.025	100.75
397.249	120.75
397.474	118.75
397.698	114.75
397.922	93.75
398.147	100.75
398.371	110.75
398.595	98.75
398.82	120.75
399.044	117.75
399.268	94.75
399.492	105.75
399.717	115.75
399.941	113.75
400.165	114.75
400.389	95.75
400.613	105.75
400.837	105.75
401.062	108.75
401.286	105.75
401.51	111.75
401.734	101.75
401.958	91.75
402.182	114.75
402.406	89.75
402.63	118.75
402.854	115.75
403.078	106.75
403.302	113.75
403.526	115.75
403.75	115.75
403.974	110.75
404.198	113.75
404.422	113.75
404.645	108.75
404.869	123.75
405.093	125.75
405.317	113.75
405.541	113.75
405.765	123.75
405.988	115.75
406.212	124.75
406.436	113.75
406.66	116.75
406.883	115.75
407.107	110.75
407.331	110.75
407.555	108.75
407.778	118.75
408.002	121.75
408.226	109.75
408.449	121.75
408.673	113.75
408.896	113.75
409.12	107.75
409.344	122.75
409.567	126.75
409.791	126.75
410.014	110.75
410.238	118.75
410.461	113.75
410.685	117.75
410.908	115.75
411.132	123.75
411.355	125.75
411.578	129.75
411.802	127.75
412.025	133.75
412.249	121.75
412.472	123.75
412.695	129.75
412.919	136.75
413.142	109.75
413.365	123.75
413.589	113.75
413.812	116.75
414.035	117.75
414.258	122.75
414.482	121.75
414.705	113.75
414.928	114.75
415.151	119.75
415.374	117.75
415.597	117.75
415.821	121.75
416.044	113.75
416.267	138.75
416.49	129.75
416.713	115.75
416.936	132.75
417.159	111.75
417.382	111.75
417.605	127.75
417.828	125.75
418.051	131.75
418.274	127.75
418.497	130.75
418.72	127.75
418.943	126.75
419.166	120.75
419.389	127.75
419.611	135.75
419.834	124.75
420.057	143.75
420.28	121.75
420.503	149.75
420.726	141.75
420.948	133.75
421.171	141.75
421.394	129.75
421.617	139.75
421.839	139.75
422.062	147.75
422.285	129.75
422.507	126.75
422.73	122.75
422.953	117.75
423.175	124.75
423.398	126.75
423.621	131.75
423.843	121.75
424.066	138.75
424.288	124.75
424.511	137.75
424.733	149.75
424.956	162.75
425.178	140.75
425.401	142.75
425.623	143.75
425.846	146.75
426.068	125.75
426.291	133.75
426.513	131.75
426.735	137.75
426.958	133.75
427.18	132.75
427.402	125.75
427.625	132.75
427.847	121.75
428.069	137.75
428.292	126.75
428.514	125.75
428.736	133.75
428.958	120.75
429.181	143.75
429.403	119.75
429.625	134.75
429.847	127.75
430.069	123.75
430.292	126.75
430.514	117.75
430.736	134.75
430.958	119.75
431.18	122.75
431.402	111.75
431.624	122.75
431.846	114.75
432.068	100.75
432.29	109.75
432.512	118.75
432.734	133.75
432.956	114.75
433.178	126.75
433.4	140.75
433.622	130.75
433.844	116.75
434.066	122.75
434.287	109.75
434.509	97.75
434.731	107.75
434.953	100.75
435.175	119.75
435.397	117.75
435.618	118.75
435.84	114.75
436.062	130.75
436.284	99.75
436.505	123.75
436.727	138.75
436.949	133.75
437.17	146.75
437.392	137.75
437.614	126.75
437.835	126.75
438.057	89.75
438.278	120.75
438.5	115.75
438.721	138.75
438.943	136.75
439.165	146.75
439.386	131.75
439.608	129.75
439.829	133.75
440.05	141.75
440.272	126.75
440.493	134.75
440.715	140.75
440.936	138.75
441.158	147.75
441.379	133.75
441.6	147.75
441.822	138.75
442.043	128.75
442.264	138.75
442.486	125.75
442.707	129.75
442.928	135.75
443.149	125.75
443.371	133.75
443.592	143.75
443.813	127.75
444.034	126.75
444.255	143.75
444.476	138.75
444.698	126.75
444.919	141.75
445.14	280.75
445.361	202.75
445.582	137.75
445.803	146.75
446.024	147.75
446.245	147.75
446.466	139.75
446.687	144.75
446.908	163.75
447.129	157.75
447.35	162.75
447.571	141.75
447.792	137.75
448.013	142.75
448.234	152.75
448.455	146.75
448.675	141.75
448.896	147.75
449.117	135.75
449.338	129.75
449.559	131.75
449.779	130.75
450	129.75
450.221	131.75
450.442	142.75
450.662	142.75
450.883	125.75
451.104	150.75
451.324	140.75
451.545	130.75
451.766	125.75
451.986	133.75
452.207	128.75
452.428	131.75
452.648	128.75
452.869	120.75
453.089	99.75
453.31	111.75
453.53	107.75
453.751	113.75
453.971	108.75
454.192	100.75
454.412	117.75
454.633	111.75
454.853	118.75
455.073	109.75
455.294	105.75
455.514	114.75
455.734	115.75
455.955	128.75
456.175	116.75
456.395	110.75
456.616	105.75
456.836	117.75
457.056	106.75
457.276	110.75
457.497	99.75
457.717	98.75
457.937	113.75
458.157	117.75
458.377	94.75
458.598	101.75
458.818	106.75
459.038	77.75
459.258	90.75
459.478	98.75
459.698	80.75
459.918	108.75
460.138	111.75
460.358	113.75
460.578	119.75
460.798	108.75
461.018	103.75
461.238	116.75
461.458	104.75
461.678	94.75
461.898	110.75
462.118	124.75
462.338	108.75
462.558	113.75
462.777	103.75
462.997	118.75
463.217	115.75
463.437	103.75
463.657	106.75
463.876	114.75
464.096	114.75
464.316	108.75
464.536	95.75
464.755	106.75
464.975	127.75
465.195	113.75
465.414	120.75
465.634	110.75
465.854	108.75
466.073	108.75
466.293	127.75
466.512	127.75
466.732	135.75
466.951	130.75
467.171	138.75
467.391	154.75
467.61	133.75
467.829	130.75
468.049	137.75
468.268	135.75
468.488	136.75
468.707	145.75
468.927	126.75
469.146	138.75
469.365	143.75
469.585	143.75
469.804	123.75
470.023	124.75
470.243	147.75
470.462	118.75
470.681	146.75
470.901	143.75
471.12	128.75
471.339	150.75
471.558	131.75
471.777	140.75
471.997	141.75
472.216	122.75
472.435	114.75
472.654	105.75
472.873	111.75
473.092	109.75
473.311	127.75
473.53	112.75
473.749	132.75
473.968	133.75
474.187	120.75
474.406	125.75
474.625	107.75
474.844	125.75
475.063	114.75
475.282	133.75
475.501	120.75
475.72	118.75
475.939	126.75
476.158	124.75
476.377	140.75
476.596	131.75
476.814	116.75
477.033	110.75
477.252	127.75
477.471	134.75
477.69	127.75
477.908	126.75
478.127	131.75
478.346	143.75
478.564	141.75
478.783	134.75
479.002	134.75
479.22	140.75
479.439	125.75
479.658	125.75
479.876	107.75
480.095	106.75
480.313	117.75
480.532	115.75
480.751	99.75
480.969	83.75
481.188	82.75
481.406	86.75
481.624	86.75
481.843	97.75
482.061	109.75
482.28	94.75
482.498	115.75
482.717	113.75
482.935	116.75
483.153	129.75
483.372	146.75
483.59	141.75
483.808	135.75
484.027	124.75
484.245	134.75
484.463	135.75
484.681	148.75
484.9	147.75
485.118	155.75
485.336	126.75
485.554	96.75
485.772	96.75
485.99	96.75
486.209	112.75
486.427	104.75
486.645	127.75
486.863	129.75
487.081	130.75
487.299	131.75
487.517	146.75
487.735	159.75
487.953	187.75
488.171	184.75
488.389	170.75
488.607	139.75
488.825	129.75
489.043	116.75
489.261	127.75
489.479	134.75
489.696	138.75
489.914	155.75
490.132	144.75
490.35	156.75
490.568	153.75
490.786	164.75
491.003	165.75
491.221	190.75
491.439	177.75
491.657	172.75
491.874	199.75
492.092	224.75
492.31	227.75
492.527	227.75
492.745	208.75
492.963	195.75
493.18	177.75
493.398	182.75
493.615	177.75
493.833	171.75
494.05	166.75
494.268	166.75
494.485	183.75
494.703	177.75
494.92	168.75
495.138	168.75
495.355	177.75
495.573	167.75
495.79	153.75
496.008	153.75
496.225	166.75
496.442	158.75
496.66	158.75
496.877	156.75
497.094	166.75
497.312	161.75
497.529	147.75
497.746	144.75
497.963	143.75
498.181	129.75
498.398	125.75
498.615	114.75
498.832	116.75
499.049	120.75
499.267	122.75
499.484	119.75
499.701	121.75
499.918	143.75
500.135	129.75
500.352	145.75
500.569	129.75
500.786	149.75
501.003	161.75
501.22	132.75
501.437	118.75
501.654	138.75
501.871	136.75
502.088	129.75
502.305	123.75
502.522	109.75
502.739	117.75
502.956	123.75
503.172	117.75
503.389	119.75
503.606	118.75
503.823	106.75
504.04	137.75
504.256	117.75
504.473	123.75
504.69	119.75
504.907	122.75
505.123	117.75
505.34	121.75
505.557	125.75
505.773	130.75
505.99	116.75
506.207	121.75
506.423	121.75
506.64	114.75
506.856	113.75
507.073	115.75
507.289	118.75
507.506	116.75
507.722	116.75
507.939	103.75
508.155	129.75
508.372	120.75
508.588	103.75
508.805	102.75
509.021	101.75
509.238	96.75
509.454	99.75
509.67	102.75
509.887	96.75
510.103	98.75
510.319	102.75
510.536	88.75
510.752	81.75
510.968	93.75
511.184	91.75
511.401	89.75
511.617	97.75
511.833	93.75
