Data from Location1.07152019.Energy5.Lamp.07192019.3%Agarose_HRD10591_14-30-15-015.txt Node
Date: Fri Jul 19 14:30:15 EDT 2019
User: cochatt
Spectrometer: HR+D1059
Trigger mode: 1
Integration Time (sec): 1.000000E-1
Scans to average: 1
Electric dark correction enabled: true
Nonlinearity correction enabled: false
Boxcar width: 0
XAxis mode: Wavelengths
Number of Pixels in Spectrum: 2048
>>>>>Begin Spectral Data<<<<<
223.165	-18.94
223.4	-18.94
223.635	-18.94
223.869	-21.94
224.104	-35.94
224.338	-9.94
224.573	-9.94
224.808	-19.94
225.042	-6.94
225.277	6.06
225.511	-8.94
225.746	-13.94
225.98	6.06
226.215	15.06
226.449	25.06
226.683	21.06
226.918	36.06
227.152	37.06
227.387	26.06
227.621	31.06
227.856	48.06
228.09	45.06
228.324	54.06
228.559	50.06
228.793	61.06
229.027	68.06
229.262	70.06
229.496	56.06
229.73	58.06
229.964	74.06
230.199	60.06
230.433	69.06
230.667	70.06
230.901	63.06
231.136	73.06
231.37	78.06
231.604	76.06
231.838	62.06
232.072	90.06
232.306	81.06
232.541	78.06
232.775	77.06
233.009	68.06
233.243	83.06
233.477	90.06
233.711	81.06
233.945	83.06
234.179	95.06
234.413	82.06
234.647	87.06
234.881	63.06
235.115	78.06
235.349	77.06
235.583	71.06
235.817	90.06
236.051	86.06
236.285	76.06
236.519	60.06
236.753	75.06
236.987	74.06
237.221	77.06
237.455	69.06
237.689	85.06
237.922	83.06
238.156	69.06
238.39	78.06
238.624	77.06
238.858	77.06
239.091	82.06
239.325	66.06
239.559	77.06
239.793	67.06
240.027	76.06
240.26	76.06
240.494	63.06
240.728	70.06
240.961	71.06
241.195	68.06
241.429	77.06
241.662	94.06
241.896	78.06
242.13	70.06
242.363	86.06
242.597	67.06
242.83	81.06
243.064	88.06
243.298	73.06
243.531	72.06
243.765	72.06
243.998	75.06
244.232	86.06
244.465	85.06
244.699	63.06
244.932	78.06
245.166	81.06
245.399	98.06
245.633	83.06
245.866	80.06
246.099	85.06
246.333	90.06
246.566	68.06
246.8	70.06
247.033	83.06
247.266	93.06
247.5	84.06
247.733	72.06
247.966	77.06
248.2	74.06
248.433	60.06
248.666	71.06
248.899	70.06
249.133	83.06
249.366	77.06
249.599	70.06
249.832	66.06
250.066	87.06
250.299	84.06
250.532	74.06
250.765	78.06
250.998	79.06
251.231	80.06
251.465	74.06
251.698	84.06
251.931	73.06
252.164	94.06
252.397	70.06
252.63	80.06
252.863	71.06
253.096	83.06
253.329	78.06
253.562	81.06
253.795	78.06
254.028	81.06
254.261	87.06
254.494	84.06
254.727	86.06
254.96	87.06
255.193	89.06
255.426	79.06
255.659	78.06
255.892	95.06
256.124	84.06
256.357	87.06
256.59	92.06
256.823	79.06
257.056	94.06
257.289	86.06
257.521	95.06
257.754	76.06
257.987	71.06
258.22	93.06
258.452	94.06
258.685	74.06
258.918	80.06
259.151	76.06
259.383	74.06
259.616	74.06
259.849	81.06
260.081	71.06
260.314	91.06
260.547	86.06
260.779	78.06
261.012	85.06
261.244	78.06
261.477	88.06
261.71	78.06
261.942	75.06
262.175	96.06
262.407	80.06
262.64	80.06
262.872	78.06
263.105	71.06
263.337	81.06
263.57	88.06
263.802	82.06
264.035	77.06
264.267	83.06
264.499	77.06
264.732	76.06
264.964	89.06
265.197	78.06
265.429	81.06
265.661	78.06
265.894	77.06
266.126	66.06
266.358	81.06
266.591	79.06
266.823	77.06
267.055	85.06
267.287	83.06
267.52	79.06
267.752	95.06
267.984	88.06
268.216	79.06
268.448	87.06
268.681	99.06
268.913	82.06
269.145	79.06
269.377	99.06
269.609	76.06
269.841	90.06
270.073	76.06
270.306	79.06
270.538	83.06
270.77	67.06
271.002	92.06
271.234	80.06
271.466	73.06
271.698	79.06
271.93	81.06
272.162	96.06
272.394	83.06
272.626	86.06
272.858	80.06
273.09	87.06
273.322	83.06
273.553	84.06
273.785	81.06
274.017	74.06
274.249	89.06
274.481	87.06
274.713	91.06
274.945	82.06
275.176	84.06
275.408	92.06
275.64	84.06
275.872	87.06
276.104	86.06
276.335	95.06
276.567	84.06
276.799	84.06
277.031	80.06
277.262	78.06
277.494	84.06
277.726	83.06
277.957	77.06
278.189	80.06
278.421	91.06
278.652	84.06
278.884	89.06
279.115	89.06
279.347	91.06
279.579	86.06
279.81	93.06
280.042	89.06
280.273	89.06
280.505	84.06
280.736	87.06
280.968	75.06
281.199	79.06
281.431	80.06
281.662	83.06
281.894	86.06
282.125	79.06
282.356	83.06
282.588	74.06
282.819	76.06
283.051	70.06
283.282	66.06
283.513	92.06
283.745	68.06
283.976	76.06
284.207	74.06
284.439	92.06
284.67	85.06
284.901	65.06
285.132	84.06
285.364	75.06
285.595	90.06
285.826	88.06
286.057	75.06
286.288	81.06
286.52	76.06
286.751	68.06
286.982	103.06
287.213	81.06
287.444	87.06
287.675	80.06
287.906	87.06
288.138	94.06
288.369	99.06
288.6	82.06
288.831	91.06
289.062	95.06
289.293	90.06
289.524	86.06
289.755	85.06
289.986	70.06
290.217	79.06
290.448	86.06
290.679	88.06
290.91	82.06
291.141	80.06
291.371	80.06
291.602	73.06
291.833	90.06
292.064	85.06
292.295	96.06
292.526	76.06
292.757	96.06
292.987	76.06
293.218	78.06
293.449	73.06
293.68	75.06
293.91	93.06
294.141	79.06
294.372	84.06
294.603	88.06
294.833	84.06
295.064	86.06
295.295	90.06
295.525	88.06
295.756	88.06
295.987	86.06
296.217	79.06
296.448	78.06
296.679	81.06
296.909	84.06
297.14	97.06
297.37	89.06
297.601	91.06
297.831	79.06
298.062	84.06
298.292	68.06
298.523	99.06
298.753	79.06
298.984	87.06
299.214	101.06
299.445	92.06
299.675	93.06
299.905	93.06
300.136	79.06
300.366	70.06
300.597	78.06
300.827	86.06
301.057	87.06
301.288	92.06
301.518	83.06
301.748	83.06
301.979	75.06
302.209	80.06
302.439	79.06
302.669	80.06
302.9	82.06
303.13	93.06
303.36	76.06
303.59	82.06
303.82	78.06
304.051	84.06
304.281	90.06
304.511	81.06
304.741	95.06
304.971	80.06
305.201	81.06
305.431	88.06
305.661	71.06
305.891	90.06
306.121	77.06
306.352	86.06
306.582	79.06
306.812	88.06
307.042	79.06
307.272	96.06
307.502	102.06
307.731	94.06
307.961	86.06
308.191	84.06
308.421	73.06
308.651	93.06
308.881	84.06
309.111	81.06
309.341	76.06
309.571	79.06
309.8	72.06
310.03	90.06
310.26	94.06
310.49	85.06
310.72	98.06
310.949	74.06
311.179	99.06
311.409	90.06
311.639	75.06
311.868	93.06
312.098	91.06
312.328	76.06
312.557	81.06
312.787	90.06
313.017	92.06
313.246	95.06
313.476	84.06
313.706	72.06
313.935	78.06
314.165	94.06
314.394	75.06
314.624	94.06
314.853	73.06
315.083	91.06
315.312	87.06
315.542	72.06
315.771	83.06
316.001	80.06
316.23	85.06
316.46	81.06
316.689	98.06
316.919	81.06
317.148	71.06
317.377	73.06
317.607	79.06
317.836	89.06
318.065	94.06
318.295	79.06
318.524	75.06
318.753	71.06
318.983	79.06
319.212	74.06
319.441	92.06
319.67	76.06
319.9	94.06
320.129	85.06
320.358	91.06
320.587	87.06
320.816	85.06
321.046	92.06
321.275	90.06
321.504	82.06
321.733	95.06
321.962	80.06
322.191	83.06
322.42	70.06
322.649	94.06
322.878	80.06
323.108	89.06
323.337	90.06
323.566	75.06
323.795	71.06
324.024	88.06
324.253	99.06
324.482	80.06
324.71	86.06
324.939	86.06
325.168	81.06
325.397	92.06
325.626	91.06
325.855	83.06
326.084	86.06
326.313	84.06
326.542	69.06
326.77	66.06
326.999	78.06
327.228	93.06
327.457	86.06
327.686	90.06
327.914	77.06
328.143	82.06
328.372	75.06
328.6	84.06
328.829	77.06
329.058	91.06
329.287	61.06
329.515	74.06
329.744	90.06
329.972	86.06
330.201	80.06
330.43	86.06
330.658	83.06
330.887	78.06
331.115	86.06
331.344	85.06
331.572	92.06
331.801	90.06
332.03	73.06
332.258	75.06
332.486	74.06
332.715	79.06
332.943	89.06
333.172	81.06
333.4	74.06
333.629	91.06
333.857	66.06
334.085	87.06
334.314	84.06
334.542	85.06
334.771	86.06
334.999	73.06
335.227	79.06
335.455	80.06
335.684	80.06
335.912	77.06
336.14	77.06
336.369	78.06
336.597	80.06
336.825	99.06
337.053	74.06
337.281	86.06
337.51	73.06
337.738	84.06
337.966	74.06
338.194	77.06
338.422	87.06
338.65	80.06
338.878	99.06
339.106	86.06
339.334	87.06
339.562	96.06
339.79	74.06
340.018	88.06
340.246	75.06
340.474	89.06
340.702	81.06
340.93	84.06
341.158	69.06
341.386	71.06
341.614	75.06
341.842	95.06
342.07	92.06
342.298	90.06
342.526	79.06
342.754	80.06
342.981	80.06
343.209	83.06
343.437	86.06
343.665	101.06
343.893	83.06
344.12	88.06
344.348	84.06
344.576	87.06
344.804	85.06
345.031	83.06
345.259	66.06
345.487	92.06
345.714	84.06
345.942	82.06
346.17	96.06
346.397	103.06
346.625	88.06
346.853	87.06
347.08	74.06
347.308	97.06
347.535	92.06
347.763	87.06
347.99	85.06
348.218	83.06
348.445	77.06
348.673	86.06
348.9	79.06
349.128	90.06
349.355	89.06
349.583	76.06
349.81	75.06
350.037	86.06
350.265	81.06
350.492	70.06
350.72	89.06
350.947	95.06
351.174	87.06
351.402	83.06
351.629	74.06
351.856	74.06
352.083	85.06
352.311	83.06
352.538	84.06
352.765	90.06
352.992	76.06
353.22	92.06
353.447	75.06
353.674	86.06
353.901	83.06
354.128	87.06
354.355	92.06
354.583	84.06
354.81	83.06
355.037	94.06
355.264	89.06
355.491	83.06
355.718	78.06
355.945	98.06
356.172	95.06
356.399	79.06
356.626	83.06
356.853	89.06
357.08	78.06
357.307	89.06
357.534	78.06
357.761	78.06
357.988	91.06
358.215	92.06
358.441	78.06
358.668	81.06
358.895	74.06
359.122	82.06
359.349	87.06
359.576	79.06
359.802	86.06
360.029	88.06
360.256	85.06
360.483	63.06
360.709	85.06
360.936	90.06
361.163	81.06
361.39	78.06
361.616	88.06
361.843	83.06
362.07	99.06
362.296	86.06
362.523	72.06
362.749	77.06
362.976	90.06
363.203	88.06
363.429	77.06
363.656	92.06
363.882	87.06
364.109	87.06
364.335	91.06
364.562	94.06
364.788	79.06
365.015	86.06
365.241	84.06
365.468	91.06
365.694	92.06
365.92	89.06
366.147	67.06
366.373	81.06
366.599	94.06
366.826	76.06
367.052	70.06
367.278	73.06
367.505	86.06
367.731	92.06
367.957	100.06
368.184	104.06
368.41	91.06
368.636	98.06
368.862	94.06
369.089	103.06
369.315	86.06
369.541	84.06
369.767	104.06
369.993	100.06
370.219	90.06
370.445	103.06
370.672	90.06
370.898	85.06
371.124	83.06
371.35	77.06
371.576	101.06
371.802	86.06
372.028	92.06
372.254	98.06
372.48	75.06
372.706	89.06
372.932	83.06
373.158	106.06
373.384	86.06
373.61	88.06
373.835	83.06
374.061	91.06
374.287	81.06
374.513	95.06
374.739	88.06
374.965	75.06
375.191	82.06
375.416	95.06
375.642	93.06
375.868	89.06
376.094	84.06
376.319	88.06
376.545	78.06
376.771	81.06
376.997	94.06
377.222	96.06
377.448	86.06
377.674	79.06
377.899	86.06
378.125	103.06
378.35	106.06
378.576	92.06
378.802	99.06
379.027	99.06
379.253	99.06
379.478	95.06
379.704	93.06
379.929	95.06
380.155	92.06
380.38	101.06
380.606	99.06
380.831	92.06
381.057	88.06
381.282	99.06
381.507	108.06
381.733	100.06
381.958	101.06
382.184	101.06
382.409	101.06
382.634	98.06
382.86	79.06
383.085	106.06
383.31	88.06
383.535	96.06
383.761	107.06
383.986	94.06
384.211	118.06
384.436	103.06
384.662	104.06
384.887	92.06
385.112	92.06
385.337	94.06
385.562	90.06
385.787	98.06
386.013	97.06
386.238	98.06
386.463	104.06
386.688	104.06
386.913	108.06
387.138	92.06
387.363	84.06
387.588	121.06
387.813	106.06
388.038	101.06
388.263	98.06
388.488	104.06
388.713	98.06
388.938	110.06
389.163	93.06
389.387	102.06
389.612	91.06
389.837	95.06
390.062	99.06
390.287	109.06
390.512	109.06
390.736	95.06
390.961	104.06
391.186	79.06
391.411	119.06
391.636	102.06
391.86	100.06
392.085	106.06
392.31	105.06
392.534	119.06
392.759	111.06
392.984	102.06
393.208	98.06
393.433	123.06
393.658	101.06
393.882	107.06
394.107	103.06
394.331	115.06
394.556	105.06
394.78	129.06
395.005	103.06
395.229	100.06
395.454	107.06
395.678	106.06
395.903	99.06
396.127	101.06
396.352	92.06
396.576	100.06
396.801	126.06
397.025	124.06
397.249	108.06
397.474	95.06
397.698	117.06
397.922	110.06
398.147	111.06
398.371	99.06
398.595	106.06
398.82	101.06
399.044	93.06
399.268	106.06
399.492	116.06
399.717	115.06
399.941	121.06
400.165	107.06
400.389	105.06
400.613	105.06
400.837	110.06
401.062	114.06
401.286	98.06
401.51	108.06
401.734	114.06
401.958	108.06
402.182	103.06
402.406	105.06
402.63	116.06
402.854	120.06
403.078	111.06
403.302	101.06
403.526	124.06
403.75	114.06
403.974	111.06
404.198	106.06
404.422	126.06
404.645	114.06
404.869	127.06
405.093	114.06
405.317	111.06
405.541	124.06
405.765	114.06
405.988	117.06
406.212	119.06
406.436	128.06
406.66	127.06
406.883	123.06
407.107	125.06
407.331	110.06
407.555	116.06
407.778	124.06
408.002	128.06
408.226	122.06
408.449	108.06
408.673	116.06
408.896	110.06
409.12	105.06
409.344	115.06
409.567	120.06
409.791	117.06
410.014	130.06
410.238	121.06
410.461	127.06
410.685	117.06
410.908	122.06
411.132	114.06
411.355	118.06
411.578	115.06
411.802	103.06
412.025	122.06
412.249	119.06
412.472	115.06
412.695	115.06
412.919	108.06
413.142	128.06
413.365	130.06
413.589	128.06
413.812	122.06
414.035	118.06
414.258	117.06
414.482	123.06
414.705	134.06
414.928	128.06
415.151	120.06
415.374	121.06
415.597	107.06
415.821	111.06
416.044	119.06
416.267	111.06
416.49	138.06
416.713	127.06
416.936	119.06
417.159	126.06
417.382	114.06
417.605	120.06
417.828	121.06
418.051	126.06
418.274	129.06
418.497	153.06
418.72	126.06
418.943	126.06
419.166	140.06
419.389	152.06
419.611	136.06
419.834	133.06
420.057	127.06
420.28	131.06
420.503	118.06
420.726	126.06
420.948	116.06
421.171	123.06
421.394	141.06
421.617	141.06
421.839	143.06
422.062	151.06
422.285	138.06
422.507	121.06
422.73	128.06
422.953	120.06
423.175	119.06
423.398	121.06
423.621	141.06
423.843	117.06
424.066	127.06
424.288	138.06
424.511	140.06
424.733	148.06
424.956	142.06
425.178	118.06
425.401	127.06
425.623	130.06
425.846	145.06
426.068	113.06
426.291	110.06
426.513	111.06
426.735	131.06
426.958	131.06
427.18	125.06
427.402	130.06
427.625	118.06
427.847	133.06
428.069	135.06
428.292	116.06
428.514	121.06
428.736	132.06
428.958	124.06
429.181	136.06
429.403	120.06
429.625	130.06
429.847	125.06
430.069	130.06
430.292	127.06
430.514	122.06
430.736	126.06
430.958	121.06
431.18	125.06
431.402	120.06
431.624	112.06
431.846	120.06
432.068	88.06
432.29	104.06
432.512	104.06
432.734	124.06
432.956	124.06
433.178	129.06
433.4	143.06
433.622	128.06
433.844	139.06
434.066	119.06
434.287	95.06
434.509	99.06
434.731	95.06
434.953	97.06
435.175	124.06
435.397	128.06
435.618	113.06
435.84	107.06
436.062	120.06
436.284	126.06
436.505	111.06
436.727	128.06
436.949	131.06
437.17	132.06
437.392	129.06
437.614	128.06
437.835	107.06
438.057	101.06
438.278	127.06
438.5	124.06
438.721	139.06
438.943	146.06
439.165	146.06
439.386	139.06
439.608	128.06
439.829	136.06
440.05	139.06
440.272	134.06
440.493	153.06
440.715	157.06
440.936	134.06
441.158	144.06
441.379	131.06
441.6	146.06
441.822	137.06
442.043	151.06
442.264	130.06
442.486	149.06
442.707	148.06
442.928	130.06
443.149	129.06
443.371	125.06
443.592	120.06
443.813	135.06
444.034	144.06
444.255	151.06
444.476	142.06
444.698	136.06
444.919	137.06
445.14	280.06
445.361	199.06
445.582	143.06
445.803	150.06
446.024	141.06
446.245	138.06
446.466	148.06
446.687	163.06
446.908	165.06
447.129	158.06
447.35	141.06
447.571	160.06
447.792	166.06
448.013	128.06
448.234	137.06
448.455	142.06
448.675	159.06
448.896	140.06
449.117	142.06
449.338	141.06
449.559	141.06
449.779	114.06
450	134.06
450.221	142.06
450.442	134.06
450.662	127.06
450.883	125.06
451.104	131.06
451.324	118.06
451.545	141.06
451.766	144.06
451.986	131.06
452.207	119.06
452.428	132.06
452.648	119.06
452.869	118.06
453.089	109.06
453.31	108.06
453.53	105.06
453.751	100.06
453.971	98.06
454.192	113.06
454.412	106.06
454.633	108.06
454.853	123.06
455.073	122.06
455.294	125.06
455.514	105.06
455.734	126.06
455.955	131.06
456.175	104.06
456.395	111.06
456.616	107.06
456.836	106.06
457.056	118.06
457.276	110.06
457.497	118.06
457.717	108.06
457.937	107.06
458.157	104.06
458.377	108.06
458.598	102.06
458.818	104.06
459.038	101.06
459.258	86.06
459.478	80.06
459.698	90.06
459.918	87.06
460.138	105.06
460.358	112.06
460.578	106.06
460.798	109.06
461.018	125.06
461.238	114.06
461.458	120.06
461.678	116.06
461.898	100.06
462.118	99.06
462.338	102.06
462.558	118.06
462.777	100.06
462.997	106.06
463.217	119.06
463.437	118.06
463.657	106.06
463.876	92.06
464.096	104.06
464.316	106.06
464.536	101.06
464.755	112.06
464.975	126.06
465.195	117.06
465.414	128.06
465.634	121.06
465.854	120.06
466.073	119.06
466.293	110.06
466.512	127.06
466.732	130.06
466.951	124.06
467.171	133.06
467.391	126.06
467.61	149.06
467.829	131.06
468.049	124.06
468.268	125.06
468.488	120.06
468.707	133.06
468.927	132.06
469.146	143.06
469.365	134.06
469.585	136.06
469.804	125.06
470.023	136.06
470.243	138.06
470.462	139.06
470.681	139.06
470.901	141.06
471.12	140.06
471.339	139.06
471.558	130.06
471.777	142.06
471.997	130.06
472.216	133.06
472.435	138.06
472.654	126.06
472.873	109.06
473.092	111.06
473.311	104.06
473.53	126.06
473.749	119.06
473.968	125.06
474.187	123.06
474.406	122.06
474.625	142.06
474.844	126.06
475.063	127.06
475.282	132.06
475.501	130.06
475.72	128.06
475.939	121.06
476.158	118.06
476.377	127.06
476.596	122.06
476.814	116.06
477.033	120.06
477.252	110.06
477.471	122.06
477.69	133.06
477.908	136.06
478.127	150.06
478.346	126.06
478.564	127.06
478.783	124.06
479.002	130.06
479.22	149.06
479.439	126.06
479.658	108.06
479.876	99.06
480.095	100.06
480.313	119.06
480.532	126.06
480.751	111.06
480.969	96.06
481.188	86.06
481.406	77.06
481.624	81.06
481.843	94.06
482.061	97.06
482.28	114.06
482.498	118.06
482.717	114.06
482.935	125.06
483.153	142.06
483.372	126.06
483.59	129.06
483.808	125.06
484.027	125.06
484.245	134.06
484.463	148.06
484.681	148.06
484.9	158.06
485.118	145.06
485.336	114.06
485.554	126.06
485.772	99.06
485.99	107.06
486.209	96.06
486.427	109.06
486.645	122.06
486.863	146.06
487.081	140.06
487.299	139.06
487.517	135.06
487.735	167.06
487.953	187.06
488.171	180.06
488.389	174.06
488.607	164.06
488.825	151.06
489.043	128.06
489.261	128.06
489.479	118.06
489.696	131.06
489.914	122.06
490.132	139.06
490.35	148.06
490.568	158.06
490.786	156.06
491.003	176.06
491.221	176.06
491.439	194.06
491.657	188.06
491.874	194.06
492.092	207.06
492.31	249.06
492.527	225.06
492.745	214.06
492.963	192.06
493.18	172.06
493.398	184.06
493.615	177.06
493.833	167.06
494.05	168.06
494.268	183.06
494.485	170.06
494.703	178.06
494.92	167.06
495.138	178.06
495.355	179.06
495.573	178.06
495.79	177.06
496.008	166.06
496.225	180.06
496.442	163.06
496.66	175.06
496.877	160.06
497.094	139.06
497.312	157.06
497.529	158.06
497.746	153.06
497.963	146.06
498.181	127.06
498.398	125.06
498.615	121.06
498.832	122.06
499.049	116.06
499.267	129.06
499.484	116.06
499.701	130.06
499.918	136.06
500.135	134.06
500.352	155.06
500.569	140.06
500.786	143.06
501.003	130.06
501.22	123.06
501.437	123.06
501.654	139.06
501.871	132.06
502.088	139.06
502.305	131.06
502.522	130.06
502.739	124.06
502.956	139.06
503.172	124.06
503.389	115.06
503.606	128.06
503.823	114.06
504.04	106.06
504.256	116.06
504.473	114.06
504.69	110.06
504.907	116.06
505.123	114.06
505.34	118.06
505.557	124.06
505.773	118.06
505.99	132.06
506.207	126.06
506.423	121.06
506.64	124.06
506.856	108.06
507.073	128.06
507.289	134.06
507.506	123.06
507.722	124.06
507.939	124.06
508.155	127.06
508.372	128.06
508.588	124.06
508.805	117.06
509.021	114.06
509.238	105.06
509.454	120.06
509.67	88.06
509.887	95.06
510.103	84.06
510.319	84.06
510.536	98.06
510.752	93.06
510.968	96.06
511.184	76.06
511.401	74.06
511.617	77.06
