Data from Location1.07152019.Energy5.Lamp.07192019.3%Agarose_HRD10591_14-31-18-015.txt Node
Date: Fri Jul 19 14:31:18 EDT 2019
User: cochatt
Spectrometer: HR+D1059
Trigger mode: 1
Integration Time (sec): 1.000000E-1
Scans to average: 1
Electric dark correction enabled: true
Nonlinearity correction enabled: false
Boxcar width: 0
XAxis mode: Wavelengths
Number of Pixels in Spectrum: 2048
>>>>>Begin Spectral Data<<<<<
223.165	-16.38
223.4	-16.38
223.635	-16.38
223.869	-19.38
224.104	-16.38
224.338	-0.38
224.573	-19.38
224.808	-10.38
225.042	-16.38
225.277	-11.38
225.511	3.62
225.746	11.62
225.98	2.62
226.215	8.62
226.449	16.62
226.683	25.62
226.918	12.62
227.152	28.62
227.387	28.62
227.621	51.62
227.856	59.62
228.09	50.62
228.324	50.62
228.559	70.62
228.793	57.62
229.027	57.62
229.262	67.62
229.496	60.62
229.73	65.62
229.964	71.62
230.199	79.62
230.433	73.62
230.667	82.62
230.901	78.62
231.136	90.62
231.37	89.62
231.604	88.62
231.838	77.62
232.072	80.62
232.306	87.62
232.541	79.62
232.775	91.62
233.009	74.62
233.243	73.62
233.477	84.62
233.711	89.62
233.945	81.62
234.179	72.62
234.413	88.62
234.647	91.62
234.881	88.62
235.115	95.62
235.349	70.62
235.583	77.62
235.817	78.62
236.051	87.62
236.285	85.62
236.519	68.62
236.753	86.62
236.987	83.62
237.221	83.62
237.455	80.62
237.689	81.62
237.922	91.62
238.156	77.62
238.39	80.62
238.624	81.62
238.858	74.62
239.091	77.62
239.325	79.62
239.559	96.62
239.793	85.62
240.027	67.62
240.26	71.62
240.494	72.62
240.728	88.62
240.961	77.62
241.195	62.62
241.429	74.62
241.662	66.62
241.896	92.62
242.13	79.62
242.363	73.62
242.597	75.62
242.83	69.62
243.064	78.62
243.298	76.62
243.531	80.62
243.765	70.62
243.998	89.62
244.232	66.62
244.465	74.62
244.699	88.62
244.932	80.62
245.166	81.62
245.399	76.62
245.633	84.62
245.866	69.62
246.099	74.62
246.333	80.62
246.566	88.62
246.8	82.62
247.033	70.62
247.266	87.62
247.5	77.62
247.733	73.62
247.966	76.62
248.2	66.62
248.433	77.62
248.666	79.62
248.899	93.62
249.133	72.62
249.366	76.62
249.599	86.62
249.832	83.62
250.066	89.62
250.299	77.62
250.532	80.62
250.765	86.62
250.998	94.62
251.231	69.62
251.465	93.62
251.698	80.62
251.931	88.62
252.164	74.62
252.397	79.62
252.63	85.62
252.863	92.62
253.096	73.62
253.329	93.62
253.562	78.62
253.795	77.62
254.028	92.62
254.261	78.62
254.494	74.62
254.727	88.62
254.96	86.62
255.193	69.62
255.426	78.62
255.659	83.62
255.892	77.62
256.124	86.62
256.357	82.62
256.59	84.62
256.823	84.62
257.056	90.62
257.289	83.62
257.521	101.62
257.754	78.62
257.987	80.62
258.22	100.62
258.452	88.62
258.685	82.62
258.918	80.62
259.151	72.62
259.383	86.62
259.616	78.62
259.849	96.62
260.081	99.62
260.314	82.62
260.547	82.62
260.779	79.62
261.012	70.62
261.244	64.62
261.477	84.62
261.71	88.62
261.942	77.62
262.175	91.62
262.407	83.62
262.64	75.62
262.872	82.62
263.105	89.62
263.337	68.62
263.57	83.62
263.802	73.62
264.035	74.62
264.267	93.62
264.499	80.62
264.732	78.62
264.964	80.62
265.197	76.62
265.429	89.62
265.661	87.62
265.894	75.62
266.126	76.62
266.358	87.62
266.591	65.62
266.823	77.62
267.055	89.62
267.287	89.62
267.52	76.62
267.752	78.62
267.984	79.62
268.216	88.62
268.448	78.62
268.681	78.62
268.913	88.62
269.145	80.62
269.377	71.62
269.609	77.62
269.841	92.62
270.073	75.62
270.306	77.62
270.538	98.62
270.77	73.62
271.002	69.62
271.234	94.62
271.466	88.62
271.698	84.62
271.93	87.62
272.162	67.62
272.394	88.62
272.626	95.62
272.858	72.62
273.09	80.62
273.322	89.62
273.553	78.62
273.785	80.62
274.017	81.62
274.249	92.62
274.481	84.62
274.713	94.62
274.945	89.62
275.176	79.62
275.408	92.62
275.64	79.62
275.872	73.62
276.104	97.62
276.335	90.62
276.567	70.62
276.799	81.62
277.031	71.62
277.262	80.62
277.494	99.62
277.726	93.62
277.957	78.62
278.189	80.62
278.421	100.62
278.652	79.62
278.884	83.62
279.115	80.62
279.347	86.62
279.579	88.62
279.81	88.62
280.042	72.62
280.273	88.62
280.505	74.62
280.736	79.62
280.968	86.62
281.199	98.62
281.431	79.62
281.662	83.62
281.894	82.62
282.125	95.62
282.356	83.62
282.588	74.62
282.819	86.62
283.051	82.62
283.282	81.62
283.513	89.62
283.745	102.62
283.976	90.62
284.207	94.62
284.439	79.62
284.67	78.62
284.901	88.62
285.132	85.62
285.364	85.62
285.595	68.62
285.826	88.62
286.057	81.62
286.288	80.62
286.52	83.62
286.751	86.62
286.982	82.62
287.213	88.62
287.444	95.62
287.675	94.62
287.906	95.62
288.138	80.62
288.369	78.62
288.6	90.62
288.831	93.62
289.062	91.62
289.293	94.62
289.524	89.62
289.755	86.62
289.986	84.62
290.217	73.62
290.448	85.62
290.679	91.62
290.91	100.62
291.141	93.62
291.371	95.62
291.602	80.62
291.833	86.62
292.064	80.62
292.295	84.62
292.526	92.62
292.757	79.62
292.987	92.62
293.218	77.62
293.449	79.62
293.68	77.62
293.91	86.62
294.141	76.62
294.372	67.62
294.603	81.62
294.833	77.62
295.064	87.62
295.295	86.62
295.525	83.62
295.756	83.62
295.987	80.62
296.217	83.62
296.448	73.62
296.679	90.62
296.909	90.62
297.14	102.62
297.37	93.62
297.601	86.62
297.831	82.62
298.062	76.62
298.292	90.62
298.523	91.62
298.753	86.62
298.984	87.62
299.214	87.62
299.445	84.62
299.675	80.62
299.905	94.62
300.136	94.62
300.366	84.62
300.597	80.62
300.827	85.62
301.057	91.62
301.288	75.62
301.518	91.62
301.748	87.62
301.979	79.62
302.209	90.62
302.439	89.62
302.669	81.62
302.9	76.62
303.13	84.62
303.36	86.62
303.59	84.62
303.82	82.62
304.051	88.62
304.281	83.62
304.511	87.62
304.741	104.62
304.971	79.62
305.201	84.62
305.431	88.62
305.661	86.62
305.891	88.62
306.121	71.62
306.352	78.62
306.582	87.62
306.812	86.62
307.042	91.62
307.272	91.62
307.502	74.62
307.731	92.62
307.961	96.62
308.191	85.62
308.421	94.62
308.651	101.62
308.881	93.62
309.111	72.62
309.341	99.62
309.571	92.62
309.8	91.62
310.03	84.62
310.26	80.62
310.49	70.62
310.72	81.62
310.949	88.62
311.179	80.62
311.409	79.62
311.639	79.62
311.868	90.62
312.098	90.62
312.328	87.62
312.557	94.62
312.787	79.62
313.017	77.62
313.246	89.62
313.476	90.62
313.706	84.62
313.935	74.62
314.165	83.62
314.394	84.62
314.624	81.62
314.853	84.62
315.083	91.62
315.312	89.62
315.542	90.62
315.771	70.62
316.001	77.62
316.23	76.62
316.46	79.62
316.689	90.62
316.919	87.62
317.148	73.62
317.377	92.62
317.607	90.62
317.836	79.62
318.065	79.62
318.295	87.62
318.524	96.62
318.753	66.62
318.983	88.62
319.212	83.62
319.441	85.62
319.67	84.62
319.9	90.62
320.129	80.62
320.358	79.62
320.587	98.62
320.816	86.62
321.046	90.62
321.275	81.62
321.504	89.62
321.733	72.62
321.962	88.62
322.191	84.62
322.42	85.62
322.649	84.62
322.878	85.62
323.108	86.62
323.337	80.62
323.566	83.62
323.795	100.62
324.024	88.62
324.253	87.62
324.482	85.62
324.71	88.62
324.939	79.62
325.168	102.62
325.397	80.62
325.626	77.62
325.855	88.62
326.084	74.62
326.313	80.62
326.542	82.62
326.77	78.62
326.999	76.62
327.228	81.62
327.457	82.62
327.686	85.62
327.914	82.62
328.143	94.62
328.372	96.62
328.6	82.62
328.829	72.62
329.058	87.62
329.287	81.62
329.515	84.62
329.744	96.62
329.972	92.62
330.201	71.62
330.43	80.62
330.658	88.62
330.887	84.62
331.115	77.62
331.344	102.62
331.572	91.62
331.801	104.62
332.03	83.62
332.258	89.62
332.486	95.62
332.715	72.62
332.943	85.62
333.172	77.62
333.4	83.62
333.629	94.62
333.857	74.62
334.085	80.62
334.314	91.62
334.542	95.62
334.771	86.62
334.999	87.62
335.227	85.62
335.455	87.62
335.684	90.62
335.912	84.62
336.14	85.62
336.369	84.62
336.597	88.62
336.825	86.62
337.053	91.62
337.281	84.62
337.51	92.62
337.738	87.62
337.966	93.62
338.194	90.62
338.422	84.62
338.65	73.62
338.878	76.62
339.106	71.62
339.334	76.62
339.562	68.62
339.79	77.62
340.018	81.62
340.246	80.62
340.474	85.62
340.702	80.62
340.93	98.62
341.158	92.62
341.386	77.62
341.614	73.62
341.842	76.62
342.07	95.62
342.298	97.62
342.526	81.62
342.754	75.62
342.981	86.62
343.209	74.62
343.437	82.62
343.665	78.62
343.893	78.62
344.12	89.62
344.348	96.62
344.576	85.62
344.804	88.62
345.031	91.62
345.259	96.62
345.487	88.62
345.714	73.62
345.942	83.62
346.17	83.62
346.397	80.62
346.625	77.62
346.853	84.62
347.08	91.62
347.308	87.62
347.535	92.62
347.763	100.62
347.99	82.62
348.218	87.62
348.445	80.62
348.673	92.62
348.9	78.62
349.128	85.62
349.355	74.62
349.583	98.62
349.81	95.62
350.037	84.62
350.265	103.62
350.492	71.62
350.72	81.62
350.947	66.62
351.174	76.62
351.402	94.62
351.629	89.62
351.856	85.62
352.083	101.62
352.311	88.62
352.538	91.62
352.765	82.62
352.992	98.62
353.22	77.62
353.447	85.62
353.674	79.62
353.901	88.62
354.128	92.62
354.355	84.62
354.583	80.62
354.81	92.62
355.037	90.62
355.264	71.62
355.491	79.62
355.718	87.62
355.945	82.62
356.172	88.62
356.399	90.62
356.626	71.62
356.853	93.62
357.08	90.62
357.307	92.62
357.534	67.62
357.761	83.62
357.988	85.62
358.215	88.62
358.441	84.62
358.668	85.62
358.895	82.62
359.122	94.62
359.349	81.62
359.576	88.62
359.802	76.62
360.029	89.62
360.256	84.62
360.483	92.62
360.709	75.62
360.936	97.62
361.163	93.62
361.39	77.62
361.616	86.62
361.843	83.62
362.07	90.62
362.296	87.62
362.523	98.62
362.749	92.62
362.976	92.62
363.203	98.62
363.429	92.62
363.656	88.62
363.882	87.62
364.109	85.62
364.335	89.62
364.562	94.62
364.788	88.62
365.015	99.62
365.241	78.62
365.468	81.62
365.694	75.62
365.92	87.62
366.147	77.62
366.373	83.62
366.599	78.62
366.826	85.62
367.052	74.62
367.278	92.62
367.505	91.62
367.731	93.62
367.957	82.62
368.184	96.62
368.41	89.62
368.636	96.62
368.862	96.62
369.089	102.62
369.315	98.62
369.541	96.62
369.767	88.62
369.993	87.62
370.219	85.62
370.445	93.62
370.672	79.62
370.898	91.62
371.124	97.62
371.35	106.62
371.576	89.62
371.802	95.62
372.028	94.62
372.254	92.62
372.48	70.62
372.706	106.62
372.932	104.62
373.158	106.62
373.384	98.62
373.61	87.62
373.835	86.62
374.061	67.62
374.287	85.62
374.513	101.62
374.739	101.62
374.965	101.62
375.191	90.62
375.416	99.62
375.642	94.62
375.868	99.62
376.094	80.62
376.319	98.62
376.545	83.62
376.771	106.62
376.997	93.62
377.222	87.62
377.448	86.62
377.674	84.62
377.899	91.62
378.125	90.62
378.35	84.62
378.576	98.62
378.802	102.62
379.027	97.62
379.253	105.62
379.478	99.62
379.704	99.62
379.929	86.62
380.155	79.62
380.38	99.62
380.606	99.62
380.831	103.62
381.057	102.62
381.282	94.62
381.507	91.62
381.733	104.62
381.958	91.62
382.184	92.62
382.409	97.62
382.634	92.62
382.86	91.62
383.085	90.62
383.31	83.62
383.535	87.62
383.761	104.62
383.986	86.62
384.211	101.62
384.436	94.62
384.662	91.62
384.887	103.62
385.112	100.62
385.337	110.62
385.562	102.62
385.787	92.62
386.013	116.62
386.238	98.62
386.463	98.62
386.688	84.62
386.913	103.62
387.138	106.62
387.363	119.62
387.588	109.62
387.813	100.62
388.038	97.62
388.263	91.62
388.488	90.62
388.713	112.62
388.938	103.62
389.163	92.62
389.387	104.62
389.612	105.62
389.837	94.62
390.062	100.62
390.287	90.62
390.512	108.62
390.736	96.62
390.961	111.62
391.186	95.62
391.411	84.62
391.636	101.62
391.86	108.62
392.085	110.62
392.31	115.62
392.534	106.62
392.759	101.62
392.984	104.62
393.208	100.62
393.433	106.62
393.658	102.62
393.882	115.62
394.107	113.62
394.331	105.62
394.556	110.62
394.78	111.62
395.005	111.62
395.229	104.62
395.454	122.62
395.678	98.62
395.903	106.62
396.127	99.62
396.352	84.62
396.576	103.62
396.801	107.62
397.025	109.62
397.249	127.62
397.474	110.62
397.698	104.62
397.922	106.62
398.147	96.62
398.371	121.62
398.595	108.62
398.82	107.62
399.044	98.62
399.268	98.62
399.492	111.62
399.717	100.62
399.941	108.62
400.165	109.62
400.389	98.62
400.613	104.62
400.837	104.62
401.062	117.62
401.286	112.62
401.51	102.62
401.734	114.62
401.958	107.62
402.182	111.62
402.406	104.62
402.63	103.62
402.854	111.62
403.078	106.62
403.302	121.62
403.526	104.62
403.75	114.62
403.974	95.62
404.198	119.62
404.422	118.62
404.645	119.62
404.869	115.62
405.093	104.62
405.317	110.62
405.541	117.62
405.765	126.62
405.988	115.62
406.212	136.62
406.436	122.62
406.66	114.62
406.883	116.62
407.107	120.62
407.331	107.62
407.555	106.62
407.778	117.62
408.002	117.62
408.226	116.62
408.449	109.62
408.673	134.62
408.896	117.62
409.12	108.62
409.344	120.62
409.567	111.62
409.791	107.62
410.014	122.62
410.238	119.62
410.461	116.62
410.685	125.62
410.908	124.62
411.132	124.62
411.355	120.62
411.578	123.62
411.802	118.62
412.025	127.62
412.249	100.62
412.472	119.62
412.695	112.62
412.919	128.62
413.142	118.62
413.365	119.62
413.589	130.62
413.812	119.62
414.035	116.62
414.258	123.62
414.482	106.62
414.705	120.62
414.928	126.62
415.151	120.62
415.374	116.62
415.597	92.62
415.821	126.62
416.044	122.62
416.267	148.62
416.49	144.62
416.713	119.62
416.936	116.62
417.159	128.62
417.382	125.62
417.605	118.62
417.828	114.62
418.051	118.62
418.274	121.62
418.497	119.62
418.72	131.62
418.943	118.62
419.166	122.62
419.389	134.62
419.611	138.62
419.834	126.62
420.057	129.62
420.28	144.62
420.503	128.62
420.726	140.62
420.948	132.62
421.171	130.62
421.394	141.62
421.617	134.62
421.839	137.62
422.062	116.62
422.285	132.62
422.507	126.62
422.73	122.62
422.953	132.62
423.175	130.62
423.398	123.62
423.621	118.62
423.843	136.62
424.066	130.62
424.288	143.62
424.511	142.62
424.733	145.62
424.956	144.62
425.178	133.62
425.401	132.62
425.623	134.62
425.846	132.62
426.068	128.62
426.291	123.62
426.513	132.62
426.735	128.62
426.958	133.62
427.18	128.62
427.402	124.62
427.625	126.62
427.847	131.62
428.069	118.62
428.292	118.62
428.514	135.62
428.736	120.62
428.958	128.62
429.181	124.62
429.403	129.62
429.625	114.62
429.847	130.62
430.069	125.62
430.292	131.62
430.514	124.62
430.736	124.62
430.958	124.62
431.18	125.62
431.402	130.62
431.624	126.62
431.846	93.62
432.068	90.62
432.29	103.62
432.512	114.62
432.734	122.62
432.956	135.62
433.178	138.62
433.4	127.62
433.622	135.62
433.844	131.62
434.066	109.62
434.287	109.62
434.509	94.62
434.731	97.62
434.953	113.62
435.175	126.62
435.397	119.62
435.618	115.62
435.84	105.62
436.062	117.62
436.284	123.62
436.505	141.62
436.727	119.62
436.949	115.62
437.17	121.62
437.392	127.62
437.614	110.62
437.835	125.62
438.057	112.62
438.278	127.62
438.5	132.62
438.721	122.62
438.943	142.62
439.165	136.62
439.386	139.62
439.608	150.62
439.829	131.62
440.05	146.62
440.272	148.62
440.493	159.62
440.715	146.62
440.936	142.62
441.158	148.62
441.379	140.62
441.6	161.62
441.822	144.62
442.043	159.62
442.264	144.62
442.486	127.62
442.707	140.62
442.928	155.62
443.149	150.62
443.371	149.62
443.592	126.62
443.813	134.62
444.034	131.62
444.255	128.62
444.476	132.62
444.698	145.62
444.919	134.62
445.14	244.62
445.361	194.62
445.582	150.62
445.803	145.62
446.024	150.62
446.245	148.62
446.466	150.62
446.687	165.62
446.908	158.62
447.129	156.62
447.35	160.62
447.571	141.62
447.792	148.62
448.013	144.62
448.234	150.62
448.455	141.62
448.675	145.62
448.896	128.62
449.117	133.62
449.338	141.62
449.559	135.62
449.779	141.62
450	128.62
450.221	133.62
450.442	142.62
450.662	130.62
450.883	136.62
451.104	141.62
451.324	125.62
451.545	129.62
451.766	139.62
451.986	124.62
452.207	133.62
452.428	123.62
452.648	116.62
452.869	129.62
453.089	102.62
453.31	106.62
453.53	111.62
453.751	111.62
453.971	107.62
454.192	105.62
454.412	130.62
454.633	107.62
454.853	116.62
455.073	124.62
455.294	126.62
455.514	118.62
455.734	99.62
455.955	122.62
456.175	103.62
456.395	103.62
456.616	100.62
456.836	107.62
457.056	119.62
457.276	108.62
457.497	115.62
457.717	111.62
457.937	100.62
458.157	114.62
458.377	106.62
458.598	91.62
458.818	99.62
459.038	83.62
459.258	81.62
459.478	86.62
459.698	82.62
459.918	95.62
460.138	105.62
460.358	121.62
460.578	106.62
460.798	119.62
461.018	118.62
461.238	104.62
461.458	122.62
461.678	119.62
461.898	111.62
462.118	114.62
462.338	122.62
462.558	115.62
462.777	110.62
462.997	109.62
463.217	106.62
463.437	109.62
463.657	105.62
463.876	105.62
464.096	123.62
464.316	105.62
464.536	111.62
464.755	108.62
464.975	115.62
465.195	118.62
465.414	105.62
465.634	114.62
465.854	116.62
466.073	115.62
466.293	103.62
466.512	136.62
466.732	116.62
466.951	136.62
467.171	145.62
467.391	118.62
467.61	119.62
467.829	128.62
468.049	149.62
468.268	134.62
468.488	125.62
468.707	140.62
468.927	130.62
469.146	139.62
469.365	139.62
469.585	138.62
469.804	142.62
470.023	136.62
470.243	131.62
470.462	138.62
470.681	134.62
470.901	142.62
471.12	126.62
471.339	132.62
471.558	145.62
471.777	139.62
471.997	151.62
472.216	122.62
472.435	120.62
472.654	107.62
472.873	118.62
473.092	124.62
473.311	124.62
473.53	132.62
473.749	147.62
473.968	126.62
474.187	122.62
474.406	113.62
474.625	129.62
474.844	133.62
475.063	123.62
475.282	122.62
475.501	111.62
475.72	129.62
475.939	106.62
476.158	131.62
476.377	120.62
476.596	128.62
476.814	109.62
477.033	106.62
477.252	116.62
477.471	120.62
477.69	123.62
477.908	134.62
478.127	137.62
478.346	153.62
478.564	158.62
478.783	135.62
479.002	123.62
479.22	121.62
479.439	124.62
479.658	131.62
479.876	109.62
480.095	115.62
480.313	108.62
480.532	124.62
480.751	105.62
480.969	91.62
481.188	103.62
481.406	86.62
481.624	106.62
481.843	84.62
482.061	92.62
482.28	127.62
482.498	130.62
482.717	96.62
482.935	118.62
483.153	140.62
483.372	124.62
483.59	140.62
483.808	128.62
484.027	134.62
484.245	148.62
484.463	174.62
484.681	151.62
484.9	143.62
485.118	132.62
485.336	120.62
485.554	113.62
485.772	96.62
485.99	89.62
486.209	126.62
486.427	118.62
486.645	126.62
486.863	114.62
487.081	134.62
487.299	123.62
487.517	150.62
487.735	157.62
487.953	190.62
488.171	178.62
488.389	188.62
488.607	161.62
488.825	138.62
489.043	131.62
489.261	130.62
489.479	124.62
489.696	140.62
489.914	141.62
490.132	154.62
490.35	166.62
490.568	152.62
490.786	155.62
491.003	189.62
491.221	186.62
491.439	172.62
491.657	183.62
491.874	202.62
492.092	215.62
492.31	228.62
492.527	217.62
492.745	210.62
492.963	191.62
493.18	199.62
493.398	185.62
493.615	194.62
493.833	178.62
494.05	165.62
494.268	156.62
494.485	171.62
494.703	190.62
494.92	180.62
495.138	162.62
495.355	179.62
495.573	174.62
495.79	173.62
496.008	162.62
496.225	165.62
496.442	166.62
496.66	156.62
496.877	163.62
497.094	173.62
497.312	159.62
497.529	142.62
497.746	145.62
497.963	142.62
498.181	141.62
498.398	130.62
498.615	108.62
498.832	123.62
499.049	106.62
499.267	126.62
499.484	132.62
499.701	125.62
499.918	140.62
500.135	135.62
500.352	137.62
500.569	136.62
500.786	132.62
501.003	158.62
501.22	134.62
501.437	151.62
501.654	133.62
501.871	128.62
502.088	110.62
502.305	126.62
502.522	130.62
502.739	126.62
502.956	128.62
503.172	132.62
503.389	123.62
503.606	118.62
503.823	124.62
504.04	120.62
504.256	104.62
504.473	119.62
504.69	129.62
504.907	106.62
505.123	121.62
505.34	129.62
505.557	139.62
505.773	136.62
505.99	128.62
506.207	126.62
506.423	114.62
506.64	124.62
506.856	127.62
507.073	127.62
507.289	125.62
507.506	128.62
507.722	101.62
507.939	128.62
508.155	112.62
508.372	108.62
508.588	114.62
508.805	103.62
509.021	109.62
509.238	104.62
509.454	96.62
509.67	89.62
509.887	114.62
510.103	103.62
510.319	84.62
510.536	107.62
510.752	93.62
510.968	86.62
511.184	94.62
511.401	82.62
