Data from Location1.07152019.Energy5.Lamp.07192019.3%Agarose_HRD10591_14-31-47-015.txt Node
Date: Fri Jul 19 14:31:47 EDT 2019
User: cochatt
Spectrometer: HR+D1059
Trigger mode: 1
Integration Time (sec): 1.000000E-1
Scans to average: 1
Electric dark correction enabled: true
Nonlinearity correction enabled: false
Boxcar width: 0
XAxis mode: Wavelengths
Number of Pixels in Spectrum: 2048
>>>>>Begin Spectral Data<<<<<
223.165	-0.06
223.4	-0.06
223.635	-0.06
223.869	-24.06
224.104	-15.06
224.338	-10.06
224.573	-10.06
224.808	-10.06
225.042	-19.06
225.277	-7.06
225.511	8.94
225.746	-2.06
225.98	13.94
226.215	-2.06
226.449	9.94
226.683	16.94
226.918	14.94
227.152	34.94
227.387	38.94
227.621	39.94
227.856	44.94
228.09	44.94
228.324	65.94
228.559	51.94
228.793	59.94
229.027	53.94
229.262	65.94
229.496	67.94
229.73	54.94
229.964	73.94
230.199	68.94
230.433	69.94
230.667	70.94
230.901	77.94
231.136	78.94
231.37	74.94
231.604	67.94
231.838	79.94
232.072	82.94
232.306	90.94
232.541	82.94
232.775	72.94
233.009	75.94
233.243	85.94
233.477	86.94
233.711	78.94
233.945	80.94
234.179	81.94
234.413	84.94
234.647	78.94
234.881	75.94
235.115	91.94
235.349	85.94
235.583	76.94
235.817	70.94
236.051	84.94
236.285	72.94
236.519	67.94
236.753	70.94
236.987	68.94
237.221	77.94
237.455	68.94
237.689	78.94
237.922	79.94
238.156	71.94
238.39	69.94
238.624	73.94
238.858	61.94
239.091	72.94
239.325	80.94
239.559	75.94
239.793	85.94
240.027	73.94
240.26	68.94
240.494	79.94
240.728	85.94
240.961	82.94
241.195	85.94
241.429	72.94
241.662	81.94
241.896	79.94
242.13	80.94
242.363	88.94
242.597	70.94
242.83	92.94
243.064	62.94
243.298	86.94
243.531	83.94
243.765	74.94
243.998	86.94
244.232	77.94
244.465	73.94
244.699	77.94
244.932	76.94
245.166	71.94
245.399	89.94
245.633	63.94
245.866	75.94
246.099	95.94
246.333	90.94
246.566	74.94
246.8	66.94
247.033	95.94
247.266	66.94
247.5	78.94
247.733	74.94
247.966	87.94
248.2	78.94
248.433	74.94
248.666	93.94
248.899	73.94
249.133	75.94
249.366	78.94
249.599	84.94
249.832	76.94
250.066	81.94
250.299	82.94
250.532	85.94
250.765	73.94
250.998	92.94
251.231	81.94
251.465	75.94
251.698	85.94
251.931	87.94
252.164	84.94
252.397	75.94
252.63	74.94
252.863	83.94
253.096	84.94
253.329	84.94
253.562	86.94
253.795	81.94
254.028	96.94
254.261	71.94
254.494	84.94
254.727	80.94
254.96	78.94
255.193	75.94
255.426	75.94
255.659	83.94
255.892	84.94
256.124	78.94
256.357	88.94
256.59	78.94
256.823	76.94
257.056	86.94
257.289	80.94
257.521	94.94
257.754	70.94
257.987	86.94
258.22	74.94
258.452	71.94
258.685	92.94
258.918	82.94
259.151	85.94
259.383	94.94
259.616	66.94
259.849	76.94
260.081	89.94
260.314	84.94
260.547	90.94
260.779	88.94
261.012	70.94
261.244	85.94
261.477	87.94
261.71	71.94
261.942	75.94
262.175	87.94
262.407	76.94
262.64	80.94
262.872	78.94
263.105	89.94
263.337	100.94
263.57	68.94
263.802	80.94
264.035	96.94
264.267	88.94
264.499	77.94
264.732	89.94
264.964	68.94
265.197	83.94
265.429	92.94
265.661	80.94
265.894	87.94
266.126	86.94
266.358	80.94
266.591	89.94
266.823	79.94
267.055	75.94
267.287	83.94
267.52	82.94
267.752	78.94
267.984	82.94
268.216	77.94
268.448	71.94
268.681	83.94
268.913	78.94
269.145	81.94
269.377	87.94
269.609	83.94
269.841	90.94
270.073	85.94
270.306	90.94
270.538	88.94
270.77	73.94
271.002	99.94
271.234	78.94
271.466	84.94
271.698	83.94
271.93	87.94
272.162	79.94
272.394	97.94
272.626	87.94
272.858	86.94
273.09	84.94
273.322	78.94
273.553	80.94
273.785	85.94
274.017	82.94
274.249	73.94
274.481	86.94
274.713	90.94
274.945	82.94
275.176	85.94
275.408	90.94
275.64	75.94
275.872	66.94
276.104	88.94
276.335	85.94
276.567	80.94
276.799	81.94
277.031	88.94
277.262	84.94
277.494	85.94
277.726	73.94
277.957	92.94
278.189	91.94
278.421	69.94
278.652	90.94
278.884	82.94
279.115	77.94
279.347	88.94
279.579	68.94
279.81	80.94
280.042	92.94
280.273	89.94
280.505	77.94
280.736	78.94
280.968	84.94
281.199	77.94
281.431	83.94
281.662	83.94
281.894	67.94
282.125	80.94
282.356	84.94
282.588	83.94
282.819	75.94
283.051	65.94
283.282	77.94
283.513	77.94
283.745	88.94
283.976	97.94
284.207	92.94
284.439	84.94
284.67	99.94
284.901	74.94
285.132	87.94
285.364	96.94
285.595	81.94
285.826	91.94
286.057	91.94
286.288	91.94
286.52	86.94
286.751	82.94
286.982	91.94
287.213	88.94
287.444	88.94
287.675	89.94
287.906	94.94
288.138	82.94
288.369	93.94
288.6	98.94
288.831	82.94
289.062	95.94
289.293	95.94
289.524	83.94
289.755	85.94
289.986	80.94
290.217	82.94
290.448	98.94
290.679	85.94
290.91	96.94
291.141	78.94
291.371	87.94
291.602	95.94
291.833	88.94
292.064	81.94
292.295	74.94
292.526	80.94
292.757	79.94
292.987	95.94
293.218	87.94
293.449	85.94
293.68	74.94
293.91	83.94
294.141	74.94
294.372	67.94
294.603	83.94
294.833	89.94
295.064	87.94
295.295	83.94
295.525	88.94
295.756	83.94
295.987	88.94
296.217	83.94
296.448	77.94
296.679	82.94
296.909	96.94
297.14	85.94
297.37	90.94
297.601	87.94
297.831	79.94
298.062	82.94
298.292	90.94
298.523	76.94
298.753	82.94
298.984	67.94
299.214	81.94
299.445	88.94
299.675	108.94
299.905	90.94
300.136	85.94
300.366	90.94
300.597	79.94
300.827	87.94
301.057	80.94
301.288	82.94
301.518	74.94
301.748	75.94
301.979	91.94
302.209	71.94
302.439	77.94
302.669	89.94
302.9	69.94
303.13	86.94
303.36	81.94
303.59	84.94
303.82	76.94
304.051	95.94
304.281	87.94
304.511	81.94
304.741	103.94
304.971	88.94
305.201	83.94
305.431	83.94
305.661	81.94
305.891	80.94
306.121	83.94
306.352	80.94
306.582	86.94
306.812	79.94
307.042	89.94
307.272	82.94
307.502	87.94
307.731	88.94
307.961	78.94
308.191	76.94
308.421	94.94
308.651	81.94
308.881	84.94
309.111	101.94
309.341	86.94
309.571	81.94
309.8	82.94
310.03	76.94
310.26	74.94
310.49	85.94
310.72	83.94
310.949	94.94
311.179	87.94
311.409	78.94
311.639	86.94
311.868	92.94
312.098	88.94
312.328	88.94
312.557	96.94
312.787	79.94
313.017	83.94
313.246	83.94
313.476	64.94
313.706	80.94
313.935	81.94
314.165	87.94
314.394	76.94
314.624	85.94
314.853	76.94
315.083	98.94
315.312	78.94
315.542	98.94
315.771	79.94
316.001	85.94
316.23	77.94
316.46	71.94
316.689	93.94
316.919	81.94
317.148	89.94
317.377	101.94
317.607	85.94
317.836	80.94
318.065	97.94
318.295	90.94
318.524	82.94
318.753	81.94
318.983	73.94
319.212	83.94
319.441	80.94
319.67	90.94
319.9	102.94
320.129	75.94
320.358	84.94
320.587	77.94
320.816	86.94
321.046	76.94
321.275	82.94
321.504	98.94
321.733	82.94
321.962	72.94
322.191	85.94
322.42	94.94
322.649	77.94
322.878	92.94
323.108	83.94
323.337	79.94
323.566	98.94
323.795	88.94
324.024	89.94
324.253	92.94
324.482	81.94
324.71	96.94
324.939	89.94
325.168	84.94
325.397	80.94
325.626	90.94
325.855	86.94
326.084	77.94
326.313	87.94
326.542	79.94
326.77	81.94
326.999	77.94
327.228	90.94
327.457	90.94
327.686	83.94
327.914	91.94
328.143	79.94
328.372	82.94
328.6	78.94
328.829	82.94
329.058	82.94
329.287	83.94
329.515	76.94
329.744	95.94
329.972	84.94
330.201	78.94
330.43	95.94
330.658	75.94
330.887	78.94
331.115	89.94
331.344	85.94
331.572	82.94
331.801	103.94
332.03	82.94
332.258	78.94
332.486	86.94
332.715	79.94
332.943	93.94
333.172	85.94
333.4	86.94
333.629	85.94
333.857	102.94
334.085	73.94
334.314	90.94
334.542	77.94
334.771	81.94
334.999	95.94
335.227	79.94
335.455	82.94
335.684	80.94
335.912	82.94
336.14	78.94
336.369	76.94
336.597	93.94
336.825	79.94
337.053	78.94
337.281	79.94
337.51	82.94
337.738	85.94
337.966	85.94
338.194	88.94
338.422	90.94
338.65	84.94
338.878	107.94
339.106	82.94
339.334	89.94
339.562	79.94
339.79	85.94
340.018	101.94
340.246	93.94
340.474	91.94
340.702	89.94
340.93	88.94
341.158	73.94
341.386	78.94
341.614	76.94
341.842	80.94
342.07	80.94
342.298	106.94
342.526	94.94
342.754	93.94
342.981	90.94
343.209	79.94
343.437	84.94
343.665	79.94
343.893	76.94
344.12	76.94
344.348	87.94
344.576	85.94
344.804	76.94
345.031	77.94
345.259	71.94
345.487	84.94
345.714	91.94
345.942	80.94
346.17	74.94
346.397	81.94
346.625	84.94
346.853	66.94
347.08	86.94
347.308	73.94
347.535	84.94
347.763	92.94
347.99	91.94
348.218	98.94
348.445	93.94
348.673	87.94
348.9	91.94
349.128	90.94
349.355	89.94
349.583	86.94
349.81	90.94
350.037	91.94
350.265	92.94
350.492	84.94
350.72	75.94
350.947	83.94
351.174	82.94
351.402	84.94
351.629	83.94
351.856	89.94
352.083	67.94
352.311	85.94
352.538	97.94
352.765	89.94
352.992	82.94
353.22	88.94
353.447	82.94
353.674	82.94
353.901	91.94
354.128	79.94
354.355	91.94
354.583	86.94
354.81	78.94
355.037	91.94
355.264	81.94
355.491	78.94
355.718	87.94
355.945	68.94
356.172	83.94
356.399	85.94
356.626	89.94
356.853	95.94
357.08	90.94
357.307	75.94
357.534	81.94
357.761	80.94
357.988	78.94
358.215	84.94
358.441	88.94
358.668	87.94
358.895	84.94
359.122	80.94
359.349	93.94
359.576	79.94
359.802	64.94
360.029	95.94
360.256	78.94
360.483	80.94
360.709	87.94
360.936	97.94
361.163	105.94
361.39	90.94
361.616	98.94
361.843	89.94
362.07	84.94
362.296	76.94
362.523	74.94
362.749	84.94
362.976	70.94
363.203	82.94
363.429	76.94
363.656	84.94
363.882	90.94
364.109	73.94
364.335	82.94
364.562	68.94
364.788	71.94
365.015	81.94
365.241	83.94
365.468	80.94
365.694	78.94
365.92	95.94
366.147	95.94
366.373	90.94
366.599	87.94
366.826	85.94
367.052	93.94
367.278	77.94
367.505	79.94
367.731	98.94
367.957	80.94
368.184	83.94
368.41	79.94
368.636	89.94
368.862	80.94
369.089	73.94
369.315	91.94
369.541	83.94
369.767	82.94
369.993	84.94
370.219	114.94
370.445	86.94
370.672	95.94
370.898	82.94
371.124	94.94
371.35	85.94
371.576	99.94
371.802	83.94
372.028	89.94
372.254	93.94
372.48	97.94
372.706	91.94
372.932	87.94
373.158	88.94
373.384	103.94
373.61	92.94
373.835	86.94
374.061	93.94
374.287	93.94
374.513	101.94
374.739	82.94
374.965	92.94
375.191	98.94
375.416	84.94
375.642	93.94
375.868	100.94
376.094	84.94
376.319	102.94
376.545	101.94
376.771	88.94
376.997	94.94
377.222	100.94
377.448	90.94
377.674	101.94
377.899	86.94
378.125	81.94
378.35	85.94
378.576	107.94
378.802	95.94
379.027	89.94
379.253	85.94
379.478	88.94
379.704	95.94
379.929	102.94
380.155	89.94
380.38	95.94
380.606	94.94
380.831	83.94
381.057	104.94
381.282	100.94
381.507	87.94
381.733	93.94
381.958	96.94
382.184	93.94
382.409	95.94
382.634	103.94
382.86	85.94
383.085	105.94
383.31	91.94
383.535	93.94
383.761	104.94
383.986	101.94
384.211	90.94
384.436	88.94
384.662	94.94
384.887	108.94
385.112	107.94
385.337	101.94
385.562	102.94
385.787	99.94
386.013	107.94
386.238	113.94
386.463	104.94
386.688	95.94
386.913	98.94
387.138	104.94
387.363	91.94
387.588	95.94
387.813	102.94
388.038	102.94
388.263	99.94
388.488	98.94
388.713	106.94
388.938	94.94
389.163	92.94
389.387	99.94
389.612	92.94
389.837	88.94
390.062	98.94
390.287	95.94
390.512	94.94
390.736	95.94
390.961	117.94
391.186	102.94
391.411	100.94
391.636	105.94
391.86	102.94
392.085	93.94
392.31	104.94
392.534	111.94
392.759	106.94
392.984	101.94
393.208	97.94
393.433	98.94
393.658	92.94
393.882	106.94
394.107	109.94
394.331	95.94
394.556	96.94
394.78	108.94
395.005	108.94
395.229	111.94
395.454	103.94
395.678	106.94
395.903	95.94
396.127	111.94
396.352	119.94
396.576	114.94
396.801	99.94
397.025	110.94
397.249	100.94
397.474	106.94
397.698	90.94
397.922	103.94
398.147	105.94
398.371	108.94
398.595	117.94
398.82	94.94
399.044	105.94
399.268	102.94
399.492	103.94
399.717	120.94
399.941	107.94
400.165	98.94
400.389	106.94
400.613	133.94
400.837	119.94
401.062	125.94
401.286	116.94
401.51	122.94
401.734	118.94
401.958	104.94
402.182	99.94
402.406	111.94
402.63	96.94
402.854	114.94
403.078	126.94
403.302	106.94
403.526	105.94
403.75	133.94
403.974	108.94
404.198	128.94
404.422	113.94
404.645	110.94
404.869	120.94
405.093	102.94
405.317	128.94
405.541	114.94
405.765	108.94
405.988	124.94
406.212	113.94
406.436	117.94
406.66	121.94
406.883	127.94
407.107	101.94
407.331	124.94
407.555	119.94
407.778	116.94
408.002	108.94
408.226	125.94
408.449	117.94
408.673	112.94
408.896	118.94
409.12	104.94
409.344	117.94
409.567	120.94
409.791	119.94
410.014	125.94
410.238	126.94
410.461	107.94
410.685	120.94
410.908	116.94
411.132	116.94
411.355	127.94
411.578	115.94
411.802	111.94
412.025	124.94
412.249	116.94
412.472	115.94
412.695	123.94
412.919	114.94
413.142	132.94
413.365	127.94
413.589	119.94
413.812	119.94
414.035	106.94
414.258	140.94
414.482	121.94
414.705	121.94
414.928	123.94
415.151	122.94
415.374	129.94
415.597	118.94
415.821	109.94
416.044	118.94
416.267	127.94
416.49	123.94
416.713	118.94
416.936	137.94
417.159	130.94
417.382	123.94
417.605	119.94
417.828	119.94
418.051	123.94
418.274	130.94
418.497	126.94
418.72	131.94
418.943	120.94
419.166	133.94
419.389	140.94
419.611	142.94
419.834	133.94
420.057	122.94
420.28	140.94
420.503	128.94
420.726	128.94
420.948	129.94
421.171	124.94
421.394	127.94
421.617	134.94
421.839	137.94
422.062	138.94
422.285	134.94
422.507	117.94
422.73	129.94
422.953	118.94
423.175	126.94
423.398	133.94
423.621	118.94
423.843	132.94
424.066	136.94
424.288	140.94
424.511	116.94
424.733	141.94
424.956	136.94
425.178	144.94
425.401	137.94
425.623	136.94
425.846	144.94
426.068	143.94
426.291	130.94
426.513	128.94
426.735	128.94
426.958	127.94
427.18	140.94
427.402	132.94
427.625	124.94
427.847	133.94
428.069	121.94
428.292	125.94
428.514	137.94
428.736	126.94
428.958	109.94
429.181	120.94
429.403	107.94
429.625	129.94
429.847	132.94
430.069	132.94
430.292	116.94
430.514	115.94
430.736	132.94
430.958	137.94
431.18	120.94
431.402	130.94
431.624	127.94
431.846	107.94
432.068	108.94
432.29	97.94
432.512	112.94
432.734	130.94
432.956	121.94
433.178	123.94
433.4	125.94
433.622	122.94
433.844	127.94
434.066	123.94
434.287	99.94
434.509	97.94
434.731	84.94
434.953	120.94
435.175	124.94
435.397	129.94
435.618	104.94
435.84	108.94
436.062	118.94
436.284	124.94
436.505	135.94
436.727	136.94
436.949	128.94
437.17	133.94
437.392	121.94
437.614	118.94
437.835	114.94
438.057	91.94
438.278	106.94
438.5	115.94
438.721	137.94
438.943	143.94
439.165	146.94
439.386	147.94
439.608	156.94
439.829	146.94
440.05	148.94
440.272	139.94
440.493	137.94
440.715	143.94
440.936	146.94
441.158	141.94
441.379	141.94
441.6	138.94
441.822	142.94
442.043	143.94
442.264	130.94
442.486	140.94
442.707	132.94
442.928	121.94
443.149	135.94
443.371	134.94
443.592	134.94
443.813	137.94
444.034	130.94
444.255	134.94
444.476	139.94
444.698	132.94
444.919	131.94
445.14	251.94
445.361	203.94
445.582	152.94
445.803	148.94
446.024	147.94
446.245	142.94
446.466	156.94
446.687	127.94
446.908	158.94
447.129	149.94
447.35	143.94
447.571	136.94
447.792	155.94
448.013	154.94
448.234	151.94
448.455	150.94
448.675	140.94
448.896	151.94
449.117	115.94
449.338	137.94
449.559	124.94
449.779	130.94
450	127.94
450.221	132.94
450.442	142.94
450.662	131.94
450.883	130.94
451.104	137.94
451.324	150.94
451.545	120.94
451.766	131.94
451.986	120.94
452.207	127.94
452.428	121.94
452.648	139.94
452.869	128.94
453.089	105.94
453.31	117.94
453.53	108.94
453.751	108.94
453.971	103.94
454.192	102.94
454.412	126.94
454.633	130.94
454.853	128.94
455.073	108.94
455.294	119.94
455.514	116.94
455.734	108.94
455.955	109.94
456.175	117.94
456.395	113.94
456.616	109.94
456.836	100.94
457.056	108.94
457.276	108.94
457.497	104.94
457.717	111.94
457.937	101.94
458.157	118.94
458.377	102.94
458.598	109.94
458.818	94.94
459.038	94.94
459.258	89.94
459.478	80.94
459.698	95.94
459.918	95.94
460.138	115.94
460.358	101.94
460.578	110.94
460.798	117.94
461.018	115.94
461.238	110.94
461.458	119.94
461.678	130.94
461.898	99.94
462.118	117.94
462.338	114.94
462.558	100.94
462.777	114.94
462.997	121.94
463.217	108.94
463.437	124.94
463.657	130.94
463.876	100.94
464.096	104.94
464.316	100.94
464.536	94.94
464.755	107.94
464.975	88.94
465.195	116.94
465.414	116.94
465.634	114.94
465.854	106.94
466.073	126.94
466.293	129.94
466.512	123.94
466.732	126.94
466.951	130.94
467.171	138.94
467.391	123.94
467.61	129.94
467.829	134.94
468.049	134.94
468.268	132.94
468.488	139.94
468.707	134.94
468.927	144.94
469.146	133.94
469.365	132.94
469.585	136.94
469.804	134.94
470.023	139.94
470.243	148.94
470.462	128.94
470.681	136.94
470.901	137.94
471.12	150.94
471.339	132.94
471.558	140.94
471.777	135.94
471.997	136.94
472.216	123.94
472.435	100.94
472.654	116.94
472.873	105.94
473.092	122.94
473.311	126.94
473.53	123.94
473.749	146.94
473.968	128.94
474.187	131.94
474.406	109.94
474.625	133.94
474.844	136.94
475.063	133.94
475.282	134.94
475.501	131.94
475.72	126.94
475.939	115.94
476.158	134.94
476.377	124.94
476.596	133.94
476.814	119.94
477.033	106.94
477.252	102.94
477.471	127.94
477.69	136.94
477.908	138.94
478.127	148.94
478.346	130.94
478.564	125.94
478.783	126.94
479.002	122.94
479.22	130.94
479.439	142.94
479.658	134.94
479.876	123.94
480.095	116.94
480.313	122.94
480.532	108.94
480.751	104.94
480.969	96.94
481.188	92.94
481.406	91.94
481.624	92.94
481.843	91.94
482.061	95.94
482.28	110.94
482.498	111.94
482.717	118.94
482.935	111.94
483.153	130.94
483.372	150.94
483.59	134.94
483.808	138.94
484.027	138.94
484.245	147.94
484.463	156.94
484.681	160.94
484.9	135.94
485.118	146.94
485.336	139.94
485.554	113.94
485.772	113.94
485.99	101.94
486.209	115.94
486.427	107.94
486.645	128.94
486.863	139.94
487.081	128.94
487.299	133.94
487.517	128.94
487.735	170.94
487.953	198.94
488.171	162.94
488.389	155.94
488.607	164.94
488.825	146.94
489.043	127.94
489.261	124.94
489.479	128.94
489.696	140.94
489.914	145.94
490.132	133.94
490.35	165.94
490.568	142.94
490.786	165.94
491.003	166.94
491.221	149.94
491.439	178.94
491.657	180.94
491.874	180.94
492.092	216.94
492.31	227.94
492.527	227.94
492.745	205.94
492.963	183.94
493.18	184.94
493.398	171.94
493.615	175.94
493.833	179.94
494.05	173.94
494.268	155.94
494.485	174.94
494.703	173.94
494.92	165.94
495.138	166.94
495.355	166.94
495.573	163.94
495.79	164.94
496.008	168.94
496.225	167.94
496.442	171.94
496.66	174.94
496.877	150.94
497.094	156.94
497.312	162.94
497.529	169.94
497.746	166.94
497.963	130.94
498.181	131.94
498.398	138.94
498.615	125.94
498.832	111.94
499.049	111.94
499.267	122.94
499.484	132.94
499.701	126.94
499.918	138.94
500.135	136.94
500.352	141.94
500.569	141.94
500.786	151.94
501.003	150.94
501.22	142.94
501.437	148.94
501.654	142.94
501.871	123.94
502.088	124.94
502.305	138.94
502.522	124.94
502.739	130.94
502.956	132.94
503.172	123.94
503.389	122.94
503.606	135.94
503.823	139.94
504.04	127.94
504.256	122.94
504.473	110.94
504.69	126.94
504.907	124.94
505.123	116.94
505.34	115.94
505.557	126.94
505.773	107.94
505.99	117.94
506.207	114.94
506.423	112.94
506.64	117.94
506.856	115.94
507.073	122.94
507.289	114.94
507.506	127.94
507.722	124.94
507.939	102.94
508.155	103.94
508.372	114.94
508.588	118.94
508.805	114.94
509.021	110.94
509.238	97.94
509.454	102.94
509.67	106.94
509.887	90.94
510.103	94.94
510.319	112.94
510.536	99.94
510.752	81.94
510.968	80.94
511.184	78.94
511.401	88.94
511.617	92.94
