Data from Location1.07152019.Energy5.Lamp.07192019.3%Agarose_HRD10591_14-31-06-015.txt Node
Date: Fri Jul 19 14:31:06 EDT 2019
User: cochatt
Spectrometer: HR+D1059
Trigger mode: 1
Integration Time (sec): 1.000000E-1
Scans to average: 1
Electric dark correction enabled: true
Nonlinearity correction enabled: false
Boxcar width: 0
XAxis mode: Wavelengths
Number of Pixels in Spectrum: 2048
>>>>>Begin Spectral Data<<<<<
223.165	-14.5
223.4	-14.5
223.635	-14.5
223.869	-9.5
224.104	-15.5
224.338	-1.5
224.573	-10.5
224.808	-17.5
225.042	-9.5
225.277	-4.5
225.511	-0.5
225.746	-1.5
225.98	0.5
226.215	3.5
226.449	-2.5
226.683	20.5
226.918	24.5
227.152	38.5
227.387	35.5
227.621	41.5
227.856	49.5
228.09	30.5
228.324	42.5
228.559	56.5
228.793	58.5
229.027	73.5
229.262	66.5
229.496	55.5
229.73	67.5
229.964	77.5
230.199	57.5
230.433	62.5
230.667	79.5
230.901	76.5
231.136	75.5
231.37	73.5
231.604	91.5
231.838	79.5
232.072	81.5
232.306	73.5
232.541	79.5
232.775	74.5
233.009	72.5
233.243	82.5
233.477	86.5
233.711	89.5
233.945	83.5
234.179	86.5
234.413	71.5
234.647	70.5
234.881	72.5
235.115	87.5
235.349	79.5
235.583	89.5
235.817	76.5
236.051	93.5
236.285	96.5
236.519	84.5
236.753	91.5
236.987	70.5
237.221	69.5
237.455	73.5
237.689	77.5
237.922	76.5
238.156	77.5
238.39	75.5
238.624	73.5
238.858	86.5
239.091	83.5
239.325	89.5
239.559	65.5
239.793	71.5
240.027	79.5
240.26	77.5
240.494	92.5
240.728	73.5
240.961	75.5
241.195	76.5
241.429	78.5
241.662	93.5
241.896	62.5
242.13	67.5
242.363	78.5
242.597	83.5
242.83	84.5
243.064	72.5
243.298	78.5
243.531	85.5
243.765	79.5
243.998	73.5
244.232	74.5
244.465	86.5
244.699	75.5
244.932	81.5
245.166	77.5
245.399	80.5
245.633	93.5
245.866	93.5
246.099	82.5
246.333	81.5
246.566	70.5
246.8	66.5
247.033	77.5
247.266	73.5
247.5	69.5
247.733	75.5
247.966	80.5
248.2	73.5
248.433	76.5
248.666	83.5
248.899	79.5
249.133	75.5
249.366	84.5
249.599	79.5
249.832	63.5
250.066	82.5
250.299	89.5
250.532	71.5
250.765	69.5
250.998	77.5
251.231	72.5
251.465	73.5
251.698	84.5
251.931	81.5
252.164	66.5
252.397	85.5
252.63	92.5
252.863	83.5
253.096	81.5
253.329	72.5
253.562	81.5
253.795	79.5
254.028	74.5
254.261	70.5
254.494	69.5
254.727	75.5
254.96	85.5
255.193	78.5
255.426	81.5
255.659	71.5
255.892	84.5
256.124	90.5
256.357	87.5
256.59	83.5
256.823	83.5
257.056	85.5
257.289	85.5
257.521	97.5
257.754	85.5
257.987	79.5
258.22	85.5
258.452	90.5
258.685	68.5
258.918	83.5
259.151	85.5
259.383	94.5
259.616	93.5
259.849	76.5
260.081	83.5
260.314	68.5
260.547	79.5
260.779	88.5
261.012	73.5
261.244	89.5
261.477	84.5
261.71	71.5
261.942	69.5
262.175	82.5
262.407	88.5
262.64	85.5
262.872	96.5
263.105	84.5
263.337	79.5
263.57	91.5
263.802	82.5
264.035	64.5
264.267	68.5
264.499	89.5
264.732	73.5
264.964	85.5
265.197	85.5
265.429	89.5
265.661	62.5
265.894	94.5
266.126	79.5
266.358	92.5
266.591	70.5
266.823	75.5
267.055	86.5
267.287	80.5
267.52	72.5
267.752	79.5
267.984	89.5
268.216	68.5
268.448	83.5
268.681	79.5
268.913	75.5
269.145	81.5
269.377	73.5
269.609	81.5
269.841	76.5
270.073	83.5
270.306	90.5
270.538	86.5
270.77	88.5
271.002	76.5
271.234	83.5
271.466	90.5
271.698	77.5
271.93	75.5
272.162	83.5
272.394	91.5
272.626	79.5
272.858	72.5
273.09	94.5
273.322	68.5
273.553	72.5
273.785	93.5
274.017	90.5
274.249	94.5
274.481	92.5
274.713	81.5
274.945	78.5
275.176	79.5
275.408	82.5
275.64	83.5
275.872	86.5
276.104	83.5
276.335	91.5
276.567	73.5
276.799	88.5
277.031	98.5
277.262	73.5
277.494	79.5
277.726	81.5
277.957	79.5
278.189	79.5
278.421	76.5
278.652	69.5
278.884	87.5
279.115	79.5
279.347	84.5
279.579	91.5
279.81	74.5
280.042	92.5
280.273	80.5
280.505	80.5
280.736	102.5
280.968	82.5
281.199	71.5
281.431	93.5
281.662	71.5
281.894	90.5
282.125	95.5
282.356	85.5
282.588	73.5
282.819	81.5
283.051	85.5
283.282	79.5
283.513	89.5
283.745	84.5
283.976	93.5
284.207	73.5
284.439	76.5
284.67	86.5
284.901	83.5
285.132	90.5
285.364	74.5
285.595	90.5
285.826	90.5
286.057	93.5
286.288	87.5
286.52	90.5
286.751	91.5
286.982	89.5
287.213	89.5
287.444	80.5
287.675	76.5
287.906	85.5
288.138	85.5
288.369	76.5
288.6	92.5
288.831	92.5
289.062	84.5
289.293	91.5
289.524	93.5
289.755	86.5
289.986	81.5
290.217	76.5
290.448	99.5
290.679	101.5
290.91	86.5
291.141	89.5
291.371	88.5
291.602	86.5
291.833	81.5
292.064	77.5
292.295	88.5
292.526	87.5
292.757	93.5
292.987	73.5
293.218	77.5
293.449	85.5
293.68	81.5
293.91	85.5
294.141	99.5
294.372	89.5
294.603	81.5
294.833	83.5
295.064	78.5
295.295	81.5
295.525	95.5
295.756	87.5
295.987	99.5
296.217	95.5
296.448	97.5
296.679	95.5
296.909	81.5
297.14	88.5
297.37	70.5
297.601	66.5
297.831	78.5
298.062	91.5
298.292	77.5
298.523	81.5
298.753	88.5
298.984	92.5
299.214	81.5
299.445	83.5
299.675	73.5
299.905	79.5
300.136	78.5
300.366	93.5
300.597	94.5
300.827	100.5
301.057	91.5
301.288	83.5
301.518	83.5
301.748	84.5
301.979	85.5
302.209	90.5
302.439	88.5
302.669	81.5
302.9	93.5
303.13	79.5
303.36	89.5
303.59	81.5
303.82	88.5
304.051	67.5
304.281	80.5
304.511	91.5
304.741	84.5
304.971	94.5
305.201	86.5
305.431	99.5
305.661	90.5
305.891	79.5
306.121	85.5
306.352	76.5
306.582	110.5
306.812	89.5
307.042	85.5
307.272	95.5
307.502	85.5
307.731	78.5
307.961	83.5
308.191	86.5
308.421	85.5
308.651	82.5
308.881	75.5
309.111	74.5
309.341	86.5
309.571	101.5
309.8	92.5
310.03	76.5
310.26	87.5
310.49	87.5
310.72	87.5
310.949	83.5
311.179	84.5
311.409	87.5
311.639	83.5
311.868	89.5
312.098	84.5
312.328	81.5
312.557	81.5
312.787	85.5
313.017	77.5
313.246	107.5
313.476	90.5
313.706	79.5
313.935	85.5
314.165	89.5
314.394	96.5
314.624	79.5
314.853	82.5
315.083	86.5
315.312	69.5
315.542	90.5
315.771	78.5
316.001	89.5
316.23	84.5
316.46	94.5
316.689	83.5
316.919	76.5
317.148	76.5
317.377	69.5
317.607	83.5
317.836	87.5
318.065	72.5
318.295	100.5
318.524	88.5
318.753	75.5
318.983	85.5
319.212	83.5
319.441	70.5
319.67	88.5
319.9	75.5
320.129	85.5
320.358	97.5
320.587	85.5
320.816	81.5
321.046	93.5
321.275	93.5
321.504	92.5
321.733	85.5
321.962	88.5
322.191	91.5
322.42	83.5
322.649	83.5
322.878	95.5
323.108	80.5
323.337	74.5
323.566	83.5
323.795	87.5
324.024	88.5
324.253	96.5
324.482	85.5
324.71	75.5
324.939	86.5
325.168	74.5
325.397	76.5
325.626	78.5
325.855	94.5
326.084	77.5
326.313	76.5
326.542	104.5
326.77	72.5
326.999	91.5
327.228	85.5
327.457	86.5
327.686	82.5
327.914	79.5
328.143	76.5
328.372	85.5
328.6	87.5
328.829	97.5
329.058	81.5
329.287	70.5
329.515	74.5
329.744	88.5
329.972	84.5
330.201	82.5
330.43	84.5
330.658	84.5
330.887	90.5
331.115	72.5
331.344	93.5
331.572	99.5
331.801	83.5
332.03	86.5
332.258	78.5
332.486	70.5
332.715	87.5
332.943	86.5
333.172	90.5
333.4	99.5
333.629	98.5
333.857	82.5
334.085	89.5
334.314	80.5
334.542	85.5
334.771	83.5
334.999	88.5
335.227	86.5
335.455	80.5
335.684	83.5
335.912	79.5
336.14	97.5
336.369	91.5
336.597	88.5
336.825	81.5
337.053	84.5
337.281	90.5
337.51	82.5
337.738	90.5
337.966	68.5
338.194	89.5
338.422	78.5
338.65	83.5
338.878	77.5
339.106	73.5
339.334	89.5
339.562	94.5
339.79	92.5
340.018	85.5
340.246	76.5
340.474	77.5
340.702	78.5
340.93	90.5
341.158	83.5
341.386	79.5
341.614	80.5
341.842	79.5
342.07	81.5
342.298	97.5
342.526	75.5
342.754	79.5
342.981	76.5
343.209	87.5
343.437	79.5
343.665	76.5
343.893	86.5
344.12	82.5
344.348	78.5
344.576	61.5
344.804	76.5
345.031	72.5
345.259	91.5
345.487	81.5
345.714	89.5
345.942	83.5
346.17	92.5
346.397	71.5
346.625	79.5
346.853	84.5
347.08	85.5
347.308	94.5
347.535	87.5
347.763	90.5
347.99	94.5
348.218	87.5
348.445	75.5
348.673	88.5
348.9	99.5
349.128	89.5
349.355	93.5
349.583	76.5
349.81	86.5
350.037	76.5
350.265	74.5
350.492	87.5
350.72	75.5
350.947	67.5
351.174	85.5
351.402	79.5
351.629	86.5
351.856	88.5
352.083	61.5
352.311	87.5
352.538	75.5
352.765	77.5
352.992	84.5
353.22	95.5
353.447	74.5
353.674	90.5
353.901	92.5
354.128	77.5
354.355	88.5
354.583	73.5
354.81	83.5
355.037	68.5
355.264	77.5
355.491	81.5
355.718	85.5
355.945	82.5
356.172	79.5
356.399	74.5
356.626	87.5
356.853	79.5
357.08	85.5
357.307	70.5
357.534	89.5
357.761	86.5
357.988	85.5
358.215	67.5
358.441	90.5
358.668	77.5
358.895	75.5
359.122	82.5
359.349	80.5
359.576	73.5
359.802	98.5
360.029	71.5
360.256	79.5
360.483	87.5
360.709	73.5
360.936	89.5
361.163	85.5
361.39	69.5
361.616	77.5
361.843	80.5
362.07	74.5
362.296	79.5
362.523	72.5
362.749	80.5
362.976	68.5
363.203	82.5
363.429	87.5
363.656	83.5
363.882	71.5
364.109	79.5
364.335	79.5
364.562	84.5
364.788	82.5
365.015	83.5
365.241	76.5
365.468	77.5
365.694	62.5
365.92	82.5
366.147	79.5
366.373	78.5
366.599	80.5
366.826	85.5
367.052	102.5
367.278	76.5
367.505	87.5
367.731	92.5
367.957	88.5
368.184	86.5
368.41	79.5
368.636	89.5
368.862	88.5
369.089	89.5
369.315	84.5
369.541	96.5
369.767	98.5
369.993	93.5
370.219	95.5
370.445	86.5
370.672	86.5
370.898	86.5
371.124	88.5
371.35	90.5
371.576	90.5
371.802	89.5
372.028	86.5
372.254	90.5
372.48	102.5
372.706	87.5
372.932	84.5
373.158	88.5
373.384	88.5
373.61	99.5
373.835	94.5
374.061	81.5
374.287	94.5
374.513	90.5
374.739	88.5
374.965	98.5
375.191	86.5
375.416	89.5
375.642	94.5
375.868	87.5
376.094	89.5
376.319	92.5
376.545	88.5
376.771	78.5
376.997	85.5
377.222	86.5
377.448	97.5
377.674	90.5
377.899	87.5
378.125	86.5
378.35	102.5
378.576	84.5
378.802	83.5
379.027	94.5
379.253	98.5
379.478	89.5
379.704	95.5
379.929	90.5
380.155	103.5
380.38	94.5
380.606	81.5
380.831	95.5
381.057	99.5
381.282	101.5
381.507	104.5
381.733	98.5
381.958	91.5
382.184	80.5
382.409	89.5
382.634	96.5
382.86	97.5
383.085	87.5
383.31	98.5
383.535	95.5
383.761	97.5
383.986	90.5
384.211	100.5
384.436	99.5
384.662	89.5
384.887	99.5
385.112	99.5
385.337	94.5
385.562	86.5
385.787	111.5
386.013	99.5
386.238	101.5
386.463	101.5
386.688	93.5
386.913	92.5
387.138	85.5
387.363	86.5
387.588	96.5
387.813	93.5
388.038	85.5
388.263	97.5
388.488	106.5
388.713	101.5
388.938	106.5
389.163	106.5
389.387	106.5
389.612	95.5
389.837	94.5
390.062	111.5
390.287	86.5
390.512	110.5
390.736	102.5
390.961	91.5
391.186	90.5
391.411	94.5
391.636	93.5
391.86	89.5
392.085	107.5
392.31	104.5
392.534	119.5
392.759	106.5
392.984	102.5
393.208	96.5
393.433	97.5
393.658	107.5
393.882	100.5
394.107	87.5
394.331	102.5
394.556	104.5
394.78	105.5
395.005	96.5
395.229	116.5
395.454	124.5
395.678	107.5
395.903	117.5
396.127	94.5
396.352	95.5
396.576	113.5
396.801	106.5
397.025	94.5
397.249	114.5
397.474	116.5
397.698	105.5
397.922	127.5
398.147	99.5
398.371	102.5
398.595	100.5
398.82	99.5
399.044	94.5
399.268	102.5
399.492	109.5
399.717	101.5
399.941	119.5
400.165	95.5
400.389	121.5
400.613	117.5
400.837	104.5
401.062	97.5
401.286	93.5
401.51	104.5
401.734	122.5
401.958	118.5
402.182	107.5
402.406	112.5
402.63	117.5
402.854	106.5
403.078	109.5
403.302	105.5
403.526	95.5
403.75	118.5
403.974	118.5
404.198	107.5
404.422	123.5
404.645	108.5
404.869	107.5
405.093	116.5
405.317	117.5
405.541	111.5
405.765	91.5
405.988	117.5
406.212	118.5
406.436	110.5
406.66	121.5
406.883	119.5
407.107	117.5
407.331	123.5
407.555	121.5
407.778	111.5
408.002	120.5
408.226	137.5
408.449	110.5
408.673	118.5
408.896	113.5
409.12	132.5
409.344	120.5
409.567	99.5
409.791	121.5
410.014	117.5
410.238	115.5
410.461	116.5
410.685	125.5
410.908	113.5
411.132	111.5
411.355	122.5
411.578	116.5
411.802	107.5
412.025	113.5
412.249	102.5
412.472	102.5
412.695	124.5
412.919	121.5
413.142	114.5
413.365	119.5
413.589	114.5
413.812	123.5
414.035	110.5
414.258	118.5
414.482	117.5
414.705	115.5
414.928	120.5
415.151	122.5
415.374	120.5
415.597	116.5
415.821	116.5
416.044	118.5
416.267	113.5
416.49	125.5
416.713	108.5
416.936	113.5
417.159	132.5
417.382	115.5
417.605	117.5
417.828	120.5
418.051	115.5
418.274	123.5
418.497	136.5
418.72	135.5
418.943	128.5
419.166	137.5
419.389	136.5
419.611	137.5
419.834	120.5
420.057	122.5
420.28	127.5
420.503	125.5
420.726	135.5
420.948	127.5
421.171	131.5
421.394	133.5
421.617	147.5
421.839	138.5
422.062	120.5
422.285	128.5
422.507	139.5
422.73	129.5
422.953	138.5
423.175	133.5
423.398	123.5
423.621	132.5
423.843	133.5
424.066	130.5
424.288	136.5
424.511	158.5
424.733	137.5
424.956	143.5
425.178	131.5
425.401	129.5
425.623	122.5
425.846	135.5
426.068	135.5
426.291	126.5
426.513	130.5
426.735	131.5
426.958	132.5
427.18	112.5
427.402	125.5
427.625	126.5
427.847	139.5
428.069	126.5
428.292	130.5
428.514	115.5
428.736	133.5
428.958	127.5
429.181	141.5
429.403	127.5
429.625	123.5
429.847	124.5
430.069	115.5
430.292	127.5
430.514	121.5
430.736	122.5
430.958	131.5
431.18	117.5
431.402	132.5
431.624	115.5
431.846	114.5
432.068	99.5
432.29	97.5
432.512	93.5
432.734	133.5
432.956	115.5
433.178	125.5
433.4	115.5
433.622	129.5
433.844	145.5
434.066	118.5
434.287	107.5
434.509	90.5
434.731	94.5
434.953	103.5
435.175	113.5
435.397	130.5
435.618	129.5
435.84	101.5
436.062	117.5
436.284	124.5
436.505	125.5
436.727	133.5
436.949	127.5
437.17	139.5
437.392	127.5
437.614	106.5
437.835	113.5
438.057	104.5
438.278	123.5
438.5	107.5
438.721	137.5
438.943	144.5
439.165	135.5
439.386	133.5
439.608	135.5
439.829	129.5
440.05	142.5
440.272	161.5
440.493	135.5
440.715	152.5
440.936	133.5
441.158	151.5
441.379	140.5
441.6	151.5
441.822	141.5
442.043	144.5
442.264	139.5
442.486	141.5
442.707	129.5
442.928	138.5
443.149	141.5
443.371	130.5
443.592	116.5
443.813	134.5
444.034	138.5
444.255	131.5
444.476	125.5
444.698	124.5
444.919	147.5
445.14	259.5
445.361	187.5
445.582	142.5
445.803	157.5
446.024	123.5
446.245	149.5
446.466	147.5
446.687	165.5
446.908	143.5
447.129	150.5
447.35	140.5
447.571	140.5
447.792	146.5
448.013	133.5
448.234	128.5
448.455	122.5
448.675	124.5
448.896	142.5
449.117	130.5
449.338	140.5
449.559	129.5
449.779	145.5
450	147.5
450.221	134.5
450.442	141.5
450.662	128.5
450.883	135.5
451.104	141.5
451.324	124.5
451.545	122.5
451.766	119.5
451.986	125.5
452.207	137.5
452.428	129.5
452.648	124.5
452.869	122.5
453.089	110.5
453.31	110.5
453.53	103.5
453.751	78.5
453.971	104.5
454.192	104.5
454.412	111.5
454.633	123.5
454.853	105.5
455.073	110.5
455.294	125.5
455.514	133.5
455.734	125.5
455.955	122.5
456.175	118.5
456.395	114.5
456.616	103.5
456.836	100.5
457.056	100.5
457.276	117.5
457.497	99.5
457.717	113.5
457.937	112.5
458.157	89.5
458.377	96.5
458.598	108.5
458.818	88.5
459.038	85.5
459.258	91.5
459.478	84.5
459.698	100.5
459.918	94.5
460.138	89.5
460.358	110.5
460.578	111.5
460.798	118.5
461.018	114.5
461.238	110.5
461.458	113.5
461.678	123.5
461.898	125.5
462.118	119.5
462.338	120.5
462.558	101.5
462.777	102.5
462.997	110.5
463.217	91.5
463.437	106.5
463.657	97.5
463.876	118.5
464.096	120.5
464.316	103.5
464.536	110.5
464.755	101.5
464.975	106.5
465.195	106.5
465.414	117.5
465.634	111.5
465.854	115.5
466.073	117.5
466.293	110.5
466.512	117.5
466.732	123.5
466.951	127.5
467.171	133.5
467.391	126.5
467.61	133.5
467.829	123.5
468.049	131.5
468.268	129.5
468.488	141.5
468.707	141.5
468.927	126.5
469.146	133.5
469.365	119.5
469.585	138.5
469.804	133.5
470.023	130.5
470.243	130.5
470.462	124.5
470.681	136.5
470.901	137.5
471.12	110.5
471.339	145.5
471.558	134.5
471.777	141.5
471.997	126.5
472.216	118.5
472.435	135.5
472.654	107.5
472.873	106.5
473.092	131.5
473.311	127.5
473.53	122.5
473.749	131.5
473.968	133.5
474.187	125.5
474.406	121.5
474.625	130.5
474.844	127.5
475.063	138.5
475.282	119.5
475.501	105.5
475.72	121.5
475.939	143.5
476.158	146.5
476.377	115.5
476.596	124.5
476.814	121.5
477.033	115.5
477.252	115.5
477.471	123.5
477.69	134.5
477.908	124.5
478.127	141.5
478.346	135.5
478.564	142.5
478.783	130.5
479.002	139.5
479.22	143.5
479.439	140.5
479.658	122.5
479.876	105.5
480.095	101.5
480.313	111.5
480.532	114.5
480.751	110.5
480.969	101.5
481.188	107.5
481.406	93.5
481.624	92.5
481.843	92.5
482.061	98.5
482.28	99.5
482.498	105.5
482.717	108.5
482.935	123.5
483.153	157.5
483.372	147.5
483.59	149.5
483.808	151.5
484.027	132.5
484.245	140.5
484.463	135.5
484.681	147.5
484.9	128.5
485.118	135.5
485.336	123.5
485.554	118.5
485.772	105.5
485.99	110.5
486.209	100.5
486.427	109.5
486.645	125.5
486.863	138.5
487.081	127.5
487.299	130.5
487.517	143.5
487.735	151.5
487.953	197.5
488.171	185.5
488.389	169.5
488.607	169.5
488.825	141.5
489.043	125.5
489.261	142.5
489.479	137.5
489.696	150.5
489.914	141.5
490.132	147.5
490.35	142.5
490.568	147.5
490.786	167.5
491.003	175.5
491.221	181.5
491.439	184.5
491.657	166.5
491.874	193.5
492.092	222.5
492.31	220.5
492.527	232.5
492.745	210.5
492.963	191.5
493.18	182.5
493.398	179.5
493.615	157.5
493.833	171.5
494.05	175.5
494.268	165.5
494.485	164.5
494.703	159.5
494.92	180.5
495.138	156.5
495.355	167.5
495.573	181.5
495.79	172.5
496.008	166.5
496.225	186.5
496.442	180.5
496.66	161.5
496.877	146.5
497.094	166.5
497.312	150.5
497.529	154.5
497.746	138.5
497.963	137.5
498.181	126.5
498.398	126.5
498.615	124.5
498.832	105.5
499.049	113.5
499.267	132.5
499.484	122.5
499.701	127.5
499.918	147.5
500.135	133.5
500.352	139.5
500.569	142.5
500.786	135.5
501.003	128.5
501.22	136.5
501.437	127.5
501.654	139.5
501.871	129.5
502.088	124.5
502.305	119.5
502.522	135.5
502.739	106.5
502.956	125.5
503.172	131.5
503.389	131.5
503.606	127.5
503.823	106.5
504.04	129.5
504.256	124.5
504.473	142.5
504.69	113.5
504.907	121.5
505.123	118.5
505.34	109.5
505.557	129.5
505.773	114.5
505.99	110.5
506.207	115.5
506.423	115.5
506.64	116.5
506.856	122.5
507.073	122.5
507.289	132.5
507.506	120.5
507.722	118.5
507.939	107.5
508.155	105.5
508.372	119.5
508.588	122.5
508.805	115.5
509.021	98.5
509.238	106.5
509.454	117.5
509.67	102.5
509.887	108.5
510.103	89.5
510.319	100.5
510.536	76.5
510.752	90.5
510.968	84.5
511.184	96.5
511.401	83.5
511.617	91.5
511.833	87.5
512.049	73.5
512.265	94.5
512.481	99.5
512.698	93.5
512.914	95.5
513.13	94.5
513.346	93.5
513.562	79.5
513.778	93.5
513.994	84.5
514.21	86.5
514.426	100.5
514.642	94.5
514.858	100.5
515.074	83.5
515.29	86.5
515.506	90.5
515.721	103.5
515.937	84.5
516.153	83.5
516.369	75.5
516.585	86.5
516.801	88.5
517.016	97.5
517.232	83.5
517.448	93.5
517.664	104.5
517.879	103.5
518.095	99.5
518.311	95.5
518.527	102.5
518.742	99.5
518.958	89.5
519.173	103.5
519.389	103.5
519.605	102.5
519.82	111.5
520.036	100.5
520.251	84.5
520.467	100.5
520.682	92.5
520.898	94.5
521.113	86.5
521.329	88.5
521.544	104.5
521.76	98.5
521.975	99.5
522.19	86.5
522.406	95.5
522.621	100.5
522.836	107.5
523.052	102.5
523.267	113.5
523.482	113.5
523.698	108.5
523.913	128.5
524.128	123.5
524.343	121.5
524.559	123.5
524.774	116.5
524.989	107.5
525.204	115.5
525.419	104.5
525.634	113.5
525.849	95.5
526.064	110.5
526.28	102.5
526.495	77.5
526.71	87.5
526.925	76.5
527.14	89.5
527.355	85.5
527.57	92.5
527.785	93.5
527.999	91.5
528.214	107.5
528.429	101.5
528.644	120.5
528.859	133.5
529.074	129.5
529.289	162.5
529.503	143.5
529.718	134.5
529.933	119.5
530.148	101.5
530.363	88.5
530.577	85.5
530.792	86.5
531.007	83.5
531.221	69.5
