Data from Location1.07152019.Energy5.Lamp.07192019.3%Agarose_HRD10591_14-30-26-017.txt Node
Date: Fri Jul 19 14:30:26 EDT 2019
User: cochatt
Spectrometer: HR+D1059
Trigger mode: 1
Integration Time (sec): 1.000000E-1
Scans to average: 1
Electric dark correction enabled: true
Nonlinearity correction enabled: false
Boxcar width: 0
XAxis mode: Wavelengths
Number of Pixels in Spectrum: 2048
>>>>>Begin Spectral Data<<<<<
223.165	-17.69
223.4	-17.69
223.635	-17.69
223.869	-27.69
224.104	-21.69
224.338	-23.69
224.573	-20.69
224.808	-17.69
225.042	-8.69
225.277	-9.69
225.511	18.31
225.746	7.31
225.98	5.31
226.215	9.31
226.449	7.31
226.683	33.31
226.918	32.31
227.152	34.31
227.387	37.31
227.621	41.31
227.856	36.31
228.09	48.31
228.324	56.31
228.559	63.31
228.793	59.31
229.027	65.31
229.262	71.31
229.496	80.31
229.73	87.31
229.964	75.31
230.199	74.31
230.433	81.31
230.667	71.31
230.901	95.31
231.136	88.31
231.37	85.31
231.604	79.31
231.838	85.31
232.072	88.31
232.306	85.31
232.541	90.31
232.775	88.31
233.009	73.31
233.243	74.31
233.477	96.31
233.711	86.31
233.945	99.31
234.179	83.31
234.413	84.31
234.647	88.31
234.881	79.31
235.115	84.31
235.349	76.31
235.583	87.31
235.817	83.31
236.051	73.31
236.285	62.31
236.519	74.31
236.753	81.31
236.987	80.31
237.221	77.31
237.455	71.31
237.689	85.31
237.922	88.31
238.156	91.31
238.39	80.31
238.624	73.31
238.858	91.31
239.091	85.31
239.325	78.31
239.559	59.31
239.793	87.31
240.027	76.31
240.26	75.31
240.494	81.31
240.728	76.31
240.961	79.31
241.195	78.31
241.429	73.31
241.662	75.31
241.896	92.31
242.13	73.31
242.363	80.31
242.597	67.31
242.83	71.31
243.064	76.31
243.298	65.31
243.531	75.31
243.765	76.31
243.998	70.31
244.232	86.31
244.465	73.31
244.699	70.31
244.932	85.31
245.166	82.31
245.399	73.31
245.633	73.31
245.866	76.31
246.099	85.31
246.333	87.31
246.566	73.31
246.8	75.31
247.033	84.31
247.266	71.31
247.5	87.31
247.733	84.31
247.966	85.31
248.2	83.31
248.433	80.31
248.666	73.31
248.899	99.31
249.133	81.31
249.366	87.31
249.599	71.31
249.832	74.31
250.066	81.31
250.299	89.31
250.532	92.31
250.765	92.31
250.998	73.31
251.231	83.31
251.465	73.31
251.698	79.31
251.931	75.31
252.164	65.31
252.397	91.31
252.63	81.31
252.863	83.31
253.096	92.31
253.329	86.31
253.562	102.31
253.795	81.31
254.028	71.31
254.261	71.31
254.494	68.31
254.727	70.31
254.96	75.31
255.193	76.31
255.426	89.31
255.659	84.31
255.892	72.31
256.124	81.31
256.357	85.31
256.59	93.31
256.823	88.31
257.056	76.31
257.289	72.31
257.521	81.31
257.754	77.31
257.987	72.31
258.22	84.31
258.452	73.31
258.685	72.31
258.918	83.31
259.151	86.31
259.383	82.31
259.616	77.31
259.849	85.31
260.081	86.31
260.314	81.31
260.547	79.31
260.779	84.31
261.012	76.31
261.244	77.31
261.477	64.31
261.71	85.31
261.942	76.31
262.175	81.31
262.407	86.31
262.64	85.31
262.872	67.31
263.105	76.31
263.337	87.31
263.57	101.31
263.802	77.31
264.035	86.31
264.267	86.31
264.499	86.31
264.732	82.31
264.964	84.31
265.197	81.31
265.429	88.31
265.661	85.31
265.894	86.31
266.126	88.31
266.358	91.31
266.591	82.31
266.823	81.31
267.055	79.31
267.287	85.31
267.52	88.31
267.752	89.31
267.984	92.31
268.216	92.31
268.448	95.31
268.681	80.31
268.913	82.31
269.145	99.31
269.377	88.31
269.609	90.31
269.841	86.31
270.073	73.31
270.306	107.31
270.538	79.31
270.77	81.31
271.002	73.31
271.234	80.31
271.466	83.31
271.698	78.31
271.93	65.31
272.162	69.31
272.394	80.31
272.626	93.31
272.858	78.31
273.09	80.31
273.322	74.31
273.553	81.31
273.785	73.31
274.017	86.31
274.249	80.31
274.481	79.31
274.713	69.31
274.945	78.31
275.176	81.31
275.408	80.31
275.64	79.31
275.872	80.31
276.104	76.31
276.335	84.31
276.567	100.31
276.799	84.31
277.031	85.31
277.262	83.31
277.494	99.31
277.726	77.31
277.957	80.31
278.189	76.31
278.421	80.31
278.652	79.31
278.884	86.31
279.115	81.31
279.347	86.31
279.579	85.31
279.81	91.31
280.042	78.31
280.273	85.31
280.505	84.31
280.736	83.31
280.968	86.31
281.199	69.31
281.431	74.31
281.662	69.31
281.894	90.31
282.125	82.31
282.356	82.31
282.588	74.31
282.819	81.31
283.051	85.31
283.282	87.31
283.513	91.31
283.745	79.31
283.976	74.31
284.207	89.31
284.439	91.31
284.67	86.31
284.901	92.31
285.132	84.31
285.364	71.31
285.595	83.31
285.826	87.31
286.057	100.31
286.288	94.31
286.52	78.31
286.751	90.31
286.982	87.31
287.213	92.31
287.444	92.31
287.675	78.31
287.906	81.31
288.138	74.31
288.369	87.31
288.6	96.31
288.831	75.31
289.062	80.31
289.293	76.31
289.524	87.31
289.755	75.31
289.986	80.31
290.217	81.31
290.448	88.31
290.679	83.31
290.91	85.31
291.141	80.31
291.371	86.31
291.602	83.31
291.833	82.31
292.064	88.31
292.295	87.31
292.526	88.31
292.757	76.31
292.987	81.31
293.218	79.31
293.449	85.31
293.68	78.31
293.91	90.31
294.141	84.31
294.372	79.31
294.603	76.31
294.833	87.31
295.064	84.31
295.295	85.31
295.525	71.31
295.756	91.31
295.987	82.31
296.217	88.31
296.448	91.31
296.679	98.31
296.909	92.31
297.14	90.31
297.37	96.31
297.601	96.31
297.831	77.31
298.062	80.31
298.292	71.31
298.523	90.31
298.753	89.31
298.984	70.31
299.214	83.31
299.445	91.31
299.675	81.31
299.905	85.31
300.136	92.31
300.366	95.31
300.597	81.31
300.827	89.31
301.057	79.31
301.288	78.31
301.518	80.31
301.748	78.31
301.979	90.31
302.209	81.31
302.439	99.31
302.669	68.31
302.9	86.31
303.13	87.31
303.36	77.31
303.59	76.31
303.82	81.31
304.051	90.31
304.281	87.31
304.511	89.31
304.741	93.31
304.971	78.31
305.201	75.31
305.431	89.31
305.661	89.31
305.891	76.31
306.121	81.31
306.352	79.31
306.582	87.31
306.812	87.31
307.042	84.31
307.272	70.31
307.502	98.31
307.731	81.31
307.961	93.31
308.191	91.31
308.421	77.31
308.651	79.31
308.881	73.31
309.111	69.31
309.341	83.31
309.571	82.31
309.8	83.31
310.03	87.31
310.26	71.31
310.49	74.31
310.72	87.31
310.949	73.31
311.179	84.31
311.409	91.31
311.639	83.31
311.868	78.31
312.098	87.31
312.328	72.31
312.557	89.31
312.787	83.31
313.017	93.31
313.246	89.31
313.476	95.31
313.706	105.31
313.935	96.31
314.165	91.31
314.394	79.31
314.624	81.31
314.853	85.31
315.083	78.31
315.312	81.31
315.542	75.31
315.771	82.31
316.001	90.31
316.23	79.31
316.46	75.31
316.689	84.31
316.919	90.31
317.148	77.31
317.377	95.31
317.607	90.31
317.836	77.31
318.065	82.31
318.295	78.31
318.524	80.31
318.753	81.31
318.983	89.31
319.212	91.31
319.441	79.31
319.67	82.31
319.9	74.31
320.129	69.31
320.358	82.31
320.587	94.31
320.816	79.31
321.046	82.31
321.275	87.31
321.504	73.31
321.733	80.31
321.962	84.31
322.191	92.31
322.42	81.31
322.649	81.31
322.878	88.31
323.108	95.31
323.337	86.31
323.566	89.31
323.795	88.31
324.024	89.31
324.253	88.31
324.482	88.31
324.71	76.31
324.939	90.31
325.168	80.31
325.397	69.31
325.626	84.31
325.855	87.31
326.084	77.31
326.313	75.31
326.542	91.31
326.77	85.31
326.999	80.31
327.228	89.31
327.457	87.31
327.686	74.31
327.914	79.31
328.143	77.31
328.372	99.31
328.6	81.31
328.829	90.31
329.058	87.31
329.287	96.31
329.515	74.31
329.744	91.31
329.972	82.31
330.201	83.31
330.43	80.31
330.658	75.31
330.887	86.31
331.115	84.31
331.344	88.31
331.572	67.31
331.801	82.31
332.03	91.31
332.258	95.31
332.486	83.31
332.715	91.31
332.943	94.31
333.172	86.31
333.4	93.31
333.629	100.31
333.857	75.31
334.085	76.31
334.314	88.31
334.542	82.31
334.771	83.31
334.999	74.31
335.227	85.31
335.455	85.31
335.684	99.31
335.912	80.31
336.14	87.31
336.369	74.31
336.597	88.31
336.825	88.31
337.053	87.31
337.281	80.31
337.51	99.31
337.738	83.31
337.966	77.31
338.194	93.31
338.422	80.31
338.65	77.31
338.878	94.31
339.106	94.31
339.334	84.31
339.562	90.31
339.79	85.31
340.018	69.31
340.246	85.31
340.474	92.31
340.702	98.31
340.93	82.31
341.158	86.31
341.386	99.31
341.614	89.31
341.842	83.31
342.07	99.31
342.298	75.31
342.526	86.31
342.754	98.31
342.981	91.31
343.209	76.31
343.437	92.31
343.665	80.31
343.893	79.31
344.12	76.31
344.348	99.31
344.576	79.31
344.804	91.31
345.031	80.31
345.259	99.31
345.487	77.31
345.714	90.31
345.942	78.31
346.17	86.31
346.397	79.31
346.625	91.31
346.853	101.31
347.08	80.31
347.308	85.31
347.535	82.31
347.763	72.31
347.99	94.31
348.218	81.31
348.445	72.31
348.673	78.31
348.9	74.31
349.128	80.31
349.355	73.31
349.583	89.31
349.81	89.31
350.037	85.31
350.265	89.31
350.492	77.31
350.72	84.31
350.947	93.31
351.174	83.31
351.402	76.31
351.629	88.31
351.856	73.31
352.083	63.31
352.311	89.31
352.538	90.31
352.765	80.31
352.992	87.31
353.22	85.31
353.447	71.31
353.674	87.31
353.901	85.31
354.128	86.31
354.355	87.31
354.583	75.31
354.81	92.31
355.037	85.31
355.264	96.31
355.491	77.31
355.718	85.31
355.945	90.31
356.172	91.31
356.399	73.31
356.626	79.31
356.853	86.31
357.08	89.31
357.307	99.31
357.534	79.31
357.761	83.31
357.988	84.31
358.215	93.31
358.441	85.31
358.668	89.31
358.895	85.31
359.122	93.31
359.349	87.31
359.576	86.31
359.802	75.31
360.029	77.31
360.256	96.31
360.483	95.31
360.709	78.31
360.936	100.31
361.163	85.31
361.39	91.31
361.616	89.31
361.843	94.31
362.07	74.31
362.296	79.31
362.523	82.31
362.749	99.31
362.976	76.31
363.203	98.31
363.429	83.31
363.656	88.31
363.882	88.31
364.109	64.31
364.335	78.31
364.562	87.31
364.788	83.31
365.015	89.31
365.241	93.31
365.468	87.31
365.694	87.31
365.92	92.31
366.147	81.31
366.373	83.31
366.599	83.31
366.826	92.31
367.052	100.31
367.278	87.31
367.505	79.31
367.731	83.31
367.957	85.31
368.184	99.31
368.41	82.31
368.636	81.31
368.862	98.31
369.089	80.31
369.315	76.31
369.541	86.31
369.767	102.31
369.993	86.31
370.219	88.31
370.445	96.31
370.672	93.31
370.898	89.31
371.124	92.31
371.35	79.31
371.576	100.31
371.802	95.31
372.028	92.31
372.254	80.31
372.48	94.31
372.706	95.31
372.932	92.31
373.158	74.31
373.384	95.31
373.61	101.31
373.835	83.31
374.061	87.31
374.287	103.31
374.513	93.31
374.739	105.31
374.965	106.31
375.191	102.31
375.416	99.31
375.642	89.31
375.868	92.31
376.094	89.31
376.319	88.31
376.545	81.31
376.771	93.31
376.997	91.31
377.222	86.31
377.448	85.31
377.674	100.31
377.899	111.31
378.125	101.31
378.35	96.31
378.576	94.31
378.802	107.31
379.027	86.31
379.253	112.31
379.478	100.31
379.704	108.31
379.929	92.31
380.155	87.31
380.38	91.31
380.606	93.31
380.831	101.31
381.057	99.31
381.282	93.31
381.507	96.31
381.733	106.31
381.958	102.31
382.184	100.31
382.409	87.31
382.634	95.31
382.86	101.31
383.085	100.31
383.31	102.31
383.535	116.31
383.761	83.31
383.986	89.31
384.211	96.31
384.436	99.31
384.662	101.31
384.887	97.31
385.112	108.31
385.337	96.31
385.562	105.31
385.787	92.31
386.013	101.31
386.238	91.31
386.463	103.31
386.688	98.31
386.913	92.31
387.138	104.31
387.363	100.31
387.588	110.31
387.813	118.31
388.038	107.31
388.263	87.31
388.488	98.31
388.713	88.31
388.938	98.31
389.163	102.31
389.387	109.31
389.612	95.31
389.837	101.31
390.062	99.31
390.287	94.31
390.512	107.31
390.736	104.31
390.961	90.31
391.186	109.31
391.411	110.31
391.636	98.31
391.86	112.31
392.085	111.31
392.31	112.31
392.534	99.31
392.759	87.31
392.984	106.31
393.208	104.31
393.433	109.31
393.658	107.31
393.882	114.31
394.107	120.31
394.331	109.31
394.556	101.31
394.78	109.31
395.005	100.31
395.229	100.31
395.454	116.31
395.678	114.31
395.903	103.31
396.127	112.31
396.352	97.31
396.576	98.31
396.801	105.31
397.025	119.31
397.249	95.31
397.474	107.31
397.698	94.31
397.922	109.31
398.147	107.31
398.371	100.31
398.595	105.31
398.82	117.31
399.044	112.31
399.268	116.31
399.492	107.31
399.717	102.31
399.941	123.31
400.165	107.31
400.389	123.31
400.613	121.31
400.837	112.31
401.062	116.31
401.286	117.31
401.51	88.31
401.734	99.31
401.958	106.31
402.182	106.31
402.406	117.31
402.63	117.31
402.854	124.31
403.078	119.31
403.302	105.31
403.526	107.31
403.75	112.31
403.974	115.31
404.198	115.31
404.422	108.31
404.645	117.31
404.869	107.31
405.093	124.31
405.317	120.31
405.541	119.31
405.765	107.31
405.988	120.31
406.212	123.31
406.436	128.31
406.66	118.31
406.883	129.31
407.107	118.31
407.331	117.31
407.555	115.31
407.778	118.31
408.002	115.31
408.226	123.31
408.449	125.31
408.673	119.31
408.896	107.31
409.12	122.31
409.344	118.31
409.567	127.31
409.791	104.31
410.014	125.31
410.238	116.31
410.461	129.31
410.685	120.31
410.908	113.31
411.132	121.31
411.355	133.31
411.578	137.31
411.802	106.31
412.025	127.31
412.249	112.31
412.472	120.31
412.695	113.31
412.919	117.31
413.142	120.31
413.365	123.31
413.589	123.31
413.812	124.31
414.035	117.31
414.258	114.31
414.482	118.31
414.705	116.31
414.928	122.31
415.151	107.31
415.374	121.31
415.597	115.31
415.821	123.31
416.044	118.31
416.267	131.31
416.49	116.31
416.713	133.31
416.936	124.31
417.159	121.31
417.382	120.31
417.605	122.31
417.828	115.31
418.051	134.31
418.274	123.31
418.497	133.31
418.72	129.31
418.943	112.31
419.166	131.31
419.389	135.31
419.611	134.31
419.834	133.31
420.057	137.31
420.28	125.31
420.503	133.31
420.726	118.31
420.948	124.31
421.171	133.31
421.394	134.31
421.617	142.31
421.839	145.31
422.062	126.31
422.285	132.31
422.507	119.31
422.73	127.31
422.953	132.31
423.175	131.31
423.398	127.31
423.621	130.31
423.843	131.31
424.066	141.31
424.288	140.31
424.511	134.31
424.733	151.31
424.956	132.31
425.178	151.31
425.401	151.31
425.623	133.31
425.846	135.31
426.068	131.31
426.291	111.31
426.513	120.31
426.735	129.31
426.958	129.31
427.18	117.31
427.402	112.31
427.625	125.31
427.847	129.31
428.069	124.31
428.292	137.31
428.514	131.31
428.736	128.31
428.958	129.31
429.181	128.31
429.403	129.31
429.625	131.31
429.847	131.31
430.069	137.31
430.292	137.31
430.514	125.31
430.736	110.31
430.958	115.31
431.18	125.31
431.402	107.31
431.624	124.31
431.846	105.31
432.068	101.31
432.29	117.31
432.512	95.31
432.734	119.31
432.956	133.31
433.178	138.31
433.4	141.31
433.622	137.31
433.844	150.31
434.066	123.31
434.287	100.31
434.509	95.31
434.731	104.31
434.953	83.31
435.175	109.31
435.397	119.31
435.618	121.31
435.84	111.31
436.062	115.31
436.284	116.31
436.505	138.31
436.727	127.31
436.949	122.31
437.17	126.31
437.392	137.31
437.614	132.31
437.835	119.31
438.057	119.31
438.278	101.31
438.5	112.31
438.721	127.31
438.943	138.31
439.165	145.31
439.386	128.31
439.608	137.31
439.829	140.31
440.05	133.31
440.272	126.31
440.493	145.31
440.715	135.31
440.936	142.31
441.158	156.31
441.379	134.31
441.6	135.31
441.822	141.31
442.043	132.31
442.264	134.31
442.486	135.31
442.707	131.31
442.928	135.31
443.149	142.31
443.371	124.31
443.592	140.31
443.813	121.31
444.034	126.31
444.255	133.31
444.476	128.31
444.698	137.31
444.919	143.31
445.14	282.31
445.361	199.31
445.582	139.31
445.803	151.31
446.024	163.31
446.245	121.31
446.466	133.31
446.687	152.31
446.908	157.31
447.129	146.31
447.35	155.31
447.571	148.31
447.792	141.31
448.013	140.31
448.234	139.31
448.455	150.31
448.675	133.31
448.896	147.31
449.117	138.31
449.338	129.31
449.559	137.31
449.779	132.31
450	143.31
450.221	138.31
450.442	132.31
450.662	127.31
450.883	139.31
451.104	127.31
451.324	124.31
451.545	132.31
451.766	127.31
451.986	127.31
452.207	127.31
452.428	126.31
452.648	133.31
452.869	128.31
453.089	127.31
453.31	117.31
453.53	112.31
453.751	107.31
453.971	109.31
454.192	121.31
454.412	118.31
454.633	122.31
454.853	119.31
455.073	108.31
455.294	107.31
455.514	127.31
455.734	134.31
455.955	123.31
456.175	112.31
456.395	109.31
456.616	116.31
456.836	120.31
457.056	107.31
457.276	109.31
457.497	100.31
457.717	109.31
457.937	105.31
458.157	110.31
458.377	111.31
458.598	101.31
458.818	83.31
459.038	90.31
459.258	89.31
459.478	90.31
459.698	101.31
459.918	112.31
460.138	105.31
460.358	118.31
460.578	135.31
460.798	96.31
461.018	124.31
461.238	112.31
461.458	103.31
461.678	115.31
461.898	123.31
462.118	107.31
462.338	107.31
462.558	127.31
462.777	104.31
462.997	117.31
463.217	104.31
463.437	119.31
463.657	115.31
463.876	90.31
464.096	110.31
464.316	100.31
464.536	108.31
464.755	104.31
464.975	111.31
465.195	124.31
465.414	126.31
465.634	125.31
465.854	118.31
466.073	131.31
466.293	131.31
466.512	116.31
466.732	132.31
466.951	133.31
467.171	126.31
467.391	127.31
467.61	122.31
467.829	128.31
468.049	147.31
468.268	121.31
468.488	126.31
468.707	131.31
468.927	133.31
469.146	124.31
469.365	135.31
469.585	135.31
469.804	143.31
470.023	142.31
470.243	112.31
470.462	135.31
470.681	140.31
470.901	135.31
471.12	135.31
471.339	153.31
471.558	138.31
471.777	145.31
471.997	141.31
472.216	144.31
472.435	119.31
472.654	116.31
472.873	119.31
473.092	117.31
473.311	123.31
473.53	123.31
473.749	124.31
473.968	125.31
474.187	115.31
474.406	119.31
474.625	132.31
474.844	146.31
475.063	126.31
475.282	117.31
475.501	112.31
475.72	119.31
475.939	121.31
476.158	127.31
476.377	122.31
476.596	119.31
476.814	123.31
477.033	104.31
477.252	121.31
477.471	133.31
477.69	135.31
477.908	133.31
478.127	135.31
478.346	137.31
478.564	126.31
478.783	127.31
479.002	129.31
479.22	134.31
479.439	147.31
479.658	133.31
479.876	109.31
480.095	112.31
480.313	108.31
480.532	126.31
480.751	108.31
480.969	94.31
481.188	93.31
481.406	95.31
481.624	100.31
481.843	107.31
482.061	101.31
482.28	110.31
482.498	116.31
482.717	122.31
482.935	124.31
483.153	147.31
483.372	145.31
483.59	157.31
483.808	134.31
484.027	133.31
484.245	140.31
484.463	130.31
484.681	149.31
484.9	162.31
485.118	131.31
485.336	126.31
485.554	107.31
485.772	100.31
485.99	100.31
486.209	108.31
486.427	119.31
486.645	121.31
486.863	127.31
487.081	145.31
487.299	136.31
487.517	131.31
487.735	158.31
487.953	188.31
488.171	183.31
488.389	177.31
488.607	161.31
488.825	144.31
489.043	131.31
489.261	149.31
489.479	124.31
489.696	135.31
489.914	133.31
490.132	142.31
490.35	145.31
490.568	153.31
490.786	157.31
491.003	166.31
491.221	155.31
491.439	185.31
491.657	195.31
491.874	191.31
492.092	204.31
492.31	228.31
492.527	233.31
492.745	203.31
492.963	200.31
493.18	197.31
493.398	190.31
493.615	183.31
493.833	155.31
494.05	181.31
494.268	164.31
494.485	158.31
494.703	163.31
494.92	167.31
495.138	181.31
495.355	175.31
495.573	182.31
495.79	165.31
496.008	153.31
496.225	156.31
496.442	162.31
496.66	175.31
496.877	155.31
497.094	183.31
497.312	145.31
497.529	161.31
497.746	144.31
497.963	131.31
498.181	129.31
498.398	141.31
498.615	127.31
498.832	119.31
499.049	133.31
499.267	112.31
499.484	115.31
499.701	138.31
499.918	135.31
500.135	139.31
500.352	133.31
500.569	131.31
500.786	141.31
501.003	146.31
501.22	140.31
501.437	132.31
501.654	122.31
501.871	140.31
502.088	129.31
502.305	132.31
502.522	131.31
502.739	122.31
502.956	129.31
503.172	129.31
503.389	125.31
503.606	118.31
503.823	113.31
504.04	142.31
504.256	117.31
504.473	113.31
504.69	121.31
504.907	123.31
505.123	123.31
505.34	113.31
505.557	125.31
505.773	123.31
505.99	120.31
506.207	131.31
506.423	119.31
506.64	127.31
506.856	127.31
507.073	112.31
507.289	117.31
507.506	110.31
507.722	123.31
507.939	121.31
508.155	116.31
508.372	95.31
508.588	115.31
508.805	123.31
509.021	105.31
509.238	105.31
509.454	98.31
509.67	104.31
509.887	96.31
510.103	87.31
510.319	96.31
510.536	85.31
510.752	79.31
510.968	87.31
511.184	96.31
511.401	83.31
