Data from Location1.07152019.Energy5.Lamp.07192019.3%Agarose_HRD10591_14-32-53-016.txt Node
Date: Fri Jul 19 14:32:53 EDT 2019
User: cochatt
Spectrometer: HR+D1059
Trigger mode: 1
Integration Time (sec): 1.000000E-1
Scans to average: 1
Electric dark correction enabled: true
Nonlinearity correction enabled: false
Boxcar width: 0
XAxis mode: Wavelengths
Number of Pixels in Spectrum: 2048
>>>>>Begin Spectral Data<<<<<
223.165	-17.31
223.4	-17.31
223.635	-17.31
223.869	-19.31
224.104	-23.31
224.338	-12.31
224.573	-11.31
224.808	-14.31
225.042	-2.31
225.277	-8.31
225.511	4.69
225.746	-0.31
225.98	3.69
226.215	2.69
226.449	12.69
226.683	27.69
226.918	29.69
227.152	27.69
227.387	38.69
227.621	36.69
227.856	48.69
228.09	45.69
228.324	48.69
228.559	63.69
228.793	70.69
229.027	64.69
229.262	60.69
229.496	66.69
229.73	75.69
229.964	85.69
230.199	76.69
230.433	84.69
230.667	85.69
230.901	78.69
231.136	58.69
231.37	84.69
231.604	70.69
231.838	85.69
232.072	83.69
232.306	85.69
232.541	101.69
232.775	86.69
233.009	79.69
233.243	73.69
233.477	79.69
233.711	80.69
233.945	72.69
234.179	75.69
234.413	80.69
234.647	77.69
234.881	80.69
235.115	91.69
235.349	93.69
235.583	86.69
235.817	88.69
236.051	87.69
236.285	81.69
236.519	75.69
236.753	76.69
236.987	87.69
237.221	86.69
237.455	85.69
237.689	94.69
237.922	69.69
238.156	86.69
238.39	84.69
238.624	84.69
238.858	81.69
239.091	76.69
239.325	96.69
239.559	76.69
239.793	78.69
240.027	81.69
240.26	57.69
240.494	62.69
240.728	68.69
240.961	87.69
241.195	88.69
241.429	67.69
241.662	80.69
241.896	78.69
242.13	84.69
242.363	64.69
242.597	75.69
242.83	99.69
243.064	74.69
243.298	83.69
243.531	88.69
243.765	77.69
243.998	81.69
244.232	62.69
244.465	86.69
244.699	80.69
244.932	84.69
245.166	94.69
245.399	76.69
245.633	87.69
245.866	76.69
246.099	65.69
246.333	70.69
246.566	75.69
246.8	65.69
247.033	79.69
247.266	95.69
247.5	87.69
247.733	77.69
247.966	84.69
248.2	96.69
248.433	81.69
248.666	78.69
248.899	89.69
249.133	70.69
249.366	83.69
249.599	72.69
249.832	81.69
250.066	74.69
250.299	87.69
250.532	70.69
250.765	68.69
250.998	81.69
251.231	79.69
251.465	76.69
251.698	77.69
251.931	84.69
252.164	80.69
252.397	92.69
252.63	80.69
252.863	84.69
253.096	77.69
253.329	81.69
253.562	73.69
253.795	81.69
254.028	88.69
254.261	86.69
254.494	89.69
254.727	81.69
254.96	82.69
255.193	89.69
255.426	83.69
255.659	78.69
255.892	91.69
256.124	82.69
256.357	77.69
256.59	67.69
256.823	78.69
257.056	81.69
257.289	76.69
257.521	87.69
257.754	87.69
257.987	90.69
258.22	79.69
258.452	69.69
258.685	74.69
258.918	77.69
259.151	84.69
259.383	88.69
259.616	71.69
259.849	77.69
260.081	83.69
260.314	91.69
260.547	77.69
260.779	89.69
261.012	70.69
261.244	78.69
261.477	69.69
261.71	83.69
261.942	85.69
262.175	65.69
262.407	73.69
262.64	72.69
262.872	72.69
263.105	82.69
263.337	85.69
263.57	88.69
263.802	77.69
264.035	91.69
264.267	73.69
264.499	91.69
264.732	83.69
264.964	78.69
265.197	88.69
265.429	91.69
265.661	72.69
265.894	83.69
266.126	75.69
266.358	78.69
266.591	87.69
266.823	75.69
267.055	76.69
267.287	92.69
267.52	92.69
267.752	75.69
267.984	81.69
268.216	66.69
268.448	85.69
268.681	88.69
268.913	87.69
269.145	82.69
269.377	87.69
269.609	81.69
269.841	87.69
270.073	74.69
270.306	83.69
270.538	77.69
270.77	90.69
271.002	99.69
271.234	95.69
271.466	77.69
271.698	75.69
271.93	71.69
272.162	87.69
272.394	81.69
272.626	89.69
272.858	88.69
273.09	94.69
273.322	97.69
273.553	90.69
273.785	98.69
274.017	86.69
274.249	84.69
274.481	77.69
274.713	91.69
274.945	69.69
275.176	85.69
275.408	84.69
275.64	67.69
275.872	102.69
276.104	82.69
276.335	83.69
276.567	84.69
276.799	79.69
277.031	71.69
277.262	77.69
277.494	94.69
277.726	88.69
277.957	91.69
278.189	81.69
278.421	95.69
278.652	88.69
278.884	91.69
279.115	83.69
279.347	85.69
279.579	91.69
279.81	85.69
280.042	108.69
280.273	83.69
280.505	83.69
280.736	80.69
280.968	94.69
281.199	92.69
281.431	86.69
281.662	83.69
281.894	75.69
282.125	69.69
282.356	80.69
282.588	82.69
282.819	96.69
283.051	73.69
283.282	80.69
283.513	84.69
283.745	83.69
283.976	82.69
284.207	86.69
284.439	77.69
284.67	89.69
284.901	83.69
285.132	79.69
285.364	70.69
285.595	89.69
285.826	86.69
286.057	83.69
286.288	82.69
286.52	96.69
286.751	60.69
286.982	99.69
287.213	78.69
287.444	85.69
287.675	83.69
287.906	77.69
288.138	86.69
288.369	91.69
288.6	88.69
288.831	87.69
289.062	87.69
289.293	80.69
289.524	78.69
289.755	97.69
289.986	89.69
290.217	74.69
290.448	81.69
290.679	90.69
290.91	87.69
291.141	81.69
291.371	78.69
291.602	99.69
291.833	98.69
292.064	93.69
292.295	91.69
292.526	74.69
292.757	76.69
292.987	93.69
293.218	89.69
293.449	101.69
293.68	99.69
293.91	80.69
294.141	80.69
294.372	81.69
294.603	85.69
294.833	80.69
295.064	77.69
295.295	78.69
295.525	82.69
295.756	100.69
295.987	78.69
296.217	84.69
296.448	83.69
296.679	94.69
296.909	78.69
297.14	95.69
297.37	102.69
297.601	75.69
297.831	91.69
298.062	84.69
298.292	95.69
298.523	89.69
298.753	84.69
298.984	83.69
299.214	85.69
299.445	94.69
299.675	97.69
299.905	78.69
300.136	82.69
300.366	88.69
300.597	91.69
300.827	77.69
301.057	85.69
301.288	99.69
301.518	85.69
301.748	96.69
301.979	81.69
302.209	93.69
302.439	91.69
302.669	89.69
302.9	82.69
303.13	84.69
303.36	82.69
303.59	79.69
303.82	82.69
304.051	87.69
304.281	95.69
304.511	98.69
304.741	89.69
304.971	85.69
305.201	88.69
305.431	83.69
305.661	95.69
305.891	77.69
306.121	71.69
306.352	70.69
306.582	77.69
306.812	94.69
307.042	89.69
307.272	94.69
307.502	70.69
307.731	72.69
307.961	79.69
308.191	102.69
308.421	90.69
308.651	85.69
308.881	81.69
309.111	87.69
309.341	91.69
309.571	85.69
309.8	87.69
310.03	86.69
310.26	79.69
310.49	85.69
310.72	79.69
310.949	83.69
311.179	81.69
311.409	83.69
311.639	75.69
311.868	88.69
312.098	93.69
312.328	85.69
312.557	74.69
312.787	70.69
313.017	87.69
313.246	99.69
313.476	92.69
313.706	90.69
313.935	86.69
314.165	93.69
314.394	91.69
314.624	81.69
314.853	76.69
315.083	89.69
315.312	82.69
315.542	79.69
315.771	91.69
316.001	72.69
316.23	84.69
316.46	91.69
316.689	85.69
316.919	74.69
317.148	79.69
317.377	87.69
317.607	81.69
317.836	91.69
318.065	82.69
318.295	92.69
318.524	78.69
318.753	95.69
318.983	99.69
319.212	68.69
319.441	81.69
319.67	78.69
319.9	90.69
320.129	85.69
320.358	97.69
320.587	93.69
320.816	78.69
321.046	92.69
321.275	99.69
321.504	99.69
321.733	87.69
321.962	81.69
322.191	84.69
322.42	85.69
322.649	89.69
322.878	87.69
323.108	88.69
323.337	76.69
323.566	76.69
323.795	89.69
324.024	85.69
324.253	88.69
324.482	73.69
324.71	79.69
324.939	75.69
325.168	92.69
325.397	89.69
325.626	87.69
325.855	82.69
326.084	101.69
326.313	80.69
326.542	77.69
326.77	67.69
326.999	73.69
327.228	72.69
327.457	97.69
327.686	83.69
327.914	86.69
328.143	93.69
328.372	80.69
328.6	95.69
328.829	81.69
329.058	90.69
329.287	68.69
329.515	77.69
329.744	77.69
329.972	86.69
330.201	76.69
330.43	74.69
330.658	86.69
330.887	88.69
331.115	89.69
331.344	79.69
331.572	87.69
331.801	84.69
332.03	86.69
332.258	87.69
332.486	76.69
332.715	79.69
332.943	77.69
333.172	89.69
333.4	83.69
333.629	81.69
333.857	74.69
334.085	96.69
334.314	77.69
334.542	81.69
334.771	70.69
334.999	84.69
335.227	77.69
335.455	76.69
335.684	79.69
335.912	92.69
336.14	75.69
336.369	94.69
336.597	75.69
336.825	93.69
337.053	96.69
337.281	96.69
337.51	84.69
337.738	90.69
337.966	80.69
338.194	76.69
338.422	85.69
338.65	80.69
338.878	89.69
339.106	81.69
339.334	90.69
339.562	82.69
339.79	90.69
340.018	89.69
340.246	97.69
340.474	91.69
340.702	73.69
340.93	67.69
341.158	84.69
341.386	75.69
341.614	82.69
341.842	78.69
342.07	79.69
342.298	91.69
342.526	87.69
342.754	93.69
342.981	97.69
343.209	71.69
343.437	83.69
343.665	72.69
343.893	80.69
344.12	89.69
344.348	83.69
344.576	81.69
344.804	80.69
345.031	74.69
345.259	86.69
345.487	80.69
345.714	87.69
345.942	80.69
346.17	87.69
346.397	94.69
346.625	75.69
346.853	92.69
347.08	92.69
347.308	97.69
347.535	71.69
347.763	78.69
347.99	78.69
348.218	102.69
348.445	101.69
348.673	80.69
348.9	69.69
349.128	78.69
349.355	83.69
349.583	87.69
349.81	89.69
350.037	75.69
350.265	103.69
350.492	92.69
350.72	93.69
350.947	87.69
351.174	91.69
351.402	85.69
351.629	80.69
351.856	71.69
352.083	64.69
352.311	59.69
352.538	82.69
352.765	80.69
352.992	88.69
353.22	80.69
353.447	87.69
353.674	99.69
353.901	99.69
354.128	84.69
354.355	93.69
354.583	83.69
354.81	79.69
355.037	88.69
355.264	71.69
355.491	84.69
355.718	85.69
355.945	86.69
356.172	98.69
356.399	88.69
356.626	72.69
356.853	79.69
357.08	81.69
357.307	76.69
357.534	80.69
357.761	92.69
357.988	108.69
358.215	73.69
358.441	82.69
358.668	76.69
358.895	91.69
359.122	90.69
359.349	93.69
359.576	82.69
359.802	79.69
360.029	88.69
360.256	70.69
360.483	63.69
360.709	87.69
360.936	94.69
361.163	72.69
361.39	81.69
361.616	89.69
361.843	84.69
362.07	86.69
362.296	75.69
362.523	78.69
362.749	97.69
362.976	81.69
363.203	92.69
363.429	85.69
363.656	84.69
363.882	85.69
364.109	84.69
364.335	89.69
364.562	85.69
364.788	99.69
365.015	88.69
365.241	76.69
365.468	96.69
365.694	95.69
365.92	87.69
366.147	89.69
366.373	96.69
366.599	77.69
366.826	76.69
367.052	85.69
367.278	85.69
367.505	97.69
367.731	94.69
367.957	83.69
368.184	85.69
368.41	77.69
368.636	105.69
368.862	95.69
369.089	92.69
369.315	95.69
369.541	87.69
369.767	84.69
369.993	79.69
370.219	95.69
370.445	95.69
370.672	103.69
370.898	96.69
371.124	89.69
371.35	96.69
371.576	74.69
371.802	98.69
372.028	89.69
372.254	93.69
372.48	83.69
372.706	97.69
372.932	93.69
373.158	107.69
373.384	101.69
373.61	92.69
373.835	93.69
374.061	87.69
374.287	96.69
374.513	97.69
374.739	95.69
374.965	88.69
375.191	99.69
375.416	102.69
375.642	86.69
375.868	86.69
376.094	108.69
376.319	110.69
376.545	95.69
376.771	80.69
376.997	96.69
377.222	95.69
377.448	92.69
377.674	96.69
377.899	96.69
378.125	86.69
378.35	100.69
378.576	88.69
378.802	99.69
379.027	93.69
379.253	86.69
379.478	82.69
379.704	94.69
379.929	100.69
380.155	91.69
380.38	103.69
380.606	94.69
380.831	86.69
381.057	107.69
381.282	97.69
381.507	94.69
381.733	97.69
381.958	91.69
382.184	85.69
382.409	108.69
382.634	108.69
382.86	99.69
383.085	95.69
383.31	94.69
383.535	95.69
383.761	96.69
383.986	104.69
384.211	90.69
384.436	106.69
384.662	98.69
384.887	91.69
385.112	87.69
385.337	88.69
385.562	106.69
385.787	97.69
386.013	112.69
386.238	106.69
386.463	96.69
386.688	95.69
386.913	92.69
387.138	102.69
387.363	92.69
387.588	89.69
387.813	90.69
388.038	99.69
388.263	96.69
388.488	94.69
388.713	94.69
388.938	112.69
389.163	93.69
389.387	105.69
389.612	100.69
389.837	112.69
390.062	96.69
390.287	104.69
390.512	111.69
390.736	97.69
390.961	96.69
391.186	94.69
391.411	110.69
391.636	103.69
391.86	87.69
392.085	100.69
392.31	91.69
392.534	109.69
392.759	102.69
392.984	111.69
393.208	102.69
393.433	103.69
393.658	98.69
393.882	97.69
394.107	99.69
394.331	106.69
394.556	126.69
394.78	102.69
395.005	100.69
395.229	104.69
395.454	101.69
395.678	108.69
395.903	109.69
396.127	117.69
396.352	117.69
396.576	104.69
396.801	105.69
397.025	106.69
397.249	105.69
397.474	102.69
397.698	95.69
397.922	109.69
398.147	104.69
398.371	103.69
398.595	117.69
398.82	105.69
399.044	117.69
399.268	107.69
399.492	104.69
399.717	118.69
399.941	108.69
400.165	128.69
400.389	106.69
400.613	113.69
400.837	107.69
401.062	102.69
401.286	96.69
401.51	111.69
401.734	120.69
401.958	111.69
402.182	117.69
402.406	122.69
402.63	102.69
402.854	119.69
403.078	113.69
403.302	107.69
403.526	115.69
403.75	107.69
403.974	113.69
404.198	117.69
404.422	119.69
404.645	128.69
404.869	113.69
405.093	116.69
405.317	113.69
405.541	104.69
405.765	115.69
405.988	109.69
406.212	109.69
406.436	130.69
406.66	121.69
406.883	123.69
407.107	119.69
407.331	121.69
407.555	126.69
407.778	103.69
408.002	116.69
408.226	117.69
408.449	132.69
408.673	129.69
408.896	116.69
409.12	122.69
409.344	130.69
409.567	121.69
409.791	128.69
410.014	131.69
410.238	124.69
410.461	121.69
410.685	125.69
410.908	125.69
411.132	125.69
411.355	125.69
411.578	124.69
411.802	115.69
412.025	111.69
412.249	110.69
412.472	133.69
412.695	127.69
412.919	123.69
413.142	121.69
413.365	115.69
413.589	117.69
413.812	123.69
414.035	124.69
414.258	118.69
414.482	119.69
414.705	123.69
414.928	108.69
415.151	124.69
415.374	128.69
415.597	116.69
415.821	126.69
416.044	122.69
416.267	127.69
416.49	122.69
416.713	118.69
416.936	130.69
417.159	124.69
417.382	117.69
417.605	119.69
417.828	129.69
418.051	124.69
418.274	128.69
418.497	127.69
418.72	129.69
418.943	137.69
419.166	128.69
419.389	124.69
419.611	131.69
419.834	142.69
420.057	135.69
420.28	125.69
420.503	135.69
420.726	124.69
420.948	135.69
421.171	128.69
421.394	127.69
421.617	129.69
421.839	143.69
422.062	137.69
422.285	141.69
422.507	134.69
422.73	137.69
422.953	125.69
423.175	121.69
423.398	134.69
423.621	132.69
423.843	131.69
424.066	136.69
424.288	139.69
424.511	137.69
424.733	143.69
424.956	158.69
425.178	142.69
425.401	137.69
425.623	125.69
425.846	119.69
426.068	137.69
426.291	140.69
426.513	144.69
426.735	141.69
426.958	127.69
427.18	136.69
427.402	138.69
427.625	133.69
427.847	129.69
428.069	135.69
428.292	131.69
428.514	118.69
428.736	111.69
428.958	131.69
429.181	120.69
429.403	127.69
429.625	127.69
429.847	134.69
430.069	140.69
430.292	136.69
430.514	144.69
430.736	119.69
430.958	128.69
431.18	113.69
431.402	135.69
431.624	125.69
431.846	91.69
432.068	92.69
432.29	113.69
432.512	115.69
432.734	119.69
432.956	124.69
433.178	124.69
433.4	142.69
433.622	132.69
433.844	138.69
434.066	120.69
434.287	120.69
434.509	102.69
434.731	114.69
434.953	117.69
435.175	110.69
435.397	127.69
435.618	135.69
435.84	100.69
436.062	93.69
436.284	132.69
436.505	119.69
436.727	117.69
436.949	124.69
437.17	124.69
437.392	149.69
437.614	132.69
437.835	116.69
438.057	108.69
438.278	105.69
438.5	121.69
438.721	131.69
438.943	128.69
439.165	141.69
439.386	144.69
439.608	145.69
439.829	141.69
440.05	140.69
440.272	143.69
440.493	137.69
440.715	147.69
440.936	150.69
441.158	151.69
441.379	142.69
441.6	154.69
441.822	139.69
442.043	138.69
442.264	148.69
442.486	141.69
442.707	134.69
442.928	137.69
443.149	141.69
443.371	127.69
443.592	149.69
443.813	139.69
444.034	140.69
444.255	140.69
444.476	137.69
444.698	134.69
444.919	139.69
445.14	261.69
445.361	196.69
445.582	157.69
445.803	153.69
446.024	151.69
446.245	147.69
446.466	160.69
446.687	158.69
446.908	165.69
447.129	153.69
447.35	156.69
447.571	153.69
447.792	124.69
448.013	138.69
448.234	140.69
448.455	131.69
448.675	125.69
448.896	134.69
449.117	137.69
449.338	137.69
449.559	148.69
449.779	131.69
450	135.69
450.221	132.69
450.442	137.69
450.662	122.69
450.883	131.69
451.104	144.69
451.324	125.69
451.545	128.69
451.766	136.69
451.986	125.69
452.207	127.69
452.428	131.69
452.648	130.69
452.869	120.69
453.089	121.69
453.31	123.69
453.53	106.69
453.751	116.69
453.971	103.69
454.192	115.69
454.412	112.69
454.633	111.69
454.853	120.69
455.073	128.69
455.294	100.69
455.514	124.69
455.734	117.69
455.955	124.69
456.175	115.69
456.395	110.69
456.616	108.69
456.836	117.69
457.056	119.69
457.276	118.69
457.497	101.69
457.717	114.69
457.937	119.69
458.157	108.69
458.377	106.69
458.598	108.69
458.818	103.69
459.038	91.69
459.258	99.69
459.478	94.69
459.698	78.69
459.918	109.69
460.138	95.69
460.358	117.69
460.578	115.69
460.798	112.69
461.018	112.69
461.238	119.69
461.458	119.69
461.678	105.69
461.898	117.69
462.118	106.69
462.338	105.69
462.558	118.69
462.777	101.69
462.997	113.69
463.217	125.69
463.437	113.69
463.657	106.69
463.876	112.69
464.096	115.69
464.316	101.69
464.536	111.69
464.755	119.69
464.975	120.69
465.195	115.69
465.414	118.69
465.634	96.69
465.854	129.69
466.073	110.69
466.293	120.69
466.512	127.69
466.732	137.69
466.951	128.69
467.171	126.69
467.391	131.69
467.61	128.69
467.829	125.69
468.049	130.69
468.268	137.69
468.488	144.69
468.707	139.69
468.927	142.69
469.146	135.69
469.365	147.69
469.585	159.69
469.804	141.69
470.023	132.69
470.243	137.69
470.462	157.69
470.681	139.69
470.901	146.69
471.12	134.69
471.339	153.69
471.558	139.69
471.777	140.69
471.997	128.69
472.216	127.69
472.435	112.69
472.654	115.69
472.873	115.69
473.092	121.69
473.311	134.69
473.53	115.69
473.749	141.69
473.968	145.69
474.187	106.69
474.406	117.69
474.625	142.69
474.844	146.69
475.063	140.69
475.282	121.69
475.501	109.69
475.72	126.69
475.939	135.69
476.158	128.69
476.377	130.69
476.596	139.69
476.814	97.69
477.033	135.69
477.252	129.69
477.471	131.69
477.69	127.69
477.908	139.69
478.127	132.69
478.346	140.69
478.564	139.69
478.783	139.69
479.002	139.69
479.22	142.69
479.439	134.69
479.658	116.69
479.876	117.69
480.095	84.69
480.313	118.69
480.532	129.69
480.751	113.69
480.969	100.69
481.188	95.69
481.406	88.69
481.624	91.69
481.843	87.69
482.061	100.69
482.28	109.69
482.498	115.69
482.717	118.69
482.935	117.69
483.153	139.69
483.372	140.69
483.59	157.69
483.808	133.69
484.027	137.69
484.245	147.69
484.463	155.69
484.681	160.69
484.9	149.69
485.118	132.69
485.336	139.69
485.554	115.69
485.772	104.69
485.99	115.69
486.209	109.69
486.427	120.69
486.645	117.69
486.863	133.69
487.081	134.69
487.299	149.69
487.517	134.69
487.735	177.69
487.953	191.69
488.171	176.69
488.389	176.69
488.607	163.69
488.825	127.69
489.043	144.69
489.261	123.69
489.479	115.69
489.696	156.69
489.914	147.69
490.132	141.69
490.35	158.69
490.568	169.69
490.786	172.69
491.003	174.69
491.221	163.69
491.439	166.69
491.657	182.69
491.874	191.69
492.092	222.69
492.31	232.69
492.527	215.69
492.745	197.69
492.963	181.69
493.18	177.69
493.398	199.69
493.615	183.69
493.833	166.69
494.05	189.69
494.268	171.69
494.485	170.69
494.703	170.69
494.92	153.69
495.138	159.69
495.355	164.69
495.573	159.69
495.79	173.69
496.008	179.69
496.225	173.69
496.442	158.69
496.66	155.69
496.877	170.69
497.094	172.69
497.312	179.69
497.529	151.69
497.746	152.69
497.963	127.69
498.181	143.69
498.398	127.69
498.615	138.69
498.832	117.69
499.049	123.69
499.267	124.69
499.484	137.69
499.701	136.69
499.918	138.69
500.135	134.69
500.352	126.69
500.569	136.69
500.786	141.69
501.003	141.69
501.22	131.69
501.437	151.69
501.654	127.69
501.871	134.69
502.088	143.69
502.305	129.69
502.522	129.69
502.739	132.69
502.956	128.69
503.172	111.69
503.389	131.69
503.606	110.69
503.823	109.69
504.04	122.69
504.256	117.69
504.473	109.69
504.69	125.69
504.907	119.69
505.123	118.69
505.34	129.69
505.557	120.69
505.773	125.69
505.99	125.69
506.207	122.69
506.423	127.69
506.64	115.69
506.856	113.69
507.073	109.69
507.289	122.69
507.506	133.69
507.722	128.69
507.939	122.69
508.155	126.69
508.372	112.69
508.588	113.69
508.805	112.69
509.021	122.69
509.238	101.69
509.454	99.69
509.67	109.69
509.887	112.69
510.103	93.69
510.319	89.69
510.536	84.69
510.752	92.69
510.968	81.69
511.184	95.69
511.401	93.69
511.617	93.69
