Data from Location1.07152019.Energy5.Lamp.07192019.3%Agarose_HRD10591_14-31-56-015.txt Node
Date: Fri Jul 19 14:31:56 EDT 2019
User: cochatt
Spectrometer: HR+D1059
Trigger mode: 1
Integration Time (sec): 1.000000E-1
Scans to average: 1
Electric dark correction enabled: true
Nonlinearity correction enabled: false
Boxcar width: 0
XAxis mode: Wavelengths
Number of Pixels in Spectrum: 2048
>>>>>Begin Spectral Data<<<<<
223.165	-22.12
223.4	-22.12
223.635	-22.12
223.869	-13.12
224.104	-24.12
224.338	-28.12
224.573	-16.12
224.808	-12.12
225.042	0.88
225.277	-5.12
225.511	-5.12
225.746	10.88
225.98	15.88
226.215	11.88
226.449	12.88
226.683	17.88
226.918	20.88
227.152	34.88
227.387	24.88
227.621	35.88
227.856	61.88
228.09	32.88
228.324	38.88
228.559	53.88
228.793	50.88
229.027	60.88
229.262	48.88
229.496	61.88
229.73	63.88
229.964	81.88
230.199	60.88
230.433	57.88
230.667	75.88
230.901	74.88
231.136	71.88
231.37	77.88
231.604	73.88
231.838	86.88
232.072	78.88
232.306	68.88
232.541	80.88
232.775	79.88
233.009	77.88
233.243	81.88
233.477	72.88
233.711	70.88
233.945	79.88
234.179	78.88
234.413	89.88
234.647	69.88
234.881	78.88
235.115	76.88
235.349	72.88
235.583	68.88
235.817	80.88
236.051	66.88
236.285	75.88
236.519	64.88
236.753	92.88
236.987	68.88
237.221	72.88
237.455	65.88
237.689	86.88
237.922	76.88
238.156	68.88
238.39	70.88
238.624	75.88
238.858	83.88
239.091	71.88
239.325	73.88
239.559	61.88
239.793	77.88
240.027	82.88
240.26	72.88
240.494	90.88
240.728	78.88
240.961	68.88
241.195	84.88
241.429	75.88
241.662	75.88
241.896	78.88
242.13	71.88
242.363	77.88
242.597	61.88
242.83	77.88
243.064	77.88
243.298	69.88
243.531	76.88
243.765	65.88
243.998	78.88
244.232	66.88
244.465	69.88
244.699	77.88
244.932	78.88
245.166	56.88
245.399	82.88
245.633	76.88
245.866	93.88
246.099	77.88
246.333	87.88
246.566	78.88
246.8	74.88
247.033	66.88
247.266	78.88
247.5	69.88
247.733	74.88
247.966	85.88
248.2	74.88
248.433	88.88
248.666	76.88
248.899	67.88
249.133	85.88
249.366	76.88
249.599	78.88
249.832	68.88
250.066	84.88
250.299	78.88
250.532	82.88
250.765	64.88
250.998	74.88
251.231	91.88
251.465	91.88
251.698	81.88
251.931	89.88
252.164	63.88
252.397	77.88
252.63	77.88
252.863	72.88
253.096	73.88
253.329	85.88
253.562	81.88
253.795	75.88
254.028	82.88
254.261	88.88
254.494	85.88
254.727	80.88
254.96	74.88
255.193	69.88
255.426	88.88
255.659	64.88
255.892	95.88
256.124	76.88
256.357	94.88
256.59	75.88
256.823	77.88
257.056	75.88
257.289	68.88
257.521	86.88
257.754	71.88
257.987	72.88
258.22	66.88
258.452	86.88
258.685	76.88
258.918	76.88
259.151	92.88
259.383	79.88
259.616	71.88
259.849	79.88
260.081	82.88
260.314	76.88
260.547	80.88
260.779	76.88
261.012	71.88
261.244	81.88
261.477	70.88
261.71	81.88
261.942	87.88
262.175	87.88
262.407	69.88
262.64	88.88
262.872	81.88
263.105	85.88
263.337	81.88
263.57	74.88
263.802	84.88
264.035	81.88
264.267	83.88
264.499	67.88
264.732	75.88
264.964	76.88
265.197	77.88
265.429	76.88
265.661	85.88
265.894	88.88
266.126	82.88
266.358	93.88
266.591	90.88
266.823	80.88
267.055	72.88
267.287	79.88
267.52	81.88
267.752	81.88
267.984	80.88
268.216	76.88
268.448	77.88
268.681	68.88
268.913	82.88
269.145	72.88
269.377	76.88
269.609	75.88
269.841	87.88
270.073	80.88
270.306	73.88
270.538	66.88
270.77	82.88
271.002	84.88
271.234	73.88
271.466	70.88
271.698	56.88
271.93	77.88
272.162	83.88
272.394	97.88
272.626	72.88
272.858	76.88
273.09	79.88
273.322	69.88
273.553	79.88
273.785	69.88
274.017	76.88
274.249	82.88
274.481	67.88
274.713	72.88
274.945	84.88
275.176	86.88
275.408	82.88
275.64	81.88
275.872	74.88
276.104	79.88
276.335	77.88
276.567	90.88
276.799	78.88
277.031	85.88
277.262	85.88
277.494	92.88
277.726	77.88
277.957	74.88
278.189	83.88
278.421	78.88
278.652	76.88
278.884	85.88
279.115	75.88
279.347	89.88
279.579	78.88
279.81	89.88
280.042	82.88
280.273	80.88
280.505	84.88
280.736	74.88
280.968	75.88
281.199	78.88
281.431	75.88
281.662	81.88
281.894	96.88
282.125	92.88
282.356	80.88
282.588	77.88
282.819	81.88
283.051	92.88
283.282	79.88
283.513	79.88
283.745	86.88
283.976	92.88
284.207	84.88
284.439	80.88
284.67	74.88
284.901	83.88
285.132	72.88
285.364	78.88
285.595	84.88
285.826	82.88
286.057	82.88
286.288	82.88
286.52	84.88
286.751	85.88
286.982	82.88
287.213	84.88
287.444	77.88
287.675	89.88
287.906	70.88
288.138	73.88
288.369	84.88
288.6	90.88
288.831	78.88
289.062	80.88
289.293	93.88
289.524	77.88
289.755	81.88
289.986	84.88
290.217	82.88
290.448	76.88
290.679	90.88
290.91	77.88
291.141	73.88
291.371	94.88
291.602	70.88
291.833	82.88
292.064	84.88
292.295	75.88
292.526	79.88
292.757	61.88
292.987	84.88
293.218	101.88
293.449	86.88
293.68	78.88
293.91	81.88
294.141	96.88
294.372	84.88
294.603	80.88
294.833	92.88
295.064	75.88
295.295	92.88
295.525	83.88
295.756	85.88
295.987	81.88
296.217	83.88
296.448	78.88
296.679	77.88
296.909	74.88
297.14	77.88
297.37	87.88
297.601	85.88
297.831	75.88
298.062	84.88
298.292	77.88
298.523	91.88
298.753	77.88
298.984	82.88
299.214	86.88
299.445	97.88
299.675	92.88
299.905	82.88
300.136	86.88
300.366	79.88
300.597	72.88
300.827	78.88
301.057	75.88
301.288	76.88
301.518	81.88
301.748	96.88
301.979	86.88
302.209	86.88
302.439	81.88
302.669	78.88
302.9	78.88
303.13	82.88
303.36	77.88
303.59	78.88
303.82	84.88
304.051	71.88
304.281	103.88
304.511	86.88
304.741	75.88
304.971	82.88
305.201	80.88
305.431	97.88
305.661	86.88
305.891	81.88
306.121	80.88
306.352	91.88
306.582	69.88
306.812	92.88
307.042	82.88
307.272	96.88
307.502	78.88
307.731	86.88
307.961	90.88
308.191	80.88
308.421	93.88
308.651	79.88
308.881	81.88
309.111	80.88
309.341	92.88
309.571	77.88
309.8	89.88
310.03	83.88
310.26	91.88
310.49	85.88
310.72	86.88
310.949	80.88
311.179	86.88
311.409	92.88
311.639	77.88
311.868	91.88
312.098	80.88
312.328	79.88
312.557	86.88
312.787	71.88
313.017	90.88
313.246	77.88
313.476	99.88
313.706	82.88
313.935	93.88
314.165	87.88
314.394	77.88
314.624	71.88
314.853	72.88
315.083	84.88
315.312	84.88
315.542	70.88
315.771	81.88
316.001	79.88
316.23	89.88
316.46	97.88
316.689	84.88
316.919	71.88
317.148	70.88
317.377	100.88
317.607	77.88
317.836	89.88
318.065	84.88
318.295	85.88
318.524	89.88
318.753	91.88
318.983	84.88
319.212	87.88
319.441	78.88
319.67	92.88
319.9	77.88
320.129	78.88
320.358	85.88
320.587	82.88
320.816	83.88
321.046	90.88
321.275	84.88
321.504	90.88
321.733	105.88
321.962	71.88
322.191	70.88
322.42	71.88
322.649	83.88
322.878	75.88
323.108	76.88
323.337	71.88
323.566	76.88
323.795	76.88
324.024	77.88
324.253	84.88
324.482	67.88
324.71	91.88
324.939	75.88
325.168	95.88
325.397	90.88
325.626	77.88
325.855	83.88
326.084	87.88
326.313	78.88
326.542	77.88
326.77	85.88
326.999	72.88
327.228	87.88
327.457	86.88
327.686	84.88
327.914	98.88
328.143	81.88
328.372	84.88
328.6	74.88
328.829	85.88
329.058	88.88
329.287	87.88
329.515	96.88
329.744	81.88
329.972	89.88
330.201	91.88
330.43	100.88
330.658	82.88
330.887	99.88
331.115	72.88
331.344	75.88
331.572	85.88
331.801	99.88
332.03	84.88
332.258	78.88
332.486	64.88
332.715	93.88
332.943	74.88
333.172	76.88
333.4	84.88
333.629	84.88
333.857	78.88
334.085	89.88
334.314	95.88
334.542	85.88
334.771	87.88
334.999	84.88
335.227	82.88
335.455	75.88
335.684	80.88
335.912	91.88
336.14	83.88
336.369	80.88
336.597	99.88
336.825	87.88
337.053	82.88
337.281	83.88
337.51	86.88
337.738	64.88
337.966	85.88
338.194	75.88
338.422	74.88
338.65	94.88
338.878	80.88
339.106	85.88
339.334	94.88
339.562	87.88
339.79	91.88
340.018	85.88
340.246	77.88
340.474	92.88
340.702	76.88
340.93	79.88
341.158	84.88
341.386	91.88
341.614	77.88
341.842	73.88
342.07	86.88
342.298	80.88
342.526	81.88
342.754	90.88
342.981	84.88
343.209	80.88
343.437	92.88
343.665	76.88
343.893	86.88
344.12	88.88
344.348	86.88
344.576	72.88
344.804	72.88
345.031	108.88
345.259	82.88
345.487	77.88
345.714	96.88
345.942	90.88
346.17	80.88
346.397	78.88
346.625	82.88
346.853	80.88
347.08	77.88
347.308	92.88
347.535	91.88
347.763	79.88
347.99	88.88
348.218	82.88
348.445	93.88
348.673	98.88
348.9	80.88
349.128	86.88
349.355	81.88
349.583	85.88
349.81	76.88
350.037	90.88
350.265	81.88
350.492	93.88
350.72	82.88
350.947	70.88
351.174	81.88
351.402	74.88
351.629	96.88
351.856	92.88
352.083	93.88
352.311	78.88
352.538	92.88
352.765	97.88
352.992	83.88
353.22	95.88
353.447	70.88
353.674	74.88
353.901	83.88
354.128	86.88
354.355	87.88
354.583	88.88
354.81	91.88
355.037	85.88
355.264	73.88
355.491	73.88
355.718	74.88
355.945	88.88
356.172	93.88
356.399	84.88
356.626	78.88
356.853	94.88
357.08	89.88
357.307	76.88
357.534	87.88
357.761	76.88
357.988	82.88
358.215	91.88
358.441	85.88
358.668	67.88
358.895	81.88
359.122	76.88
359.349	97.88
359.576	75.88
359.802	78.88
360.029	83.88
360.256	74.88
360.483	76.88
360.709	96.88
360.936	89.88
361.163	89.88
361.39	68.88
361.616	88.88
361.843	77.88
362.07	73.88
362.296	84.88
362.523	69.88
362.749	75.88
362.976	84.88
363.203	68.88
363.429	77.88
363.656	86.88
363.882	76.88
364.109	87.88
364.335	83.88
364.562	84.88
364.788	74.88
365.015	91.88
365.241	77.88
365.468	85.88
365.694	81.88
365.92	86.88
366.147	82.88
366.373	78.88
366.599	103.88
366.826	88.88
367.052	92.88
367.278	84.88
367.505	88.88
367.731	69.88
367.957	77.88
368.184	78.88
368.41	75.88
368.636	81.88
368.862	89.88
369.089	86.88
369.315	84.88
369.541	88.88
369.767	92.88
369.993	85.88
370.219	77.88
370.445	77.88
370.672	91.88
370.898	92.88
371.124	83.88
371.35	77.88
371.576	76.88
371.802	91.88
372.028	87.88
372.254	97.88
372.48	82.88
372.706	96.88
372.932	97.88
373.158	84.88
373.384	98.88
373.61	87.88
373.835	96.88
374.061	104.88
374.287	87.88
374.513	82.88
374.739	101.88
374.965	97.88
375.191	101.88
375.416	88.88
375.642	96.88
375.868	101.88
376.094	89.88
376.319	99.88
376.545	92.88
376.771	106.88
376.997	86.88
377.222	91.88
377.448	86.88
377.674	80.88
377.899	88.88
378.125	87.88
378.35	86.88
378.576	85.88
378.802	84.88
379.027	85.88
379.253	83.88
379.478	93.88
379.704	83.88
379.929	90.88
380.155	90.88
380.38	90.88
380.606	83.88
380.831	89.88
381.057	99.88
381.282	92.88
381.507	104.88
381.733	102.88
381.958	102.88
382.184	95.88
382.409	80.88
382.634	87.88
382.86	87.88
383.085	102.88
383.31	93.88
383.535	103.88
383.761	98.88
383.986	106.88
384.211	89.88
384.436	85.88
384.662	88.88
384.887	96.88
385.112	104.88
385.337	97.88
385.562	100.88
385.787	99.88
386.013	114.88
386.238	94.88
386.463	93.88
386.688	88.88
386.913	89.88
387.138	78.88
387.363	91.88
387.588	102.88
387.813	113.88
388.038	98.88
388.263	102.88
388.488	99.88
388.713	95.88
388.938	103.88
389.163	85.88
389.387	91.88
389.612	96.88
389.837	98.88
390.062	103.88
390.287	107.88
390.512	108.88
390.736	106.88
390.961	107.88
391.186	107.88
391.411	102.88
391.636	109.88
391.86	89.88
392.085	93.88
392.31	93.88
392.534	94.88
392.759	118.88
392.984	108.88
393.208	103.88
393.433	117.88
393.658	116.88
393.882	105.88
394.107	112.88
394.331	107.88
394.556	112.88
394.78	100.88
395.005	101.88
395.229	115.88
395.454	110.88
395.678	112.88
395.903	109.88
396.127	109.88
396.352	98.88
396.576	78.88
396.801	118.88
397.025	101.88
397.249	110.88
397.474	92.88
397.698	104.88
397.922	109.88
398.147	100.88
398.371	108.88
398.595	113.88
398.82	112.88
399.044	122.88
399.268	116.88
399.492	113.88
399.717	106.88
399.941	98.88
400.165	108.88
400.389	112.88
400.613	115.88
400.837	113.88
401.062	108.88
401.286	111.88
401.51	95.88
401.734	95.88
401.958	119.88
402.182	114.88
402.406	110.88
402.63	101.88
402.854	116.88
403.078	120.88
403.302	105.88
403.526	120.88
403.75	122.88
403.974	100.88
404.198	106.88
404.422	121.88
404.645	99.88
404.869	115.88
405.093	120.88
405.317	114.88
405.541	100.88
405.765	105.88
405.988	123.88
406.212	114.88
406.436	118.88
406.66	128.88
406.883	99.88
407.107	110.88
407.331	116.88
407.555	118.88
407.778	107.88
408.002	116.88
408.226	129.88
408.449	122.88
408.673	126.88
408.896	114.88
409.12	121.88
409.344	108.88
409.567	114.88
409.791	120.88
410.014	122.88
410.238	122.88
410.461	125.88
410.685	120.88
410.908	120.88
411.132	130.88
411.355	126.88
411.578	96.88
411.802	122.88
412.025	114.88
412.249	106.88
412.472	113.88
412.695	118.88
412.919	117.88
413.142	137.88
413.365	127.88
413.589	103.88
413.812	112.88
414.035	106.88
414.258	112.88
414.482	118.88
414.705	121.88
414.928	120.88
415.151	131.88
415.374	120.88
415.597	126.88
415.821	120.88
416.044	118.88
416.267	134.88
416.49	120.88
416.713	124.88
416.936	124.88
417.159	126.88
417.382	125.88
417.605	114.88
417.828	133.88
418.051	126.88
418.274	124.88
418.497	128.88
418.72	125.88
418.943	121.88
419.166	137.88
419.389	130.88
419.611	129.88
419.834	126.88
420.057	125.88
420.28	134.88
420.503	127.88
420.726	131.88
420.948	145.88
421.171	129.88
421.394	130.88
421.617	132.88
421.839	123.88
422.062	132.88
422.285	133.88
422.507	116.88
422.73	142.88
422.953	121.88
423.175	120.88
423.398	122.88
423.621	129.88
423.843	125.88
424.066	128.88
424.288	136.88
424.511	133.88
424.733	144.88
424.956	122.88
425.178	127.88
425.401	150.88
425.623	139.88
425.846	128.88
426.068	132.88
426.291	122.88
426.513	116.88
426.735	134.88
426.958	125.88
427.18	122.88
427.402	134.88
427.625	120.88
427.847	111.88
428.069	120.88
428.292	127.88
428.514	132.88
428.736	119.88
428.958	138.88
429.181	119.88
429.403	117.88
429.625	129.88
429.847	125.88
430.069	131.88
430.292	130.88
430.514	118.88
430.736	125.88
430.958	129.88
431.18	125.88
431.402	110.88
431.624	113.88
431.846	100.88
432.068	92.88
432.29	100.88
432.512	105.88
432.734	125.88
432.956	127.88
433.178	114.88
433.4	135.88
433.622	149.88
433.844	139.88
434.066	121.88
434.287	97.88
434.509	92.88
434.731	92.88
434.953	105.88
435.175	104.88
435.397	114.88
435.618	112.88
435.84	94.88
436.062	104.88
436.284	111.88
436.505	133.88
436.727	134.88
436.949	134.88
437.17	135.88
437.392	127.88
437.614	119.88
437.835	108.88
438.057	115.88
438.278	124.88
438.5	115.88
438.721	139.88
438.943	123.88
439.165	134.88
439.386	142.88
439.608	137.88
439.829	132.88
440.05	143.88
440.272	132.88
440.493	140.88
440.715	129.88
440.936	141.88
441.158	154.88
441.379	149.88
441.6	145.88
441.822	141.88
442.043	130.88
442.264	141.88
442.486	137.88
442.707	153.88
442.928	134.88
443.149	115.88
443.371	125.88
443.592	113.88
443.813	140.88
444.034	144.88
444.255	123.88
444.476	148.88
444.698	134.88
444.919	138.88
445.14	280.88
445.361	198.88
445.582	156.88
445.803	135.88
446.024	150.88
446.245	152.88
446.466	161.88
446.687	148.88
446.908	148.88
447.129	149.88
447.35	148.88
447.571	139.88
447.792	128.88
448.013	138.88
448.234	140.88
448.455	141.88
448.675	143.88
448.896	150.88
449.117	128.88
449.338	140.88
449.559	134.88
449.779	131.88
450	128.88
450.221	121.88
450.442	131.88
450.662	130.88
450.883	124.88
451.104	138.88
451.324	116.88
451.545	118.88
451.766	137.88
451.986	134.88
452.207	120.88
452.428	131.88
452.648	118.88
452.869	115.88
453.089	107.88
453.31	107.88
453.53	107.88
453.751	100.88
453.971	100.88
454.192	120.88
454.412	109.88
454.633	112.88
454.853	116.88
455.073	123.88
455.294	130.88
455.514	125.88
455.734	107.88
455.955	106.88
456.175	106.88
456.395	143.88
456.616	114.88
456.836	109.88
457.056	112.88
457.276	94.88
457.497	104.88
457.717	92.88
457.937	124.88
458.157	104.88
458.377	98.88
458.598	104.88
458.818	90.88
459.038	93.88
459.258	104.88
459.478	81.88
459.698	78.88
459.918	86.88
460.138	89.88
460.358	100.88
460.578	118.88
460.798	121.88
461.018	98.88
461.238	113.88
461.458	126.88
461.678	123.88
461.898	122.88
462.118	116.88
462.338	113.88
462.558	113.88
462.777	99.88
462.997	97.88
463.217	93.88
463.437	106.88
463.657	100.88
463.876	108.88
464.096	104.88
464.316	102.88
464.536	106.88
464.755	108.88
464.975	117.88
465.195	118.88
465.414	122.88
465.634	127.88
465.854	115.88
466.073	122.88
466.293	125.88
466.512	121.88
466.732	120.88
466.951	143.88
467.171	124.88
467.391	135.88
467.61	121.88
467.829	128.88
468.049	155.88
468.268	132.88
468.488	134.88
468.707	122.88
468.927	137.88
469.146	140.88
469.365	131.88
469.585	133.88
469.804	124.88
470.023	139.88
470.243	132.88
470.462	141.88
470.681	141.88
470.901	135.88
471.12	148.88
471.339	148.88
471.558	141.88
471.777	138.88
471.997	145.88
472.216	114.88
472.435	120.88
472.654	99.88
472.873	112.88
473.092	108.88
473.311	116.88
473.53	114.88
473.749	123.88
473.968	136.88
474.187	129.88
474.406	113.88
474.625	120.88
474.844	131.88
475.063	114.88
475.282	111.88
475.501	117.88
475.72	109.88
475.939	128.88
476.158	128.88
476.377	108.88
476.596	122.88
476.814	105.88
477.033	121.88
477.252	115.88
477.471	122.88
477.69	126.88
477.908	137.88
478.127	132.88
478.346	126.88
478.564	131.88
478.783	128.88
479.002	137.88
479.22	131.88
479.439	128.88
479.658	118.88
479.876	105.88
480.095	109.88
480.313	113.88
480.532	108.88
480.751	105.88
480.969	102.88
481.188	82.88
481.406	84.88
481.624	92.88
481.843	90.88
482.061	89.88
482.28	105.88
482.498	114.88
482.717	116.88
482.935	130.88
483.153	133.88
483.372	135.88
483.59	130.88
483.808	151.88
484.027	121.88
484.245	126.88
484.463	162.88
484.681	164.88
484.9	138.88
485.118	128.88
485.336	128.88
485.554	90.88
485.772	91.88
485.99	105.88
486.209	102.88
486.427	95.88
486.645	114.88
486.863	144.88
487.081	131.88
487.299	126.88
487.517	129.88
487.735	159.88
487.953	181.88
488.171	175.88
488.389	170.88
488.607	150.88
488.825	141.88
489.043	141.88
489.261	121.88
489.479	139.88
489.696	153.88
489.914	138.88
490.132	138.88
490.35	150.88
490.568	156.88
490.786	170.88
491.003	186.88
491.221	173.88
491.439	188.88
491.657	201.88
491.874	201.88
492.092	225.88
492.31	218.88
492.527	211.88
492.745	190.88
492.963	199.88
493.18	184.88
493.398	178.88
493.615	169.88
493.833	165.88
494.05	175.88
494.268	179.88
494.485	166.88
494.703	182.88
494.92	155.88
495.138	167.88
495.355	155.88
495.573	156.88
495.79	158.88
496.008	153.88
496.225	143.88
496.442	168.88
496.66	163.88
496.877	164.88
497.094	155.88
497.312	156.88
497.529	154.88
497.746	141.88
497.963	129.88
498.181	131.88
498.398	134.88
498.615	124.88
498.832	115.88
499.049	116.88
499.267	125.88
499.484	133.88
499.701	100.88
499.918	122.88
500.135	124.88
500.352	140.88
500.569	150.88
500.786	126.88
501.003	128.88
501.22	123.88
501.437	135.88
501.654	141.88
501.871	128.88
502.088	121.88
502.305	129.88
502.522	121.88
502.739	136.88
502.956	118.88
503.172	140.88
503.389	126.88
503.606	125.88
503.823	118.88
504.04	125.88
504.256	121.88
504.473	131.88
504.69	102.88
504.907	122.88
505.123	116.88
505.34	123.88
505.557	100.88
505.773	112.88
505.99	124.88
506.207	128.88
506.423	124.88
506.64	113.88
506.856	113.88
507.073	122.88
507.289	114.88
507.506	106.88
507.722	123.88
507.939	120.88
508.155	125.88
508.372	103.88
508.588	100.88
508.805	117.88
509.021	100.88
509.238	96.88
509.454	98.88
509.67	103.88
509.887	96.88
510.103	81.88
510.319	101.88
510.536	85.88
510.752	93.88
510.968	79.88
511.184	89.88
511.401	96.88
511.617	95.88
511.833	95.88
