Data from Location1.07152019.Energy5.Lamp.07192019.3%Agarose_HRD10591_14-30-32-015.txt Node
Date: Fri Jul 19 14:30:32 EDT 2019
User: cochatt
Spectrometer: HR+D1059
Trigger mode: 1
Integration Time (sec): 1.000000E-1
Scans to average: 1
Electric dark correction enabled: true
Nonlinearity correction enabled: false
Boxcar width: 0
XAxis mode: Wavelengths
Number of Pixels in Spectrum: 2048
>>>>>Begin Spectral Data<<<<<
223.165	-16.94
223.4	-16.94
223.635	-16.94
223.869	-9.94
224.104	-10.94
224.338	-22.94
224.573	-14.94
224.808	-20.94
225.042	-9.94
225.277	-2.94
225.511	-1.94
225.746	10.06
225.98	14.06
226.215	7.06
226.449	9.06
226.683	28.06
226.918	17.06
227.152	26.06
227.387	42.06
227.621	46.06
227.856	40.06
228.09	48.06
228.324	59.06
228.559	46.06
228.793	51.06
229.027	59.06
229.262	65.06
229.496	57.06
229.73	72.06
229.964	59.06
230.199	59.06
230.433	71.06
230.667	78.06
230.901	85.06
231.136	83.06
231.37	85.06
231.604	80.06
231.838	72.06
232.072	94.06
232.306	79.06
232.541	71.06
232.775	74.06
233.009	81.06
233.243	83.06
233.477	74.06
233.711	88.06
233.945	87.06
234.179	89.06
234.413	93.06
234.647	78.06
234.881	88.06
235.115	80.06
235.349	81.06
235.583	81.06
235.817	77.06
236.051	81.06
236.285	74.06
236.519	84.06
236.753	92.06
236.987	78.06
237.221	73.06
237.455	70.06
237.689	77.06
237.922	85.06
238.156	69.06
238.39	61.06
238.624	88.06
238.858	75.06
239.091	70.06
239.325	81.06
239.559	91.06
239.793	78.06
240.027	71.06
240.26	80.06
240.494	73.06
240.728	88.06
240.961	80.06
241.195	77.06
241.429	79.06
241.662	73.06
241.896	68.06
242.13	71.06
242.363	82.06
242.597	72.06
242.83	72.06
243.064	71.06
243.298	79.06
243.531	81.06
243.765	80.06
243.998	93.06
244.232	106.06
244.465	80.06
244.699	67.06
244.932	75.06
245.166	78.06
245.399	80.06
245.633	87.06
245.866	84.06
246.099	76.06
246.333	94.06
246.566	78.06
246.8	80.06
247.033	76.06
247.266	76.06
247.5	85.06
247.733	82.06
247.966	60.06
248.2	86.06
248.433	84.06
248.666	80.06
248.899	71.06
249.133	67.06
249.366	70.06
249.599	91.06
249.832	64.06
250.066	93.06
250.299	78.06
250.532	91.06
250.765	73.06
250.998	85.06
251.231	78.06
251.465	73.06
251.698	76.06
251.931	75.06
252.164	88.06
252.397	82.06
252.63	83.06
252.863	78.06
253.096	82.06
253.329	76.06
253.562	90.06
253.795	78.06
254.028	78.06
254.261	92.06
254.494	82.06
254.727	68.06
254.96	83.06
255.193	72.06
255.426	80.06
255.659	99.06
255.892	91.06
256.124	84.06
256.357	91.06
256.59	74.06
256.823	79.06
257.056	74.06
257.289	73.06
257.521	82.06
257.754	88.06
257.987	71.06
258.22	84.06
258.452	83.06
258.685	84.06
258.918	77.06
259.151	79.06
259.383	81.06
259.616	90.06
259.849	89.06
260.081	84.06
260.314	100.06
260.547	82.06
260.779	77.06
261.012	80.06
261.244	91.06
261.477	96.06
261.71	79.06
261.942	77.06
262.175	80.06
262.407	87.06
262.64	85.06
262.872	81.06
263.105	71.06
263.337	82.06
263.57	86.06
263.802	83.06
264.035	79.06
264.267	78.06
264.499	75.06
264.732	93.06
264.964	77.06
265.197	87.06
265.429	87.06
265.661	79.06
265.894	76.06
266.126	75.06
266.358	77.06
266.591	79.06
266.823	82.06
267.055	72.06
267.287	100.06
267.52	100.06
267.752	90.06
267.984	79.06
268.216	83.06
268.448	86.06
268.681	89.06
268.913	90.06
269.145	79.06
269.377	83.06
269.609	81.06
269.841	82.06
270.073	74.06
270.306	92.06
270.538	81.06
270.77	78.06
271.002	81.06
271.234	80.06
271.466	95.06
271.698	87.06
271.93	90.06
272.162	78.06
272.394	83.06
272.626	83.06
272.858	93.06
273.09	92.06
273.322	78.06
273.553	88.06
273.785	94.06
274.017	71.06
274.249	99.06
274.481	95.06
274.713	78.06
274.945	81.06
275.176	92.06
275.408	76.06
275.64	86.06
275.872	85.06
276.104	88.06
276.335	84.06
276.567	72.06
276.799	71.06
277.031	91.06
277.262	80.06
277.494	89.06
277.726	96.06
277.957	71.06
278.189	83.06
278.421	89.06
278.652	87.06
278.884	81.06
279.115	84.06
279.347	78.06
279.579	80.06
279.81	85.06
280.042	87.06
280.273	91.06
280.505	79.06
280.736	77.06
280.968	78.06
281.199	88.06
281.431	97.06
281.662	91.06
281.894	76.06
282.125	84.06
282.356	85.06
282.588	86.06
282.819	84.06
283.051	81.06
283.282	76.06
283.513	90.06
283.745	89.06
283.976	92.06
284.207	88.06
284.439	95.06
284.67	91.06
284.901	78.06
285.132	79.06
285.364	78.06
285.595	106.06
285.826	100.06
286.057	76.06
286.288	75.06
286.52	78.06
286.751	77.06
286.982	72.06
287.213	92.06
287.444	94.06
287.675	76.06
287.906	83.06
288.138	82.06
288.369	81.06
288.6	97.06
288.831	87.06
289.062	83.06
289.293	78.06
289.524	89.06
289.755	94.06
289.986	92.06
290.217	76.06
290.448	96.06
290.679	78.06
290.91	87.06
291.141	80.06
291.371	64.06
291.602	84.06
291.833	93.06
292.064	91.06
292.295	92.06
292.526	76.06
292.757	85.06
292.987	98.06
293.218	83.06
293.449	82.06
293.68	85.06
293.91	86.06
294.141	91.06
294.372	95.06
294.603	101.06
294.833	85.06
295.064	80.06
295.295	83.06
295.525	83.06
295.756	75.06
295.987	93.06
296.217	78.06
296.448	93.06
296.679	85.06
296.909	85.06
297.14	87.06
297.37	85.06
297.601	84.06
297.831	90.06
298.062	78.06
298.292	89.06
298.523	87.06
298.753	85.06
298.984	81.06
299.214	85.06
299.445	75.06
299.675	95.06
299.905	87.06
300.136	87.06
300.366	86.06
300.597	84.06
300.827	80.06
301.057	89.06
301.288	91.06
301.518	94.06
301.748	93.06
301.979	88.06
302.209	95.06
302.439	89.06
302.669	96.06
302.9	90.06
303.13	90.06
303.36	82.06
303.59	97.06
303.82	84.06
304.051	88.06
304.281	85.06
304.511	89.06
304.741	81.06
304.971	82.06
305.201	77.06
305.431	89.06
305.661	69.06
305.891	92.06
306.121	88.06
306.352	92.06
306.582	88.06
306.812	84.06
307.042	92.06
307.272	98.06
307.502	86.06
307.731	61.06
307.961	82.06
308.191	88.06
308.421	87.06
308.651	80.06
308.881	87.06
309.111	85.06
309.341	83.06
309.571	82.06
309.8	72.06
310.03	93.06
310.26	84.06
310.49	88.06
310.72	106.06
310.949	86.06
311.179	81.06
311.409	75.06
311.639	82.06
311.868	102.06
312.098	84.06
312.328	78.06
312.557	92.06
312.787	88.06
313.017	84.06
313.246	87.06
313.476	79.06
313.706	87.06
313.935	86.06
314.165	90.06
314.394	70.06
314.624	79.06
314.853	76.06
315.083	80.06
315.312	90.06
315.542	83.06
315.771	83.06
316.001	87.06
316.23	87.06
316.46	91.06
316.689	90.06
316.919	97.06
317.148	87.06
317.377	90.06
317.607	79.06
317.836	80.06
318.065	86.06
318.295	80.06
318.524	96.06
318.753	89.06
318.983	84.06
319.212	93.06
319.441	90.06
319.67	89.06
319.9	83.06
320.129	85.06
320.358	77.06
320.587	89.06
320.816	80.06
321.046	78.06
321.275	86.06
321.504	78.06
321.733	90.06
321.962	75.06
322.191	79.06
322.42	93.06
322.649	105.06
322.878	96.06
323.108	95.06
323.337	73.06
323.566	76.06
323.795	91.06
324.024	93.06
324.253	87.06
324.482	76.06
324.71	79.06
324.939	84.06
325.168	96.06
325.397	93.06
325.626	96.06
325.855	84.06
326.084	95.06
326.313	81.06
326.542	78.06
326.77	85.06
326.999	91.06
327.228	91.06
327.457	87.06
327.686	74.06
327.914	92.06
328.143	92.06
328.372	88.06
328.6	92.06
328.829	79.06
329.058	81.06
329.287	89.06
329.515	95.06
329.744	91.06
329.972	94.06
330.201	78.06
330.43	93.06
330.658	73.06
330.887	102.06
331.115	76.06
331.344	88.06
331.572	70.06
331.801	78.06
332.03	78.06
332.258	77.06
332.486	92.06
332.715	87.06
332.943	80.06
333.172	96.06
333.4	81.06
333.629	82.06
333.857	78.06
334.085	88.06
334.314	87.06
334.542	81.06
334.771	105.06
334.999	88.06
335.227	81.06
335.455	91.06
335.684	87.06
335.912	92.06
336.14	79.06
336.369	85.06
336.597	78.06
336.825	86.06
337.053	77.06
337.281	88.06
337.51	84.06
337.738	93.06
337.966	108.06
338.194	100.06
338.422	81.06
338.65	87.06
338.878	80.06
339.106	71.06
339.334	79.06
339.562	89.06
339.79	75.06
340.018	91.06
340.246	82.06
340.474	91.06
340.702	78.06
340.93	72.06
341.158	81.06
341.386	88.06
341.614	74.06
341.842	59.06
342.07	75.06
342.298	86.06
342.526	84.06
342.754	101.06
342.981	81.06
343.209	88.06
343.437	90.06
343.665	93.06
343.893	86.06
344.12	91.06
344.348	74.06
344.576	78.06
344.804	80.06
345.031	92.06
345.259	102.06
345.487	88.06
345.714	81.06
345.942	91.06
346.17	76.06
346.397	91.06
346.625	87.06
346.853	100.06
347.08	83.06
347.308	75.06
347.535	73.06
347.763	78.06
347.99	91.06
348.218	76.06
348.445	79.06
348.673	88.06
348.9	84.06
349.128	76.06
349.355	86.06
349.583	90.06
349.81	80.06
350.037	84.06
350.265	87.06
350.492	76.06
350.72	78.06
350.947	78.06
351.174	84.06
351.402	88.06
351.629	93.06
351.856	90.06
352.083	94.06
352.311	85.06
352.538	80.06
352.765	79.06
352.992	88.06
353.22	81.06
353.447	89.06
353.674	85.06
353.901	90.06
354.128	91.06
354.355	79.06
354.583	89.06
354.81	82.06
355.037	64.06
355.264	77.06
355.491	92.06
355.718	77.06
355.945	87.06
356.172	96.06
356.399	83.06
356.626	78.06
356.853	84.06
357.08	80.06
357.307	84.06
357.534	94.06
357.761	90.06
357.988	78.06
358.215	65.06
358.441	82.06
358.668	81.06
358.895	85.06
359.122	94.06
359.349	73.06
359.576	89.06
359.802	91.06
360.029	83.06
360.256	81.06
360.483	87.06
360.709	86.06
360.936	73.06
361.163	88.06
361.39	88.06
361.616	70.06
361.843	83.06
362.07	94.06
362.296	93.06
362.523	97.06
362.749	80.06
362.976	69.06
363.203	94.06
363.429	92.06
363.656	95.06
363.882	75.06
364.109	84.06
364.335	70.06
364.562	91.06
364.788	80.06
365.015	78.06
365.241	95.06
365.468	85.06
365.694	71.06
365.92	84.06
366.147	92.06
366.373	90.06
366.599	88.06
366.826	82.06
367.052	95.06
367.278	83.06
367.505	89.06
367.731	68.06
367.957	81.06
368.184	91.06
368.41	77.06
368.636	95.06
368.862	82.06
369.089	81.06
369.315	90.06
369.541	85.06
369.767	81.06
369.993	104.06
370.219	100.06
370.445	95.06
370.672	89.06
370.898	92.06
371.124	86.06
371.35	89.06
371.576	91.06
371.802	87.06
372.028	113.06
372.254	98.06
372.48	95.06
372.706	94.06
372.932	91.06
373.158	81.06
373.384	98.06
373.61	98.06
373.835	104.06
374.061	82.06
374.287	92.06
374.513	93.06
374.739	105.06
374.965	97.06
375.191	107.06
375.416	99.06
375.642	95.06
375.868	104.06
376.094	95.06
376.319	91.06
376.545	78.06
376.771	73.06
376.997	79.06
377.222	97.06
377.448	88.06
377.674	91.06
377.899	101.06
378.125	84.06
378.35	91.06
378.576	86.06
378.802	87.06
379.027	96.06
379.253	94.06
379.478	108.06
379.704	99.06
379.929	100.06
380.155	97.06
380.38	93.06
380.606	101.06
380.831	84.06
381.057	92.06
381.282	104.06
381.507	79.06
381.733	101.06
381.958	99.06
382.184	96.06
382.409	106.06
382.634	92.06
382.86	92.06
383.085	99.06
383.31	102.06
383.535	94.06
383.761	92.06
383.986	107.06
384.211	98.06
384.436	97.06
384.662	97.06
384.887	91.06
385.112	107.06
385.337	96.06
385.562	106.06
385.787	90.06
386.013	103.06
386.238	94.06
386.463	86.06
386.688	88.06
386.913	94.06
387.138	95.06
387.363	82.06
387.588	81.06
387.813	103.06
388.038	103.06
388.263	109.06
388.488	88.06
388.713	96.06
388.938	88.06
389.163	98.06
389.387	111.06
389.612	107.06
389.837	103.06
390.062	91.06
390.287	104.06
390.512	93.06
390.736	98.06
390.961	101.06
391.186	107.06
391.411	97.06
391.636	92.06
391.86	100.06
392.085	101.06
392.31	103.06
392.534	111.06
392.759	106.06
392.984	112.06
393.208	103.06
393.433	106.06
393.658	109.06
393.882	103.06
394.107	93.06
394.331	112.06
394.556	108.06
394.78	91.06
395.005	99.06
395.229	98.06
395.454	106.06
395.678	103.06
395.903	110.06
396.127	113.06
396.352	101.06
396.576	116.06
396.801	86.06
397.025	101.06
397.249	112.06
397.474	101.06
397.698	115.06
397.922	97.06
398.147	117.06
398.371	108.06
398.595	111.06
398.82	118.06
399.044	110.06
399.268	99.06
399.492	105.06
399.717	122.06
399.941	120.06
400.165	110.06
400.389	113.06
400.613	115.06
400.837	119.06
401.062	107.06
401.286	125.06
401.51	112.06
401.734	104.06
401.958	110.06
402.182	98.06
402.406	107.06
402.63	118.06
402.854	107.06
403.078	116.06
403.302	112.06
403.526	115.06
403.75	126.06
403.974	123.06
404.198	116.06
404.422	117.06
404.645	110.06
404.869	122.06
405.093	125.06
405.317	124.06
405.541	112.06
405.765	95.06
405.988	121.06
406.212	124.06
406.436	121.06
406.66	124.06
406.883	116.06
407.107	112.06
407.331	112.06
407.555	122.06
407.778	122.06
408.002	116.06
408.226	112.06
408.449	113.06
408.673	124.06
408.896	107.06
409.12	120.06
409.344	125.06
409.567	120.06
409.791	120.06
410.014	127.06
410.238	143.06
410.461	119.06
410.685	125.06
410.908	108.06
411.132	126.06
411.355	112.06
411.578	116.06
411.802	107.06
412.025	113.06
412.249	113.06
412.472	100.06
412.695	118.06
412.919	131.06
413.142	109.06
413.365	120.06
413.589	117.06
413.812	115.06
414.035	128.06
414.258	118.06
414.482	127.06
414.705	113.06
414.928	129.06
415.151	115.06
415.374	107.06
415.597	129.06
415.821	132.06
416.044	127.06
416.267	127.06
416.49	129.06
416.713	125.06
416.936	121.06
417.159	116.06
417.382	121.06
417.605	128.06
417.828	134.06
418.051	129.06
418.274	129.06
418.497	123.06
418.72	140.06
418.943	152.06
419.166	135.06
419.389	135.06
419.611	129.06
419.834	144.06
420.057	127.06
420.28	126.06
420.503	136.06
420.726	118.06
420.948	125.06
421.171	145.06
421.394	133.06
421.617	127.06
421.839	126.06
422.062	141.06
422.285	126.06
422.507	138.06
422.73	129.06
422.953	120.06
423.175	114.06
423.398	141.06
423.621	130.06
423.843	121.06
424.066	129.06
424.288	143.06
424.511	129.06
424.733	153.06
424.956	145.06
425.178	133.06
425.401	143.06
425.623	140.06
425.846	135.06
426.068	130.06
426.291	135.06
426.513	121.06
426.735	128.06
426.958	134.06
427.18	131.06
427.402	139.06
427.625	146.06
427.847	127.06
428.069	127.06
428.292	139.06
428.514	129.06
428.736	127.06
428.958	129.06
429.181	131.06
429.403	127.06
429.625	135.06
429.847	136.06
430.069	130.06
430.292	131.06
430.514	126.06
430.736	117.06
430.958	144.06
431.18	124.06
431.402	134.06
431.624	109.06
431.846	108.06
432.068	90.06
432.29	93.06
432.512	96.06
432.734	117.06
432.956	126.06
433.178	142.06
433.4	143.06
433.622	132.06
433.844	131.06
434.066	117.06
434.287	108.06
434.509	108.06
434.731	104.06
434.953	116.06
435.175	118.06
435.397	123.06
435.618	125.06
435.84	118.06
436.062	121.06
436.284	119.06
436.505	129.06
436.727	122.06
436.949	130.06
437.17	127.06
437.392	120.06
437.614	126.06
437.835	108.06
438.057	113.06
438.278	121.06
438.5	127.06
438.721	124.06
438.943	141.06
439.165	134.06
439.386	126.06
439.608	140.06
439.829	137.06
440.05	142.06
440.272	149.06
440.493	144.06
440.715	145.06
440.936	153.06
441.158	147.06
441.379	142.06
441.6	135.06
441.822	151.06
442.043	136.06
442.264	132.06
442.486	123.06
442.707	123.06
442.928	140.06
443.149	143.06
443.371	133.06
443.592	141.06
443.813	120.06
444.034	131.06
444.255	127.06
444.476	134.06
444.698	142.06
444.919	143.06
445.14	266.06
445.361	209.06
445.582	145.06
445.803	149.06
446.024	148.06
446.245	142.06
446.466	147.06
446.687	135.06
446.908	143.06
447.129	160.06
447.35	163.06
447.571	146.06
447.792	141.06
448.013	133.06
448.234	151.06
448.455	146.06
448.675	144.06
448.896	141.06
449.117	125.06
449.338	131.06
449.559	137.06
449.779	143.06
450	124.06
450.221	131.06
450.442	133.06
450.662	120.06
450.883	143.06
451.104	135.06
451.324	128.06
451.545	143.06
451.766	127.06
451.986	128.06
452.207	124.06
452.428	136.06
452.648	120.06
452.869	116.06
453.089	113.06
453.31	112.06
453.53	121.06
453.751	115.06
453.971	115.06
454.192	113.06
454.412	119.06
454.633	123.06
454.853	120.06
455.073	105.06
455.294	109.06
455.514	127.06
455.734	128.06
455.955	115.06
456.175	113.06
456.395	95.06
456.616	118.06
456.836	96.06
457.056	116.06
457.276	100.06
457.497	97.06
457.717	112.06
457.937	107.06
458.157	109.06
458.377	116.06
458.598	94.06
458.818	91.06
459.038	87.06
459.258	89.06
459.478	91.06
459.698	93.06
459.918	97.06
460.138	105.06
460.358	102.06
460.578	129.06
460.798	120.06
461.018	109.06
461.238	127.06
461.458	126.06
461.678	109.06
461.898	107.06
462.118	124.06
462.338	115.06
462.558	111.06
462.777	106.06
462.997	115.06
463.217	106.06
463.437	107.06
463.657	121.06
463.876	101.06
464.096	104.06
464.316	111.06
464.536	119.06
464.755	117.06
464.975	117.06
465.195	120.06
465.414	116.06
465.634	97.06
465.854	112.06
466.073	121.06
466.293	129.06
466.512	134.06
466.732	120.06
466.951	146.06
467.171	132.06
467.391	127.06
467.61	134.06
467.829	118.06
468.049	134.06
468.268	134.06
468.488	129.06
468.707	133.06
468.927	118.06
469.146	137.06
469.365	151.06
469.585	123.06
469.804	130.06
470.023	149.06
470.243	127.06
470.462	133.06
470.681	141.06
470.901	142.06
471.12	134.06
471.339	132.06
471.558	140.06
471.777	128.06
471.997	137.06
472.216	134.06
472.435	116.06
472.654	118.06
472.873	111.06
473.092	123.06
473.311	119.06
473.53	127.06
473.749	122.06
473.968	121.06
474.187	106.06
474.406	123.06
474.625	122.06
474.844	132.06
475.063	120.06
475.282	119.06
475.501	117.06
475.72	127.06
475.939	128.06
476.158	141.06
476.377	143.06
476.596	110.06
476.814	112.06
477.033	97.06
477.252	123.06
477.471	110.06
477.69	125.06
477.908	143.06
478.127	149.06
478.346	125.06
478.564	123.06
478.783	142.06
479.002	137.06
479.22	139.06
479.439	157.06
479.658	116.06
479.876	118.06
480.095	100.06
480.313	126.06
480.532	115.06
480.751	96.06
480.969	99.06
481.188	95.06
481.406	84.06
481.624	93.06
481.843	84.06
482.061	90.06
482.28	104.06
482.498	111.06
482.717	104.06
482.935	111.06
483.153	142.06
483.372	157.06
483.59	145.06
483.808	130.06
484.027	131.06
484.245	127.06
484.463	156.06
484.681	164.06
484.9	148.06
485.118	137.06
485.336	119.06
485.554	103.06
485.772	78.06
485.99	104.06
486.209	104.06
486.427	124.06
486.645	122.06
486.863	127.06
487.081	130.06
487.299	128.06
487.517	144.06
487.735	175.06
487.953	183.06
488.171	182.06
488.389	169.06
488.607	156.06
488.825	144.06
489.043	124.06
489.261	111.06
489.479	142.06
489.696	129.06
489.914	133.06
490.132	142.06
490.35	159.06
490.568	148.06
490.786	172.06
491.003	189.06
491.221	187.06
491.439	167.06
491.657	179.06
491.874	181.06
492.092	219.06
492.31	240.06
492.527	226.06
492.745	199.06
492.963	177.06
493.18	192.06
493.398	180.06
493.615	179.06
493.833	156.06
494.05	166.06
494.268	183.06
494.485	171.06
494.703	170.06
494.92	167.06
495.138	174.06
495.355	162.06
495.573	177.06
495.79	165.06
496.008	175.06
496.225	167.06
496.442	171.06
496.66	175.06
496.877	151.06
497.094	168.06
497.312	172.06
497.529	148.06
497.746	148.06
497.963	135.06
498.181	131.06
498.398	115.06
498.615	110.06
498.832	120.06
499.049	121.06
499.267	131.06
499.484	129.06
499.701	127.06
499.918	136.06
500.135	129.06
500.352	163.06
500.569	149.06
500.786	138.06
501.003	134.06
501.22	141.06
501.437	144.06
501.654	136.06
501.871	131.06
502.088	146.06
502.305	138.06
502.522	149.06
502.739	135.06
502.956	132.06
503.172	128.06
503.389	117.06
503.606	118.06
503.823	118.06
504.04	118.06
504.256	124.06
504.473	128.06
504.69	121.06
504.907	129.06
505.123	133.06
505.34	126.06
505.557	120.06
505.773	133.06
505.99	121.06
506.207	125.06
506.423	110.06
506.64	100.06
506.856	120.06
507.073	117.06
507.289	127.06
507.506	132.06
507.722	114.06
507.939	116.06
508.155	116.06
508.372	119.06
508.588	101.06
508.805	112.06
509.021	97.06
509.238	102.06
509.454	103.06
509.67	109.06
509.887	106.06
510.103	102.06
510.319	88.06
510.536	92.06
510.752	70.06
510.968	99.06
511.184	75.06
511.401	79.06
511.617	81.06
