Data from Location1.07152019.Energy5.Lamp.07192019.3%Agarose_HRD10591_14-32-14-015.txt Node
Date: Fri Jul 19 14:32:14 EDT 2019
User: cochatt
Spectrometer: HR+D1059
Trigger mode: 1
Integration Time (sec): 1.000000E-1
Scans to average: 1
Electric dark correction enabled: true
Nonlinearity correction enabled: false
Boxcar width: 0
XAxis mode: Wavelengths
Number of Pixels in Spectrum: 2048
>>>>>Begin Spectral Data<<<<<
223.165	-13
223.4	-13
223.635	-13
223.869	-15
224.104	-24
224.338	-21
224.573	-12
224.808	0
225.042	0
225.277	-19
225.511	1
225.746	0
225.98	3
226.215	15
226.449	16
226.683	20
226.918	16
227.152	33
227.387	40
227.621	38
227.856	39
228.09	37
228.324	55
228.559	60
228.793	72
229.027	54
229.262	47
229.496	77
229.73	79
229.964	71
230.199	82
230.433	78
230.667	71
230.901	70
231.136	85
231.37	82
231.604	83
231.838	84
232.072	84
232.306	98
232.541	84
232.775	90
233.009	90
233.243	82
233.477	74
233.711	85
233.945	92
234.179	78
234.413	90
234.647	95
234.881	74
235.115	64
235.349	72
235.583	78
235.817	84
236.051	67
236.285	87
236.519	79
236.753	82
236.987	85
237.221	75
237.455	73
237.689	90
237.922	85
238.156	78
238.39	99
238.624	94
238.858	80
239.091	59
239.325	80
239.559	73
239.793	80
240.027	72
240.26	80
240.494	74
240.728	76
240.961	74
241.195	68
241.429	71
241.662	79
241.896	75
242.13	78
242.363	66
242.597	79
242.83	76
243.064	80
243.298	84
243.531	87
243.765	79
243.998	75
244.232	75
244.465	60
244.699	91
244.932	70
245.166	83
245.399	68
245.633	78
245.866	80
246.099	85
246.333	85
246.566	83
246.8	90
247.033	76
247.266	77
247.5	71
247.733	75
247.966	71
248.2	79
248.433	74
248.666	76
248.899	86
249.133	77
249.366	69
249.599	69
249.832	77
250.066	99
250.299	69
250.532	73
250.765	77
250.998	77
251.231	78
251.465	79
251.698	73
251.931	74
252.164	81
252.397	70
252.63	91
252.863	74
253.096	68
253.329	87
253.562	82
253.795	99
254.028	92
254.261	89
254.494	79
254.727	87
254.96	89
255.193	79
255.426	67
255.659	85
255.892	88
256.124	87
256.357	82
256.59	90
256.823	69
257.056	82
257.289	75
257.521	72
257.754	80
257.987	83
258.22	93
258.452	89
258.685	84
258.918	75
259.151	71
259.383	94
259.616	87
259.849	76
260.081	85
260.314	93
260.547	83
260.779	86
261.012	79
261.244	78
261.477	82
261.71	85
261.942	79
262.175	81
262.407	79
262.64	77
262.872	87
263.105	93
263.337	75
263.57	82
263.802	76
264.035	77
264.267	76
264.499	77
264.732	76
264.964	94
265.197	85
265.429	85
265.661	95
265.894	68
266.126	86
266.358	86
266.591	85
266.823	68
267.055	80
267.287	76
267.52	90
267.752	89
267.984	78
268.216	76
268.448	78
268.681	79
268.913	85
269.145	78
269.377	87
269.609	77
269.841	83
270.073	90
270.306	77
270.538	80
270.77	76
271.002	66
271.234	76
271.466	84
271.698	71
271.93	92
272.162	86
272.394	89
272.626	80
272.858	77
273.09	82
273.322	80
273.553	66
273.785	80
274.017	85
274.249	88
274.481	91
274.713	89
274.945	91
275.176	94
275.408	80
275.64	77
275.872	76
276.104	75
276.335	90
276.567	81
276.799	87
277.031	75
277.262	95
277.494	76
277.726	95
277.957	82
278.189	79
278.421	76
278.652	86
278.884	69
279.115	90
279.347	77
279.579	86
279.81	88
280.042	95
280.273	85
280.505	81
280.736	78
280.968	85
281.199	89
281.431	90
281.662	77
281.894	87
282.125	84
282.356	101
282.588	84
282.819	69
283.051	90
283.282	75
283.513	94
283.745	77
283.976	98
284.207	84
284.439	101
284.67	77
284.901	80
285.132	83
285.364	84
285.595	79
285.826	89
286.057	75
286.288	86
286.52	90
286.751	71
286.982	84
287.213	86
287.444	86
287.675	95
287.906	84
288.138	90
288.369	81
288.6	84
288.831	90
289.062	82
289.293	79
289.524	90
289.755	76
289.986	79
290.217	80
290.448	78
290.679	84
290.91	84
291.141	89
291.371	92
291.602	89
291.833	81
292.064	79
292.295	79
292.526	84
292.757	90
292.987	95
293.218	85
293.449	95
293.68	77
293.91	96
294.141	89
294.372	93
294.603	83
294.833	96
295.064	81
295.295	82
295.525	79
295.756	90
295.987	88
296.217	81
296.448	90
296.679	79
296.909	77
297.14	88
297.37	83
297.601	81
297.831	97
298.062	83
298.292	96
298.523	93
298.753	72
298.984	75
299.214	66
299.445	92
299.675	79
299.905	82
300.136	80
300.366	98
300.597	86
300.827	70
301.057	85
301.288	81
301.518	93
301.748	88
301.979	95
302.209	94
302.439	98
302.669	92
302.9	91
303.13	77
303.36	79
303.59	92
303.82	91
304.051	80
304.281	84
304.511	77
304.741	101
304.971	74
305.201	81
305.431	86
305.661	85
305.891	92
306.121	87
306.352	79
306.582	87
306.812	82
307.042	76
307.272	92
307.502	91
307.731	87
307.961	75
308.191	78
308.421	85
308.651	83
308.881	82
309.111	74
309.341	78
309.571	93
309.8	90
310.03	85
310.26	69
310.49	74
310.72	79
310.949	100
311.179	87
311.409	86
311.639	75
311.868	84
312.098	71
312.328	86
312.557	86
312.787	92
313.017	91
313.246	88
313.476	85
313.706	68
313.935	80
314.165	92
314.394	79
314.624	79
314.853	80
315.083	92
315.312	79
315.542	93
315.771	87
316.001	74
316.23	84
316.46	90
316.689	96
316.919	81
317.148	86
317.377	93
317.607	85
317.836	93
318.065	87
318.295	95
318.524	86
318.753	78
318.983	84
319.212	69
319.441	92
319.67	84
319.9	73
320.129	93
320.358	79
320.587	83
320.816	88
321.046	80
321.275	103
321.504	98
321.733	88
321.962	82
322.191	98
322.42	103
322.649	82
322.878	84
323.108	84
323.337	99
323.566	82
323.795	74
324.024	80
324.253	91
324.482	83
324.71	76
324.939	77
325.168	91
325.397	84
325.626	93
325.855	73
326.084	79
326.313	79
326.542	75
326.77	86
326.999	88
327.228	94
327.457	81
327.686	75
327.914	73
328.143	91
328.372	95
328.6	85
328.829	88
329.058	78
329.287	91
329.515	76
329.744	80
329.972	84
330.201	82
330.43	81
330.658	80
330.887	87
331.115	82
331.344	82
331.572	91
331.801	84
332.03	80
332.258	94
332.486	88
332.715	84
332.943	83
333.172	85
333.4	68
333.629	86
333.857	89
334.085	88
334.314	101
334.542	86
334.771	85
334.999	74
335.227	79
335.455	77
335.684	69
335.912	88
336.14	84
336.369	80
336.597	84
336.825	59
337.053	78
337.281	90
337.51	86
337.738	81
337.966	80
338.194	89
338.422	89
338.65	72
338.878	82
339.106	87
339.334	90
339.562	99
339.79	95
340.018	94
340.246	83
340.474	74
340.702	80
340.93	69
341.158	83
341.386	88
341.614	94
341.842	79
342.07	84
342.298	93
342.526	85
342.754	98
342.981	92
343.209	87
343.437	78
343.665	92
343.893	84
344.12	77
344.348	91
344.576	87
344.804	79
345.031	93
345.259	88
345.487	74
345.714	89
345.942	80
346.17	94
346.397	74
346.625	91
346.853	95
347.08	80
347.308	99
347.535	88
347.763	89
347.99	101
348.218	86
348.445	86
348.673	86
348.9	87
349.128	74
349.355	72
349.583	86
349.81	92
350.037	84
350.265	76
350.492	87
350.72	83
350.947	81
351.174	91
351.402	84
351.629	82
351.856	80
352.083	86
352.311	87
352.538	74
352.765	80
352.992	83
353.22	87
353.447	84
353.674	80
353.901	87
354.128	97
354.355	91
354.583	86
354.81	80
355.037	75
355.264	91
355.491	97
355.718	87
355.945	81
356.172	103
356.399	82
356.626	96
356.853	91
357.08	95
357.307	83
357.534	91
357.761	79
357.988	86
358.215	87
358.441	77
358.668	93
358.895	95
359.122	92
359.349	86
359.576	87
359.802	77
360.029	90
360.256	86
360.483	82
360.709	79
360.936	87
361.163	83
361.39	91
361.616	90
361.843	79
362.07	100
362.296	81
362.523	87
362.749	71
362.976	86
363.203	88
363.429	85
363.656	78
363.882	95
364.109	98
364.335	80
364.562	80
364.788	92
365.015	86
365.241	86
365.468	76
365.694	80
365.92	86
366.147	103
366.373	81
366.599	86
366.826	77
367.052	89
367.278	93
367.505	82
367.731	80
367.957	98
368.184	84
368.41	104
368.636	105
368.862	82
369.089	89
369.315	87
369.541	93
369.767	101
369.993	100
370.219	94
370.445	95
370.672	89
370.898	80
371.124	97
371.35	84
371.576	96
371.802	102
372.028	99
372.254	92
372.48	95
372.706	93
372.932	89
373.158	95
373.384	90
373.61	88
373.835	78
374.061	93
374.287	95
374.513	93
374.739	81
374.965	80
375.191	91
375.416	98
375.642	101
375.868	96
376.094	99
376.319	99
376.545	96
376.771	96
376.997	103
377.222	104
377.448	99
377.674	101
377.899	92
378.125	95
378.35	93
378.576	90
378.802	103
379.027	98
379.253	97
379.478	78
379.704	94
379.929	84
380.155	92
380.38	94
380.606	86
380.831	96
381.057	94
381.282	96
381.507	87
381.733	94
381.958	96
382.184	105
382.409	87
382.634	96
382.86	102
383.085	112
383.31	91
383.535	96
383.761	105
383.986	99
384.211	97
384.436	103
384.662	82
384.887	95
385.112	99
385.337	93
385.562	92
385.787	109
386.013	94
386.238	106
386.463	96
386.688	80
386.913	81
387.138	95
387.363	98
387.588	102
387.813	97
388.038	109
388.263	108
388.488	107
388.713	91
388.938	100
389.163	103
389.387	98
389.612	101
389.837	97
390.062	98
390.287	99
390.512	112
390.736	95
390.961	109
391.186	109
391.411	96
391.636	112
391.86	103
392.085	107
392.31	98
392.534	106
392.759	97
392.984	95
393.208	96
393.433	111
393.658	118
393.882	107
394.107	96
394.331	99
394.556	98
394.78	96
395.005	111
395.229	100
395.454	121
395.678	119
395.903	114
396.127	96
396.352	96
396.576	87
396.801	105
397.025	108
397.249	124
397.474	99
397.698	111
397.922	116
398.147	107
398.371	107
398.595	100
398.82	105
399.044	99
399.268	107
399.492	106
399.717	103
399.941	101
400.165	103
400.389	117
400.613	108
400.837	106
401.062	110
401.286	116
401.51	109
401.734	100
401.958	97
402.182	95
402.406	101
402.63	113
402.854	105
403.078	112
403.302	109
403.526	105
403.75	125
403.974	134
404.198	120
404.422	112
404.645	94
404.869	117
405.093	127
405.317	119
405.541	130
405.765	112
405.988	117
406.212	108
406.436	105
406.66	105
406.883	116
407.107	98
407.331	112
407.555	110
407.778	116
408.002	118
408.226	104
408.449	127
408.673	123
408.896	104
409.12	111
409.344	119
409.567	112
409.791	130
410.014	126
410.238	114
410.461	122
410.685	124
410.908	111
411.132	139
411.355	120
411.578	124
411.802	110
412.025	108
412.249	116
412.472	120
412.695	117
412.919	120
413.142	114
413.365	121
413.589	120
413.812	116
414.035	132
414.258	123
414.482	128
414.705	105
414.928	134
415.151	123
415.374	136
415.597	132
415.821	127
416.044	123
416.267	135
416.49	118
416.713	131
416.936	125
417.159	118
417.382	127
417.605	121
417.828	140
418.051	124
418.274	138
418.497	132
418.72	130
418.943	133
419.166	123
419.389	135
419.611	122
419.834	127
420.057	120
420.28	128
420.503	138
420.726	132
420.948	121
421.171	127
421.394	136
421.617	128
421.839	129
422.062	125
422.285	127
422.507	127
422.73	122
422.953	128
423.175	117
423.398	115
423.621	119
423.843	138
424.066	127
424.288	138
424.511	151
424.733	155
424.956	132
425.178	118
425.401	133
425.623	140
425.846	139
426.068	129
426.291	126
426.513	120
426.735	123
426.958	141
427.18	153
427.402	136
427.625	129
427.847	120
428.069	126
428.292	148
428.514	134
428.736	133
428.958	134
429.181	123
429.403	118
429.625	122
429.847	125
430.069	131
430.292	142
430.514	125
430.736	106
430.958	122
431.18	119
431.402	130
431.624	109
431.846	104
432.068	98
432.29	98
432.512	107
432.734	112
432.956	138
433.178	136
433.4	145
433.622	152
433.844	137
434.066	130
434.287	114
434.509	102
434.731	106
434.953	104
435.175	130
435.397	124
435.618	119
435.84	115
436.062	105
436.284	104
436.505	118
436.727	121
436.949	129
437.17	128
437.392	122
437.614	117
437.835	109
438.057	101
438.278	114
438.5	135
438.721	138
438.943	130
439.165	138
439.386	124
439.608	140
439.829	130
440.05	137
440.272	131
440.493	148
440.715	138
440.936	143
441.158	126
441.379	144
441.6	139
441.822	145
442.043	145
442.264	147
442.486	147
442.707	126
442.928	150
443.149	138
443.371	132
443.592	133
443.813	120
444.034	134
444.255	134
444.476	135
444.698	141
444.919	124
445.14	250
445.361	172
445.582	143
445.803	145
446.024	147
446.245	156
446.466	150
446.687	140
446.908	163
447.129	160
447.35	146
447.571	152
447.792	136
448.013	142
448.234	132
448.455	128
448.675	130
448.896	129
449.117	139
449.338	153
449.559	136
449.779	119
450	131
450.221	123
450.442	141
450.662	137
450.883	119
451.104	114
451.324	111
451.545	126
451.766	138
451.986	125
452.207	124
452.428	120
452.648	117
452.869	98
453.089	115
453.31	95
453.53	116
453.751	109
453.971	120
454.192	98
454.412	100
454.633	108
454.853	129
455.073	124
455.294	134
455.514	130
455.734	125
455.955	108
456.175	91
456.395	98
456.616	97
456.836	101
457.056	91
457.276	94
457.497	118
457.717	98
457.937	126
458.157	111
458.377	106
458.598	98
458.818	87
459.038	85
459.258	95
459.478	102
459.698	86
459.918	101
460.138	112
460.358	122
460.578	123
460.798	108
461.018	122
461.238	119
461.458	116
461.678	123
461.898	111
462.118	104
462.338	115
462.558	120
462.777	102
462.997	114
463.217	109
463.437	101
463.657	117
463.876	103
464.096	101
464.316	101
464.536	104
464.755	128
464.975	107
465.195	100
465.414	119
465.634	110
465.854	114
466.073	106
466.293	123
466.512	124
466.732	123
466.951	139
467.171	123
467.391	137
467.61	128
467.829	123
468.049	134
468.268	139
468.488	135
468.707	136
468.927	124
469.146	132
469.365	141
469.585	140
469.804	133
470.023	141
470.243	136
470.462	128
470.681	139
470.901	128
471.12	134
471.339	136
471.558	135
471.777	138
471.997	134
472.216	116
472.435	109
472.654	122
472.873	116
473.092	111
473.311	100
473.53	126
473.749	132
473.968	138
474.187	121
474.406	128
474.625	133
474.844	140
475.063	146
475.282	126
475.501	119
475.72	113
475.939	130
476.158	123
476.377	125
476.596	111
476.814	114
477.033	106
477.252	111
477.471	127
477.69	126
477.908	126
478.127	138
478.346	121
478.564	128
478.783	121
479.002	117
479.22	126
479.439	133
479.658	115
479.876	125
480.095	102
480.313	126
480.532	118
480.751	120
480.969	101
481.188	83
481.406	86
481.624	87
481.843	86
482.061	108
482.28	114
482.498	102
482.717	98
482.935	106
483.153	125
483.372	138
483.59	139
483.808	142
484.027	125
484.245	137
484.463	138
484.681	143
484.9	142
485.118	124
485.336	121
485.554	101
485.772	93
485.99	108
486.209	113
486.427	104
486.645	122
486.863	127
487.081	137
487.299	124
487.517	149
487.735	158
487.953	195
488.171	169
488.389	173
488.607	162
488.825	149
489.043	134
489.261	135
489.479	136
489.696	142
489.914	137
490.132	142
490.35	150
490.568	159
490.786	162
491.003	166
491.221	176
491.439	180
491.657	190
491.874	188
492.092	212
492.31	234
492.527	223
492.745	207
492.963	188
493.18	168
493.398	174
493.615	181
493.833	183
494.05	191
494.268	168
494.485	172
494.703	171
494.92	178
495.138	152
495.355	180
495.573	162
495.79	163
496.008	166
496.225	166
496.442	168
496.66	163
496.877	163
497.094	171
497.312	164
497.529	157
497.746	143
497.963	136
498.181	110
498.398	122
498.615	125
498.832	118
499.049	115
499.267	111
499.484	134
499.701	124
499.918	134
500.135	124
500.352	152
500.569	120
500.786	134
501.003	122
501.22	125
501.437	137
501.654	143
501.871	134
502.088	124
502.305	144
502.522	121
502.739	129
502.956	129
503.172	124
503.389	124
503.606	120
503.823	111
504.04	116
504.256	122
504.473	103
504.69	120
504.907	125
505.123	122
505.34	114
505.557	118
505.773	126
505.99	121
506.207	127
506.423	126
506.64	124
506.856	115
507.073	122
507.289	125
507.506	127
507.722	105
507.939	109
508.155	115
508.372	114
508.588	114
508.805	107
509.021	105
509.238	94
509.454	98
509.67	86
509.887	110
510.103	91
510.319	95
510.536	97
510.752	90
510.968	78
511.184	83
511.401	86
511.617	99
511.833	95
512.049	92
512.265	88
512.481	105
512.698	107
512.914	97
513.13	98
513.346	91
513.562	97
513.778	85
513.994	83
514.21	91
514.426	101
514.642	86
514.858	91
515.074	95
515.29	93
515.506	87
515.721	90
515.937	84
516.153	97
516.369	89
516.585	74
516.801	96
517.016	92
517.232	88
517.448	92
517.664	91
517.879	93
518.095	98
518.311	100
518.527	98
518.742	99
518.958	107
519.173	95
519.389	98
519.605	108
519.82	127
520.036	112
520.251	105
520.467	103
520.682	90
520.898	111
521.113	74
521.329	92
521.544	75
521.76	84
521.975	84
522.19	93
522.406	100
522.621	101
522.836	99
523.052	108
523.267	110
523.482	104
523.698	111
523.913	118
524.128	107
524.343	114
524.559	116
524.774	110
524.989	122
525.204	106
525.419	125
525.634	116
525.849	116
526.064	109
526.28	106
526.495	95
526.71	81
526.925	93
527.14	87
527.355	87
527.57	78
527.785	90
527.999	96
528.214	105
528.429	118
528.644	129
528.859	126
529.074	158
529.289	164
529.503	162
529.718	131
529.933	124
530.148	99
530.363	93
530.577	83
530.792	69
531.007	91
531.221	89
531.436	87
531.651	90
531.865	75
532.08	84
532.295	99
532.509	95
532.724	74
532.938	85
533.153	98
533.367	101
533.582	122
533.796	124
534.011	121
534.225	94
534.44	85
534.654	92
534.868	97
535.083	102
535.297	99
535.511	102
535.726	110
535.94	103
536.154	101
536.369	91
536.583	87
536.797	79
537.011	88
537.225	80
537.44	89
537.654	99
537.868	103
538.082	104
538.296	95
538.51	104
538.724	101
538.938	115
539.153	123
539.367	130
539.581	131
539.795	108
540.009	106
540.222	106
540.436	99
540.65	102
540.864	122
541.078	143
541.292	141
541.506	148
541.72	166
541.934	186
542.147	189
542.361	170
542.575	158
542.789	148
543.002	131
543.216	138
543.43	126
543.644	138
543.857	154
544.071	155
544.285	151
544.498	166
544.712	151
544.925	149
545.139	140
545.352	157
545.566	159
545.779	159
545.993	161
546.206	158
546.42	162
546.633	151
546.847	166
547.06	147
547.274	165
547.487	174
547.7	164
547.914	163
548.127	179
548.34	150
548.554	145
548.767	143
548.98	155
549.193	143
549.407	134
549.62	138
549.833	142
550.046	158
550.259	150
550.473	137
550.686	152
550.899	157
551.112	144
551.325	147
551.538	147
551.751	131
551.964	124
552.177	126
552.39	136
552.603	134
552.816	167
553.029	139
553.242	166
553.455	138
553.667	160
553.88	149
554.093	152
554.306	143
554.519	154
554.732	154
554.944	163
555.157	147
555.37	168
555.583	147
555.795	139
556.008	125
556.221	126
556.433	129
556.646	144
556.859	136
557.071	150
557.284	143
557.496	166
557.709	148
557.921	138
558.134	132
558.346	142
558.559	143
558.771	124
558.984	124
559.196	142
559.409	127
559.621	118
559.833	123
560.046	138
560.258	122
560.47	139
560.683	135
560.895	134
561.107	132
561.32	128
561.532	130
561.744	126
561.956	126
562.168	137
562.381	121
562.593	135
562.805	119
563.017	129
563.229	131
563.441	132
563.653	141
563.865	122
564.077	96
564.289	102
564.501	121
564.713	102
564.925	119
565.137	123
565.349	127
565.561	126
565.773	118
565.985	115
566.197	122
566.408	124
566.62	116
566.832	128
567.044	137
567.255	120
567.467	108
567.679	122
567.891	107
568.102	105
568.314	114
568.526	86
568.737	86
568.949	84
569.161	74
569.372	82
569.584	88
569.795	95
570.007	78
570.218	88
570.43	92
570.641	99
570.853	89
571.064	87
571.276	92
571.487	108
571.698	102
571.91	103
572.121	110
572.333	108
572.544	94
572.755	100
572.966	87
573.178	83
573.389	86
573.6	79
573.811	83
574.023	92
574.234	76
574.445	88
574.656	90
574.867	92
575.078	88
575.289	80
575.501	111
575.712	83
575.923	106
576.134	102
576.345	99
576.556	100
576.767	94
576.978	108
577.188	104
