Data from Location1.07152019.Energy5.Lamp.07192019.3%Agarose_HRD10591_14-32-38-016.txt Node
Date: Fri Jul 19 14:32:38 EDT 2019
User: cochatt
Spectrometer: HR+D1059
Trigger mode: 1
Integration Time (sec): 1.000000E-1
Scans to average: 1
Electric dark correction enabled: true
Nonlinearity correction enabled: false
Boxcar width: 0
XAxis mode: Wavelengths
Number of Pixels in Spectrum: 2048
>>>>>Begin Spectral Data<<<<<
223.165	-12.62
223.4	-12.62
223.635	-12.62
223.869	-32.62
224.104	-13.62
224.338	-9.62
224.573	-8.62
224.808	-3.62
225.042	-14.62
225.277	-2.62
225.511	5.38
225.746	0.38
225.98	-11.62
226.215	0.38
226.449	28.38
226.683	24.38
226.918	17.38
227.152	33.38
227.387	46.38
227.621	53.38
227.856	46.38
228.09	41.38
228.324	52.38
228.559	63.38
228.793	53.38
229.027	53.38
229.262	58.38
229.496	79.38
229.73	70.38
229.964	73.38
230.199	67.38
230.433	73.38
230.667	90.38
230.901	82.38
231.136	80.38
231.37	85.38
231.604	67.38
231.838	87.38
232.072	84.38
232.306	74.38
232.541	76.38
232.775	74.38
233.009	73.38
233.243	74.38
233.477	78.38
233.711	64.38
233.945	81.38
234.179	73.38
234.413	84.38
234.647	82.38
234.881	81.38
235.115	82.38
235.349	80.38
235.583	67.38
235.817	94.38
236.051	80.38
236.285	89.38
236.519	84.38
236.753	90.38
236.987	61.38
237.221	83.38
237.455	84.38
237.689	66.38
237.922	78.38
238.156	81.38
238.39	66.38
238.624	67.38
238.858	71.38
239.091	93.38
239.325	74.38
239.559	65.38
239.793	77.38
240.027	79.38
240.26	83.38
240.494	84.38
240.728	83.38
240.961	89.38
241.195	95.38
241.429	76.38
241.662	61.38
241.896	80.38
242.13	91.38
242.363	81.38
242.597	68.38
242.83	67.38
243.064	73.38
243.298	82.38
243.531	81.38
243.765	69.38
243.998	71.38
244.232	82.38
244.465	80.38
244.699	73.38
244.932	75.38
245.166	87.38
245.399	80.38
245.633	78.38
245.866	87.38
246.099	79.38
246.333	78.38
246.566	82.38
246.8	81.38
247.033	84.38
247.266	80.38
247.5	88.38
247.733	79.38
247.966	79.38
248.2	78.38
248.433	65.38
248.666	76.38
248.899	79.38
249.133	80.38
249.366	80.38
249.599	83.38
249.832	81.38
250.066	81.38
250.299	74.38
250.532	65.38
250.765	83.38
250.998	79.38
251.231	79.38
251.465	89.38
251.698	82.38
251.931	83.38
252.164	70.38
252.397	71.38
252.63	72.38
252.863	95.38
253.096	81.38
253.329	78.38
253.562	86.38
253.795	75.38
254.028	78.38
254.261	90.38
254.494	79.38
254.727	89.38
254.96	82.38
255.193	65.38
255.426	91.38
255.659	91.38
255.892	88.38
256.124	71.38
256.357	88.38
256.59	77.38
256.823	76.38
257.056	84.38
257.289	76.38
257.521	79.38
257.754	81.38
257.987	73.38
258.22	79.38
258.452	77.38
258.685	102.38
258.918	80.38
259.151	75.38
259.383	91.38
259.616	67.38
259.849	75.38
260.081	88.38
260.314	98.38
260.547	91.38
260.779	89.38
261.012	79.38
261.244	87.38
261.477	82.38
261.71	85.38
261.942	75.38
262.175	85.38
262.407	76.38
262.64	79.38
262.872	73.38
263.105	74.38
263.337	72.38
263.57	75.38
263.802	81.38
264.035	78.38
264.267	94.38
264.499	88.38
264.732	85.38
264.964	92.38
265.197	95.38
265.429	73.38
265.661	84.38
265.894	88.38
266.126	90.38
266.358	97.38
266.591	81.38
266.823	89.38
267.055	69.38
267.287	73.38
267.52	79.38
267.752	82.38
267.984	87.38
268.216	74.38
268.448	87.38
268.681	80.38
268.913	72.38
269.145	92.38
269.377	92.38
269.609	82.38
269.841	83.38
270.073	92.38
270.306	82.38
270.538	73.38
270.77	81.38
271.002	92.38
271.234	72.38
271.466	94.38
271.698	83.38
271.93	84.38
272.162	75.38
272.394	89.38
272.626	81.38
272.858	98.38
273.09	92.38
273.322	80.38
273.553	77.38
273.785	73.38
274.017	86.38
274.249	69.38
274.481	89.38
274.713	84.38
274.945	85.38
275.176	77.38
275.408	92.38
275.64	88.38
275.872	97.38
276.104	97.38
276.335	102.38
276.567	99.38
276.799	106.38
277.031	90.38
277.262	86.38
277.494	77.38
277.726	78.38
277.957	86.38
278.189	83.38
278.421	79.38
278.652	74.38
278.884	99.38
279.115	87.38
279.347	84.38
279.579	86.38
279.81	89.38
280.042	103.38
280.273	90.38
280.505	69.38
280.736	84.38
280.968	86.38
281.199	95.38
281.431	80.38
281.662	88.38
281.894	76.38
282.125	95.38
282.356	81.38
282.588	83.38
282.819	82.38
283.051	78.38
283.282	89.38
283.513	91.38
283.745	94.38
283.976	94.38
284.207	84.38
284.439	92.38
284.67	93.38
284.901	90.38
285.132	92.38
285.364	85.38
285.595	94.38
285.826	74.38
286.057	98.38
286.288	87.38
286.52	97.38
286.751	92.38
286.982	91.38
287.213	92.38
287.444	82.38
287.675	84.38
287.906	88.38
288.138	93.38
288.369	91.38
288.6	92.38
288.831	88.38
289.062	98.38
289.293	81.38
289.524	77.38
289.755	69.38
289.986	91.38
290.217	82.38
290.448	74.38
290.679	82.38
290.91	92.38
291.141	97.38
291.371	86.38
291.602	89.38
291.833	82.38
292.064	82.38
292.295	78.38
292.526	105.38
292.757	86.38
292.987	92.38
293.218	103.38
293.449	93.38
293.68	84.38
293.91	82.38
294.141	97.38
294.372	81.38
294.603	85.38
294.833	91.38
295.064	103.38
295.295	79.38
295.525	80.38
295.756	65.38
295.987	75.38
296.217	85.38
296.448	85.38
296.679	77.38
296.909	103.38
297.14	85.38
297.37	87.38
297.601	95.38
297.831	92.38
298.062	101.38
298.292	93.38
298.523	82.38
298.753	81.38
298.984	76.38
299.214	88.38
299.445	89.38
299.675	99.38
299.905	86.38
300.136	85.38
300.366	84.38
300.597	86.38
300.827	84.38
301.057	89.38
301.288	90.38
301.518	95.38
301.748	90.38
301.979	94.38
302.209	82.38
302.439	77.38
302.669	81.38
302.9	90.38
303.13	98.38
303.36	92.38
303.59	84.38
303.82	88.38
304.051	89.38
304.281	91.38
304.511	96.38
304.741	99.38
304.971	80.38
305.201	104.38
305.431	88.38
305.661	87.38
305.891	89.38
306.121	91.38
306.352	95.38
306.582	93.38
306.812	100.38
307.042	90.38
307.272	92.38
307.502	92.38
307.731	97.38
307.961	99.38
308.191	85.38
308.421	97.38
308.651	90.38
308.881	97.38
309.111	81.38
309.341	89.38
309.571	87.38
309.8	91.38
310.03	87.38
310.26	84.38
310.49	82.38
310.72	89.38
310.949	84.38
311.179	90.38
311.409	96.38
311.639	91.38
311.868	83.38
312.098	78.38
312.328	83.38
312.557	87.38
312.787	80.38
313.017	83.38
313.246	98.38
313.476	81.38
313.706	78.38
313.935	94.38
314.165	86.38
314.394	97.38
314.624	80.38
314.853	79.38
315.083	81.38
315.312	92.38
315.542	85.38
315.771	85.38
316.001	91.38
316.23	77.38
316.46	83.38
316.689	95.38
316.919	92.38
317.148	93.38
317.377	88.38
317.607	75.38
317.836	75.38
318.065	94.38
318.295	91.38
318.524	82.38
318.753	76.38
318.983	76.38
319.212	94.38
319.441	93.38
319.67	86.38
319.9	89.38
320.129	83.38
320.358	82.38
320.587	80.38
320.816	95.38
321.046	89.38
321.275	83.38
321.504	75.38
321.733	94.38
321.962	89.38
322.191	95.38
322.42	86.38
322.649	94.38
322.878	91.38
323.108	89.38
323.337	91.38
323.566	90.38
323.795	93.38
324.024	79.38
324.253	85.38
324.482	94.38
324.71	101.38
324.939	79.38
325.168	79.38
325.397	94.38
325.626	98.38
325.855	87.38
326.084	87.38
326.313	88.38
326.542	98.38
326.77	64.38
326.999	82.38
327.228	82.38
327.457	91.38
327.686	94.38
327.914	89.38
328.143	94.38
328.372	95.38
328.6	85.38
328.829	79.38
329.058	82.38
329.287	96.38
329.515	90.38
329.744	83.38
329.972	90.38
330.201	80.38
330.43	90.38
330.658	71.38
330.887	89.38
331.115	93.38
331.344	81.38
331.572	74.38
331.801	83.38
332.03	83.38
332.258	92.38
332.486	79.38
332.715	81.38
332.943	95.38
333.172	78.38
333.4	89.38
333.629	93.38
333.857	87.38
334.085	87.38
334.314	83.38
334.542	89.38
334.771	73.38
334.999	76.38
335.227	82.38
335.455	87.38
335.684	80.38
335.912	85.38
336.14	94.38
336.369	71.38
336.597	91.38
336.825	88.38
337.053	77.38
337.281	85.38
337.51	92.38
337.738	94.38
337.966	80.38
338.194	85.38
338.422	84.38
338.65	79.38
338.878	102.38
339.106	82.38
339.334	89.38
339.562	95.38
339.79	89.38
340.018	96.38
340.246	91.38
340.474	95.38
340.702	75.38
340.93	103.38
341.158	89.38
341.386	92.38
341.614	74.38
341.842	98.38
342.07	78.38
342.298	93.38
342.526	95.38
342.754	91.38
342.981	93.38
343.209	106.38
343.437	100.38
343.665	79.38
343.893	90.38
344.12	79.38
344.348	82.38
344.576	82.38
344.804	86.38
345.031	74.38
345.259	101.38
345.487	86.38
345.714	89.38
345.942	96.38
346.17	74.38
346.397	71.38
346.625	86.38
346.853	97.38
347.08	86.38
347.308	94.38
347.535	94.38
347.763	92.38
347.99	96.38
348.218	96.38
348.445	96.38
348.673	91.38
348.9	84.38
349.128	87.38
349.355	78.38
349.583	85.38
349.81	86.38
350.037	91.38
350.265	86.38
350.492	81.38
350.72	79.38
350.947	86.38
351.174	90.38
351.402	96.38
351.629	84.38
351.856	84.38
352.083	79.38
352.311	90.38
352.538	89.38
352.765	74.38
352.992	89.38
353.22	84.38
353.447	69.38
353.674	84.38
353.901	100.38
354.128	74.38
354.355	73.38
354.583	80.38
354.81	95.38
355.037	73.38
355.264	92.38
355.491	79.38
355.718	82.38
355.945	91.38
356.172	88.38
356.399	80.38
356.626	87.38
356.853	66.38
357.08	86.38
357.307	79.38
357.534	65.38
357.761	82.38
357.988	85.38
358.215	84.38
358.441	88.38
358.668	78.38
358.895	91.38
359.122	91.38
359.349	88.38
359.576	90.38
359.802	88.38
360.029	76.38
360.256	85.38
360.483	74.38
360.709	85.38
360.936	83.38
361.163	84.38
361.39	80.38
361.616	78.38
361.843	86.38
362.07	80.38
362.296	87.38
362.523	85.38
362.749	89.38
362.976	83.38
363.203	87.38
363.429	75.38
363.656	101.38
363.882	94.38
364.109	86.38
364.335	84.38
364.562	85.38
364.788	65.38
365.015	76.38
365.241	84.38
365.468	91.38
365.694	93.38
365.92	99.38
366.147	95.38
366.373	97.38
366.599	98.38
366.826	98.38
367.052	79.38
367.278	83.38
367.505	91.38
367.731	95.38
367.957	94.38
368.184	87.38
368.41	80.38
368.636	89.38
368.862	84.38
369.089	100.38
369.315	93.38
369.541	97.38
369.767	97.38
369.993	94.38
370.219	96.38
370.445	76.38
370.672	90.38
370.898	78.38
371.124	78.38
371.35	83.38
371.576	89.38
371.802	92.38
372.028	90.38
372.254	96.38
372.48	96.38
372.706	91.38
372.932	91.38
373.158	97.38
373.384	106.38
373.61	98.38
373.835	103.38
374.061	96.38
374.287	107.38
374.513	113.38
374.739	89.38
374.965	88.38
375.191	96.38
375.416	91.38
375.642	89.38
375.868	108.38
376.094	104.38
376.319	78.38
376.545	93.38
376.771	93.38
376.997	93.38
377.222	109.38
377.448	91.38
377.674	91.38
377.899	109.38
378.125	101.38
378.35	106.38
378.576	97.38
378.802	99.38
379.027	98.38
379.253	105.38
379.478	94.38
379.704	87.38
379.929	106.38
380.155	98.38
380.38	97.38
380.606	82.38
380.831	92.38
381.057	98.38
381.282	105.38
381.507	98.38
381.733	88.38
381.958	97.38
382.184	97.38
382.409	101.38
382.634	100.38
382.86	103.38
383.085	102.38
383.31	99.38
383.535	108.38
383.761	93.38
383.986	108.38
384.211	99.38
384.436	90.38
384.662	101.38
384.887	102.38
385.112	103.38
385.337	94.38
385.562	111.38
385.787	114.38
386.013	112.38
386.238	99.38
386.463	106.38
386.688	101.38
386.913	95.38
387.138	102.38
387.363	108.38
387.588	110.38
387.813	108.38
388.038	110.38
388.263	110.38
388.488	97.38
388.713	92.38
388.938	88.38
389.163	101.38
389.387	103.38
389.612	101.38
389.837	113.38
390.062	101.38
390.287	103.38
390.512	128.38
390.736	101.38
390.961	106.38
391.186	102.38
391.411	107.38
391.636	114.38
391.86	106.38
392.085	101.38
392.31	112.38
392.534	106.38
392.759	113.38
392.984	111.38
393.208	103.38
393.433	111.38
393.658	105.38
393.882	127.38
394.107	125.38
394.331	105.38
394.556	110.38
394.78	99.38
395.005	119.38
395.229	103.38
395.454	114.38
395.678	79.38
395.903	95.38
396.127	96.38
396.352	104.38
396.576	99.38
396.801	105.38
397.025	95.38
397.249	99.38
397.474	125.38
397.698	111.38
397.922	118.38
398.147	93.38
398.371	118.38
398.595	122.38
398.82	104.38
399.044	92.38
399.268	105.38
399.492	99.38
399.717	113.38
399.941	129.38
400.165	98.38
400.389	117.38
400.613	117.38
400.837	123.38
401.062	112.38
401.286	103.38
401.51	118.38
401.734	119.38
401.958	121.38
402.182	104.38
402.406	109.38
402.63	119.38
402.854	120.38
403.078	117.38
403.302	113.38
403.526	117.38
403.75	119.38
403.974	107.38
404.198	128.38
404.422	128.38
404.645	132.38
404.869	115.38
405.093	131.38
405.317	113.38
405.541	112.38
405.765	122.38
405.988	115.38
406.212	130.38
406.436	109.38
406.66	131.38
406.883	127.38
407.107	134.38
407.331	120.38
407.555	131.38
407.778	122.38
408.002	132.38
408.226	132.38
408.449	99.38
408.673	107.38
408.896	99.38
409.12	119.38
409.344	123.38
409.567	117.38
409.791	120.38
410.014	133.38
410.238	109.38
410.461	125.38
410.685	124.38
410.908	128.38
411.132	115.38
411.355	119.38
411.578	133.38
411.802	126.38
412.025	119.38
412.249	133.38
412.472	121.38
412.695	123.38
412.919	127.38
413.142	126.38
413.365	126.38
413.589	125.38
413.812	126.38
414.035	123.38
414.258	127.38
414.482	126.38
414.705	125.38
414.928	111.38
415.151	133.38
415.374	111.38
415.597	110.38
415.821	136.38
416.044	130.38
416.267	131.38
416.49	129.38
416.713	124.38
416.936	121.38
417.159	126.38
417.382	120.38
417.605	134.38
417.828	130.38
418.051	132.38
418.274	129.38
418.497	139.38
418.72	117.38
418.943	134.38
419.166	140.38
419.389	142.38
419.611	133.38
419.834	136.38
420.057	133.38
420.28	134.38
420.503	128.38
420.726	131.38
420.948	146.38
421.171	140.38
421.394	117.38
421.617	137.38
421.839	134.38
422.062	143.38
422.285	142.38
422.507	129.38
422.73	139.38
422.953	136.38
423.175	113.38
423.398	139.38
423.621	121.38
423.843	134.38
424.066	143.38
424.288	142.38
424.511	144.38
424.733	147.38
424.956	140.38
425.178	125.38
425.401	137.38
425.623	142.38
425.846	126.38
426.068	127.38
426.291	121.38
426.513	127.38
426.735	132.38
426.958	140.38
427.18	138.38
427.402	116.38
427.625	141.38
427.847	124.38
428.069	137.38
428.292	133.38
428.514	131.38
428.736	148.38
428.958	129.38
429.181	130.38
429.403	123.38
429.625	128.38
429.847	125.38
430.069	131.38
430.292	142.38
430.514	122.38
430.736	127.38
430.958	130.38
431.18	131.38
431.402	147.38
431.624	109.38
431.846	109.38
432.068	94.38
432.29	92.38
432.512	104.38
432.734	128.38
432.956	125.38
433.178	137.38
433.4	148.38
433.622	135.38
433.844	142.38
434.066	138.38
434.287	97.38
434.509	102.38
434.731	105.38
434.953	121.38
435.175	109.38
435.397	121.38
435.618	116.38
435.84	110.38
436.062	109.38
436.284	127.38
436.505	132.38
436.727	131.38
436.949	144.38
437.17	130.38
437.392	112.38
437.614	119.38
437.835	104.38
438.057	112.38
438.278	125.38
438.5	130.38
438.721	129.38
438.943	137.38
439.165	138.38
439.386	127.38
439.608	148.38
439.829	144.38
440.05	159.38
440.272	153.38
440.493	146.38
440.715	149.38
440.936	133.38
441.158	141.38
441.379	142.38
441.6	137.38
441.822	126.38
442.043	139.38
442.264	134.38
442.486	135.38
442.707	135.38
442.928	139.38
443.149	141.38
443.371	119.38
443.592	133.38
443.813	146.38
444.034	139.38
444.255	138.38
444.476	143.38
444.698	126.38
444.919	131.38
445.14	266.38
445.361	185.38
445.582	151.38
445.803	147.38
446.024	165.38
446.245	149.38
446.466	162.38
446.687	155.38
446.908	149.38
447.129	157.38
447.35	163.38
447.571	140.38
447.792	133.38
448.013	143.38
448.234	153.38
448.455	143.38
448.675	137.38
448.896	142.38
449.117	127.38
449.338	142.38
449.559	131.38
449.779	137.38
450	138.38
450.221	134.38
450.442	137.38
450.662	125.38
450.883	141.38
451.104	146.38
451.324	133.38
451.545	135.38
451.766	130.38
451.986	128.38
452.207	127.38
452.428	134.38
452.648	115.38
452.869	132.38
453.089	103.38
453.31	113.38
453.53	104.38
453.751	104.38
453.971	110.38
454.192	119.38
454.412	97.38
454.633	121.38
454.853	111.38
455.073	122.38
455.294	125.38
455.514	130.38
455.734	121.38
455.955	116.38
456.175	114.38
456.395	131.38
456.616	98.38
456.836	102.38
457.056	114.38
457.276	105.38
457.497	108.38
457.717	104.38
457.937	109.38
458.157	99.38
458.377	114.38
458.598	112.38
458.818	92.38
459.038	103.38
459.258	90.38
459.478	101.38
459.698	89.38
459.918	98.38
460.138	106.38
460.358	116.38
460.578	115.38
460.798	125.38
461.018	129.38
461.238	110.38
461.458	107.38
461.678	99.38
461.898	120.38
462.118	124.38
462.338	117.38
462.558	113.38
462.777	93.38
462.997	114.38
463.217	112.38
463.437	104.38
463.657	107.38
463.876	125.38
464.096	107.38
464.316	102.38
464.536	115.38
464.755	131.38
464.975	113.38
465.195	123.38
465.414	134.38
465.634	106.38
465.854	117.38
466.073	116.38
466.293	134.38
466.512	129.38
466.732	125.38
466.951	127.38
467.171	141.38
467.391	133.38
467.61	134.38
467.829	130.38
468.049	136.38
468.268	141.38
468.488	145.38
468.707	120.38
468.927	141.38
469.146	136.38
469.365	145.38
469.585	142.38
469.804	137.38
470.023	142.38
470.243	144.38
470.462	149.38
470.681	138.38
470.901	129.38
471.12	135.38
471.339	142.38
471.558	151.38
471.777	135.38
471.997	126.38
472.216	128.38
472.435	128.38
472.654	113.38
472.873	111.38
473.092	119.38
473.311	111.38
473.53	118.38
473.749	141.38
473.968	134.38
474.187	121.38
474.406	111.38
474.625	125.38
474.844	124.38
475.063	110.38
475.282	140.38
475.501	126.38
475.72	130.38
475.939	120.38
476.158	129.38
476.377	143.38
476.596	112.38
476.814	125.38
477.033	110.38
477.252	109.38
477.471	135.38
477.69	129.38
477.908	143.38
478.127	148.38
478.346	137.38
478.564	131.38
478.783	141.38
479.002	134.38
479.22	133.38
479.439	122.38
479.658	129.38
479.876	110.38
480.095	129.38
480.313	119.38
480.532	128.38
480.751	108.38
480.969	105.38
481.188	96.38
481.406	106.38
481.624	95.38
481.843	90.38
482.061	104.38
482.28	122.38
482.498	104.38
482.717	117.38
482.935	126.38
483.153	145.38
483.372	165.38
483.59	172.38
483.808	144.38
484.027	135.38
484.245	140.38
484.463	147.38
484.681	162.38
484.9	151.38
485.118	137.38
485.336	140.38
485.554	110.38
485.772	109.38
485.99	111.38
486.209	119.38
486.427	92.38
486.645	133.38
486.863	139.38
487.081	137.38
487.299	133.38
487.517	148.38
487.735	162.38
487.953	178.38
488.171	176.38
488.389	171.38
488.607	158.38
488.825	140.38
489.043	135.38
489.261	130.38
489.479	137.38
489.696	141.38
489.914	149.38
490.132	155.38
490.35	142.38
490.568	146.38
490.786	162.38
491.003	171.38
491.221	187.38
491.439	193.38
491.657	207.38
491.874	210.38
492.092	210.38
492.31	240.38
492.527	233.38
492.745	209.38
492.963	199.38
493.18	193.38
493.398	179.38
493.615	178.38
493.833	188.38
494.05	174.38
494.268	160.38
494.485	190.38
494.703	176.38
494.92	172.38
495.138	165.38
495.355	174.38
495.573	167.38
495.79	170.38
496.008	163.38
496.225	165.38
496.442	159.38
496.66	162.38
496.877	164.38
497.094	170.38
497.312	163.38
497.529	163.38
497.746	149.38
497.963	136.38
498.181	141.38
498.398	135.38
498.615	114.38
498.832	132.38
499.049	126.38
499.267	118.38
499.484	135.38
499.701	117.38
499.918	143.38
500.135	138.38
500.352	137.38
500.569	141.38
500.786	120.38
501.003	146.38
501.22	141.38
501.437	147.38
501.654	152.38
501.871	131.38
502.088	141.38
502.305	143.38
502.522	126.38
502.739	125.38
502.956	137.38
503.172	135.38
503.389	114.38
503.606	119.38
503.823	127.38
504.04	123.38
504.256	120.38
504.473	134.38
504.69	124.38
504.907	108.38
505.123	119.38
505.34	123.38
505.557	120.38
505.773	127.38
505.99	117.38
506.207	125.38
506.423	125.38
506.64	135.38
506.856	126.38
507.073	121.38
507.289	125.38
507.506	125.38
507.722	123.38
507.939	121.38
508.155	121.38
508.372	109.38
508.588	125.38
508.805	102.38
509.021	109.38
509.238	110.38
509.454	111.38
509.67	101.38
509.887	105.38
510.103	93.38
510.319	97.38
510.536	97.38
510.752	87.38
510.968	87.38
511.184	93.38
