Data from Location1.07152019.Energy5.Lamp.07192019.3%Agarose_HRD10591_14-32-28-016.txt Node
Date: Fri Jul 19 14:32:28 EDT 2019
User: cochatt
Spectrometer: HR+D1059
Trigger mode: 1
Integration Time (sec): 1.000000E-1
Scans to average: 1
Electric dark correction enabled: true
Nonlinearity correction enabled: false
Boxcar width: 0
XAxis mode: Wavelengths
Number of Pixels in Spectrum: 2048
>>>>>Begin Spectral Data<<<<<
223.165	-4.88
223.4	-4.88
223.635	-4.88
223.869	-25.88
224.104	-12.88
224.338	-18.88
224.573	-25.88
224.808	-10.88
225.042	-8.88
225.277	-5.88
225.511	4.12
225.746	7.12
225.98	8.12
226.215	14.12
226.449	17.12
226.683	16.12
226.918	26.12
227.152	21.12
227.387	24.12
227.621	43.12
227.856	27.12
228.09	56.12
228.324	50.12
228.559	53.12
228.793	52.12
229.027	68.12
229.262	59.12
229.496	55.12
229.73	74.12
229.964	86.12
230.199	69.12
230.433	80.12
230.667	73.12
230.901	68.12
231.136	78.12
231.37	76.12
231.604	71.12
231.838	84.12
232.072	79.12
232.306	88.12
232.541	85.12
232.775	77.12
233.009	78.12
233.243	74.12
233.477	76.12
233.711	83.12
233.945	83.12
234.179	86.12
234.413	71.12
234.647	76.12
234.881	81.12
235.115	95.12
235.349	89.12
235.583	92.12
235.817	81.12
236.051	92.12
236.285	77.12
236.519	76.12
236.753	76.12
236.987	71.12
237.221	66.12
237.455	81.12
237.689	65.12
237.922	69.12
238.156	82.12
238.39	80.12
238.624	91.12
238.858	72.12
239.091	71.12
239.325	89.12
239.559	77.12
239.793	74.12
240.027	76.12
240.26	84.12
240.494	85.12
240.728	67.12
240.961	77.12
241.195	67.12
241.429	76.12
241.662	92.12
241.896	72.12
242.13	67.12
242.363	72.12
242.597	64.12
242.83	67.12
243.064	69.12
243.298	85.12
243.531	73.12
243.765	87.12
243.998	90.12
244.232	92.12
244.465	92.12
244.699	79.12
244.932	79.12
245.166	87.12
245.399	72.12
245.633	88.12
245.866	69.12
246.099	74.12
246.333	79.12
246.566	82.12
246.8	81.12
247.033	71.12
247.266	75.12
247.5	83.12
247.733	72.12
247.966	77.12
248.2	79.12
248.433	78.12
248.666	73.12
248.899	71.12
249.133	88.12
249.366	81.12
249.599	79.12
249.832	69.12
250.066	74.12
250.299	76.12
250.532	78.12
250.765	83.12
250.998	102.12
251.231	80.12
251.465	81.12
251.698	91.12
251.931	77.12
252.164	78.12
252.397	89.12
252.63	87.12
252.863	84.12
253.096	80.12
253.329	90.12
253.562	89.12
253.795	93.12
254.028	74.12
254.261	86.12
254.494	79.12
254.727	66.12
254.96	80.12
255.193	74.12
255.426	80.12
255.659	73.12
255.892	86.12
256.124	78.12
256.357	85.12
256.59	84.12
256.823	76.12
257.056	84.12
257.289	62.12
257.521	87.12
257.754	85.12
257.987	98.12
258.22	83.12
258.452	79.12
258.685	74.12
258.918	71.12
259.151	74.12
259.383	71.12
259.616	70.12
259.849	77.12
260.081	86.12
260.314	75.12
260.547	70.12
260.779	71.12
261.012	85.12
261.244	79.12
261.477	87.12
261.71	73.12
261.942	77.12
262.175	93.12
262.407	86.12
262.64	93.12
262.872	77.12
263.105	81.12
263.337	92.12
263.57	74.12
263.802	61.12
264.035	91.12
264.267	70.12
264.499	80.12
264.732	94.12
264.964	96.12
265.197	72.12
265.429	85.12
265.661	90.12
265.894	81.12
266.126	77.12
266.358	82.12
266.591	74.12
266.823	88.12
267.055	91.12
267.287	83.12
267.52	83.12
267.752	84.12
267.984	90.12
268.216	89.12
268.448	77.12
268.681	83.12
268.913	89.12
269.145	89.12
269.377	86.12
269.609	81.12
269.841	88.12
270.073	81.12
270.306	85.12
270.538	81.12
270.77	88.12
271.002	90.12
271.234	95.12
271.466	96.12
271.698	84.12
271.93	79.12
272.162	88.12
272.394	96.12
272.626	77.12
272.858	94.12
273.09	71.12
273.322	83.12
273.553	84.12
273.785	84.12
274.017	97.12
274.249	81.12
274.481	80.12
274.713	89.12
274.945	79.12
275.176	71.12
275.408	83.12
275.64	76.12
275.872	80.12
276.104	83.12
276.335	92.12
276.567	94.12
276.799	71.12
277.031	87.12
277.262	83.12
277.494	99.12
277.726	101.12
277.957	88.12
278.189	81.12
278.421	93.12
278.652	95.12
278.884	85.12
279.115	91.12
279.347	90.12
279.579	84.12
279.81	85.12
280.042	82.12
280.273	80.12
280.505	79.12
280.736	78.12
280.968	90.12
281.199	81.12
281.431	88.12
281.662	88.12
281.894	93.12
282.125	79.12
282.356	89.12
282.588	77.12
282.819	85.12
283.051	89.12
283.282	95.12
283.513	94.12
283.745	87.12
283.976	86.12
284.207	72.12
284.439	86.12
284.67	75.12
284.901	62.12
285.132	86.12
285.364	86.12
285.595	91.12
285.826	88.12
286.057	81.12
286.288	91.12
286.52	93.12
286.751	96.12
286.982	82.12
287.213	87.12
287.444	79.12
287.675	84.12
287.906	99.12
288.138	90.12
288.369	76.12
288.6	76.12
288.831	85.12
289.062	95.12
289.293	71.12
289.524	84.12
289.755	88.12
289.986	78.12
290.217	78.12
290.448	86.12
290.679	91.12
290.91	66.12
291.141	97.12
291.371	95.12
291.602	92.12
291.833	85.12
292.064	85.12
292.295	79.12
292.526	87.12
292.757	78.12
292.987	86.12
293.218	86.12
293.449	81.12
293.68	85.12
293.91	70.12
294.141	66.12
294.372	85.12
294.603	77.12
294.833	92.12
295.064	85.12
295.295	88.12
295.525	83.12
295.756	78.12
295.987	76.12
296.217	84.12
296.448	87.12
296.679	92.12
296.909	93.12
297.14	82.12
297.37	86.12
297.601	70.12
297.831	73.12
298.062	77.12
298.292	89.12
298.523	84.12
298.753	82.12
298.984	84.12
299.214	78.12
299.445	76.12
299.675	87.12
299.905	85.12
300.136	100.12
300.366	81.12
300.597	90.12
300.827	81.12
301.057	87.12
301.288	86.12
301.518	92.12
301.748	87.12
301.979	97.12
302.209	91.12
302.439	87.12
302.669	85.12
302.9	87.12
303.13	88.12
303.36	87.12
303.59	89.12
303.82	87.12
304.051	91.12
304.281	91.12
304.511	85.12
304.741	90.12
304.971	99.12
305.201	77.12
305.431	75.12
305.661	87.12
305.891	86.12
306.121	99.12
306.352	88.12
306.582	89.12
306.812	96.12
307.042	84.12
307.272	83.12
307.502	93.12
307.731	100.12
307.961	91.12
308.191	90.12
308.421	91.12
308.651	88.12
308.881	78.12
309.111	78.12
309.341	93.12
309.571	84.12
309.8	102.12
310.03	78.12
310.26	79.12
310.49	89.12
310.72	92.12
310.949	84.12
311.179	74.12
311.409	81.12
311.639	79.12
311.868	92.12
312.098	89.12
312.328	71.12
312.557	104.12
312.787	99.12
313.017	83.12
313.246	84.12
313.476	85.12
313.706	87.12
313.935	85.12
314.165	87.12
314.394	86.12
314.624	88.12
314.853	97.12
315.083	94.12
315.312	83.12
315.542	93.12
315.771	85.12
316.001	94.12
316.23	92.12
316.46	93.12
316.689	104.12
316.919	96.12
317.148	82.12
317.377	101.12
317.607	91.12
317.836	81.12
318.065	87.12
318.295	74.12
318.524	81.12
318.753	83.12
318.983	79.12
319.212	77.12
319.441	81.12
319.67	77.12
319.9	86.12
320.129	72.12
320.358	79.12
320.587	83.12
320.816	80.12
321.046	77.12
321.275	83.12
321.504	71.12
321.733	95.12
321.962	79.12
322.191	87.12
322.42	95.12
322.649	85.12
322.878	85.12
323.108	86.12
323.337	76.12
323.566	83.12
323.795	85.12
324.024	85.12
324.253	79.12
324.482	88.12
324.71	80.12
324.939	84.12
325.168	90.12
325.397	73.12
325.626	69.12
325.855	81.12
326.084	87.12
326.313	94.12
326.542	91.12
326.77	99.12
326.999	79.12
327.228	85.12
327.457	86.12
327.686	80.12
327.914	86.12
328.143	85.12
328.372	84.12
328.6	83.12
328.829	111.12
329.058	86.12
329.287	78.12
329.515	92.12
329.744	93.12
329.972	97.12
330.201	82.12
330.43	92.12
330.658	81.12
330.887	83.12
331.115	102.12
331.344	75.12
331.572	96.12
331.801	86.12
332.03	87.12
332.258	78.12
332.486	80.12
332.715	73.12
332.943	87.12
333.172	94.12
333.4	94.12
333.629	70.12
333.857	85.12
334.085	87.12
334.314	93.12
334.542	85.12
334.771	88.12
334.999	77.12
335.227	78.12
335.455	81.12
335.684	86.12
335.912	81.12
336.14	64.12
336.369	84.12
336.597	78.12
336.825	88.12
337.053	80.12
337.281	92.12
337.51	84.12
337.738	90.12
337.966	78.12
338.194	79.12
338.422	87.12
338.65	90.12
338.878	96.12
339.106	101.12
339.334	89.12
339.562	88.12
339.79	84.12
340.018	85.12
340.246	83.12
340.474	85.12
340.702	81.12
340.93	79.12
341.158	81.12
341.386	96.12
341.614	88.12
341.842	93.12
342.07	66.12
342.298	86.12
342.526	89.12
342.754	94.12
342.981	92.12
343.209	82.12
343.437	86.12
343.665	83.12
343.893	86.12
344.12	95.12
344.348	77.12
344.576	78.12
344.804	80.12
345.031	76.12
345.259	78.12
345.487	86.12
345.714	86.12
345.942	83.12
346.17	88.12
346.397	87.12
346.625	83.12
346.853	81.12
347.08	88.12
347.308	92.12
347.535	95.12
347.763	102.12
347.99	99.12
348.218	80.12
348.445	71.12
348.673	90.12
348.9	86.12
349.128	90.12
349.355	81.12
349.583	81.12
349.81	78.12
350.037	104.12
350.265	94.12
350.492	75.12
350.72	69.12
350.947	79.12
351.174	78.12
351.402	68.12
351.629	91.12
351.856	69.12
352.083	73.12
352.311	87.12
352.538	89.12
352.765	84.12
352.992	96.12
353.22	87.12
353.447	91.12
353.674	93.12
353.901	81.12
354.128	93.12
354.355	75.12
354.583	84.12
354.81	85.12
355.037	91.12
355.264	86.12
355.491	96.12
355.718	74.12
355.945	93.12
356.172	92.12
356.399	86.12
356.626	88.12
356.853	73.12
357.08	80.12
357.307	92.12
357.534	87.12
357.761	103.12
357.988	81.12
358.215	88.12
358.441	71.12
358.668	87.12
358.895	88.12
359.122	92.12
359.349	94.12
359.576	78.12
359.802	82.12
360.029	103.12
360.256	88.12
360.483	86.12
360.709	80.12
360.936	92.12
361.163	86.12
361.39	88.12
361.616	100.12
361.843	86.12
362.07	94.12
362.296	86.12
362.523	96.12
362.749	86.12
362.976	95.12
363.203	77.12
363.429	77.12
363.656	98.12
363.882	92.12
364.109	73.12
364.335	88.12
364.562	78.12
364.788	88.12
365.015	85.12
365.241	90.12
365.468	80.12
365.694	81.12
365.92	79.12
366.147	77.12
366.373	80.12
366.599	90.12
366.826	73.12
367.052	87.12
367.278	89.12
367.505	79.12
367.731	100.12
367.957	90.12
368.184	90.12
368.41	86.12
368.636	87.12
368.862	104.12
369.089	80.12
369.315	91.12
369.541	90.12
369.767	105.12
369.993	93.12
370.219	103.12
370.445	94.12
370.672	92.12
370.898	97.12
371.124	91.12
371.35	97.12
371.576	85.12
371.802	95.12
372.028	99.12
372.254	98.12
372.48	78.12
372.706	87.12
372.932	95.12
373.158	92.12
373.384	101.12
373.61	111.12
373.835	99.12
374.061	88.12
374.287	107.12
374.513	93.12
374.739	95.12
374.965	98.12
375.191	93.12
375.416	82.12
375.642	81.12
375.868	98.12
376.094	110.12
376.319	99.12
376.545	87.12
376.771	101.12
376.997	98.12
377.222	98.12
377.448	105.12
377.674	93.12
377.899	93.12
378.125	96.12
378.35	91.12
378.576	96.12
378.802	95.12
379.027	93.12
379.253	101.12
379.478	103.12
379.704	91.12
379.929	104.12
380.155	109.12
380.38	92.12
380.606	87.12
380.831	89.12
381.057	109.12
381.282	85.12
381.507	103.12
381.733	101.12
381.958	102.12
382.184	86.12
382.409	100.12
382.634	99.12
382.86	106.12
383.085	89.12
383.31	101.12
383.535	96.12
383.761	102.12
383.986	86.12
384.211	76.12
384.436	96.12
384.662	93.12
384.887	87.12
385.112	94.12
385.337	98.12
385.562	95.12
385.787	103.12
386.013	117.12
386.238	93.12
386.463	104.12
386.688	100.12
386.913	99.12
387.138	101.12
387.363	96.12
387.588	102.12
387.813	106.12
388.038	95.12
388.263	97.12
388.488	102.12
388.713	103.12
388.938	112.12
389.163	102.12
389.387	103.12
389.612	99.12
389.837	111.12
390.062	107.12
390.287	91.12
390.512	99.12
390.736	108.12
390.961	102.12
391.186	95.12
391.411	106.12
391.636	114.12
391.86	97.12
392.085	110.12
392.31	121.12
392.534	120.12
392.759	110.12
392.984	111.12
393.208	113.12
393.433	109.12
393.658	112.12
393.882	109.12
394.107	110.12
394.331	122.12
394.556	103.12
394.78	108.12
395.005	96.12
395.229	107.12
395.454	114.12
395.678	123.12
395.903	89.12
396.127	105.12
396.352	120.12
396.576	109.12
396.801	107.12
397.025	108.12
397.249	106.12
397.474	104.12
397.698	102.12
397.922	102.12
398.147	104.12
398.371	116.12
398.595	101.12
398.82	108.12
399.044	99.12
399.268	111.12
399.492	128.12
399.717	109.12
399.941	125.12
400.165	112.12
400.389	113.12
400.613	123.12
400.837	120.12
401.062	103.12
401.286	119.12
401.51	101.12
401.734	100.12
401.958	121.12
402.182	118.12
402.406	114.12
402.63	104.12
402.854	107.12
403.078	125.12
403.302	112.12
403.526	125.12
403.75	116.12
403.974	110.12
404.198	105.12
404.422	104.12
404.645	104.12
404.869	124.12
405.093	131.12
405.317	115.12
405.541	116.12
405.765	113.12
405.988	111.12
406.212	107.12
406.436	127.12
406.66	124.12
406.883	132.12
407.107	111.12
407.331	121.12
407.555	120.12
407.778	113.12
408.002	124.12
408.226	110.12
408.449	113.12
408.673	105.12
408.896	115.12
409.12	129.12
409.344	140.12
409.567	128.12
409.791	134.12
410.014	121.12
410.238	118.12
410.461	127.12
410.685	129.12
410.908	138.12
411.132	127.12
411.355	112.12
411.578	125.12
411.802	122.12
412.025	116.12
412.249	125.12
412.472	110.12
412.695	125.12
412.919	123.12
413.142	128.12
413.365	137.12
413.589	109.12
413.812	121.12
414.035	131.12
414.258	123.12
414.482	122.12
414.705	128.12
414.928	131.12
415.151	119.12
415.374	131.12
415.597	131.12
415.821	119.12
416.044	124.12
416.267	112.12
416.49	144.12
416.713	127.12
416.936	134.12
417.159	121.12
417.382	123.12
417.605	126.12
417.828	139.12
418.051	143.12
418.274	135.12
418.497	126.12
418.72	149.12
418.943	122.12
419.166	127.12
419.389	131.12
419.611	140.12
419.834	119.12
420.057	127.12
420.28	125.12
420.503	128.12
420.726	120.12
420.948	129.12
421.171	132.12
421.394	135.12
421.617	146.12
421.839	135.12
422.062	122.12
422.285	127.12
422.507	121.12
422.73	121.12
422.953	129.12
423.175	130.12
423.398	137.12
423.621	132.12
423.843	138.12
424.066	127.12
424.288	129.12
424.511	135.12
424.733	154.12
424.956	131.12
425.178	152.12
425.401	143.12
425.623	138.12
425.846	144.12
426.068	119.12
426.291	131.12
426.513	123.12
426.735	137.12
426.958	135.12
427.18	128.12
427.402	135.12
427.625	128.12
427.847	129.12
428.069	130.12
428.292	133.12
428.514	122.12
428.736	121.12
428.958	119.12
429.181	135.12
429.403	131.12
429.625	133.12
429.847	133.12
430.069	130.12
430.292	117.12
430.514	126.12
430.736	123.12
430.958	129.12
431.18	127.12
431.402	123.12
431.624	102.12
431.846	115.12
432.068	91.12
432.29	91.12
432.512	124.12
432.734	117.12
432.956	126.12
433.178	140.12
433.4	132.12
433.622	128.12
433.844	126.12
434.066	124.12
434.287	97.12
434.509	117.12
434.731	97.12
434.953	120.12
435.175	138.12
435.397	121.12
435.618	125.12
435.84	114.12
436.062	113.12
436.284	121.12
436.505	128.12
436.727	123.12
436.949	128.12
437.17	135.12
437.392	128.12
437.614	123.12
437.835	110.12
438.057	104.12
438.278	106.12
438.5	121.12
438.721	151.12
438.943	135.12
439.165	121.12
439.386	135.12
439.608	160.12
439.829	139.12
440.05	133.12
440.272	143.12
440.493	139.12
440.715	133.12
440.936	144.12
441.158	143.12
441.379	140.12
441.6	153.12
441.822	162.12
442.043	139.12
442.264	134.12
442.486	129.12
442.707	137.12
442.928	139.12
443.149	155.12
443.371	141.12
443.592	145.12
443.813	146.12
444.034	141.12
444.255	142.12
444.476	142.12
444.698	148.12
444.919	143.12
445.14	232.12
445.361	176.12
445.582	135.12
445.803	138.12
446.024	148.12
446.245	149.12
446.466	148.12
446.687	145.12
446.908	151.12
447.129	155.12
447.35	158.12
447.571	157.12
447.792	144.12
448.013	141.12
448.234	147.12
448.455	150.12
448.675	142.12
448.896	142.12
449.117	146.12
449.338	130.12
449.559	128.12
449.779	132.12
450	133.12
450.221	144.12
450.442	137.12
450.662	137.12
450.883	134.12
451.104	118.12
451.324	131.12
451.545	131.12
451.766	132.12
451.986	120.12
452.207	119.12
452.428	119.12
452.648	111.12
452.869	137.12
453.089	128.12
453.31	119.12
453.53	122.12
453.751	101.12
453.971	107.12
454.192	105.12
454.412	98.12
454.633	116.12
454.853	119.12
455.073	118.12
455.294	118.12
455.514	120.12
455.734	102.12
455.955	124.12
456.175	115.12
456.395	118.12
456.616	109.12
456.836	111.12
457.056	112.12
457.276	105.12
457.497	109.12
457.717	91.12
457.937	108.12
458.157	119.12
458.377	107.12
458.598	111.12
458.818	88.12
459.038	102.12
459.258	87.12
459.478	89.12
459.698	92.12
459.918	97.12
460.138	112.12
460.358	116.12
460.578	128.12
460.798	111.12
461.018	120.12
461.238	121.12
461.458	128.12
461.678	105.12
461.898	118.12
462.118	121.12
462.338	100.12
462.558	115.12
462.777	123.12
462.997	103.12
463.217	113.12
463.437	120.12
463.657	106.12
463.876	113.12
464.096	110.12
464.316	100.12
464.536	111.12
464.755	126.12
464.975	112.12
465.195	119.12
465.414	107.12
465.634	110.12
465.854	123.12
466.073	109.12
466.293	109.12
466.512	136.12
466.732	144.12
466.951	126.12
467.171	131.12
467.391	149.12
467.61	144.12
467.829	149.12
468.049	134.12
468.268	125.12
468.488	139.12
468.707	141.12
468.927	127.12
469.146	146.12
469.365	131.12
469.585	135.12
469.804	134.12
470.023	140.12
470.243	128.12
470.462	146.12
470.681	141.12
470.901	147.12
471.12	144.12
471.339	131.12
471.558	143.12
471.777	134.12
471.997	143.12
472.216	120.12
472.435	117.12
472.654	103.12
472.873	112.12
473.092	125.12
473.311	130.12
473.53	146.12
473.749	117.12
473.968	123.12
474.187	125.12
474.406	124.12
474.625	121.12
474.844	125.12
475.063	133.12
475.282	116.12
475.501	127.12
475.72	125.12
475.939	122.12
476.158	128.12
476.377	125.12
476.596	111.12
476.814	108.12
477.033	113.12
477.252	104.12
477.471	138.12
477.69	127.12
477.908	127.12
478.127	133.12
478.346	145.12
478.564	131.12
478.783	123.12
479.002	135.12
479.22	115.12
479.439	142.12
479.658	122.12
479.876	120.12
480.095	109.12
480.313	119.12
480.532	123.12
480.751	106.12
480.969	86.12
481.188	90.12
481.406	79.12
481.624	101.12
481.843	87.12
482.061	84.12
482.28	114.12
482.498	108.12
482.717	104.12
482.935	112.12
483.153	167.12
483.372	151.12
483.59	144.12
483.808	153.12
484.027	119.12
484.245	136.12
484.463	143.12
484.681	159.12
484.9	153.12
485.118	146.12
485.336	131.12
485.554	119.12
485.772	95.12
485.99	99.12
486.209	112.12
486.427	112.12
486.645	126.12
486.863	145.12
487.081	133.12
487.299	129.12
487.517	128.12
487.735	180.12
487.953	194.12
488.171	183.12
488.389	159.12
488.607	157.12
488.825	141.12
489.043	133.12
489.261	133.12
489.479	142.12
489.696	133.12
489.914	134.12
490.132	137.12
490.35	157.12
490.568	160.12
490.786	170.12
491.003	173.12
491.221	171.12
491.439	189.12
491.657	195.12
491.874	200.12
492.092	217.12
492.31	234.12
492.527	217.12
492.745	205.12
492.963	189.12
493.18	194.12
493.398	173.12
493.615	182.12
493.833	173.12
494.05	163.12
494.268	151.12
494.485	172.12
494.703	181.12
494.92	179.12
495.138	168.12
495.355	160.12
495.573	180.12
495.79	176.12
496.008	161.12
496.225	172.12
496.442	165.12
496.66	173.12
496.877	165.12
497.094	160.12
497.312	160.12
497.529	161.12
497.746	154.12
497.963	136.12
498.181	111.12
498.398	128.12
498.615	122.12
498.832	107.12
499.049	96.12
499.267	125.12
499.484	128.12
499.701	134.12
499.918	127.12
500.135	129.12
500.352	126.12
500.569	130.12
500.786	160.12
501.003	138.12
501.22	135.12
501.437	135.12
501.654	149.12
501.871	139.12
502.088	136.12
502.305	132.12
502.522	128.12
502.739	133.12
502.956	129.12
503.172	126.12
503.389	108.12
503.606	124.12
503.823	127.12
504.04	122.12
504.256	135.12
504.473	126.12
504.69	109.12
504.907	118.12
505.123	123.12
505.34	127.12
505.557	119.12
505.773	108.12
505.99	116.12
506.207	129.12
506.423	120.12
506.64	120.12
506.856	129.12
507.073	128.12
507.289	119.12
507.506	110.12
507.722	126.12
507.939	106.12
508.155	111.12
508.372	108.12
508.588	107.12
508.805	122.12
509.021	88.12
509.238	102.12
509.454	106.12
509.67	109.12
509.887	109.12
510.103	93.12
510.319	91.12
510.536	101.12
510.752	98.12
510.968	83.12
511.184	83.12
511.401	93.12
