Data from Location1.07152019.Energy5.Lamp.07192019.3%Agarose_HRD10591_14-33-27-018.txt Node
Date: Fri Jul 19 14:33:27 EDT 2019
User: cochatt
Spectrometer: HR+D1059
Trigger mode: 1
Integration Time (sec): 1.000000E-1
Scans to average: 1
Electric dark correction enabled: true
Nonlinearity correction enabled: false
Boxcar width: 0
XAxis mode: Wavelengths
Number of Pixels in Spectrum: 2048
>>>>>Begin Spectral Data<<<<<
223.165	-10.94
223.4	-10.94
223.635	-10.94
223.869	-2.94
224.104	-24.94
224.338	-16.94
224.573	-20.94
224.808	-27.94
225.042	-13.94
225.277	-13.94
225.511	3.06
225.746	7.06
225.98	10.06
226.215	11.06
226.449	26.06
226.683	12.06
226.918	28.06
227.152	35.06
227.387	37.06
227.621	38.06
227.856	49.06
228.09	54.06
228.324	59.06
228.559	50.06
228.793	50.06
229.027	50.06
229.262	64.06
229.496	66.06
229.73	60.06
229.964	84.06
230.199	82.06
230.433	76.06
230.667	69.06
230.901	78.06
231.136	79.06
231.37	71.06
231.604	79.06
231.838	74.06
232.072	76.06
232.306	83.06
232.541	68.06
232.775	103.06
233.009	83.06
233.243	89.06
233.477	77.06
233.711	75.06
233.945	86.06
234.179	88.06
234.413	72.06
234.647	88.06
234.881	90.06
235.115	73.06
235.349	77.06
235.583	78.06
235.817	73.06
236.051	102.06
236.285	74.06
236.519	71.06
236.753	87.06
236.987	70.06
237.221	78.06
237.455	72.06
237.689	90.06
237.922	79.06
238.156	82.06
238.39	69.06
238.624	94.06
238.858	86.06
239.091	58.06
239.325	77.06
239.559	76.06
239.793	75.06
240.027	79.06
240.26	86.06
240.494	83.06
240.728	69.06
240.961	79.06
241.195	76.06
241.429	93.06
241.662	75.06
241.896	89.06
242.13	86.06
242.363	74.06
242.597	76.06
242.83	82.06
243.064	77.06
243.298	66.06
243.531	83.06
243.765	73.06
243.998	76.06
244.232	85.06
244.465	63.06
244.699	76.06
244.932	83.06
245.166	87.06
245.399	80.06
245.633	87.06
245.866	73.06
246.099	68.06
246.333	79.06
246.566	89.06
246.8	67.06
247.033	72.06
247.266	78.06
247.5	79.06
247.733	82.06
247.966	85.06
248.2	78.06
248.433	78.06
248.666	72.06
248.899	70.06
249.133	68.06
249.366	82.06
249.599	73.06
249.832	77.06
250.066	76.06
250.299	71.06
250.532	79.06
250.765	89.06
250.998	90.06
251.231	84.06
251.465	93.06
251.698	101.06
251.931	87.06
252.164	92.06
252.397	64.06
252.63	95.06
252.863	83.06
253.096	76.06
253.329	72.06
253.562	89.06
253.795	73.06
254.028	87.06
254.261	75.06
254.494	76.06
254.727	85.06
254.96	78.06
255.193	91.06
255.426	78.06
255.659	61.06
255.892	80.06
256.124	71.06
256.357	85.06
256.59	81.06
256.823	94.06
257.056	79.06
257.289	72.06
257.521	82.06
257.754	83.06
257.987	89.06
258.22	77.06
258.452	65.06
258.685	87.06
258.918	69.06
259.151	83.06
259.383	79.06
259.616	76.06
259.849	72.06
260.081	84.06
260.314	98.06
260.547	84.06
260.779	93.06
261.012	86.06
261.244	83.06
261.477	80.06
261.71	85.06
261.942	81.06
262.175	81.06
262.407	87.06
262.64	84.06
262.872	82.06
263.105	93.06
263.337	89.06
263.57	76.06
263.802	84.06
264.035	90.06
264.267	86.06
264.499	67.06
264.732	80.06
264.964	77.06
265.197	75.06
265.429	93.06
265.661	77.06
265.894	76.06
266.126	87.06
266.358	88.06
266.591	94.06
266.823	83.06
267.055	88.06
267.287	80.06
267.52	72.06
267.752	69.06
267.984	77.06
268.216	82.06
268.448	78.06
268.681	81.06
268.913	85.06
269.145	86.06
269.377	84.06
269.609	89.06
269.841	79.06
270.073	77.06
270.306	95.06
270.538	89.06
270.77	86.06
271.002	91.06
271.234	75.06
271.466	84.06
271.698	88.06
271.93	84.06
272.162	77.06
272.394	86.06
272.626	90.06
272.858	71.06
273.09	73.06
273.322	80.06
273.553	94.06
273.785	76.06
274.017	81.06
274.249	82.06
274.481	70.06
274.713	88.06
274.945	66.06
275.176	92.06
275.408	93.06
275.64	89.06
275.872	76.06
276.104	76.06
276.335	93.06
276.567	93.06
276.799	79.06
277.031	79.06
277.262	82.06
277.494	74.06
277.726	86.06
277.957	76.06
278.189	96.06
278.421	80.06
278.652	90.06
278.884	77.06
279.115	86.06
279.347	62.06
279.579	83.06
279.81	72.06
280.042	79.06
280.273	82.06
280.505	86.06
280.736	84.06
280.968	79.06
281.199	74.06
281.431	107.06
281.662	84.06
281.894	83.06
282.125	85.06
282.356	92.06
282.588	81.06
282.819	87.06
283.051	90.06
283.282	92.06
283.513	85.06
283.745	88.06
283.976	86.06
284.207	84.06
284.439	85.06
284.67	80.06
284.901	95.06
285.132	85.06
285.364	79.06
285.595	86.06
285.826	92.06
286.057	85.06
286.288	91.06
286.52	85.06
286.751	80.06
286.982	85.06
287.213	89.06
287.444	84.06
287.675	96.06
287.906	80.06
288.138	86.06
288.369	86.06
288.6	78.06
288.831	93.06
289.062	81.06
289.293	96.06
289.524	84.06
289.755	79.06
289.986	75.06
290.217	84.06
290.448	86.06
290.679	86.06
290.91	96.06
291.141	65.06
291.371	95.06
291.602	81.06
291.833	89.06
292.064	77.06
292.295	81.06
292.526	89.06
292.757	83.06
292.987	78.06
293.218	86.06
293.449	87.06
293.68	77.06
293.91	85.06
294.141	95.06
294.372	85.06
294.603	70.06
294.833	79.06
295.064	97.06
295.295	91.06
295.525	85.06
295.756	75.06
295.987	86.06
296.217	92.06
296.448	83.06
296.679	97.06
296.909	83.06
297.14	101.06
297.37	82.06
297.601	79.06
297.831	67.06
298.062	87.06
298.292	79.06
298.523	86.06
298.753	95.06
298.984	99.06
299.214	92.06
299.445	81.06
299.675	79.06
299.905	92.06
300.136	87.06
300.366	71.06
300.597	86.06
300.827	80.06
301.057	87.06
301.288	95.06
301.518	96.06
301.748	71.06
301.979	90.06
302.209	80.06
302.439	78.06
302.669	84.06
302.9	80.06
303.13	87.06
303.36	83.06
303.59	71.06
303.82	74.06
304.051	99.06
304.281	95.06
304.511	87.06
304.741	74.06
304.971	96.06
305.201	88.06
305.431	75.06
305.661	84.06
305.891	86.06
306.121	90.06
306.352	87.06
306.582	89.06
306.812	78.06
307.042	89.06
307.272	75.06
307.502	77.06
307.731	78.06
307.961	86.06
308.191	91.06
308.421	95.06
308.651	101.06
308.881	81.06
309.111	77.06
309.341	87.06
309.571	91.06
309.8	92.06
310.03	78.06
310.26	85.06
310.49	99.06
310.72	76.06
310.949	92.06
311.179	98.06
311.409	83.06
311.639	79.06
311.868	72.06
312.098	82.06
312.328	89.06
312.557	94.06
312.787	83.06
313.017	79.06
313.246	86.06
313.476	88.06
313.706	69.06
313.935	83.06
314.165	78.06
314.394	87.06
314.624	69.06
314.853	75.06
315.083	81.06
315.312	85.06
315.542	95.06
315.771	86.06
316.001	80.06
316.23	89.06
316.46	87.06
316.689	85.06
316.919	102.06
317.148	103.06
317.377	96.06
317.607	87.06
317.836	90.06
318.065	79.06
318.295	86.06
318.524	92.06
318.753	84.06
318.983	75.06
319.212	83.06
319.441	86.06
319.67	91.06
319.9	87.06
320.129	84.06
320.358	81.06
320.587	94.06
320.816	95.06
321.046	72.06
321.275	70.06
321.504	94.06
321.733	92.06
321.962	94.06
322.191	80.06
322.42	93.06
322.649	82.06
322.878	95.06
323.108	87.06
323.337	83.06
323.566	81.06
323.795	91.06
324.024	82.06
324.253	80.06
324.482	93.06
324.71	73.06
324.939	70.06
325.168	89.06
325.397	83.06
325.626	83.06
325.855	85.06
326.084	93.06
326.313	84.06
326.542	73.06
326.77	89.06
326.999	86.06
327.228	80.06
327.457	87.06
327.686	81.06
327.914	85.06
328.143	81.06
328.372	98.06
328.6	85.06
328.829	94.06
329.058	85.06
329.287	79.06
329.515	67.06
329.744	86.06
329.972	79.06
330.201	74.06
330.43	82.06
330.658	83.06
330.887	88.06
331.115	94.06
331.344	70.06
331.572	84.06
331.801	89.06
332.03	77.06
332.258	91.06
332.486	79.06
332.715	81.06
332.943	86.06
333.172	71.06
333.4	81.06
333.629	98.06
333.857	87.06
334.085	95.06
334.314	95.06
334.542	90.06
334.771	82.06
334.999	106.06
335.227	92.06
335.455	90.06
335.684	86.06
335.912	81.06
336.14	93.06
336.369	80.06
336.597	85.06
336.825	79.06
337.053	81.06
337.281	82.06
337.51	86.06
337.738	80.06
337.966	70.06
338.194	77.06
338.422	98.06
338.65	84.06
338.878	90.06
339.106	97.06
339.334	88.06
339.562	71.06
339.79	87.06
340.018	84.06
340.246	78.06
340.474	85.06
340.702	96.06
340.93	96.06
341.158	101.06
341.386	80.06
341.614	76.06
341.842	87.06
342.07	87.06
342.298	89.06
342.526	88.06
342.754	94.06
342.981	79.06
343.209	86.06
343.437	79.06
343.665	89.06
343.893	85.06
344.12	79.06
344.348	87.06
344.576	70.06
344.804	86.06
345.031	86.06
345.259	78.06
345.487	67.06
345.714	70.06
345.942	83.06
346.17	88.06
346.397	74.06
346.625	90.06
346.853	84.06
347.08	88.06
347.308	88.06
347.535	79.06
347.763	76.06
347.99	73.06
348.218	83.06
348.445	99.06
348.673	93.06
348.9	79.06
349.128	91.06
349.355	92.06
349.583	86.06
349.81	83.06
350.037	77.06
350.265	79.06
350.492	80.06
350.72	80.06
350.947	79.06
351.174	93.06
351.402	73.06
351.629	68.06
351.856	86.06
352.083	80.06
352.311	78.06
352.538	94.06
352.765	78.06
352.992	101.06
353.22	80.06
353.447	81.06
353.674	84.06
353.901	80.06
354.128	77.06
354.355	79.06
354.583	79.06
354.81	82.06
355.037	91.06
355.264	78.06
355.491	82.06
355.718	89.06
355.945	84.06
356.172	92.06
356.399	87.06
356.626	81.06
356.853	91.06
357.08	92.06
357.307	88.06
357.534	96.06
357.761	85.06
357.988	79.06
358.215	94.06
358.441	75.06
358.668	86.06
358.895	75.06
359.122	93.06
359.349	79.06
359.576	85.06
359.802	105.06
360.029	82.06
360.256	93.06
360.483	90.06
360.709	89.06
360.936	85.06
361.163	85.06
361.39	104.06
361.616	91.06
361.843	83.06
362.07	80.06
362.296	78.06
362.523	82.06
362.749	76.06
362.976	77.06
363.203	89.06
363.429	84.06
363.656	81.06
363.882	87.06
364.109	86.06
364.335	78.06
364.562	93.06
364.788	85.06
365.015	87.06
365.241	84.06
365.468	76.06
365.694	93.06
365.92	81.06
366.147	84.06
366.373	83.06
366.599	89.06
366.826	102.06
367.052	98.06
367.278	75.06
367.505	91.06
367.731	84.06
367.957	91.06
368.184	94.06
368.41	84.06
368.636	81.06
368.862	87.06
369.089	105.06
369.315	80.06
369.541	106.06
369.767	89.06
369.993	89.06
370.219	91.06
370.445	106.06
370.672	87.06
370.898	96.06
371.124	83.06
371.35	95.06
371.576	85.06
371.802	91.06
372.028	87.06
372.254	92.06
372.48	84.06
372.706	76.06
372.932	83.06
373.158	79.06
373.384	86.06
373.61	97.06
373.835	92.06
374.061	93.06
374.287	88.06
374.513	94.06
374.739	99.06
374.965	105.06
375.191	106.06
375.416	103.06
375.642	108.06
375.868	112.06
376.094	76.06
376.319	98.06
376.545	99.06
376.771	86.06
376.997	86.06
377.222	97.06
377.448	97.06
377.674	95.06
377.899	108.06
378.125	89.06
378.35	97.06
378.576	82.06
378.802	98.06
379.027	95.06
379.253	84.06
379.478	86.06
379.704	97.06
379.929	96.06
380.155	93.06
380.38	94.06
380.606	83.06
380.831	102.06
381.057	94.06
381.282	97.06
381.507	89.06
381.733	89.06
381.958	92.06
382.184	90.06
382.409	108.06
382.634	87.06
382.86	103.06
383.085	104.06
383.31	85.06
383.535	100.06
383.761	95.06
383.986	93.06
384.211	99.06
384.436	103.06
384.662	98.06
384.887	94.06
385.112	88.06
385.337	114.06
385.562	102.06
385.787	97.06
386.013	102.06
386.238	103.06
386.463	95.06
386.688	97.06
386.913	90.06
387.138	102.06
387.363	86.06
387.588	106.06
387.813	114.06
388.038	93.06
388.263	95.06
388.488	102.06
388.713	95.06
388.938	89.06
389.163	93.06
389.387	111.06
389.612	103.06
389.837	80.06
390.062	104.06
390.287	108.06
390.512	93.06
390.736	107.06
390.961	104.06
391.186	111.06
391.411	100.06
391.636	90.06
391.86	110.06
392.085	97.06
392.31	106.06
392.534	95.06
392.759	101.06
392.984	108.06
393.208	101.06
393.433	102.06
393.658	99.06
393.882	112.06
394.107	103.06
394.331	93.06
394.556	114.06
394.78	122.06
395.005	99.06
395.229	97.06
395.454	103.06
395.678	98.06
395.903	91.06
396.127	111.06
396.352	103.06
396.576	109.06
396.801	117.06
397.025	103.06
397.249	96.06
397.474	108.06
397.698	115.06
397.922	116.06
398.147	107.06
398.371	110.06
398.595	107.06
398.82	95.06
399.044	113.06
399.268	114.06
399.492	127.06
399.717	115.06
399.941	108.06
400.165	99.06
400.389	118.06
400.613	109.06
400.837	119.06
401.062	111.06
401.286	119.06
401.51	112.06
401.734	115.06
401.958	115.06
402.182	120.06
402.406	110.06
402.63	114.06
402.854	119.06
403.078	116.06
403.302	109.06
403.526	112.06
403.75	118.06
403.974	120.06
404.198	118.06
404.422	114.06
404.645	108.06
404.869	118.06
405.093	116.06
405.317	109.06
405.541	108.06
405.765	106.06
405.988	102.06
406.212	117.06
406.436	124.06
406.66	108.06
406.883	104.06
407.107	129.06
407.331	116.06
407.555	117.06
407.778	121.06
408.002	114.06
408.226	102.06
408.449	118.06
408.673	127.06
408.896	123.06
409.12	120.06
409.344	118.06
409.567	115.06
409.791	118.06
410.014	127.06
410.238	111.06
410.461	123.06
410.685	112.06
410.908	116.06
411.132	120.06
411.355	127.06
411.578	123.06
411.802	102.06
412.025	124.06
412.249	126.06
412.472	121.06
412.695	107.06
412.919	107.06
413.142	122.06
413.365	134.06
413.589	126.06
413.812	122.06
414.035	127.06
414.258	122.06
414.482	116.06
414.705	118.06
414.928	120.06
415.151	135.06
415.374	128.06
415.597	132.06
415.821	138.06
416.044	126.06
416.267	123.06
416.49	128.06
416.713	131.06
416.936	123.06
417.159	108.06
417.382	115.06
417.605	131.06
417.828	131.06
418.051	130.06
418.274	120.06
418.497	127.06
418.72	109.06
418.943	132.06
419.166	132.06
419.389	138.06
419.611	128.06
419.834	136.06
420.057	142.06
420.28	131.06
420.503	131.06
420.726	128.06
420.948	140.06
421.171	130.06
421.394	128.06
421.617	146.06
421.839	141.06
422.062	146.06
422.285	128.06
422.507	134.06
422.73	136.06
422.953	128.06
423.175	134.06
423.398	126.06
423.621	132.06
423.843	142.06
424.066	138.06
424.288	149.06
424.511	146.06
424.733	140.06
424.956	140.06
425.178	138.06
425.401	142.06
425.623	130.06
425.846	123.06
426.068	136.06
426.291	122.06
426.513	121.06
426.735	124.06
426.958	129.06
427.18	131.06
427.402	126.06
427.625	110.06
427.847	138.06
428.069	123.06
428.292	122.06
428.514	117.06
428.736	117.06
428.958	137.06
429.181	124.06
429.403	127.06
429.625	120.06
429.847	133.06
430.069	126.06
430.292	122.06
430.514	139.06
430.736	138.06
430.958	120.06
431.18	117.06
431.402	126.06
431.624	123.06
431.846	120.06
432.068	103.06
432.29	106.06
432.512	131.06
432.734	122.06
432.956	124.06
433.178	139.06
433.4	126.06
433.622	146.06
433.844	124.06
434.066	121.06
434.287	109.06
434.509	104.06
434.731	105.06
434.953	131.06
435.175	120.06
435.397	115.06
435.618	119.06
435.84	112.06
436.062	116.06
436.284	119.06
436.505	135.06
436.727	128.06
436.949	127.06
437.17	123.06
437.392	134.06
437.614	126.06
437.835	100.06
438.057	103.06
438.278	118.06
438.5	122.06
438.721	129.06
438.943	131.06
439.165	126.06
439.386	144.06
439.608	129.06
439.829	140.06
440.05	158.06
440.272	133.06
440.493	138.06
440.715	149.06
440.936	130.06
441.158	144.06
441.379	154.06
441.6	141.06
441.822	143.06
442.043	151.06
442.264	127.06
442.486	135.06
442.707	150.06
442.928	146.06
443.149	142.06
443.371	147.06
443.592	139.06
443.813	143.06
444.034	131.06
444.255	142.06
444.476	149.06
444.698	148.06
444.919	136.06
445.14	226.06
445.361	192.06
445.582	134.06
445.803	134.06
446.024	147.06
446.245	156.06
446.466	156.06
446.687	160.06
446.908	150.06
447.129	164.06
447.35	144.06
447.571	142.06
447.792	129.06
448.013	144.06
448.234	139.06
448.455	140.06
448.675	140.06
448.896	144.06
449.117	140.06
449.338	132.06
449.559	134.06
449.779	130.06
450	135.06
450.221	143.06
450.442	140.06
450.662	127.06
450.883	138.06
451.104	139.06
451.324	128.06
451.545	123.06
451.766	142.06
451.986	136.06
452.207	135.06
452.428	112.06
452.648	117.06
452.869	117.06
453.089	114.06
453.31	122.06
453.53	107.06
453.751	98.06
453.971	107.06
454.192	108.06
454.412	111.06
454.633	126.06
454.853	128.06
455.073	118.06
455.294	121.06
455.514	135.06
455.734	128.06
455.955	117.06
456.175	122.06
456.395	99.06
456.616	122.06
456.836	112.06
457.056	119.06
457.276	114.06
457.497	105.06
457.717	111.06
457.937	118.06
458.157	103.06
458.377	105.06
458.598	103.06
458.818	88.06
459.038	86.06
459.258	94.06
459.478	99.06
459.698	77.06
459.918	104.06
460.138	101.06
460.358	109.06
460.578	126.06
460.798	122.06
461.018	108.06
461.238	118.06
461.458	107.06
461.678	112.06
461.898	118.06
462.118	125.06
462.338	126.06
462.558	127.06
462.777	109.06
462.997	110.06
463.217	119.06
463.437	102.06
463.657	120.06
463.876	116.06
464.096	95.06
464.316	109.06
464.536	122.06
464.755	117.06
464.975	122.06
465.195	117.06
465.414	117.06
465.634	118.06
465.854	109.06
466.073	123.06
466.293	110.06
466.512	140.06
466.732	120.06
466.951	128.06
467.171	130.06
467.391	136.06
467.61	127.06
467.829	124.06
468.049	127.06
468.268	119.06
468.488	128.06
468.707	124.06
468.927	147.06
469.146	136.06
469.365	141.06
469.585	131.06
469.804	122.06
470.023	127.06
470.243	132.06
470.462	132.06
470.681	146.06
470.901	135.06
471.12	129.06
471.339	131.06
471.558	146.06
471.777	150.06
471.997	144.06
472.216	112.06
472.435	115.06
472.654	104.06
472.873	118.06
473.092	127.06
473.311	124.06
473.53	130.06
473.749	130.06
473.968	131.06
474.187	128.06
474.406	118.06
474.625	124.06
474.844	139.06
475.063	143.06
475.282	128.06
475.501	124.06
475.72	116.06
475.939	121.06
476.158	129.06
476.377	122.06
476.596	113.06
476.814	111.06
477.033	111.06
477.252	114.06
477.471	118.06
477.69	135.06
477.908	147.06
478.127	138.06
478.346	131.06
478.564	131.06
478.783	132.06
479.002	142.06
479.22	145.06
479.439	134.06
479.658	116.06
479.876	112.06
480.095	110.06
480.313	126.06
480.532	111.06
480.751	111.06
480.969	96.06
481.188	94.06
481.406	73.06
481.624	98.06
481.843	94.06
482.061	111.06
482.28	123.06
482.498	118.06
482.717	111.06
482.935	100.06
483.153	148.06
483.372	136.06
483.59	157.06
483.808	144.06
484.027	130.06
484.245	138.06
484.463	131.06
484.681	162.06
484.9	150.06
485.118	128.06
485.336	134.06
485.554	125.06
485.772	99.06
485.99	111.06
486.209	106.06
486.427	98.06
486.645	111.06
486.863	126.06
487.081	134.06
487.299	124.06
487.517	143.06
487.735	164.06
487.953	211.06
488.171	194.06
488.389	176.06
488.607	155.06
488.825	132.06
489.043	128.06
489.261	130.06
489.479	145.06
489.696	136.06
489.914	138.06
490.132	145.06
490.35	149.06
490.568	181.06
490.786	166.06
491.003	173.06
491.221	169.06
491.439	164.06
491.657	181.06
491.874	196.06
492.092	205.06
492.31	241.06
492.527	226.06
492.745	174.06
492.963	191.06
493.18	183.06
493.398	171.06
493.615	172.06
493.833	183.06
494.05	167.06
494.268	159.06
494.485	182.06
494.703	171.06
494.92	182.06
495.138	173.06
495.355	167.06
495.573	180.06
495.79	165.06
496.008	170.06
496.225	168.06
496.442	165.06
496.66	166.06
496.877	149.06
497.094	157.06
497.312	156.06
497.529	167.06
497.746	150.06
497.963	137.06
498.181	125.06
498.398	123.06
498.615	126.06
498.832	119.06
499.049	136.06
499.267	104.06
499.484	112.06
499.701	130.06
499.918	136.06
500.135	143.06
500.352	138.06
500.569	142.06
500.786	149.06
501.003	131.06
501.22	129.06
501.437	130.06
501.654	143.06
501.871	122.06
502.088	124.06
502.305	134.06
502.522	133.06
502.739	135.06
502.956	142.06
503.172	130.06
503.389	125.06
503.606	117.06
503.823	113.06
504.04	99.06
504.256	122.06
504.473	119.06
504.69	119.06
504.907	131.06
505.123	111.06
505.34	122.06
505.557	121.06
505.773	110.06
505.99	110.06
506.207	119.06
506.423	109.06
506.64	127.06
506.856	103.06
507.073	124.06
507.289	113.06
507.506	118.06
507.722	98.06
507.939	117.06
508.155	107.06
508.372	106.06
508.588	119.06
508.805	109.06
509.021	98.06
509.238	122.06
509.454	118.06
509.67	99.06
509.887	94.06
510.103	102.06
510.319	91.06
510.536	86.06
510.752	89.06
510.968	97.06
511.184	71.06
511.401	75.06
511.617	95.06
