Data from Location1.07152019.Energy5.Lamp.07192019.3%Agarose_HRD10591_14-31-23-014.txt Node
Date: Fri Jul 19 14:31:23 EDT 2019
User: cochatt
Spectrometer: HR+D1059
Trigger mode: 1
Integration Time (sec): 1.000000E-1
Scans to average: 1
Electric dark correction enabled: true
Nonlinearity correction enabled: false
Boxcar width: 0
XAxis mode: Wavelengths
Number of Pixels in Spectrum: 2048
>>>>>Begin Spectral Data<<<<<
223.165	-25.12
223.4	-25.12
223.635	-25.12
223.869	-11.12
224.104	-9.12
224.338	-23.12
224.573	-15.12
224.808	-15.12
225.042	-3.12
225.277	-12.12
225.511	8.88
225.746	4.88
225.98	13.88
226.215	12.88
226.449	5.88
226.683	11.88
226.918	28.88
227.152	26.88
227.387	35.88
227.621	44.88
227.856	34.88
228.09	50.88
228.324	53.88
228.559	54.88
228.793	58.88
229.027	51.88
229.262	68.88
229.496	71.88
229.73	63.88
229.964	72.88
230.199	68.88
230.433	65.88
230.667	76.88
230.901	72.88
231.136	79.88
231.37	80.88
231.604	83.88
231.838	92.88
232.072	80.88
232.306	93.88
232.541	82.88
232.775	86.88
233.009	87.88
233.243	88.88
233.477	91.88
233.711	99.88
233.945	74.88
234.179	82.88
234.413	93.88
234.647	85.88
234.881	71.88
235.115	90.88
235.349	88.88
235.583	91.88
235.817	78.88
236.051	86.88
236.285	77.88
236.519	84.88
236.753	72.88
236.987	79.88
237.221	80.88
237.455	78.88
237.689	77.88
237.922	84.88
238.156	72.88
238.39	77.88
238.624	74.88
238.858	65.88
239.091	80.88
239.325	95.88
239.559	87.88
239.793	80.88
240.027	81.88
240.26	79.88
240.494	75.88
240.728	84.88
240.961	75.88
241.195	96.88
241.429	73.88
241.662	78.88
241.896	80.88
242.13	73.88
242.363	85.88
242.597	73.88
242.83	77.88
243.064	78.88
243.298	88.88
243.531	70.88
243.765	79.88
243.998	94.88
244.232	83.88
244.465	90.88
244.699	72.88
244.932	81.88
245.166	70.88
245.399	72.88
245.633	76.88
245.866	74.88
246.099	62.88
246.333	74.88
246.566	76.88
246.8	62.88
247.033	73.88
247.266	87.88
247.5	93.88
247.733	93.88
247.966	83.88
248.2	83.88
248.433	75.88
248.666	68.88
248.899	64.88
249.133	74.88
249.366	84.88
249.599	83.88
249.832	79.88
250.066	85.88
250.299	82.88
250.532	90.88
250.765	96.88
250.998	86.88
251.231	90.88
251.465	101.88
251.698	77.88
251.931	78.88
252.164	71.88
252.397	75.88
252.63	77.88
252.863	79.88
253.096	80.88
253.329	83.88
253.562	80.88
253.795	86.88
254.028	79.88
254.261	102.88
254.494	80.88
254.727	79.88
254.96	74.88
255.193	76.88
255.426	74.88
255.659	83.88
255.892	66.88
256.124	78.88
256.357	81.88
256.59	77.88
256.823	96.88
257.056	75.88
257.289	78.88
257.521	75.88
257.754	80.88
257.987	80.88
258.22	78.88
258.452	81.88
258.685	87.88
258.918	87.88
259.151	71.88
259.383	76.88
259.616	79.88
259.849	88.88
260.081	83.88
260.314	78.88
260.547	101.88
260.779	81.88
261.012	60.88
261.244	83.88
261.477	75.88
261.71	92.88
261.942	80.88
262.175	76.88
262.407	86.88
262.64	78.88
262.872	75.88
263.105	92.88
263.337	93.88
263.57	78.88
263.802	98.88
264.035	86.88
264.267	90.88
264.499	80.88
264.732	78.88
264.964	83.88
265.197	91.88
265.429	81.88
265.661	81.88
265.894	92.88
266.126	78.88
266.358	80.88
266.591	91.88
266.823	82.88
267.055	78.88
267.287	84.88
267.52	87.88
267.752	94.88
267.984	99.88
268.216	75.88
268.448	91.88
268.681	82.88
268.913	80.88
269.145	85.88
269.377	92.88
269.609	86.88
269.841	95.88
270.073	79.88
270.306	72.88
270.538	84.88
270.77	80.88
271.002	80.88
271.234	96.88
271.466	77.88
271.698	88.88
271.93	83.88
272.162	88.88
272.394	82.88
272.626	81.88
272.858	76.88
273.09	94.88
273.322	88.88
273.553	79.88
273.785	91.88
274.017	80.88
274.249	79.88
274.481	79.88
274.713	95.88
274.945	85.88
275.176	83.88
275.408	90.88
275.64	93.88
275.872	81.88
276.104	97.88
276.335	97.88
276.567	91.88
276.799	84.88
277.031	73.88
277.262	79.88
277.494	81.88
277.726	85.88
277.957	94.88
278.189	67.88
278.421	91.88
278.652	86.88
278.884	86.88
279.115	80.88
279.347	80.88
279.579	76.88
279.81	76.88
280.042	102.88
280.273	75.88
280.505	88.88
280.736	68.88
280.968	87.88
281.199	90.88
281.431	82.88
281.662	89.88
281.894	99.88
282.125	80.88
282.356	86.88
282.588	88.88
282.819	96.88
283.051	87.88
283.282	95.88
283.513	85.88
283.745	85.88
283.976	71.88
284.207	84.88
284.439	84.88
284.67	87.88
284.901	82.88
285.132	75.88
285.364	74.88
285.595	84.88
285.826	68.88
286.057	82.88
286.288	84.88
286.52	104.88
286.751	85.88
286.982	79.88
287.213	88.88
287.444	73.88
287.675	83.88
287.906	84.88
288.138	96.88
288.369	82.88
288.6	75.88
288.831	84.88
289.062	78.88
289.293	89.88
289.524	86.88
289.755	78.88
289.986	84.88
290.217	99.88
290.448	84.88
290.679	73.88
290.91	94.88
291.141	76.88
291.371	84.88
291.602	83.88
291.833	84.88
292.064	86.88
292.295	80.88
292.526	84.88
292.757	84.88
292.987	80.88
293.218	90.88
293.449	76.88
293.68	96.88
293.91	89.88
294.141	82.88
294.372	85.88
294.603	96.88
294.833	88.88
295.064	89.88
295.295	95.88
295.525	87.88
295.756	94.88
295.987	92.88
296.217	86.88
296.448	97.88
296.679	85.88
296.909	86.88
297.14	91.88
297.37	87.88
297.601	77.88
297.831	86.88
298.062	82.88
298.292	92.88
298.523	79.88
298.753	79.88
298.984	90.88
299.214	85.88
299.445	90.88
299.675	86.88
299.905	85.88
300.136	85.88
300.366	78.88
300.597	88.88
300.827	73.88
301.057	78.88
301.288	83.88
301.518	87.88
301.748	74.88
301.979	82.88
302.209	86.88
302.439	92.88
302.669	82.88
302.9	79.88
303.13	89.88
303.36	68.88
303.59	99.88
303.82	94.88
304.051	91.88
304.281	72.88
304.511	99.88
304.741	85.88
304.971	102.88
305.201	85.88
305.431	102.88
305.661	87.88
305.891	81.88
306.121	78.88
306.352	85.88
306.582	94.88
306.812	97.88
307.042	86.88
307.272	85.88
307.502	80.88
307.731	99.88
307.961	76.88
308.191	85.88
308.421	95.88
308.651	100.88
308.881	82.88
309.111	81.88
309.341	82.88
309.571	80.88
309.8	84.88
310.03	73.88
310.26	88.88
310.49	86.88
310.72	92.88
310.949	80.88
311.179	87.88
311.409	96.88
311.639	62.88
311.868	85.88
312.098	98.88
312.328	83.88
312.557	68.88
312.787	92.88
313.017	75.88
313.246	81.88
313.476	83.88
313.706	85.88
313.935	84.88
314.165	83.88
314.394	83.88
314.624	92.88
314.853	71.88
315.083	82.88
315.312	79.88
315.542	88.88
315.771	85.88
316.001	97.88
316.23	100.88
316.46	75.88
316.689	81.88
316.919	81.88
317.148	86.88
317.377	94.88
317.607	106.88
317.836	87.88
318.065	89.88
318.295	91.88
318.524	80.88
318.753	85.88
318.983	80.88
319.212	79.88
319.441	99.88
319.67	87.88
319.9	80.88
320.129	82.88
320.358	84.88
320.587	84.88
320.816	81.88
321.046	79.88
321.275	83.88
321.504	80.88
321.733	76.88
321.962	71.88
322.191	71.88
322.42	85.88
322.649	86.88
322.878	90.88
323.108	88.88
323.337	108.88
323.566	78.88
323.795	84.88
324.024	89.88
324.253	92.88
324.482	81.88
324.71	82.88
324.939	88.88
325.168	79.88
325.397	102.88
325.626	87.88
325.855	90.88
326.084	88.88
326.313	98.88
326.542	76.88
326.77	85.88
326.999	69.88
327.228	84.88
327.457	80.88
327.686	88.88
327.914	76.88
328.143	96.88
328.372	77.88
328.6	101.88
328.829	85.88
329.058	93.88
329.287	85.88
329.515	91.88
329.744	90.88
329.972	86.88
330.201	85.88
330.43	69.88
330.658	85.88
330.887	78.88
331.115	90.88
331.344	77.88
331.572	86.88
331.801	72.88
332.03	90.88
332.258	84.88
332.486	88.88
332.715	87.88
332.943	83.88
333.172	77.88
333.4	94.88
333.629	90.88
333.857	93.88
334.085	94.88
334.314	89.88
334.542	92.88
334.771	90.88
334.999	73.88
335.227	79.88
335.455	87.88
335.684	93.88
335.912	84.88
336.14	78.88
336.369	82.88
336.597	93.88
336.825	88.88
337.053	90.88
337.281	89.88
337.51	73.88
337.738	76.88
337.966	68.88
338.194	86.88
338.422	93.88
338.65	96.88
338.878	86.88
339.106	84.88
339.334	79.88
339.562	77.88
339.79	86.88
340.018	102.88
340.246	78.88
340.474	91.88
340.702	81.88
340.93	94.88
341.158	87.88
341.386	74.88
341.614	64.88
341.842	71.88
342.07	102.88
342.298	87.88
342.526	92.88
342.754	70.88
342.981	90.88
343.209	88.88
343.437	87.88
343.665	78.88
343.893	91.88
344.12	82.88
344.348	86.88
344.576	89.88
344.804	91.88
345.031	74.88
345.259	75.88
345.487	75.88
345.714	83.88
345.942	79.88
346.17	76.88
346.397	88.88
346.625	78.88
346.853	86.88
347.08	85.88
347.308	76.88
347.535	85.88
347.763	86.88
347.99	94.88
348.218	82.88
348.445	87.88
348.673	88.88
348.9	80.88
349.128	83.88
349.355	90.88
349.583	109.88
349.81	98.88
350.037	80.88
350.265	82.88
350.492	87.88
350.72	91.88
350.947	90.88
351.174	89.88
351.402	83.88
351.629	69.88
351.856	82.88
352.083	91.88
352.311	99.88
352.538	85.88
352.765	80.88
352.992	90.88
353.22	90.88
353.447	88.88
353.674	85.88
353.901	78.88
354.128	78.88
354.355	80.88
354.583	88.88
354.81	82.88
355.037	82.88
355.264	84.88
355.491	83.88
355.718	81.88
355.945	80.88
356.172	80.88
356.399	90.88
356.626	90.88
356.853	74.88
357.08	91.88
357.307	84.88
357.534	87.88
357.761	79.88
357.988	83.88
358.215	90.88
358.441	83.88
358.668	88.88
358.895	79.88
359.122	91.88
359.349	80.88
359.576	74.88
359.802	100.88
360.029	96.88
360.256	91.88
360.483	85.88
360.709	94.88
360.936	97.88
361.163	85.88
361.39	80.88
361.616	88.88
361.843	90.88
362.07	78.88
362.296	84.88
362.523	96.88
362.749	87.88
362.976	84.88
363.203	78.88
363.429	86.88
363.656	79.88
363.882	98.88
364.109	98.88
364.335	83.88
364.562	76.88
364.788	83.88
365.015	83.88
365.241	84.88
365.468	95.88
365.694	87.88
365.92	88.88
366.147	81.88
366.373	77.88
366.599	77.88
366.826	95.88
367.052	91.88
367.278	78.88
367.505	85.88
367.731	86.88
367.957	87.88
368.184	91.88
368.41	90.88
368.636	78.88
368.862	96.88
369.089	84.88
369.315	94.88
369.541	78.88
369.767	83.88
369.993	105.88
370.219	95.88
370.445	88.88
370.672	86.88
370.898	80.88
371.124	89.88
371.35	80.88
371.576	97.88
371.802	92.88
372.028	99.88
372.254	107.88
372.48	89.88
372.706	89.88
372.932	96.88
373.158	99.88
373.384	92.88
373.61	81.88
373.835	88.88
374.061	82.88
374.287	97.88
374.513	93.88
374.739	92.88
374.965	118.88
375.191	103.88
375.416	95.88
375.642	90.88
375.868	98.88
376.094	96.88
376.319	93.88
376.545	101.88
376.771	79.88
376.997	84.88
377.222	90.88
377.448	98.88
377.674	95.88
377.899	77.88
378.125	99.88
378.35	83.88
378.576	100.88
378.802	102.88
379.027	89.88
379.253	89.88
379.478	100.88
379.704	88.88
379.929	104.88
380.155	90.88
380.38	91.88
380.606	86.88
380.831	94.88
381.057	115.88
381.282	88.88
381.507	92.88
381.733	90.88
381.958	92.88
382.184	82.88
382.409	89.88
382.634	94.88
382.86	97.88
383.085	99.88
383.31	102.88
383.535	102.88
383.761	98.88
383.986	103.88
384.211	78.88
384.436	100.88
384.662	94.88
384.887	97.88
385.112	100.88
385.337	90.88
385.562	93.88
385.787	92.88
386.013	106.88
386.238	92.88
386.463	85.88
386.688	110.88
386.913	99.88
387.138	96.88
387.363	94.88
387.588	99.88
387.813	98.88
388.038	95.88
388.263	94.88
388.488	92.88
388.713	103.88
388.938	101.88
389.163	107.88
389.387	95.88
389.612	99.88
389.837	102.88
390.062	100.88
390.287	107.88
390.512	102.88
390.736	85.88
390.961	103.88
391.186	100.88
391.411	103.88
391.636	117.88
391.86	102.88
392.085	100.88
392.31	104.88
392.534	118.88
392.759	105.88
392.984	103.88
393.208	101.88
393.433	111.88
393.658	101.88
393.882	98.88
394.107	118.88
394.331	116.88
394.556	118.88
394.78	108.88
395.005	102.88
395.229	98.88
395.454	117.88
395.678	121.88
395.903	109.88
396.127	112.88
396.352	99.88
396.576	110.88
396.801	102.88
397.025	110.88
397.249	96.88
397.474	100.88
397.698	107.88
397.922	96.88
398.147	118.88
398.371	110.88
398.595	105.88
398.82	104.88
399.044	121.88
399.268	109.88
399.492	118.88
399.717	100.88
399.941	106.88
400.165	108.88
400.389	108.88
400.613	105.88
400.837	112.88
401.062	107.88
401.286	104.88
401.51	104.88
401.734	122.88
401.958	116.88
402.182	106.88
402.406	111.88
402.63	100.88
402.854	102.88
403.078	113.88
403.302	107.88
403.526	115.88
403.75	120.88
403.974	124.88
404.198	116.88
404.422	133.88
404.645	109.88
404.869	116.88
405.093	111.88
405.317	105.88
405.541	106.88
405.765	120.88
405.988	122.88
406.212	119.88
406.436	116.88
406.66	114.88
406.883	133.88
407.107	114.88
407.331	122.88
407.555	121.88
407.778	124.88
408.002	126.88
408.226	115.88
408.449	90.88
408.673	108.88
408.896	117.88
409.12	126.88
409.344	120.88
409.567	114.88
409.791	112.88
410.014	111.88
410.238	119.88
410.461	112.88
410.685	122.88
410.908	126.88
411.132	126.88
411.355	111.88
411.578	122.88
411.802	122.88
412.025	113.88
412.249	130.88
412.472	124.88
412.695	120.88
412.919	117.88
413.142	121.88
413.365	133.88
413.589	122.88
413.812	122.88
414.035	128.88
414.258	123.88
414.482	126.88
414.705	117.88
414.928	123.88
415.151	122.88
415.374	122.88
415.597	128.88
415.821	122.88
416.044	130.88
416.267	122.88
416.49	123.88
416.713	125.88
416.936	127.88
417.159	136.88
417.382	132.88
417.605	130.88
417.828	120.88
418.051	118.88
418.274	119.88
418.497	140.88
418.72	134.88
418.943	134.88
419.166	129.88
419.389	132.88
419.611	130.88
419.834	126.88
420.057	130.88
420.28	126.88
420.503	125.88
420.726	130.88
420.948	136.88
421.171	126.88
421.394	138.88
421.617	132.88
421.839	139.88
422.062	127.88
422.285	122.88
422.507	128.88
422.73	129.88
422.953	130.88
423.175	126.88
423.398	132.88
423.621	134.88
423.843	143.88
424.066	133.88
424.288	150.88
424.511	147.88
424.733	130.88
424.956	158.88
425.178	136.88
425.401	127.88
425.623	116.88
425.846	135.88
426.068	126.88
426.291	136.88
426.513	139.88
426.735	124.88
426.958	128.88
427.18	122.88
427.402	121.88
427.625	121.88
427.847	129.88
428.069	122.88
428.292	125.88
428.514	141.88
428.736	127.88
428.958	124.88
429.181	133.88
429.403	120.88
429.625	140.88
429.847	135.88
430.069	140.88
430.292	125.88
430.514	115.88
430.736	132.88
430.958	139.88
431.18	136.88
431.402	117.88
431.624	133.88
431.846	117.88
432.068	109.88
432.29	102.88
432.512	109.88
432.734	126.88
432.956	128.88
433.178	126.88
433.4	130.88
433.622	134.88
433.844	136.88
434.066	120.88
434.287	90.88
434.509	98.88
434.731	102.88
434.953	95.88
435.175	123.88
435.397	122.88
435.618	109.88
435.84	98.88
436.062	109.88
436.284	117.88
436.505	133.88
436.727	134.88
436.949	116.88
437.17	128.88
437.392	130.88
437.614	116.88
437.835	113.88
438.057	110.88
438.278	108.88
438.5	118.88
438.721	137.88
438.943	148.88
439.165	142.88
439.386	126.88
439.608	135.88
439.829	132.88
440.05	140.88
440.272	147.88
440.493	146.88
440.715	139.88
440.936	143.88
441.158	135.88
441.379	136.88
441.6	164.88
441.822	148.88
442.043	130.88
442.264	138.88
442.486	139.88
442.707	130.88
442.928	150.88
443.149	140.88
443.371	146.88
443.592	143.88
443.813	158.88
444.034	141.88
444.255	147.88
444.476	127.88
444.698	132.88
444.919	154.88
445.14	265.88
445.361	203.88
445.582	142.88
445.803	142.88
446.024	140.88
446.245	145.88
446.466	146.88
446.687	152.88
446.908	150.88
447.129	136.88
447.35	163.88
447.571	144.88
447.792	142.88
448.013	155.88
448.234	140.88
448.455	144.88
448.675	135.88
448.896	140.88
449.117	120.88
449.338	131.88
449.559	139.88
449.779	140.88
450	138.88
450.221	118.88
450.442	143.88
450.662	124.88
450.883	134.88
451.104	129.88
451.324	109.88
451.545	135.88
451.766	138.88
451.986	125.88
452.207	127.88
452.428	125.88
452.648	130.88
452.869	120.88
453.089	112.88
453.31	120.88
453.53	114.88
453.751	114.88
453.971	101.88
454.192	107.88
454.412	121.88
454.633	109.88
454.853	134.88
455.073	116.88
455.294	106.88
455.514	118.88
455.734	112.88
455.955	109.88
456.175	126.88
456.395	124.88
456.616	114.88
456.836	114.88
457.056	106.88
457.276	117.88
457.497	114.88
457.717	99.88
457.937	110.88
458.157	123.88
458.377	102.88
458.598	104.88
458.818	79.88
459.038	94.88
459.258	95.88
459.478	88.88
459.698	90.88
459.918	99.88
460.138	103.88
460.358	131.88
460.578	108.88
460.798	103.88
461.018	116.88
461.238	117.88
461.458	122.88
461.678	122.88
461.898	109.88
462.118	110.88
462.338	104.88
462.558	124.88
462.777	114.88
462.997	120.88
463.217	114.88
463.437	107.88
463.657	103.88
463.876	118.88
464.096	114.88
464.316	93.88
464.536	98.88
464.755	109.88
464.975	122.88
465.195	108.88
465.414	120.88
465.634	132.88
465.854	126.88
466.073	114.88
466.293	131.88
466.512	108.88
466.732	113.88
466.951	146.88
467.171	145.88
467.391	147.88
467.61	128.88
467.829	138.88
468.049	144.88
468.268	137.88
468.488	128.88
468.707	148.88
468.927	143.88
469.146	142.88
469.365	130.88
469.585	142.88
469.804	127.88
470.023	142.88
470.243	144.88
470.462	141.88
470.681	132.88
470.901	132.88
471.12	129.88
471.339	137.88
471.558	132.88
471.777	140.88
471.997	121.88
472.216	124.88
472.435	125.88
472.654	112.88
472.873	109.88
473.092	121.88
473.311	130.88
473.53	119.88
473.749	129.88
473.968	148.88
474.187	130.88
474.406	124.88
474.625	123.88
474.844	131.88
475.063	124.88
475.282	107.88
475.501	107.88
475.72	118.88
475.939	115.88
476.158	132.88
476.377	130.88
476.596	130.88
476.814	114.88
477.033	110.88
477.252	98.88
477.471	123.88
477.69	110.88
477.908	136.88
478.127	139.88
478.346	126.88
478.564	132.88
478.783	128.88
479.002	139.88
479.22	128.88
479.439	118.88
479.658	118.88
479.876	96.88
480.095	120.88
480.313	123.88
480.532	118.88
480.751	109.88
480.969	105.88
481.188	92.88
481.406	88.88
481.624	81.88
481.843	106.88
482.061	93.88
482.28	100.88
482.498	116.88
482.717	113.88
482.935	126.88
483.153	145.88
483.372	149.88
483.59	145.88
483.808	152.88
484.027	134.88
484.245	129.88
484.463	143.88
484.681	166.88
484.9	158.88
485.118	150.88
485.336	132.88
485.554	105.88
485.772	112.88
485.99	108.88
486.209	105.88
486.427	98.88
486.645	103.88
486.863	121.88
487.081	142.88
487.299	139.88
487.517	138.88
487.735	167.88
487.953	187.88
488.171	179.88
488.389	166.88
488.607	172.88
488.825	165.88
489.043	130.88
489.261	126.88
489.479	136.88
489.696	138.88
489.914	133.88
490.132	142.88
490.35	155.88
490.568	166.88
490.786	161.88
491.003	166.88
491.221	156.88
491.439	191.88
491.657	186.88
491.874	178.88
492.092	223.88
492.31	232.88
492.527	221.88
492.745	200.88
492.963	192.88
493.18	178.88
493.398	184.88
493.615	166.88
493.833	178.88
494.05	156.88
494.268	170.88
494.485	162.88
494.703	168.88
494.92	164.88
495.138	178.88
495.355	165.88
495.573	175.88
495.79	171.88
496.008	179.88
496.225	154.88
496.442	194.88
496.66	168.88
496.877	146.88
497.094	158.88
497.312	147.88
497.529	148.88
497.746	142.88
497.963	139.88
498.181	138.88
498.398	135.88
498.615	120.88
498.832	122.88
499.049	124.88
499.267	122.88
499.484	126.88
499.701	119.88
499.918	122.88
500.135	129.88
500.352	144.88
500.569	144.88
500.786	148.88
501.003	139.88
501.22	129.88
501.437	130.88
501.654	133.88
501.871	128.88
502.088	125.88
502.305	130.88
502.522	130.88
502.739	139.88
502.956	121.88
503.172	126.88
503.389	123.88
503.606	118.88
503.823	120.88
504.04	126.88
504.256	110.88
504.473	120.88
504.69	129.88
504.907	121.88
505.123	133.88
505.34	117.88
505.557	101.88
505.773	118.88
505.99	130.88
506.207	118.88
506.423	126.88
506.64	92.88
506.856	102.88
507.073	124.88
507.289	116.88
507.506	115.88
507.722	106.88
507.939	122.88
508.155	110.88
508.372	122.88
508.588	108.88
508.805	122.88
509.021	104.88
509.238	110.88
509.454	117.88
509.67	102.88
509.887	114.88
510.103	98.88
510.319	85.88
510.536	107.88
510.752	100.88
510.968	88.88
511.184	93.88
511.401	96.88
