Data from Location1.07152019.Energy5.Lamp.07192019.3%Agarose_HRD10591_14-31-05-015.txt Node
Date: Fri Jul 19 14:31:05 EDT 2019
User: cochatt
Spectrometer: HR+D1059
Trigger mode: 1
Integration Time (sec): 1.000000E-1
Scans to average: 1
Electric dark correction enabled: true
Nonlinearity correction enabled: false
Boxcar width: 0
XAxis mode: Wavelengths
Number of Pixels in Spectrum: 2048
>>>>>Begin Spectral Data<<<<<
223.165	-8.75
223.4	-8.75
223.635	-8.75
223.869	-17.75
224.104	-36.75
224.338	-10.75
224.573	-18.75
224.808	-22.75
225.042	-9.75
225.277	-5.75
225.511	-2.75
225.746	5.25
225.98	9.25
226.215	-3.75
226.449	24.25
226.683	35.25
226.918	31.25
227.152	32.25
227.387	41.25
227.621	38.25
227.856	47.25
228.09	36.25
228.324	61.25
228.559	46.25
228.793	56.25
229.027	69.25
229.262	52.25
229.496	55.25
229.73	56.25
229.964	76.25
230.199	72.25
230.433	85.25
230.667	78.25
230.901	68.25
231.136	79.25
231.37	76.25
231.604	78.25
231.838	89.25
232.072	77.25
232.306	62.25
232.541	94.25
232.775	71.25
233.009	81.25
233.243	81.25
233.477	83.25
233.711	81.25
233.945	75.25
234.179	85.25
234.413	88.25
234.647	82.25
234.881	77.25
235.115	92.25
235.349	86.25
235.583	89.25
235.817	79.25
236.051	91.25
236.285	80.25
236.519	91.25
236.753	92.25
236.987	79.25
237.221	82.25
237.455	82.25
237.689	82.25
237.922	77.25
238.156	72.25
238.39	75.25
238.624	68.25
238.858	88.25
239.091	80.25
239.325	76.25
239.559	61.25
239.793	83.25
240.027	83.25
240.26	76.25
240.494	89.25
240.728	77.25
240.961	78.25
241.195	95.25
241.429	73.25
241.662	69.25
241.896	72.25
242.13	87.25
242.363	71.25
242.597	97.25
242.83	84.25
243.064	79.25
243.298	74.25
243.531	90.25
243.765	73.25
243.998	84.25
244.232	72.25
244.465	69.25
244.699	73.25
244.932	73.25
245.166	78.25
245.399	85.25
245.633	79.25
245.866	82.25
246.099	70.25
246.333	72.25
246.566	76.25
246.8	84.25
247.033	84.25
247.266	77.25
247.5	69.25
247.733	74.25
247.966	79.25
248.2	81.25
248.433	75.25
248.666	92.25
248.899	92.25
249.133	77.25
249.366	80.25
249.599	72.25
249.832	69.25
250.066	72.25
250.299	78.25
250.532	79.25
250.765	95.25
250.998	89.25
251.231	91.25
251.465	86.25
251.698	76.25
251.931	86.25
252.164	83.25
252.397	76.25
252.63	87.25
252.863	84.25
253.096	72.25
253.329	70.25
253.562	74.25
253.795	79.25
254.028	91.25
254.261	78.25
254.494	80.25
254.727	72.25
254.96	75.25
255.193	102.25
255.426	66.25
255.659	98.25
255.892	103.25
256.124	76.25
256.357	82.25
256.59	70.25
256.823	74.25
257.056	83.25
257.289	85.25
257.521	76.25
257.754	86.25
257.987	82.25
258.22	80.25
258.452	85.25
258.685	84.25
258.918	84.25
259.151	79.25
259.383	105.25
259.616	81.25
259.849	95.25
260.081	81.25
260.314	83.25
260.547	77.25
260.779	79.25
261.012	86.25
261.244	80.25
261.477	82.25
261.71	71.25
261.942	83.25
262.175	74.25
262.407	82.25
262.64	76.25
262.872	78.25
263.105	84.25
263.337	98.25
263.57	89.25
263.802	90.25
264.035	76.25
264.267	90.25
264.499	84.25
264.732	85.25
264.964	91.25
265.197	73.25
265.429	79.25
265.661	66.25
265.894	86.25
266.126	73.25
266.358	90.25
266.591	96.25
266.823	77.25
267.055	91.25
267.287	82.25
267.52	89.25
267.752	81.25
267.984	78.25
268.216	80.25
268.448	96.25
268.681	76.25
268.913	84.25
269.145	82.25
269.377	80.25
269.609	87.25
269.841	83.25
270.073	88.25
270.306	81.25
270.538	84.25
270.77	84.25
271.002	89.25
271.234	89.25
271.466	91.25
271.698	79.25
271.93	84.25
272.162	76.25
272.394	79.25
272.626	92.25
272.858	87.25
273.09	77.25
273.322	87.25
273.553	91.25
273.785	88.25
274.017	76.25
274.249	91.25
274.481	75.25
274.713	65.25
274.945	78.25
275.176	76.25
275.408	86.25
275.64	83.25
275.872	70.25
276.104	88.25
276.335	86.25
276.567	86.25
276.799	95.25
277.031	83.25
277.262	81.25
277.494	82.25
277.726	92.25
277.957	83.25
278.189	83.25
278.421	91.25
278.652	91.25
278.884	81.25
279.115	92.25
279.347	86.25
279.579	83.25
279.81	86.25
280.042	83.25
280.273	90.25
280.505	79.25
280.736	80.25
280.968	86.25
281.199	88.25
281.431	88.25
281.662	86.25
281.894	83.25
282.125	89.25
282.356	89.25
282.588	96.25
282.819	92.25
283.051	88.25
283.282	91.25
283.513	78.25
283.745	94.25
283.976	80.25
284.207	80.25
284.439	85.25
284.67	92.25
284.901	79.25
285.132	80.25
285.364	93.25
285.595	85.25
285.826	100.25
286.057	99.25
286.288	78.25
286.52	95.25
286.751	95.25
286.982	99.25
287.213	77.25
287.444	80.25
287.675	80.25
287.906	83.25
288.138	89.25
288.369	76.25
288.6	75.25
288.831	83.25
289.062	96.25
289.293	101.25
289.524	72.25
289.755	86.25
289.986	74.25
290.217	76.25
290.448	85.25
290.679	84.25
290.91	73.25
291.141	77.25
291.371	85.25
291.602	79.25
291.833	86.25
292.064	86.25
292.295	80.25
292.526	72.25
292.757	83.25
292.987	86.25
293.218	77.25
293.449	83.25
293.68	85.25
293.91	84.25
294.141	80.25
294.372	92.25
294.603	102.25
294.833	86.25
295.064	98.25
295.295	93.25
295.525	78.25
295.756	91.25
295.987	78.25
296.217	93.25
296.448	88.25
296.679	94.25
296.909	81.25
297.14	84.25
297.37	84.25
297.601	81.25
297.831	91.25
298.062	90.25
298.292	76.25
298.523	86.25
298.753	94.25
298.984	85.25
299.214	79.25
299.445	74.25
299.675	93.25
299.905	87.25
300.136	72.25
300.366	97.25
300.597	89.25
300.827	81.25
301.057	84.25
301.288	84.25
301.518	67.25
301.748	88.25
301.979	88.25
302.209	101.25
302.439	79.25
302.669	87.25
302.9	78.25
303.13	94.25
303.36	79.25
303.59	92.25
303.82	90.25
304.051	85.25
304.281	86.25
304.511	89.25
304.741	87.25
304.971	85.25
305.201	79.25
305.431	84.25
305.661	87.25
305.891	83.25
306.121	84.25
306.352	78.25
306.582	88.25
306.812	75.25
307.042	90.25
307.272	86.25
307.502	90.25
307.731	85.25
307.961	80.25
308.191	90.25
308.421	79.25
308.651	83.25
308.881	88.25
309.111	96.25
309.341	88.25
309.571	69.25
309.8	83.25
310.03	82.25
310.26	74.25
310.49	85.25
310.72	91.25
310.949	76.25
311.179	93.25
311.409	97.25
311.639	85.25
311.868	91.25
312.098	93.25
312.328	87.25
312.557	92.25
312.787	90.25
313.017	104.25
313.246	89.25
313.476	85.25
313.706	79.25
313.935	84.25
314.165	96.25
314.394	79.25
314.624	98.25
314.853	77.25
315.083	94.25
315.312	83.25
315.542	85.25
315.771	88.25
316.001	86.25
316.23	97.25
316.46	87.25
316.689	86.25
316.919	101.25
317.148	92.25
317.377	93.25
317.607	87.25
317.836	75.25
318.065	93.25
318.295	78.25
318.524	71.25
318.753	72.25
318.983	80.25
319.212	92.25
319.441	78.25
319.67	83.25
319.9	70.25
320.129	87.25
320.358	92.25
320.587	101.25
320.816	89.25
321.046	90.25
321.275	66.25
321.504	86.25
321.733	86.25
321.962	99.25
322.191	80.25
322.42	105.25
322.649	80.25
322.878	96.25
323.108	87.25
323.337	92.25
323.566	88.25
323.795	76.25
324.024	85.25
324.253	88.25
324.482	103.25
324.71	99.25
324.939	96.25
325.168	83.25
325.397	93.25
325.626	86.25
325.855	84.25
326.084	100.25
326.313	88.25
326.542	80.25
326.77	87.25
326.999	84.25
327.228	82.25
327.457	90.25
327.686	87.25
327.914	88.25
328.143	86.25
328.372	82.25
328.6	84.25
328.829	84.25
329.058	86.25
329.287	80.25
329.515	81.25
329.744	93.25
329.972	83.25
330.201	77.25
330.43	70.25
330.658	88.25
330.887	92.25
331.115	76.25
331.344	90.25
331.572	90.25
331.801	79.25
332.03	76.25
332.258	77.25
332.486	79.25
332.715	83.25
332.943	88.25
333.172	66.25
333.4	84.25
333.629	78.25
333.857	91.25
334.085	91.25
334.314	97.25
334.542	83.25
334.771	79.25
334.999	76.25
335.227	94.25
335.455	103.25
335.684	94.25
335.912	90.25
336.14	79.25
336.369	81.25
336.597	79.25
336.825	85.25
337.053	90.25
337.281	81.25
337.51	86.25
337.738	106.25
337.966	83.25
338.194	82.25
338.422	80.25
338.65	82.25
338.878	76.25
339.106	84.25
339.334	82.25
339.562	89.25
339.79	80.25
340.018	68.25
340.246	87.25
340.474	91.25
340.702	84.25
340.93	86.25
341.158	88.25
341.386	87.25
341.614	83.25
341.842	82.25
342.07	89.25
342.298	88.25
342.526	90.25
342.754	82.25
342.981	78.25
343.209	85.25
343.437	71.25
343.665	83.25
343.893	81.25
344.12	103.25
344.348	90.25
344.576	85.25
344.804	85.25
345.031	83.25
345.259	93.25
345.487	74.25
345.714	93.25
345.942	89.25
346.17	77.25
346.397	84.25
346.625	77.25
346.853	88.25
347.08	82.25
347.308	95.25
347.535	76.25
347.763	76.25
347.99	79.25
348.218	77.25
348.445	87.25
348.673	85.25
348.9	85.25
349.128	69.25
349.355	74.25
349.583	83.25
349.81	94.25
350.037	81.25
350.265	86.25
350.492	85.25
350.72	93.25
350.947	83.25
351.174	85.25
351.402	83.25
351.629	91.25
351.856	80.25
352.083	88.25
352.311	99.25
352.538	78.25
352.765	94.25
352.992	90.25
353.22	88.25
353.447	84.25
353.674	90.25
353.901	86.25
354.128	75.25
354.355	79.25
354.583	93.25
354.81	103.25
355.037	78.25
355.264	93.25
355.491	68.25
355.718	87.25
355.945	85.25
356.172	90.25
356.399	71.25
356.626	84.25
356.853	89.25
357.08	88.25
357.307	91.25
357.534	73.25
357.761	87.25
357.988	93.25
358.215	81.25
358.441	83.25
358.668	87.25
358.895	79.25
359.122	79.25
359.349	75.25
359.576	77.25
359.802	93.25
360.029	84.25
360.256	91.25
360.483	68.25
360.709	87.25
360.936	105.25
361.163	72.25
361.39	98.25
361.616	89.25
361.843	86.25
362.07	88.25
362.296	94.25
362.523	71.25
362.749	73.25
362.976	81.25
363.203	88.25
363.429	91.25
363.656	88.25
363.882	88.25
364.109	98.25
364.335	77.25
364.562	99.25
364.788	89.25
365.015	92.25
365.241	86.25
365.468	86.25
365.694	89.25
365.92	80.25
366.147	79.25
366.373	90.25
366.599	86.25
366.826	79.25
367.052	96.25
367.278	96.25
367.505	100.25
367.731	83.25
367.957	75.25
368.184	87.25
368.41	100.25
368.636	99.25
368.862	92.25
369.089	91.25
369.315	91.25
369.541	90.25
369.767	91.25
369.993	85.25
370.219	97.25
370.445	102.25
370.672	92.25
370.898	94.25
371.124	96.25
371.35	104.25
371.576	100.25
371.802	92.25
372.028	103.25
372.254	102.25
372.48	104.25
372.706	85.25
372.932	104.25
373.158	87.25
373.384	99.25
373.61	91.25
373.835	116.25
374.061	76.25
374.287	92.25
374.513	80.25
374.739	92.25
374.965	97.25
375.191	110.25
375.416	97.25
375.642	94.25
375.868	91.25
376.094	101.25
376.319	82.25
376.545	85.25
376.771	92.25
376.997	78.25
377.222	85.25
377.448	101.25
377.674	90.25
377.899	91.25
378.125	105.25
378.35	96.25
378.576	79.25
378.802	84.25
379.027	91.25
379.253	94.25
379.478	95.25
379.704	91.25
379.929	100.25
380.155	94.25
380.38	100.25
380.606	99.25
380.831	89.25
381.057	103.25
381.282	85.25
381.507	100.25
381.733	104.25
381.958	87.25
382.184	87.25
382.409	99.25
382.634	100.25
382.86	103.25
383.085	101.25
383.31	91.25
383.535	97.25
383.761	90.25
383.986	90.25
384.211	90.25
384.436	84.25
384.662	99.25
384.887	96.25
385.112	102.25
385.337	99.25
385.562	92.25
385.787	97.25
386.013	100.25
386.238	107.25
386.463	98.25
386.688	98.25
386.913	93.25
387.138	94.25
387.363	109.25
387.588	97.25
387.813	95.25
388.038	91.25
388.263	93.25
388.488	108.25
388.713	106.25
388.938	94.25
389.163	90.25
389.387	95.25
389.612	94.25
389.837	95.25
390.062	120.25
390.287	102.25
390.512	88.25
390.736	105.25
390.961	107.25
391.186	104.25
391.411	107.25
391.636	105.25
391.86	97.25
392.085	124.25
392.31	113.25
392.534	96.25
392.759	106.25
392.984	91.25
393.208	103.25
393.433	98.25
393.658	108.25
393.882	91.25
394.107	107.25
394.331	93.25
394.556	112.25
394.78	97.25
395.005	110.25
395.229	98.25
395.454	112.25
395.678	123.25
395.903	113.25
396.127	109.25
396.352	92.25
396.576	116.25
396.801	94.25
397.025	105.25
397.249	96.25
397.474	106.25
397.698	113.25
397.922	106.25
398.147	114.25
398.371	106.25
398.595	98.25
398.82	120.25
399.044	91.25
399.268	111.25
399.492	103.25
399.717	116.25
399.941	116.25
400.165	131.25
400.389	116.25
400.613	106.25
400.837	103.25
401.062	110.25
401.286	123.25
401.51	103.25
401.734	104.25
401.958	123.25
402.182	104.25
402.406	106.25
402.63	101.25
402.854	113.25
403.078	111.25
403.302	107.25
403.526	120.25
403.75	124.25
403.974	100.25
404.198	109.25
404.422	101.25
404.645	103.25
404.869	113.25
405.093	118.25
405.317	111.25
405.541	119.25
405.765	96.25
405.988	103.25
406.212	118.25
406.436	115.25
406.66	118.25
406.883	127.25
407.107	121.25
407.331	111.25
407.555	98.25
407.778	106.25
408.002	109.25
408.226	116.25
408.449	110.25
408.673	120.25
408.896	128.25
409.12	110.25
409.344	119.25
409.567	118.25
409.791	122.25
410.014	120.25
410.238	109.25
410.461	127.25
410.685	111.25
410.908	116.25
411.132	118.25
411.355	126.25
411.578	132.25
411.802	116.25
412.025	118.25
412.249	130.25
412.472	120.25
412.695	122.25
412.919	114.25
413.142	124.25
413.365	117.25
413.589	96.25
413.812	126.25
414.035	138.25
414.258	122.25
414.482	126.25
414.705	123.25
414.928	125.25
415.151	122.25
415.374	121.25
415.597	118.25
415.821	123.25
416.044	108.25
416.267	122.25
416.49	124.25
416.713	114.25
416.936	127.25
417.159	134.25
417.382	130.25
417.605	122.25
417.828	124.25
418.051	123.25
418.274	138.25
418.497	118.25
418.72	141.25
418.943	126.25
419.166	119.25
419.389	140.25
419.611	127.25
419.834	140.25
420.057	113.25
420.28	143.25
420.503	139.25
420.726	129.25
420.948	135.25
421.171	127.25
421.394	130.25
421.617	138.25
421.839	140.25
422.062	156.25
422.285	145.25
422.507	147.25
422.73	134.25
422.953	132.25
423.175	131.25
423.398	120.25
423.621	137.25
423.843	126.25
424.066	142.25
424.288	152.25
424.511	148.25
424.733	139.25
424.956	150.25
425.178	141.25
425.401	134.25
425.623	135.25
425.846	148.25
426.068	146.25
426.291	123.25
426.513	115.25
426.735	124.25
426.958	128.25
427.18	131.25
427.402	138.25
427.625	136.25
427.847	110.25
428.069	132.25
428.292	146.25
428.514	142.25
428.736	123.25
428.958	123.25
429.181	131.25
429.403	109.25
429.625	109.25
429.847	123.25
430.069	118.25
430.292	123.25
430.514	132.25
430.736	117.25
430.958	138.25
431.18	133.25
431.402	130.25
431.624	130.25
431.846	100.25
432.068	85.25
432.29	91.25
432.512	119.25
432.734	124.25
432.956	143.25
433.178	130.25
433.4	142.25
433.622	138.25
433.844	139.25
434.066	134.25
434.287	109.25
434.509	107.25
434.731	97.25
434.953	124.25
435.175	129.25
435.397	112.25
435.618	122.25
435.84	111.25
436.062	120.25
436.284	123.25
436.505	112.25
436.727	147.25
436.949	118.25
437.17	126.25
437.392	121.25
437.614	123.25
437.835	111.25
438.057	110.25
438.278	126.25
438.5	122.25
438.721	119.25
438.943	126.25
439.165	136.25
439.386	128.25
439.608	129.25
439.829	143.25
440.05	150.25
440.272	152.25
440.493	133.25
440.715	134.25
440.936	144.25
441.158	143.25
441.379	144.25
441.6	134.25
441.822	141.25
442.043	137.25
442.264	134.25
442.486	136.25
442.707	142.25
442.928	130.25
443.149	126.25
443.371	125.25
443.592	137.25
443.813	146.25
444.034	142.25
444.255	137.25
444.476	144.25
444.698	129.25
444.919	136.25
445.14	284.25
445.361	203.25
445.582	154.25
445.803	137.25
446.024	163.25
446.245	154.25
446.466	148.25
446.687	141.25
446.908	160.25
447.129	159.25
447.35	150.25
447.571	164.25
447.792	138.25
448.013	140.25
448.234	133.25
448.455	144.25
448.675	150.25
448.896	156.25
449.117	148.25
449.338	134.25
449.559	136.25
449.779	130.25
450	134.25
450.221	142.25
450.442	139.25
450.662	135.25
450.883	125.25
451.104	121.25
451.324	126.25
451.545	127.25
451.766	119.25
451.986	139.25
452.207	132.25
452.428	128.25
452.648	123.25
452.869	103.25
453.089	112.25
453.31	107.25
453.53	114.25
453.751	98.25
453.971	107.25
454.192	100.25
454.412	127.25
454.633	100.25
454.853	132.25
455.073	130.25
455.294	122.25
455.514	115.25
455.734	121.25
455.955	110.25
456.175	118.25
456.395	116.25
456.616	110.25
456.836	104.25
457.056	98.25
457.276	116.25
457.497	99.25
457.717	110.25
457.937	98.25
458.157	97.25
458.377	110.25
458.598	97.25
458.818	105.25
459.038	85.25
459.258	85.25
459.478	96.25
459.698	94.25
459.918	100.25
460.138	120.25
460.358	116.25
460.578	124.25
460.798	103.25
461.018	118.25
461.238	124.25
461.458	115.25
461.678	108.25
461.898	105.25
462.118	100.25
462.338	102.25
462.558	120.25
462.777	98.25
462.997	103.25
463.217	103.25
463.437	102.25
463.657	116.25
463.876	123.25
464.096	114.25
464.316	110.25
464.536	114.25
464.755	114.25
464.975	123.25
465.195	122.25
465.414	118.25
465.634	124.25
465.854	126.25
466.073	119.25
466.293	130.25
466.512	128.25
466.732	130.25
466.951	142.25
467.171	145.25
467.391	138.25
467.61	130.25
467.829	142.25
468.049	137.25
468.268	135.25
468.488	130.25
468.707	128.25
468.927	130.25
469.146	128.25
469.365	133.25
469.585	143.25
469.804	142.25
470.023	126.25
470.243	160.25
470.462	142.25
470.681	144.25
470.901	115.25
471.12	134.25
471.339	143.25
471.558	134.25
471.777	139.25
471.997	139.25
472.216	122.25
472.435	97.25
472.654	109.25
472.873	101.25
473.092	109.25
473.311	116.25
473.53	125.25
473.749	119.25
473.968	130.25
474.187	119.25
474.406	115.25
474.625	125.25
474.844	143.25
475.063	134.25
475.282	119.25
475.501	132.25
475.72	110.25
475.939	125.25
476.158	120.25
476.377	121.25
476.596	122.25
476.814	106.25
477.033	126.25
477.252	119.25
477.471	110.25
477.69	130.25
477.908	126.25
478.127	136.25
478.346	148.25
478.564	132.25
478.783	143.25
479.002	128.25
479.22	139.25
479.439	128.25
479.658	117.25
479.876	113.25
480.095	127.25
480.313	108.25
480.532	106.25
480.751	103.25
480.969	97.25
481.188	78.25
481.406	90.25
481.624	98.25
481.843	88.25
482.061	86.25
482.28	114.25
482.498	101.25
482.717	112.25
482.935	115.25
483.153	135.25
483.372	158.25
483.59	161.25
483.808	130.25
484.027	141.25
484.245	138.25
484.463	136.25
484.681	162.25
484.9	155.25
485.118	125.25
485.336	126.25
485.554	116.25
485.772	104.25
485.99	111.25
486.209	99.25
486.427	113.25
486.645	111.25
486.863	119.25
487.081	148.25
487.299	126.25
487.517	136.25
487.735	178.25
487.953	187.25
488.171	182.25
488.389	189.25
488.607	178.25
488.825	130.25
489.043	119.25
489.261	122.25
489.479	125.25
489.696	144.25
489.914	135.25
490.132	147.25
490.35	150.25
490.568	144.25
490.786	166.25
491.003	159.25
491.221	169.25
491.439	186.25
491.657	182.25
491.874	192.25
492.092	222.25
492.31	243.25
492.527	217.25
492.745	219.25
492.963	201.25
493.18	172.25
493.398	184.25
493.615	170.25
493.833	171.25
494.05	176.25
494.268	191.25
494.485	180.25
494.703	170.25
494.92	159.25
495.138	174.25
495.355	172.25
495.573	155.25
495.79	170.25
496.008	162.25
496.225	186.25
496.442	158.25
496.66	149.25
496.877	169.25
497.094	163.25
497.312	153.25
497.529	162.25
497.746	170.25
497.963	143.25
498.181	126.25
498.398	126.25
498.615	128.25
498.832	123.25
499.049	120.25
499.267	122.25
499.484	122.25
499.701	119.25
499.918	119.25
500.135	135.25
500.352	150.25
500.569	149.25
500.786	152.25
501.003	133.25
501.22	128.25
501.437	132.25
501.654	137.25
501.871	138.25
502.088	126.25
502.305	141.25
502.522	146.25
502.739	120.25
502.956	127.25
503.172	119.25
503.389	115.25
503.606	116.25
503.823	120.25
504.04	112.25
504.256	120.25
504.473	123.25
504.69	131.25
504.907	132.25
505.123	122.25
505.34	116.25
505.557	116.25
505.773	119.25
505.99	115.25
506.207	126.25
506.423	121.25
506.64	117.25
506.856	121.25
507.073	106.25
507.289	118.25
507.506	134.25
507.722	129.25
507.939	132.25
508.155	99.25
508.372	134.25
508.588	115.25
508.805	114.25
509.021	126.25
509.238	95.25
509.454	112.25
509.67	124.25
509.887	121.25
510.103	101.25
510.319	88.25
510.536	81.25
510.752	93.25
510.968	88.25
511.184	82.25
511.401	84.25
511.617	99.25
