Data from Location1.07152019.Energy5.Lamp.07192019.3%Agarose_HRD10591_14-33-11-016.txt Node
Date: Fri Jul 19 14:33:11 EDT 2019
User: cochatt
Spectrometer: HR+D1059
Trigger mode: 1
Integration Time (sec): 1.000000E-1
Scans to average: 1
Electric dark correction enabled: true
Nonlinearity correction enabled: false
Boxcar width: 0
XAxis mode: Wavelengths
Number of Pixels in Spectrum: 2048
>>>>>Begin Spectral Data<<<<<
223.165	-6.12
223.4	-6.12
223.635	-6.12
223.869	-27.12
224.104	-9.12
224.338	-20.12
224.573	-9.12
224.808	-7.12
225.042	-13.12
225.277	-14.12
225.511	-10.12
225.746	-7.12
225.98	12.88
226.215	-10.12
226.449	33.88
226.683	27.88
226.918	28.88
227.152	29.88
227.387	38.88
227.621	40.88
227.856	45.88
228.09	44.88
228.324	49.88
228.559	65.88
228.793	65.88
229.027	77.88
229.262	74.88
229.496	71.88
229.73	62.88
229.964	74.88
230.199	74.88
230.433	71.88
230.667	72.88
230.901	75.88
231.136	84.88
231.37	80.88
231.604	79.88
231.838	80.88
232.072	87.88
232.306	94.88
232.541	78.88
232.775	80.88
233.009	67.88
233.243	94.88
233.477	78.88
233.711	78.88
233.945	69.88
234.179	83.88
234.413	97.88
234.647	85.88
234.881	78.88
235.115	87.88
235.349	92.88
235.583	74.88
235.817	79.88
236.051	78.88
236.285	95.88
236.519	89.88
236.753	86.88
236.987	87.88
237.221	82.88
237.455	92.88
237.689	79.88
237.922	66.88
238.156	77.88
238.39	85.88
238.624	78.88
238.858	82.88
239.091	75.88
239.325	81.88
239.559	79.88
239.793	87.88
240.027	84.88
240.26	79.88
240.494	72.88
240.728	72.88
240.961	72.88
241.195	78.88
241.429	75.88
241.662	78.88
241.896	82.88
242.13	76.88
242.363	82.88
242.597	76.88
242.83	69.88
243.064	86.88
243.298	95.88
243.531	80.88
243.765	81.88
243.998	80.88
244.232	68.88
244.465	65.88
244.699	94.88
244.932	87.88
245.166	82.88
245.399	85.88
245.633	72.88
245.866	65.88
246.099	78.88
246.333	90.88
246.566	76.88
246.8	88.88
247.033	77.88
247.266	88.88
247.5	90.88
247.733	80.88
247.966	103.88
248.2	90.88
248.433	79.88
248.666	78.88
248.899	72.88
249.133	80.88
249.366	82.88
249.599	80.88
249.832	74.88
250.066	80.88
250.299	93.88
250.532	74.88
250.765	88.88
250.998	77.88
251.231	72.88
251.465	76.88
251.698	79.88
251.931	81.88
252.164	91.88
252.397	80.88
252.63	90.88
252.863	86.88
253.096	79.88
253.329	90.88
253.562	68.88
253.795	85.88
254.028	83.88
254.261	89.88
254.494	76.88
254.727	79.88
254.96	81.88
255.193	70.88
255.426	70.88
255.659	75.88
255.892	82.88
256.124	90.88
256.357	79.88
256.59	85.88
256.823	88.88
257.056	69.88
257.289	93.88
257.521	88.88
257.754	85.88
257.987	95.88
258.22	92.88
258.452	72.88
258.685	76.88
258.918	80.88
259.151	79.88
259.383	77.88
259.616	74.88
259.849	86.88
260.081	86.88
260.314	84.88
260.547	83.88
260.779	88.88
261.012	84.88
261.244	80.88
261.477	79.88
261.71	82.88
261.942	80.88
262.175	85.88
262.407	82.88
262.64	83.88
262.872	80.88
263.105	84.88
263.337	93.88
263.57	82.88
263.802	89.88
264.035	78.88
264.267	84.88
264.499	72.88
264.732	79.88
264.964	87.88
265.197	83.88
265.429	85.88
265.661	81.88
265.894	93.88
266.126	97.88
266.358	84.88
266.591	72.88
266.823	81.88
267.055	82.88
267.287	87.88
267.52	81.88
267.752	82.88
267.984	85.88
268.216	81.88
268.448	105.88
268.681	76.88
268.913	84.88
269.145	99.88
269.377	88.88
269.609	75.88
269.841	72.88
270.073	94.88
270.306	88.88
270.538	72.88
270.77	84.88
271.002	83.88
271.234	81.88
271.466	83.88
271.698	88.88
271.93	78.88
272.162	84.88
272.394	84.88
272.626	76.88
272.858	78.88
273.09	85.88
273.322	98.88
273.553	95.88
273.785	82.88
274.017	88.88
274.249	84.88
274.481	83.88
274.713	81.88
274.945	91.88
275.176	78.88
275.408	93.88
275.64	79.88
275.872	81.88
276.104	94.88
276.335	84.88
276.567	88.88
276.799	82.88
277.031	87.88
277.262	86.88
277.494	96.88
277.726	88.88
277.957	82.88
278.189	90.88
278.421	92.88
278.652	80.88
278.884	82.88
279.115	81.88
279.347	89.88
279.579	80.88
279.81	82.88
280.042	89.88
280.273	86.88
280.505	91.88
280.736	104.88
280.968	84.88
281.199	97.88
281.431	79.88
281.662	90.88
281.894	78.88
282.125	90.88
282.356	92.88
282.588	76.88
282.819	93.88
283.051	72.88
283.282	77.88
283.513	100.88
283.745	79.88
283.976	72.88
284.207	92.88
284.439	83.88
284.67	77.88
284.901	79.88
285.132	84.88
285.364	84.88
285.595	89.88
285.826	89.88
286.057	82.88
286.288	79.88
286.52	87.88
286.751	89.88
286.982	82.88
287.213	82.88
287.444	83.88
287.675	82.88
287.906	80.88
288.138	82.88
288.369	81.88
288.6	88.88
288.831	86.88
289.062	83.88
289.293	94.88
289.524	86.88
289.755	69.88
289.986	80.88
290.217	97.88
290.448	86.88
290.679	80.88
290.91	89.88
291.141	81.88
291.371	78.88
291.602	79.88
291.833	87.88
292.064	78.88
292.295	87.88
292.526	82.88
292.757	80.88
292.987	88.88
293.218	86.88
293.449	92.88
293.68	96.88
293.91	84.88
294.141	86.88
294.372	85.88
294.603	88.88
294.833	97.88
295.064	78.88
295.295	70.88
295.525	81.88
295.756	89.88
295.987	90.88
296.217	99.88
296.448	88.88
296.679	89.88
296.909	88.88
297.14	72.88
297.37	89.88
297.601	78.88
297.831	92.88
298.062	101.88
298.292	91.88
298.523	91.88
298.753	71.88
298.984	90.88
299.214	75.88
299.445	86.88
299.675	80.88
299.905	94.88
300.136	88.88
300.366	80.88
300.597	91.88
300.827	75.88
301.057	78.88
301.288	79.88
301.518	84.88
301.748	88.88
301.979	85.88
302.209	88.88
302.439	97.88
302.669	83.88
302.9	79.88
303.13	95.88
303.36	90.88
303.59	92.88
303.82	94.88
304.051	90.88
304.281	93.88
304.511	81.88
304.741	90.88
304.971	87.88
305.201	87.88
305.431	83.88
305.661	88.88
305.891	85.88
306.121	95.88
306.352	81.88
306.582	82.88
306.812	76.88
307.042	80.88
307.272	89.88
307.502	86.88
307.731	91.88
307.961	98.88
308.191	87.88
308.421	90.88
308.651	81.88
308.881	89.88
309.111	86.88
309.341	77.88
309.571	86.88
309.8	84.88
310.03	87.88
310.26	90.88
310.49	89.88
310.72	95.88
310.949	71.88
311.179	79.88
311.409	93.88
311.639	90.88
311.868	83.88
312.098	91.88
312.328	86.88
312.557	80.88
312.787	83.88
313.017	89.88
313.246	72.88
313.476	85.88
313.706	92.88
313.935	100.88
314.165	89.88
314.394	92.88
314.624	96.88
314.853	102.88
315.083	95.88
315.312	94.88
315.542	100.88
315.771	104.88
316.001	78.88
316.23	92.88
316.46	72.88
316.689	89.88
316.919	92.88
317.148	87.88
317.377	90.88
317.607	100.88
317.836	88.88
318.065	84.88
318.295	87.88
318.524	89.88
318.753	72.88
318.983	82.88
319.212	90.88
319.441	74.88
319.67	100.88
319.9	83.88
320.129	83.88
320.358	93.88
320.587	93.88
320.816	81.88
321.046	85.88
321.275	96.88
321.504	77.88
321.733	94.88
321.962	90.88
322.191	91.88
322.42	82.88
322.649	84.88
322.878	87.88
323.108	95.88
323.337	98.88
323.566	86.88
323.795	105.88
324.024	88.88
324.253	77.88
324.482	76.88
324.71	99.88
324.939	74.88
325.168	77.88
325.397	80.88
325.626	102.88
325.855	77.88
326.084	83.88
326.313	82.88
326.542	89.88
326.77	76.88
326.999	88.88
327.228	85.88
327.457	85.88
327.686	92.88
327.914	76.88
328.143	83.88
328.372	78.88
328.6	73.88
328.829	77.88
329.058	82.88
329.287	93.88
329.515	95.88
329.744	72.88
329.972	79.88
330.201	85.88
330.43	82.88
330.658	83.88
330.887	86.88
331.115	80.88
331.344	93.88
331.572	96.88
331.801	89.88
332.03	69.88
332.258	80.88
332.486	84.88
332.715	80.88
332.943	86.88
333.172	90.88
333.4	80.88
333.629	96.88
333.857	86.88
334.085	89.88
334.314	87.88
334.542	100.88
334.771	91.88
334.999	84.88
335.227	68.88
335.455	79.88
335.684	95.88
335.912	76.88
336.14	87.88
336.369	80.88
336.597	100.88
336.825	95.88
337.053	89.88
337.281	88.88
337.51	86.88
337.738	92.88
337.966	84.88
338.194	84.88
338.422	89.88
338.65	93.88
338.878	95.88
339.106	87.88
339.334	93.88
339.562	89.88
339.79	87.88
340.018	93.88
340.246	82.88
340.474	81.88
340.702	87.88
340.93	88.88
341.158	85.88
341.386	87.88
341.614	82.88
341.842	91.88
342.07	80.88
342.298	103.88
342.526	97.88
342.754	94.88
342.981	83.88
343.209	91.88
343.437	82.88
343.665	79.88
343.893	72.88
344.12	87.88
344.348	77.88
344.576	81.88
344.804	81.88
345.031	63.88
345.259	95.88
345.487	95.88
345.714	81.88
345.942	93.88
346.17	79.88
346.397	86.88
346.625	88.88
346.853	71.88
347.08	87.88
347.308	87.88
347.535	85.88
347.763	88.88
347.99	93.88
348.218	78.88
348.445	79.88
348.673	97.88
348.9	104.88
349.128	89.88
349.355	87.88
349.583	103.88
349.81	81.88
350.037	92.88
350.265	91.88
350.492	90.88
350.72	83.88
350.947	86.88
351.174	84.88
351.402	85.88
351.629	81.88
351.856	83.88
352.083	86.88
352.311	86.88
352.538	82.88
352.765	81.88
352.992	98.88
353.22	100.88
353.447	88.88
353.674	88.88
353.901	94.88
354.128	97.88
354.355	88.88
354.583	84.88
354.81	85.88
355.037	88.88
355.264	87.88
355.491	98.88
355.718	98.88
355.945	90.88
356.172	74.88
356.399	81.88
356.626	101.88
356.853	85.88
357.08	73.88
357.307	90.88
357.534	82.88
357.761	84.88
357.988	78.88
358.215	75.88
358.441	82.88
358.668	89.88
358.895	92.88
359.122	88.88
359.349	81.88
359.576	84.88
359.802	82.88
360.029	88.88
360.256	84.88
360.483	94.88
360.709	76.88
360.936	98.88
361.163	90.88
361.39	94.88
361.616	78.88
361.843	95.88
362.07	90.88
362.296	99.88
362.523	82.88
362.749	93.88
362.976	90.88
363.203	79.88
363.429	81.88
363.656	99.88
363.882	86.88
364.109	82.88
364.335	88.88
364.562	81.88
364.788	89.88
365.015	81.88
365.241	95.88
365.468	106.88
365.694	97.88
365.92	86.88
366.147	92.88
366.373	88.88
366.599	85.88
366.826	96.88
367.052	80.88
367.278	79.88
367.505	80.88
367.731	83.88
367.957	79.88
368.184	97.88
368.41	84.88
368.636	97.88
368.862	97.88
369.089	97.88
369.315	89.88
369.541	94.88
369.767	84.88
369.993	93.88
370.219	91.88
370.445	106.88
370.672	101.88
370.898	84.88
371.124	85.88
371.35	104.88
371.576	102.88
371.802	93.88
372.028	101.88
372.254	92.88
372.48	104.88
372.706	94.88
372.932	89.88
373.158	105.88
373.384	108.88
373.61	85.88
373.835	87.88
374.061	89.88
374.287	98.88
374.513	105.88
374.739	96.88
374.965	97.88
375.191	109.88
375.416	105.88
375.642	89.88
375.868	107.88
376.094	91.88
376.319	99.88
376.545	98.88
376.771	75.88
376.997	105.88
377.222	86.88
377.448	87.88
377.674	100.88
377.899	92.88
378.125	98.88
378.35	86.88
378.576	103.88
378.802	105.88
379.027	103.88
379.253	99.88
379.478	91.88
379.704	101.88
379.929	106.88
380.155	99.88
380.38	97.88
380.606	88.88
380.831	94.88
381.057	104.88
381.282	107.88
381.507	82.88
381.733	98.88
381.958	106.88
382.184	93.88
382.409	108.88
382.634	90.88
382.86	90.88
383.085	103.88
383.31	105.88
383.535	101.88
383.761	80.88
383.986	108.88
384.211	101.88
384.436	107.88
384.662	95.88
384.887	95.88
385.112	94.88
385.337	92.88
385.562	107.88
385.787	96.88
386.013	105.88
386.238	99.88
386.463	94.88
386.688	94.88
386.913	105.88
387.138	111.88
387.363	99.88
387.588	98.88
387.813	104.88
388.038	96.88
388.263	90.88
388.488	108.88
388.713	103.88
388.938	109.88
389.163	94.88
389.387	105.88
389.612	104.88
389.837	110.88
390.062	104.88
390.287	103.88
390.512	100.88
390.736	104.88
390.961	102.88
391.186	96.88
391.411	111.88
391.636	90.88
391.86	110.88
392.085	105.88
392.31	98.88
392.534	95.88
392.759	99.88
392.984	109.88
393.208	111.88
393.433	106.88
393.658	118.88
393.882	97.88
394.107	110.88
394.331	109.88
394.556	100.88
394.78	105.88
395.005	100.88
395.229	111.88
395.454	104.88
395.678	107.88
395.903	102.88
396.127	111.88
396.352	103.88
396.576	113.88
396.801	106.88
397.025	112.88
397.249	96.88
397.474	121.88
397.698	99.88
397.922	124.88
398.147	118.88
398.371	111.88
398.595	100.88
398.82	105.88
399.044	108.88
399.268	103.88
399.492	100.88
399.717	111.88
399.941	103.88
400.165	110.88
400.389	111.88
400.613	107.88
400.837	112.88
401.062	117.88
401.286	119.88
401.51	125.88
401.734	106.88
401.958	113.88
402.182	101.88
402.406	116.88
402.63	122.88
402.854	109.88
403.078	113.88
403.302	109.88
403.526	119.88
403.75	118.88
403.974	127.88
404.198	127.88
404.422	128.88
404.645	118.88
404.869	129.88
405.093	132.88
405.317	115.88
405.541	120.88
405.765	118.88
405.988	122.88
406.212	119.88
406.436	127.88
406.66	136.88
406.883	130.88
407.107	129.88
407.331	111.88
407.555	128.88
407.778	127.88
408.002	125.88
408.226	129.88
408.449	118.88
408.673	100.88
408.896	120.88
409.12	110.88
409.344	128.88
409.567	113.88
409.791	110.88
410.014	128.88
410.238	116.88
410.461	117.88
410.685	128.88
410.908	116.88
411.132	121.88
411.355	116.88
411.578	129.88
411.802	130.88
412.025	120.88
412.249	121.88
412.472	121.88
412.695	121.88
412.919	126.88
413.142	122.88
413.365	116.88
413.589	116.88
413.812	139.88
414.035	130.88
414.258	120.88
414.482	128.88
414.705	127.88
414.928	119.88
415.151	126.88
415.374	108.88
415.597	125.88
415.821	124.88
416.044	128.88
416.267	129.88
416.49	142.88
416.713	115.88
416.936	116.88
417.159	123.88
417.382	126.88
417.605	127.88
417.828	130.88
418.051	131.88
418.274	133.88
418.497	133.88
418.72	114.88
418.943	113.88
419.166	140.88
419.389	140.88
419.611	125.88
419.834	135.88
420.057	140.88
420.28	138.88
420.503	132.88
420.726	123.88
420.948	126.88
421.171	133.88
421.394	136.88
421.617	136.88
421.839	127.88
422.062	120.88
422.285	141.88
422.507	127.88
422.73	132.88
422.953	130.88
423.175	128.88
423.398	127.88
423.621	124.88
423.843	138.88
424.066	122.88
424.288	136.88
424.511	126.88
424.733	151.88
424.956	141.88
425.178	120.88
425.401	140.88
425.623	134.88
425.846	130.88
426.068	132.88
426.291	134.88
426.513	144.88
426.735	137.88
426.958	134.88
427.18	131.88
427.402	124.88
427.625	131.88
427.847	129.88
428.069	123.88
428.292	134.88
428.514	136.88
428.736	125.88
428.958	122.88
429.181	118.88
429.403	130.88
429.625	116.88
429.847	140.88
430.069	133.88
430.292	144.88
430.514	134.88
430.736	129.88
430.958	147.88
431.18	122.88
431.402	134.88
431.624	116.88
431.846	112.88
432.068	90.88
432.29	86.88
432.512	119.88
432.734	129.88
432.956	132.88
433.178	133.88
433.4	135.88
433.622	138.88
433.844	137.88
434.066	133.88
434.287	111.88
434.509	101.88
434.731	92.88
434.953	124.88
435.175	120.88
435.397	122.88
435.618	114.88
435.84	116.88
436.062	128.88
436.284	120.88
436.505	130.88
436.727	127.88
436.949	130.88
437.17	120.88
437.392	128.88
437.614	131.88
437.835	111.88
438.057	103.88
438.278	102.88
438.5	139.88
438.721	138.88
438.943	141.88
439.165	134.88
439.386	135.88
439.608	150.88
439.829	143.88
440.05	138.88
440.272	135.88
440.493	137.88
440.715	134.88
440.936	147.88
441.158	144.88
441.379	156.88
441.6	145.88
441.822	135.88
442.043	146.88
442.264	133.88
442.486	140.88
442.707	138.88
442.928	134.88
443.149	129.88
443.371	140.88
443.592	130.88
443.813	136.88
444.034	132.88
444.255	144.88
444.476	140.88
444.698	136.88
444.919	144.88
445.14	223.88
445.361	186.88
445.582	136.88
445.803	144.88
446.024	138.88
446.245	139.88
446.466	157.88
446.687	157.88
446.908	152.88
447.129	146.88
447.35	142.88
447.571	154.88
447.792	132.88
448.013	133.88
448.234	152.88
448.455	144.88
448.675	150.88
448.896	144.88
449.117	128.88
449.338	127.88
449.559	132.88
449.779	130.88
450	136.88
450.221	137.88
450.442	139.88
450.662	139.88
450.883	120.88
451.104	143.88
451.324	126.88
451.545	136.88
451.766	127.88
451.986	140.88
452.207	122.88
452.428	125.88
452.648	132.88
452.869	122.88
453.089	103.88
453.31	105.88
453.53	118.88
453.751	109.88
453.971	93.88
454.192	100.88
454.412	105.88
454.633	125.88
454.853	128.88
455.073	124.88
455.294	119.88
455.514	120.88
455.734	105.88
455.955	107.88
456.175	116.88
456.395	120.88
456.616	106.88
456.836	104.88
457.056	110.88
457.276	117.88
457.497	102.88
457.717	105.88
457.937	104.88
458.157	96.88
458.377	117.88
458.598	109.88
458.818	99.88
459.038	98.88
459.258	79.88
459.478	84.88
459.698	88.88
459.918	92.88
460.138	109.88
460.358	105.88
460.578	100.88
460.798	114.88
461.018	109.88
461.238	116.88
461.458	111.88
461.678	111.88
461.898	104.88
462.118	113.88
462.338	127.88
462.558	108.88
462.777	98.88
462.997	109.88
463.217	102.88
463.437	112.88
463.657	109.88
463.876	111.88
464.096	106.88
464.316	118.88
464.536	117.88
464.755	125.88
464.975	122.88
465.195	109.88
465.414	110.88
465.634	123.88
465.854	124.88
466.073	116.88
466.293	130.88
466.512	129.88
466.732	120.88
466.951	136.88
467.171	128.88
467.391	126.88
467.61	136.88
467.829	136.88
468.049	144.88
468.268	141.88
468.488	148.88
468.707	136.88
468.927	132.88
469.146	128.88
469.365	131.88
469.585	139.88
469.804	139.88
470.023	154.88
470.243	137.88
470.462	123.88
470.681	152.88
470.901	137.88
471.12	141.88
471.339	159.88
471.558	140.88
471.777	167.88
471.997	128.88
472.216	132.88
472.435	125.88
472.654	114.88
472.873	105.88
473.092	116.88
473.311	124.88
473.53	132.88
473.749	131.88
473.968	132.88
474.187	118.88
474.406	115.88
474.625	129.88
474.844	129.88
475.063	117.88
475.282	117.88
475.501	111.88
475.72	130.88
475.939	119.88
476.158	132.88
476.377	125.88
476.596	122.88
476.814	120.88
477.033	101.88
477.252	112.88
477.471	113.88
477.69	130.88
477.908	128.88
478.127	145.88
478.346	136.88
478.564	142.88
478.783	148.88
479.002	132.88
479.22	136.88
479.439	132.88
479.658	112.88
479.876	122.88
480.095	114.88
480.313	116.88
480.532	112.88
480.751	123.88
480.969	88.88
481.188	87.88
481.406	88.88
481.624	84.88
481.843	93.88
482.061	88.88
482.28	105.88
482.498	98.88
482.717	98.88
482.935	132.88
483.153	126.88
483.372	149.88
483.59	137.88
483.808	143.88
484.027	134.88
484.245	144.88
484.463	152.88
484.681	167.88
484.9	146.88
485.118	138.88
485.336	133.88
485.554	124.88
485.772	97.88
485.99	109.88
486.209	117.88
486.427	109.88
486.645	124.88
486.863	128.88
487.081	128.88
487.299	134.88
487.517	137.88
487.735	160.88
487.953	177.88
488.171	193.88
488.389	176.88
488.607	156.88
488.825	131.88
489.043	131.88
489.261	138.88
489.479	137.88
489.696	131.88
489.914	141.88
490.132	138.88
490.35	159.88
490.568	166.88
490.786	164.88
491.003	180.88
491.221	177.88
491.439	193.88
491.657	180.88
491.874	210.88
492.092	228.88
492.31	228.88
492.527	216.88
492.745	210.88
492.963	213.88
493.18	197.88
493.398	182.88
493.615	177.88
493.833	173.88
494.05	185.88
494.268	181.88
494.485	186.88
494.703	165.88
494.92	176.88
495.138	183.88
495.355	164.88
495.573	178.88
495.79	178.88
496.008	175.88
496.225	168.88
496.442	174.88
496.66	176.88
496.877	170.88
497.094	171.88
497.312	169.88
497.529	162.88
497.746	149.88
497.963	147.88
498.181	138.88
498.398	119.88
498.615	124.88
498.832	112.88
499.049	117.88
499.267	117.88
499.484	121.88
499.701	144.88
499.918	134.88
500.135	136.88
500.352	140.88
500.569	147.88
500.786	166.88
501.003	127.88
501.22	135.88
501.437	145.88
501.654	139.88
501.871	129.88
502.088	142.88
502.305	129.88
502.522	124.88
502.739	123.88
502.956	120.88
503.172	148.88
503.389	118.88
503.606	125.88
503.823	116.88
504.04	127.88
504.256	130.88
504.473	119.88
504.69	116.88
504.907	141.88
505.123	107.88
505.34	140.88
505.557	116.88
505.773	128.88
505.99	131.88
506.207	123.88
506.423	117.88
506.64	119.88
506.856	118.88
507.073	125.88
507.289	115.88
507.506	123.88
507.722	121.88
507.939	136.88
508.155	127.88
508.372	108.88
508.588	113.88
508.805	119.88
509.021	127.88
509.238	117.88
509.454	100.88
509.67	96.88
509.887	108.88
510.103	104.88
510.319	102.88
510.536	104.88
510.752	82.88
510.968	76.88
511.184	95.88
