Data from Location1.07152019.Energy5.Lamp.07192019.3%Agarose_HRD10591_14-32-56-016.txt Node
Date: Fri Jul 19 14:32:56 EDT 2019
User: cochatt
Spectrometer: HR+D1059
Trigger mode: 1
Integration Time (sec): 1.000000E-1
Scans to average: 1
Electric dark correction enabled: true
Nonlinearity correction enabled: false
Boxcar width: 0
XAxis mode: Wavelengths
Number of Pixels in Spectrum: 2048
>>>>>Begin Spectral Data<<<<<
223.165	-5.62
223.4	-5.62
223.635	-5.62
223.869	-24.62
224.104	-10.62
224.338	-17.62
224.573	-21.62
224.808	-14.62
225.042	2.38
225.277	-23.62
225.511	-5.62
225.746	5.38
225.98	13.38
226.215	3.38
226.449	29.38
226.683	11.38
226.918	26.38
227.152	32.38
227.387	29.38
227.621	20.38
227.856	34.38
228.09	57.38
228.324	45.38
228.559	55.38
228.793	55.38
229.027	61.38
229.262	57.38
229.496	55.38
229.73	58.38
229.964	67.38
230.199	77.38
230.433	64.38
230.667	93.38
230.901	80.38
231.136	78.38
231.37	69.38
231.604	89.38
231.838	83.38
232.072	74.38
232.306	78.38
232.541	86.38
232.775	86.38
233.009	85.38
233.243	79.38
233.477	81.38
233.711	85.38
233.945	86.38
234.179	84.38
234.413	68.38
234.647	82.38
234.881	82.38
235.115	63.38
235.349	72.38
235.583	78.38
235.817	81.38
236.051	76.38
236.285	86.38
236.519	78.38
236.753	78.38
236.987	73.38
237.221	80.38
237.455	76.38
237.689	70.38
237.922	93.38
238.156	74.38
238.39	86.38
238.624	71.38
238.858	70.38
239.091	83.38
239.325	85.38
239.559	64.38
239.793	74.38
240.027	75.38
240.26	77.38
240.494	76.38
240.728	67.38
240.961	61.38
241.195	83.38
241.429	84.38
241.662	82.38
241.896	74.38
242.13	71.38
242.363	71.38
242.597	64.38
242.83	76.38
243.064	103.38
243.298	65.38
243.531	73.38
243.765	77.38
243.998	81.38
244.232	70.38
244.465	81.38
244.699	64.38
244.932	70.38
245.166	67.38
245.399	84.38
245.633	80.38
245.866	88.38
246.099	63.38
246.333	80.38
246.566	71.38
246.8	80.38
247.033	68.38
247.266	75.38
247.5	74.38
247.733	73.38
247.966	71.38
248.2	89.38
248.433	74.38
248.666	76.38
248.899	85.38
249.133	71.38
249.366	80.38
249.599	71.38
249.832	86.38
250.066	69.38
250.299	59.38
250.532	72.38
250.765	76.38
250.998	69.38
251.231	79.38
251.465	76.38
251.698	75.38
251.931	73.38
252.164	84.38
252.397	79.38
252.63	90.38
252.863	83.38
253.096	66.38
253.329	76.38
253.562	86.38
253.795	70.38
254.028	73.38
254.261	76.38
254.494	87.38
254.727	85.38
254.96	92.38
255.193	78.38
255.426	53.38
255.659	78.38
255.892	86.38
256.124	75.38
256.357	88.38
256.59	92.38
256.823	74.38
257.056	84.38
257.289	80.38
257.521	78.38
257.754	79.38
257.987	75.38
258.22	91.38
258.452	77.38
258.685	78.38
258.918	77.38
259.151	79.38
259.383	80.38
259.616	68.38
259.849	77.38
260.081	81.38
260.314	77.38
260.547	87.38
260.779	90.38
261.012	69.38
261.244	96.38
261.477	83.38
261.71	71.38
261.942	75.38
262.175	81.38
262.407	81.38
262.64	84.38
262.872	86.38
263.105	82.38
263.337	87.38
263.57	74.38
263.802	73.38
264.035	80.38
264.267	80.38
264.499	82.38
264.732	68.38
264.964	75.38
265.197	78.38
265.429	79.38
265.661	78.38
265.894	71.38
266.126	80.38
266.358	73.38
266.591	85.38
266.823	100.38
267.055	86.38
267.287	64.38
267.52	71.38
267.752	77.38
267.984	84.38
268.216	100.38
268.448	88.38
268.681	90.38
268.913	87.38
269.145	99.38
269.377	82.38
269.609	84.38
269.841	89.38
270.073	73.38
270.306	76.38
270.538	91.38
270.77	85.38
271.002	93.38
271.234	91.38
271.466	87.38
271.698	80.38
271.93	76.38
272.162	85.38
272.394	81.38
272.626	67.38
272.858	80.38
273.09	88.38
273.322	80.38
273.553	79.38
273.785	69.38
274.017	67.38
274.249	77.38
274.481	85.38
274.713	79.38
274.945	88.38
275.176	70.38
275.408	62.38
275.64	62.38
275.872	77.38
276.104	80.38
276.335	69.38
276.567	79.38
276.799	82.38
277.031	82.38
277.262	81.38
277.494	87.38
277.726	74.38
277.957	85.38
278.189	71.38
278.421	71.38
278.652	73.38
278.884	67.38
279.115	58.38
279.347	72.38
279.579	76.38
279.81	81.38
280.042	81.38
280.273	87.38
280.505	90.38
280.736	83.38
280.968	72.38
281.199	88.38
281.431	93.38
281.662	89.38
281.894	94.38
282.125	90.38
282.356	95.38
282.588	78.38
282.819	76.38
283.051	89.38
283.282	84.38
283.513	84.38
283.745	86.38
283.976	89.38
284.207	73.38
284.439	77.38
284.67	72.38
284.901	69.38
285.132	91.38
285.364	76.38
285.595	94.38
285.826	79.38
286.057	88.38
286.288	77.38
286.52	80.38
286.751	90.38
286.982	81.38
287.213	82.38
287.444	90.38
287.675	92.38
287.906	72.38
288.138	77.38
288.369	77.38
288.6	73.38
288.831	71.38
289.062	96.38
289.293	78.38
289.524	75.38
289.755	85.38
289.986	73.38
290.217	80.38
290.448	87.38
290.679	85.38
290.91	75.38
291.141	88.38
291.371	76.38
291.602	83.38
291.833	89.38
292.064	75.38
292.295	86.38
292.526	84.38
292.757	83.38
292.987	89.38
293.218	77.38
293.449	85.38
293.68	80.38
293.91	74.38
294.141	74.38
294.372	78.38
294.603	87.38
294.833	84.38
295.064	72.38
295.295	85.38
295.525	72.38
295.756	84.38
295.987	73.38
296.217	80.38
296.448	81.38
296.679	77.38
296.909	88.38
297.14	73.38
297.37	81.38
297.601	86.38
297.831	88.38
298.062	81.38
298.292	79.38
298.523	84.38
298.753	84.38
298.984	95.38
299.214	85.38
299.445	92.38
299.675	104.38
299.905	83.38
300.136	82.38
300.366	78.38
300.597	82.38
300.827	76.38
301.057	88.38
301.288	88.38
301.518	83.38
301.748	91.38
301.979	88.38
302.209	86.38
302.439	82.38
302.669	86.38
302.9	93.38
303.13	67.38
303.36	86.38
303.59	86.38
303.82	91.38
304.051	80.38
304.281	91.38
304.511	75.38
304.741	82.38
304.971	79.38
305.201	82.38
305.431	80.38
305.661	81.38
305.891	80.38
306.121	81.38
306.352	76.38
306.582	75.38
306.812	74.38
307.042	79.38
307.272	68.38
307.502	72.38
307.731	77.38
307.961	74.38
308.191	93.38
308.421	80.38
308.651	81.38
308.881	86.38
309.111	94.38
309.341	89.38
309.571	85.38
309.8	90.38
310.03	88.38
310.26	95.38
310.49	74.38
310.72	82.38
310.949	69.38
311.179	90.38
311.409	83.38
311.639	79.38
311.868	75.38
312.098	76.38
312.328	81.38
312.557	86.38
312.787	85.38
313.017	91.38
313.246	79.38
313.476	69.38
313.706	83.38
313.935	86.38
314.165	91.38
314.394	76.38
314.624	91.38
314.853	93.38
315.083	81.38
315.312	75.38
315.542	80.38
315.771	84.38
316.001	77.38
316.23	89.38
316.46	78.38
316.689	84.38
316.919	89.38
317.148	83.38
317.377	70.38
317.607	80.38
317.836	86.38
318.065	82.38
318.295	71.38
318.524	84.38
318.753	86.38
318.983	73.38
319.212	72.38
319.441	78.38
319.67	83.38
319.9	80.38
320.129	82.38
320.358	72.38
320.587	99.38
320.816	76.38
321.046	83.38
321.275	73.38
321.504	91.38
321.733	82.38
321.962	74.38
322.191	75.38
322.42	95.38
322.649	90.38
322.878	76.38
323.108	83.38
323.337	81.38
323.566	82.38
323.795	82.38
324.024	79.38
324.253	77.38
324.482	75.38
324.71	83.38
324.939	85.38
325.168	77.38
325.397	84.38
325.626	66.38
325.855	106.38
326.084	78.38
326.313	88.38
326.542	75.38
326.77	72.38
326.999	85.38
327.228	79.38
327.457	87.38
327.686	88.38
327.914	87.38
328.143	78.38
328.372	84.38
328.6	82.38
328.829	82.38
329.058	74.38
329.287	79.38
329.515	82.38
329.744	94.38
329.972	70.38
330.201	86.38
330.43	72.38
330.658	77.38
330.887	81.38
331.115	86.38
331.344	86.38
331.572	91.38
331.801	94.38
332.03	97.38
332.258	85.38
332.486	87.38
332.715	76.38
332.943	93.38
333.172	74.38
333.4	75.38
333.629	85.38
333.857	78.38
334.085	87.38
334.314	99.38
334.542	90.38
334.771	86.38
334.999	90.38
335.227	81.38
335.455	83.38
335.684	77.38
335.912	64.38
336.14	66.38
336.369	92.38
336.597	92.38
336.825	93.38
337.053	85.38
337.281	76.38
337.51	78.38
337.738	86.38
337.966	84.38
338.194	76.38
338.422	70.38
338.65	83.38
338.878	79.38
339.106	95.38
339.334	100.38
339.562	67.38
339.79	73.38
340.018	85.38
340.246	79.38
340.474	91.38
340.702	76.38
340.93	88.38
341.158	67.38
341.386	82.38
341.614	96.38
341.842	73.38
342.07	84.38
342.298	82.38
342.526	82.38
342.754	91.38
342.981	86.38
343.209	94.38
343.437	77.38
343.665	88.38
343.893	80.38
344.12	89.38
344.348	81.38
344.576	85.38
344.804	80.38
345.031	85.38
345.259	81.38
345.487	82.38
345.714	90.38
345.942	75.38
346.17	88.38
346.397	84.38
346.625	89.38
346.853	95.38
347.08	96.38
347.308	65.38
347.535	90.38
347.763	97.38
347.99	62.38
348.218	74.38
348.445	94.38
348.673	75.38
348.9	92.38
349.128	78.38
349.355	84.38
349.583	76.38
349.81	73.38
350.037	77.38
350.265	93.38
350.492	89.38
350.72	71.38
350.947	72.38
351.174	83.38
351.402	86.38
351.629	92.38
351.856	97.38
352.083	86.38
352.311	76.38
352.538	71.38
352.765	93.38
352.992	88.38
353.22	73.38
353.447	81.38
353.674	85.38
353.901	82.38
354.128	86.38
354.355	79.38
354.583	79.38
354.81	83.38
355.037	91.38
355.264	77.38
355.491	85.38
355.718	76.38
355.945	88.38
356.172	81.38
356.399	91.38
356.626	88.38
356.853	91.38
357.08	90.38
357.307	96.38
357.534	70.38
357.761	68.38
357.988	76.38
358.215	80.38
358.441	85.38
358.668	79.38
358.895	83.38
359.122	90.38
359.349	75.38
359.576	83.38
359.802	80.38
360.029	86.38
360.256	82.38
360.483	93.38
360.709	99.38
360.936	81.38
361.163	90.38
361.39	99.38
361.616	81.38
361.843	80.38
362.07	96.38
362.296	69.38
362.523	84.38
362.749	78.38
362.976	76.38
363.203	78.38
363.429	77.38
363.656	84.38
363.882	67.38
364.109	82.38
364.335	73.38
364.562	78.38
364.788	79.38
365.015	96.38
365.241	76.38
365.468	92.38
365.694	82.38
365.92	86.38
366.147	82.38
366.373	76.38
366.599	87.38
366.826	90.38
367.052	82.38
367.278	87.38
367.505	84.38
367.731	77.38
367.957	96.38
368.184	77.38
368.41	93.38
368.636	88.38
368.862	88.38
369.089	84.38
369.315	102.38
369.541	85.38
369.767	97.38
369.993	90.38
370.219	72.38
370.445	81.38
370.672	90.38
370.898	89.38
371.124	88.38
371.35	84.38
371.576	92.38
371.802	92.38
372.028	89.38
372.254	75.38
372.48	94.38
372.706	87.38
372.932	93.38
373.158	90.38
373.384	98.38
373.61	89.38
373.835	88.38
374.061	86.38
374.287	91.38
374.513	91.38
374.739	92.38
374.965	99.38
375.191	81.38
375.416	97.38
375.642	102.38
375.868	96.38
376.094	100.38
376.319	88.38
376.545	82.38
376.771	88.38
376.997	102.38
377.222	92.38
377.448	97.38
377.674	96.38
377.899	101.38
378.125	87.38
378.35	91.38
378.576	82.38
378.802	82.38
379.027	101.38
379.253	88.38
379.478	94.38
379.704	91.38
379.929	102.38
380.155	100.38
380.38	95.38
380.606	85.38
380.831	98.38
381.057	106.38
381.282	100.38
381.507	107.38
381.733	101.38
381.958	91.38
382.184	99.38
382.409	103.38
382.634	108.38
382.86	93.38
383.085	96.38
383.31	97.38
383.535	84.38
383.761	94.38
383.986	99.38
384.211	90.38
384.436	102.38
384.662	85.38
384.887	97.38
385.112	82.38
385.337	83.38
385.562	85.38
385.787	88.38
386.013	101.38
386.238	96.38
386.463	100.38
386.688	86.38
386.913	98.38
387.138	89.38
387.363	103.38
387.588	92.38
387.813	107.38
388.038	93.38
388.263	84.38
388.488	110.38
388.713	105.38
388.938	105.38
389.163	94.38
389.387	89.38
389.612	94.38
389.837	99.38
390.062	100.38
390.287	97.38
390.512	86.38
390.736	99.38
390.961	115.38
391.186	97.38
391.411	93.38
391.636	99.38
391.86	104.38
392.085	91.38
392.31	104.38
392.534	104.38
392.759	108.38
392.984	115.38
393.208	92.38
393.433	106.38
393.658	87.38
393.882	93.38
394.107	107.38
394.331	101.38
394.556	105.38
394.78	106.38
395.005	111.38
395.229	99.38
395.454	110.38
395.678	114.38
395.903	90.38
396.127	102.38
396.352	101.38
396.576	110.38
396.801	114.38
397.025	120.38
397.249	104.38
397.474	104.38
397.698	103.38
397.922	116.38
398.147	110.38
398.371	93.38
398.595	108.38
398.82	108.38
399.044	103.38
399.268	106.38
399.492	122.38
399.717	98.38
399.941	110.38
400.165	109.38
400.389	99.38
400.613	104.38
400.837	116.38
401.062	118.38
401.286	112.38
401.51	107.38
401.734	106.38
401.958	98.38
402.182	103.38
402.406	110.38
402.63	104.38
402.854	108.38
403.078	111.38
403.302	101.38
403.526	112.38
403.75	117.38
403.974	113.38
404.198	111.38
404.422	115.38
404.645	116.38
404.869	117.38
405.093	110.38
405.317	120.38
405.541	115.38
405.765	108.38
405.988	134.38
406.212	116.38
406.436	129.38
406.66	120.38
406.883	132.38
407.107	101.38
407.331	121.38
407.555	123.38
407.778	112.38
408.002	112.38
408.226	122.38
408.449	125.38
408.673	116.38
408.896	131.38
409.12	119.38
409.344	117.38
409.567	121.38
409.791	112.38
410.014	104.38
410.238	123.38
410.461	122.38
410.685	127.38
410.908	123.38
411.132	125.38
411.355	106.38
411.578	114.38
411.802	109.38
412.025	115.38
412.249	108.38
412.472	104.38
412.695	112.38
412.919	124.38
413.142	121.38
413.365	105.38
413.589	133.38
413.812	115.38
414.035	116.38
414.258	121.38
414.482	118.38
414.705	109.38
414.928	125.38
415.151	113.38
415.374	120.38
415.597	108.38
415.821	118.38
416.044	122.38
416.267	128.38
416.49	137.38
416.713	112.38
416.936	136.38
417.159	128.38
417.382	133.38
417.605	121.38
417.828	121.38
418.051	115.38
418.274	124.38
418.497	124.38
418.72	133.38
418.943	151.38
419.166	141.38
419.389	140.38
419.611	148.38
419.834	150.38
420.057	142.38
420.28	123.38
420.503	117.38
420.726	134.38
420.948	142.38
421.171	138.38
421.394	113.38
421.617	128.38
421.839	146.38
422.062	138.38
422.285	125.38
422.507	140.38
422.73	107.38
422.953	114.38
423.175	122.38
423.398	138.38
423.621	119.38
423.843	128.38
424.066	136.38
424.288	133.38
424.511	130.38
424.733	135.38
424.956	126.38
425.178	118.38
425.401	137.38
425.623	133.38
425.846	130.38
426.068	139.38
426.291	124.38
426.513	126.38
426.735	137.38
426.958	136.38
427.18	134.38
427.402	125.38
427.625	120.38
427.847	132.38
428.069	132.38
428.292	126.38
428.514	124.38
428.736	122.38
428.958	113.38
429.181	115.38
429.403	110.38
429.625	123.38
429.847	132.38
430.069	129.38
430.292	111.38
430.514	123.38
430.736	143.38
430.958	120.38
431.18	114.38
431.402	125.38
431.624	109.38
431.846	101.38
432.068	100.38
432.29	105.38
432.512	107.38
432.734	122.38
432.956	115.38
433.178	136.38
433.4	134.38
433.622	128.38
433.844	136.38
434.066	123.38
434.287	112.38
434.509	100.38
434.731	101.38
434.953	105.38
435.175	112.38
435.397	130.38
435.618	119.38
435.84	125.38
436.062	116.38
436.284	106.38
436.505	134.38
436.727	131.38
436.949	114.38
437.17	124.38
437.392	125.38
437.614	121.38
437.835	109.38
438.057	120.38
438.278	126.38
438.5	140.38
438.721	136.38
438.943	154.38
439.165	131.38
439.386	136.38
439.608	126.38
439.829	152.38
440.05	150.38
440.272	121.38
440.493	136.38
440.715	151.38
440.936	140.38
441.158	144.38
441.379	138.38
441.6	146.38
441.822	151.38
442.043	136.38
442.264	133.38
442.486	136.38
442.707	130.38
442.928	142.38
443.149	126.38
443.371	133.38
443.592	139.38
443.813	133.38
444.034	148.38
444.255	156.38
444.476	129.38
444.698	140.38
444.919	142.38
445.14	258.38
445.361	200.38
445.582	145.38
445.803	150.38
446.024	141.38
446.245	134.38
446.466	147.38
446.687	165.38
446.908	141.38
447.129	157.38
447.35	142.38
447.571	148.38
447.792	150.38
448.013	149.38
448.234	128.38
448.455	140.38
448.675	139.38
448.896	144.38
449.117	140.38
449.338	115.38
449.559	131.38
449.779	147.38
450	153.38
450.221	125.38
450.442	145.38
450.662	132.38
450.883	143.38
451.104	123.38
451.324	126.38
451.545	140.38
451.766	123.38
451.986	118.38
452.207	123.38
452.428	134.38
452.648	115.38
452.869	109.38
453.089	114.38
453.31	114.38
453.53	119.38
453.751	101.38
453.971	93.38
454.192	89.38
454.412	104.38
454.633	103.38
454.853	120.38
455.073	124.38
455.294	122.38
455.514	125.38
455.734	134.38
455.955	117.38
456.175	116.38
456.395	120.38
456.616	113.38
456.836	109.38
457.056	94.38
457.276	119.38
457.497	104.38
457.717	115.38
457.937	114.38
458.157	98.38
458.377	97.38
458.598	97.38
458.818	84.38
459.038	77.38
459.258	81.38
459.478	82.38
459.698	93.38
459.918	97.38
460.138	103.38
460.358	108.38
460.578	121.38
460.798	116.38
461.018	113.38
461.238	127.38
461.458	124.38
461.678	114.38
461.898	109.38
462.118	103.38
462.338	103.38
462.558	112.38
462.777	104.38
462.997	108.38
463.217	106.38
463.437	121.38
463.657	116.38
463.876	116.38
464.096	95.38
464.316	106.38
464.536	99.38
464.755	114.38
464.975	104.38
465.195	117.38
465.414	116.38
465.634	124.38
465.854	101.38
466.073	117.38
466.293	116.38
466.512	130.38
466.732	141.38
466.951	121.38
467.171	124.38
467.391	135.38
467.61	128.38
467.829	131.38
468.049	138.38
468.268	137.38
468.488	141.38
468.707	145.38
468.927	138.38
469.146	140.38
469.365	153.38
469.585	138.38
469.804	132.38
470.023	145.38
470.243	141.38
470.462	130.38
470.681	148.38
470.901	124.38
471.12	129.38
471.339	143.38
471.558	145.38
471.777	130.38
471.997	128.38
472.216	125.38
472.435	117.38
472.654	110.38
472.873	104.38
473.092	114.38
473.311	114.38
473.53	116.38
473.749	121.38
473.968	130.38
474.187	121.38
474.406	118.38
474.625	113.38
474.844	134.38
475.063	125.38
475.282	104.38
475.501	113.38
475.72	118.38
475.939	124.38
476.158	135.38
476.377	128.38
476.596	138.38
476.814	125.38
477.033	122.38
477.252	113.38
477.471	121.38
477.69	128.38
477.908	143.38
478.127	144.38
478.346	134.38
478.564	129.38
478.783	131.38
479.002	136.38
479.22	138.38
479.439	132.38
479.658	122.38
479.876	107.38
480.095	116.38
480.313	118.38
480.532	112.38
480.751	119.38
480.969	90.38
481.188	101.38
481.406	111.38
481.624	80.38
481.843	76.38
482.061	98.38
482.28	98.38
482.498	114.38
482.717	105.38
482.935	110.38
483.153	140.38
483.372	146.38
483.59	156.38
483.808	142.38
484.027	141.38
484.245	138.38
484.463	158.38
484.681	160.38
484.9	126.38
485.118	141.38
485.336	123.38
485.554	103.38
485.772	106.38
485.99	96.38
486.209	115.38
486.427	120.38
486.645	118.38
486.863	142.38
487.081	140.38
487.299	132.38
487.517	140.38
487.735	159.38
487.953	174.38
488.171	182.38
488.389	177.38
488.607	141.38
488.825	141.38
489.043	132.38
489.261	125.38
489.479	135.38
489.696	130.38
489.914	139.38
490.132	133.38
490.35	163.38
490.568	150.38
490.786	178.38
491.003	180.38
491.221	185.38
491.439	170.38
491.657	169.38
491.874	196.38
492.092	215.38
492.31	243.38
492.527	214.38
492.745	201.38
492.963	192.38
493.18	178.38
493.398	178.38
493.615	178.38
493.833	185.38
494.05	178.38
494.268	173.38
494.485	179.38
494.703	164.38
494.92	183.38
495.138	164.38
495.355	168.38
495.573	154.38
495.79	176.38
496.008	172.38
496.225	165.38
496.442	176.38
496.66	145.38
496.877	173.38
497.094	171.38
497.312	160.38
497.529	160.38
497.746	164.38
497.963	132.38
498.181	126.38
498.398	127.38
498.615	126.38
498.832	127.38
499.049	108.38
499.267	115.38
499.484	125.38
499.701	145.38
499.918	141.38
500.135	126.38
500.352	142.38
500.569	152.38
500.786	150.38
501.003	144.38
501.22	140.38
501.437	149.38
501.654	125.38
501.871	120.38
502.088	139.38
502.305	104.38
502.522	131.38
502.739	140.38
502.956	124.38
503.172	128.38
503.389	120.38
503.606	121.38
503.823	112.38
504.04	128.38
504.256	124.38
504.473	121.38
504.69	119.38
504.907	120.38
505.123	113.38
505.34	121.38
505.557	129.38
505.773	120.38
505.99	121.38
506.207	136.38
506.423	119.38
506.64	116.38
506.856	136.38
507.073	108.38
507.289	126.38
507.506	139.38
507.722	121.38
507.939	121.38
508.155	119.38
508.372	121.38
508.588	101.38
508.805	104.38
509.021	101.38
509.238	93.38
509.454	110.38
509.67	98.38
509.887	91.38
510.103	101.38
510.319	94.38
510.536	93.38
510.752	72.38
510.968	86.38
511.184	81.38
511.401	85.38
511.617	85.38
511.833	100.38
