Data from Location1.07152019.Energy5.Lamp.07192019.3%Agarose_HRD10591_14-31-55-015.txt Node
Date: Fri Jul 19 14:31:55 EDT 2019
User: cochatt
Spectrometer: HR+D1059
Trigger mode: 1
Integration Time (sec): 1.000000E-1
Scans to average: 1
Electric dark correction enabled: true
Nonlinearity correction enabled: false
Boxcar width: 0
XAxis mode: Wavelengths
Number of Pixels in Spectrum: 2048
>>>>>Begin Spectral Data<<<<<
223.165	-0.81
223.4	-0.81
223.635	-0.81
223.869	-28.81
224.104	-16.81
224.338	-10.81
224.573	-15.81
224.808	-13.81
225.042	-19.81
225.277	-20.81
225.511	-3.81
225.746	13.19
225.98	6.19
226.215	7.19
226.449	14.19
226.683	24.19
226.918	31.19
227.152	35.19
227.387	44.19
227.621	50.19
227.856	46.19
228.09	56.19
228.324	46.19
228.559	52.19
228.793	53.19
229.027	74.19
229.262	58.19
229.496	67.19
229.73	71.19
229.964	68.19
230.199	85.19
230.433	64.19
230.667	72.19
230.901	83.19
231.136	78.19
231.37	85.19
231.604	81.19
231.838	93.19
232.072	77.19
232.306	80.19
232.541	70.19
232.775	68.19
233.009	85.19
233.243	83.19
233.477	84.19
233.711	95.19
233.945	78.19
234.179	92.19
234.413	79.19
234.647	78.19
234.881	80.19
235.115	76.19
235.349	72.19
235.583	85.19
235.817	77.19
236.051	76.19
236.285	83.19
236.519	81.19
236.753	78.19
236.987	72.19
237.221	75.19
237.455	79.19
237.689	82.19
237.922	70.19
238.156	72.19
238.39	72.19
238.624	70.19
238.858	65.19
239.091	77.19
239.325	63.19
239.559	74.19
239.793	70.19
240.027	73.19
240.26	83.19
240.494	74.19
240.728	80.19
240.961	85.19
241.195	91.19
241.429	66.19
241.662	66.19
241.896	78.19
242.13	75.19
242.363	74.19
242.597	77.19
242.83	76.19
243.064	76.19
243.298	73.19
243.531	72.19
243.765	77.19
243.998	85.19
244.232	80.19
244.465	82.19
244.699	72.19
244.932	68.19
245.166	80.19
245.399	75.19
245.633	77.19
245.866	67.19
246.099	77.19
246.333	71.19
246.566	67.19
246.8	71.19
247.033	73.19
247.266	86.19
247.5	76.19
247.733	90.19
247.966	77.19
248.2	79.19
248.433	82.19
248.666	66.19
248.899	70.19
249.133	69.19
249.366	79.19
249.599	89.19
249.832	87.19
250.066	87.19
250.299	89.19
250.532	90.19
250.765	88.19
250.998	90.19
251.231	82.19
251.465	72.19
251.698	74.19
251.931	68.19
252.164	81.19
252.397	78.19
252.63	70.19
252.863	72.19
253.096	79.19
253.329	75.19
253.562	89.19
253.795	77.19
254.028	85.19
254.261	92.19
254.494	74.19
254.727	69.19
254.96	72.19
255.193	82.19
255.426	74.19
255.659	82.19
255.892	72.19
256.124	86.19
256.357	91.19
256.59	73.19
256.823	73.19
257.056	79.19
257.289	73.19
257.521	77.19
257.754	82.19
257.987	84.19
258.22	79.19
258.452	71.19
258.685	87.19
258.918	89.19
259.151	82.19
259.383	79.19
259.616	72.19
259.849	77.19
260.081	81.19
260.314	78.19
260.547	70.19
260.779	73.19
261.012	82.19
261.244	87.19
261.477	88.19
261.71	92.19
261.942	77.19
262.175	86.19
262.407	90.19
262.64	89.19
262.872	90.19
263.105	87.19
263.337	84.19
263.57	88.19
263.802	80.19
264.035	85.19
264.267	68.19
264.499	92.19
264.732	84.19
264.964	80.19
265.197	84.19
265.429	75.19
265.661	78.19
265.894	76.19
266.126	89.19
266.358	88.19
266.591	79.19
266.823	70.19
267.055	83.19
267.287	75.19
267.52	78.19
267.752	75.19
267.984	77.19
268.216	106.19
268.448	87.19
268.681	77.19
268.913	82.19
269.145	80.19
269.377	80.19
269.609	68.19
269.841	83.19
270.073	95.19
270.306	96.19
270.538	93.19
270.77	78.19
271.002	89.19
271.234	80.19
271.466	82.19
271.698	93.19
271.93	77.19
272.162	92.19
272.394	95.19
272.626	90.19
272.858	80.19
273.09	85.19
273.322	78.19
273.553	78.19
273.785	100.19
274.017	77.19
274.249	81.19
274.481	87.19
274.713	84.19
274.945	85.19
275.176	71.19
275.408	83.19
275.64	77.19
275.872	86.19
276.104	94.19
276.335	80.19
276.567	82.19
276.799	86.19
277.031	70.19
277.262	81.19
277.494	86.19
277.726	80.19
277.957	71.19
278.189	88.19
278.421	80.19
278.652	80.19
278.884	96.19
279.115	91.19
279.347	72.19
279.579	91.19
279.81	90.19
280.042	85.19
280.273	80.19
280.505	85.19
280.736	91.19
280.968	81.19
281.199	64.19
281.431	78.19
281.662	68.19
281.894	81.19
282.125	92.19
282.356	79.19
282.588	71.19
282.819	74.19
283.051	79.19
283.282	64.19
283.513	87.19
283.745	80.19
283.976	91.19
284.207	98.19
284.439	90.19
284.67	91.19
284.901	93.19
285.132	80.19
285.364	76.19
285.595	102.19
285.826	79.19
286.057	90.19
286.288	89.19
286.52	95.19
286.751	90.19
286.982	91.19
287.213	77.19
287.444	94.19
287.675	98.19
287.906	93.19
288.138	98.19
288.369	73.19
288.6	84.19
288.831	78.19
289.062	91.19
289.293	80.19
289.524	79.19
289.755	83.19
289.986	84.19
290.217	87.19
290.448	78.19
290.679	85.19
290.91	96.19
291.141	89.19
291.371	77.19
291.602	91.19
291.833	86.19
292.064	89.19
292.295	78.19
292.526	78.19
292.757	87.19
292.987	90.19
293.218	87.19
293.449	92.19
293.68	64.19
293.91	83.19
294.141	84.19
294.372	79.19
294.603	81.19
294.833	73.19
295.064	81.19
295.295	83.19
295.525	91.19
295.756	83.19
295.987	67.19
296.217	73.19
296.448	90.19
296.679	75.19
296.909	104.19
297.14	88.19
297.37	87.19
297.601	84.19
297.831	80.19
298.062	75.19
298.292	92.19
298.523	83.19
298.753	86.19
298.984	91.19
299.214	90.19
299.445	87.19
299.675	93.19
299.905	90.19
300.136	84.19
300.366	75.19
300.597	88.19
300.827	88.19
301.057	87.19
301.288	77.19
301.518	95.19
301.748	81.19
301.979	84.19
302.209	80.19
302.439	89.19
302.669	94.19
302.9	84.19
303.13	74.19
303.36	86.19
303.59	77.19
303.82	89.19
304.051	88.19
304.281	96.19
304.511	105.19
304.741	88.19
304.971	85.19
305.201	73.19
305.431	85.19
305.661	91.19
305.891	86.19
306.121	81.19
306.352	87.19
306.582	88.19
306.812	91.19
307.042	76.19
307.272	77.19
307.502	82.19
307.731	89.19
307.961	80.19
308.191	89.19
308.421	82.19
308.651	77.19
308.881	96.19
309.111	81.19
309.341	86.19
309.571	86.19
309.8	88.19
310.03	76.19
310.26	84.19
310.49	93.19
310.72	90.19
310.949	70.19
311.179	67.19
311.409	67.19
311.639	83.19
311.868	80.19
312.098	67.19
312.328	83.19
312.557	88.19
312.787	81.19
313.017	98.19
313.246	74.19
313.476	98.19
313.706	77.19
313.935	88.19
314.165	100.19
314.394	88.19
314.624	74.19
314.853	91.19
315.083	86.19
315.312	96.19
315.542	93.19
315.771	80.19
316.001	94.19
316.23	82.19
316.46	90.19
316.689	87.19
316.919	88.19
317.148	88.19
317.377	73.19
317.607	73.19
317.836	73.19
318.065	81.19
318.295	86.19
318.524	83.19
318.753	85.19
318.983	83.19
319.212	84.19
319.441	70.19
319.67	89.19
319.9	75.19
320.129	92.19
320.358	68.19
320.587	95.19
320.816	79.19
321.046	85.19
321.275	86.19
321.504	87.19
321.733	79.19
321.962	89.19
322.191	84.19
322.42	81.19
322.649	90.19
322.878	87.19
323.108	91.19
323.337	103.19
323.566	77.19
323.795	92.19
324.024	87.19
324.253	81.19
324.482	92.19
324.71	76.19
324.939	86.19
325.168	79.19
325.397	74.19
325.626	79.19
325.855	91.19
326.084	78.19
326.313	81.19
326.542	92.19
326.77	85.19
326.999	78.19
327.228	81.19
327.457	81.19
327.686	91.19
327.914	86.19
328.143	64.19
328.372	96.19
328.6	89.19
328.829	83.19
329.058	95.19
329.287	80.19
329.515	78.19
329.744	96.19
329.972	72.19
330.201	95.19
330.43	88.19
330.658	90.19
330.887	74.19
331.115	86.19
331.344	84.19
331.572	78.19
331.801	94.19
332.03	76.19
332.258	90.19
332.486	87.19
332.715	92.19
332.943	94.19
333.172	92.19
333.4	71.19
333.629	84.19
333.857	96.19
334.085	84.19
334.314	73.19
334.542	83.19
334.771	70.19
334.999	85.19
335.227	94.19
335.455	90.19
335.684	87.19
335.912	79.19
336.14	81.19
336.369	90.19
336.597	80.19
336.825	87.19
337.053	92.19
337.281	94.19
337.51	83.19
337.738	91.19
337.966	78.19
338.194	90.19
338.422	97.19
338.65	85.19
338.878	82.19
339.106	80.19
339.334	79.19
339.562	96.19
339.79	80.19
340.018	85.19
340.246	86.19
340.474	86.19
340.702	81.19
340.93	80.19
341.158	78.19
341.386	86.19
341.614	92.19
341.842	87.19
342.07	87.19
342.298	101.19
342.526	96.19
342.754	96.19
342.981	98.19
343.209	89.19
343.437	86.19
343.665	87.19
343.893	82.19
344.12	83.19
344.348	87.19
344.576	82.19
344.804	81.19
345.031	88.19
345.259	77.19
345.487	97.19
345.714	82.19
345.942	80.19
346.17	86.19
346.397	78.19
346.625	94.19
346.853	84.19
347.08	87.19
347.308	84.19
347.535	78.19
347.763	81.19
347.99	68.19
348.218	89.19
348.445	76.19
348.673	81.19
348.9	80.19
349.128	88.19
349.355	77.19
349.583	76.19
349.81	79.19
350.037	82.19
350.265	84.19
350.492	72.19
350.72	75.19
350.947	90.19
351.174	80.19
351.402	85.19
351.629	77.19
351.856	71.19
352.083	81.19
352.311	75.19
352.538	95.19
352.765	79.19
352.992	85.19
353.22	78.19
353.447	82.19
353.674	87.19
353.901	83.19
354.128	93.19
354.355	73.19
354.583	81.19
354.81	82.19
355.037	95.19
355.264	100.19
355.491	87.19
355.718	75.19
355.945	87.19
356.172	90.19
356.399	102.19
356.626	84.19
356.853	86.19
357.08	94.19
357.307	91.19
357.534	73.19
357.761	94.19
357.988	90.19
358.215	94.19
358.441	90.19
358.668	87.19
358.895	87.19
359.122	75.19
359.349	75.19
359.576	86.19
359.802	76.19
360.029	86.19
360.256	84.19
360.483	98.19
360.709	77.19
360.936	88.19
361.163	84.19
361.39	70.19
361.616	100.19
361.843	79.19
362.07	89.19
362.296	76.19
362.523	90.19
362.749	81.19
362.976	92.19
363.203	82.19
363.429	86.19
363.656	83.19
363.882	86.19
364.109	86.19
364.335	88.19
364.562	81.19
364.788	78.19
365.015	87.19
365.241	82.19
365.468	104.19
365.694	78.19
365.92	85.19
366.147	86.19
366.373	88.19
366.599	73.19
366.826	92.19
367.052	81.19
367.278	77.19
367.505	82.19
367.731	87.19
367.957	80.19
368.184	80.19
368.41	98.19
368.636	92.19
368.862	88.19
369.089	92.19
369.315	73.19
369.541	94.19
369.767	85.19
369.993	92.19
370.219	81.19
370.445	66.19
370.672	85.19
370.898	93.19
371.124	93.19
371.35	82.19
371.576	87.19
371.802	98.19
372.028	91.19
372.254	88.19
372.48	93.19
372.706	79.19
372.932	87.19
373.158	87.19
373.384	102.19
373.61	97.19
373.835	100.19
374.061	94.19
374.287	100.19
374.513	100.19
374.739	104.19
374.965	98.19
375.191	98.19
375.416	87.19
375.642	88.19
375.868	95.19
376.094	90.19
376.319	97.19
376.545	80.19
376.771	88.19
376.997	100.19
377.222	86.19
377.448	87.19
377.674	94.19
377.899	92.19
378.125	98.19
378.35	94.19
378.576	104.19
378.802	90.19
379.027	99.19
379.253	90.19
379.478	86.19
379.704	77.19
379.929	95.19
380.155	88.19
380.38	106.19
380.606	98.19
380.831	90.19
381.057	94.19
381.282	98.19
381.507	102.19
381.733	88.19
381.958	103.19
382.184	91.19
382.409	106.19
382.634	98.19
382.86	91.19
383.085	90.19
383.31	102.19
383.535	104.19
383.761	97.19
383.986	90.19
384.211	97.19
384.436	103.19
384.662	82.19
384.887	102.19
385.112	91.19
385.337	95.19
385.562	106.19
385.787	97.19
386.013	102.19
386.238	107.19
386.463	99.19
386.688	91.19
386.913	90.19
387.138	91.19
387.363	98.19
387.588	103.19
387.813	115.19
388.038	109.19
388.263	109.19
388.488	103.19
388.713	85.19
388.938	88.19
389.163	94.19
389.387	95.19
389.612	93.19
389.837	107.19
390.062	102.19
390.287	103.19
390.512	104.19
390.736	111.19
390.961	118.19
391.186	95.19
391.411	96.19
391.636	94.19
391.86	101.19
392.085	86.19
392.31	101.19
392.534	114.19
392.759	109.19
392.984	122.19
393.208	104.19
393.433	105.19
393.658	103.19
393.882	101.19
394.107	106.19
394.331	122.19
394.556	99.19
394.78	109.19
395.005	105.19
395.229	96.19
395.454	99.19
395.678	106.19
395.903	98.19
396.127	111.19
396.352	106.19
396.576	111.19
396.801	107.19
397.025	120.19
397.249	108.19
397.474	92.19
397.698	120.19
397.922	95.19
398.147	116.19
398.371	116.19
398.595	118.19
398.82	98.19
399.044	101.19
399.268	115.19
399.492	97.19
399.717	103.19
399.941	119.19
400.165	128.19
400.389	124.19
400.613	116.19
400.837	109.19
401.062	101.19
401.286	106.19
401.51	129.19
401.734	109.19
401.958	109.19
402.182	105.19
402.406	108.19
402.63	112.19
402.854	108.19
403.078	113.19
403.302	119.19
403.526	116.19
403.75	123.19
403.974	106.19
404.198	111.19
404.422	122.19
404.645	119.19
404.869	122.19
405.093	122.19
405.317	114.19
405.541	119.19
405.765	118.19
405.988	127.19
406.212	118.19
406.436	115.19
406.66	125.19
406.883	108.19
407.107	124.19
407.331	126.19
407.555	118.19
407.778	119.19
408.002	123.19
408.226	126.19
408.449	121.19
408.673	122.19
408.896	125.19
409.12	112.19
409.344	116.19
409.567	110.19
409.791	111.19
410.014	118.19
410.238	128.19
410.461	124.19
410.685	112.19
410.908	124.19
411.132	110.19
411.355	112.19
411.578	115.19
411.802	120.19
412.025	110.19
412.249	111.19
412.472	111.19
412.695	108.19
412.919	115.19
413.142	126.19
413.365	110.19
413.589	109.19
413.812	104.19
414.035	117.19
414.258	130.19
414.482	137.19
414.705	122.19
414.928	109.19
415.151	127.19
415.374	122.19
415.597	120.19
415.821	111.19
416.044	123.19
416.267	124.19
416.49	126.19
416.713	125.19
416.936	125.19
417.159	136.19
417.382	118.19
417.605	128.19
417.828	131.19
418.051	140.19
418.274	127.19
418.497	138.19
418.72	132.19
418.943	123.19
419.166	137.19
419.389	130.19
419.611	134.19
419.834	139.19
420.057	119.19
420.28	139.19
420.503	118.19
420.726	132.19
420.948	146.19
421.171	130.19
421.394	133.19
421.617	138.19
421.839	156.19
422.062	124.19
422.285	135.19
422.507	128.19
422.73	116.19
422.953	122.19
423.175	128.19
423.398	123.19
423.621	143.19
423.843	127.19
424.066	129.19
424.288	141.19
424.511	125.19
424.733	138.19
424.956	148.19
425.178	125.19
425.401	124.19
425.623	139.19
425.846	130.19
426.068	122.19
426.291	127.19
426.513	123.19
426.735	136.19
426.958	134.19
427.18	130.19
427.402	131.19
427.625	138.19
427.847	126.19
428.069	126.19
428.292	127.19
428.514	130.19
428.736	129.19
428.958	125.19
429.181	135.19
429.403	118.19
429.625	133.19
429.847	124.19
430.069	138.19
430.292	126.19
430.514	133.19
430.736	134.19
430.958	125.19
431.18	134.19
431.402	127.19
431.624	113.19
431.846	104.19
432.068	104.19
432.29	98.19
432.512	111.19
432.734	124.19
432.956	145.19
433.178	142.19
433.4	134.19
433.622	140.19
433.844	137.19
434.066	127.19
434.287	120.19
434.509	87.19
434.731	100.19
434.953	126.19
435.175	119.19
435.397	134.19
435.618	124.19
435.84	122.19
436.062	127.19
436.284	108.19
436.505	138.19
436.727	140.19
436.949	134.19
437.17	126.19
437.392	122.19
437.614	118.19
437.835	118.19
438.057	119.19
438.278	118.19
438.5	123.19
438.721	130.19
438.943	125.19
439.165	144.19
439.386	146.19
439.608	140.19
439.829	139.19
440.05	129.19
440.272	130.19
440.493	148.19
440.715	143.19
440.936	140.19
441.158	141.19
441.379	141.19
441.6	150.19
441.822	144.19
442.043	141.19
442.264	155.19
442.486	149.19
442.707	140.19
442.928	134.19
443.149	139.19
443.371	130.19
443.592	141.19
443.813	130.19
444.034	150.19
444.255	133.19
444.476	125.19
444.698	151.19
444.919	140.19
445.14	268.19
445.361	207.19
445.582	157.19
445.803	154.19
446.024	156.19
446.245	151.19
446.466	146.19
446.687	145.19
446.908	155.19
447.129	159.19
447.35	138.19
447.571	145.19
447.792	144.19
448.013	119.19
448.234	134.19
448.455	138.19
448.675	130.19
448.896	135.19
449.117	140.19
449.338	127.19
449.559	128.19
449.779	142.19
450	124.19
450.221	127.19
450.442	144.19
450.662	135.19
450.883	142.19
451.104	141.19
451.324	120.19
451.545	134.19
451.766	128.19
451.986	132.19
452.207	129.19
452.428	131.19
452.648	130.19
452.869	114.19
453.089	108.19
453.31	108.19
453.53	101.19
453.751	84.19
453.971	102.19
454.192	102.19
454.412	108.19
454.633	120.19
454.853	114.19
455.073	109.19
455.294	117.19
455.514	128.19
455.734	106.19
455.955	103.19
456.175	107.19
456.395	132.19
456.616	122.19
456.836	127.19
457.056	119.19
457.276	114.19
457.497	105.19
457.717	108.19
457.937	115.19
458.157	124.19
458.377	116.19
458.598	108.19
458.818	92.19
459.038	79.19
459.258	87.19
459.478	91.19
459.698	86.19
459.918	93.19
460.138	109.19
460.358	132.19
460.578	105.19
460.798	118.19
461.018	119.19
461.238	108.19
461.458	108.19
461.678	111.19
461.898	115.19
462.118	117.19
462.338	114.19
462.558	120.19
462.777	108.19
462.997	118.19
463.217	101.19
463.437	106.19
463.657	115.19
463.876	106.19
464.096	116.19
464.316	107.19
464.536	92.19
464.755	107.19
464.975	118.19
465.195	120.19
465.414	118.19
465.634	111.19
465.854	115.19
466.073	118.19
466.293	115.19
466.512	134.19
466.732	128.19
466.951	140.19
467.171	134.19
467.391	135.19
467.61	121.19
467.829	126.19
468.049	139.19
468.268	130.19
468.488	122.19
468.707	134.19
468.927	124.19
469.146	130.19
469.365	122.19
469.585	143.19
469.804	151.19
470.023	138.19
470.243	128.19
470.462	134.19
470.681	151.19
470.901	140.19
471.12	142.19
471.339	136.19
471.558	134.19
471.777	146.19
471.997	134.19
472.216	129.19
472.435	124.19
472.654	115.19
472.873	110.19
473.092	104.19
473.311	121.19
473.53	126.19
473.749	127.19
473.968	130.19
474.187	111.19
474.406	111.19
474.625	119.19
474.844	136.19
475.063	120.19
475.282	126.19
475.501	121.19
475.72	127.19
475.939	121.19
476.158	125.19
476.377	123.19
476.596	129.19
476.814	125.19
477.033	119.19
477.252	109.19
477.471	130.19
477.69	136.19
477.908	138.19
478.127	138.19
478.346	125.19
478.564	142.19
478.783	138.19
479.002	140.19
479.22	123.19
479.439	136.19
479.658	111.19
479.876	110.19
480.095	109.19
480.313	115.19
480.532	130.19
480.751	111.19
480.969	102.19
481.188	108.19
481.406	85.19
481.624	74.19
481.843	91.19
482.061	93.19
482.28	110.19
482.498	109.19
482.717	101.19
482.935	125.19
483.153	138.19
483.372	142.19
483.59	150.19
483.808	157.19
484.027	141.19
484.245	139.19
484.463	147.19
484.681	151.19
484.9	140.19
485.118	150.19
485.336	140.19
485.554	97.19
485.772	116.19
485.99	110.19
486.209	118.19
486.427	118.19
486.645	126.19
486.863	128.19
487.081	139.19
487.299	138.19
487.517	145.19
487.735	175.19
487.953	185.19
488.171	182.19
488.389	162.19
488.607	149.19
488.825	132.19
489.043	136.19
489.261	126.19
489.479	139.19
489.696	138.19
489.914	142.19
490.132	136.19
490.35	151.19
490.568	144.19
490.786	175.19
491.003	180.19
491.221	170.19
491.439	179.19
491.657	183.19
491.874	207.19
492.092	212.19
492.31	236.19
492.527	222.19
492.745	198.19
492.963	191.19
493.18	166.19
493.398	178.19
493.615	177.19
493.833	167.19
494.05	184.19
494.268	174.19
494.485	174.19
494.703	157.19
494.92	170.19
495.138	180.19
495.355	164.19
495.573	174.19
495.79	170.19
496.008	173.19
496.225	167.19
496.442	178.19
496.66	162.19
496.877	170.19
497.094	182.19
497.312	159.19
497.529	150.19
497.746	151.19
497.963	148.19
498.181	134.19
498.398	130.19
498.615	116.19
498.832	120.19
499.049	130.19
499.267	116.19
499.484	105.19
499.701	130.19
499.918	124.19
500.135	139.19
500.352	154.19
500.569	150.19
500.786	145.19
501.003	132.19
501.22	135.19
501.437	134.19
501.654	148.19
501.871	128.19
502.088	123.19
502.305	132.19
502.522	129.19
502.739	135.19
502.956	132.19
503.172	130.19
503.389	112.19
503.606	115.19
503.823	116.19
504.04	133.19
504.256	125.19
504.473	121.19
504.69	124.19
504.907	129.19
505.123	122.19
505.34	110.19
505.557	120.19
505.773	118.19
505.99	124.19
506.207	118.19
506.423	112.19
506.64	116.19
506.856	130.19
507.073	110.19
507.289	120.19
507.506	107.19
507.722	118.19
507.939	127.19
508.155	107.19
508.372	108.19
508.588	112.19
508.805	111.19
509.021	105.19
509.238	108.19
509.454	104.19
509.67	99.19
509.887	101.19
510.103	85.19
510.319	88.19
510.536	83.19
510.752	93.19
510.968	85.19
511.184	91.19
511.401	92.19
511.617	88.19
