Data from Location1.07152019.Energy5.Lamp.07192019.3%Agarose_HRD10591_14-32-27-015.txt Node
Date: Fri Jul 19 14:32:27 EDT 2019
User: cochatt
Spectrometer: HR+D1059
Trigger mode: 1
Integration Time (sec): 1.000000E-1
Scans to average: 1
Electric dark correction enabled: true
Nonlinearity correction enabled: false
Boxcar width: 0
XAxis mode: Wavelengths
Number of Pixels in Spectrum: 2048
>>>>>Begin Spectral Data<<<<<
223.165	-15.06
223.4	-15.06
223.635	-15.06
223.869	-26.06
224.104	-15.06
224.338	-23.06
224.573	-11.06
224.808	-6.06
225.042	-12.06
225.277	2.94
225.511	8.94
225.746	-4.06
225.98	-5.06
226.215	13.94
226.449	22.94
226.683	8.94
226.918	32.94
227.152	26.94
227.387	28.94
227.621	36.94
227.856	37.94
228.09	35.94
228.324	42.94
228.559	65.94
228.793	55.94
229.027	64.94
229.262	56.94
229.496	70.94
229.73	67.94
229.964	61.94
230.199	68.94
230.433	74.94
230.667	62.94
230.901	64.94
231.136	65.94
231.37	65.94
231.604	80.94
231.838	91.94
232.072	82.94
232.306	79.94
232.541	82.94
232.775	55.94
233.009	85.94
233.243	82.94
233.477	77.94
233.711	89.94
233.945	72.94
234.179	86.94
234.413	85.94
234.647	72.94
234.881	77.94
235.115	65.94
235.349	76.94
235.583	72.94
235.817	89.94
236.051	73.94
236.285	76.94
236.519	66.94
236.753	84.94
236.987	88.94
237.221	81.94
237.455	77.94
237.689	71.94
237.922	83.94
238.156	81.94
238.39	87.94
238.624	90.94
238.858	79.94
239.091	72.94
239.325	72.94
239.559	80.94
239.793	74.94
240.027	80.94
240.26	90.94
240.494	84.94
240.728	73.94
240.961	82.94
241.195	59.94
241.429	57.94
241.662	73.94
241.896	78.94
242.13	84.94
242.363	81.94
242.597	71.94
242.83	82.94
243.064	70.94
243.298	68.94
243.531	78.94
243.765	87.94
243.998	68.94
244.232	76.94
244.465	85.94
244.699	79.94
244.932	75.94
245.166	82.94
245.399	74.94
245.633	83.94
245.866	82.94
246.099	82.94
246.333	81.94
246.566	84.94
246.8	69.94
247.033	70.94
247.266	70.94
247.5	74.94
247.733	74.94
247.966	77.94
248.2	65.94
248.433	80.94
248.666	80.94
248.899	76.94
249.133	73.94
249.366	77.94
249.599	86.94
249.832	73.94
250.066	82.94
250.299	83.94
250.532	75.94
250.765	75.94
250.998	77.94
251.231	74.94
251.465	73.94
251.698	71.94
251.931	83.94
252.164	70.94
252.397	82.94
252.63	66.94
252.863	61.94
253.096	77.94
253.329	85.94
253.562	72.94
253.795	82.94
254.028	88.94
254.261	83.94
254.494	71.94
254.727	87.94
254.96	83.94
255.193	79.94
255.426	83.94
255.659	75.94
255.892	100.94
256.124	84.94
256.357	79.94
256.59	85.94
256.823	81.94
257.056	78.94
257.289	88.94
257.521	82.94
257.754	76.94
257.987	66.94
258.22	77.94
258.452	85.94
258.685	79.94
258.918	73.94
259.151	82.94
259.383	67.94
259.616	73.94
259.849	83.94
260.081	76.94
260.314	80.94
260.547	81.94
260.779	83.94
261.012	90.94
261.244	84.94
261.477	82.94
261.71	68.94
261.942	72.94
262.175	76.94
262.407	80.94
262.64	71.94
262.872	85.94
263.105	76.94
263.337	74.94
263.57	87.94
263.802	95.94
264.035	90.94
264.267	87.94
264.499	81.94
264.732	64.94
264.964	72.94
265.197	81.94
265.429	73.94
265.661	83.94
265.894	74.94
266.126	82.94
266.358	70.94
266.591	77.94
266.823	83.94
267.055	84.94
267.287	80.94
267.52	76.94
267.752	77.94
267.984	89.94
268.216	77.94
268.448	77.94
268.681	71.94
268.913	90.94
269.145	82.94
269.377	78.94
269.609	85.94
269.841	90.94
270.073	82.94
270.306	80.94
270.538	78.94
270.77	69.94
271.002	71.94
271.234	72.94
271.466	75.94
271.698	86.94
271.93	62.94
272.162	76.94
272.394	94.94
272.626	76.94
272.858	85.94
273.09	76.94
273.322	81.94
273.553	77.94
273.785	91.94
274.017	86.94
274.249	86.94
274.481	87.94
274.713	82.94
274.945	87.94
275.176	78.94
275.408	70.94
275.64	81.94
275.872	88.94
276.104	86.94
276.335	76.94
276.567	86.94
276.799	62.94
277.031	89.94
277.262	70.94
277.494	74.94
277.726	82.94
277.957	89.94
278.189	86.94
278.421	100.94
278.652	69.94
278.884	86.94
279.115	75.94
279.347	67.94
279.579	85.94
279.81	91.94
280.042	75.94
280.273	100.94
280.505	73.94
280.736	76.94
280.968	85.94
281.199	81.94
281.431	75.94
281.662	80.94
281.894	99.94
282.125	92.94
282.356	82.94
282.588	80.94
282.819	98.94
283.051	77.94
283.282	69.94
283.513	104.94
283.745	65.94
283.976	77.94
284.207	88.94
284.439	83.94
284.67	84.94
284.901	73.94
285.132	78.94
285.364	84.94
285.595	83.94
285.826	79.94
286.057	86.94
286.288	78.94
286.52	86.94
286.751	83.94
286.982	81.94
287.213	76.94
287.444	90.94
287.675	82.94
287.906	86.94
288.138	77.94
288.369	92.94
288.6	72.94
288.831	79.94
289.062	90.94
289.293	78.94
289.524	81.94
289.755	88.94
289.986	73.94
290.217	89.94
290.448	97.94
290.679	83.94
290.91	97.94
291.141	86.94
291.371	75.94
291.602	79.94
291.833	85.94
292.064	100.94
292.295	103.94
292.526	78.94
292.757	82.94
292.987	86.94
293.218	73.94
293.449	85.94
293.68	92.94
293.91	76.94
294.141	72.94
294.372	85.94
294.603	83.94
294.833	76.94
295.064	76.94
295.295	75.94
295.525	64.94
295.756	67.94
295.987	84.94
296.217	82.94
296.448	75.94
296.679	99.94
296.909	83.94
297.14	97.94
297.37	68.94
297.601	86.94
297.831	86.94
298.062	89.94
298.292	89.94
298.523	79.94
298.753	75.94
298.984	95.94
299.214	89.94
299.445	86.94
299.675	94.94
299.905	84.94
300.136	82.94
300.366	80.94
300.597	90.94
300.827	78.94
301.057	84.94
301.288	87.94
301.518	87.94
301.748	85.94
301.979	78.94
302.209	81.94
302.439	79.94
302.669	90.94
302.9	76.94
303.13	78.94
303.36	85.94
303.59	82.94
303.82	76.94
304.051	91.94
304.281	99.94
304.511	98.94
304.741	87.94
304.971	85.94
305.201	91.94
305.431	98.94
305.661	84.94
305.891	66.94
306.121	84.94
306.352	84.94
306.582	86.94
306.812	85.94
307.042	88.94
307.272	80.94
307.502	82.94
307.731	78.94
307.961	98.94
308.191	88.94
308.421	81.94
308.651	92.94
308.881	85.94
309.111	88.94
309.341	74.94
309.571	72.94
309.8	74.94
310.03	87.94
310.26	73.94
310.49	89.94
310.72	78.94
310.949	85.94
311.179	75.94
311.409	89.94
311.639	86.94
311.868	87.94
312.098	76.94
312.328	82.94
312.557	78.94
312.787	70.94
313.017	89.94
313.246	82.94
313.476	68.94
313.706	93.94
313.935	92.94
314.165	97.94
314.394	82.94
314.624	76.94
314.853	98.94
315.083	87.94
315.312	79.94
315.542	83.94
315.771	85.94
316.001	86.94
316.23	72.94
316.46	76.94
316.689	94.94
316.919	91.94
317.148	77.94
317.377	96.94
317.607	77.94
317.836	86.94
318.065	82.94
318.295	71.94
318.524	80.94
318.753	82.94
318.983	90.94
319.212	81.94
319.441	85.94
319.67	80.94
319.9	76.94
320.129	91.94
320.358	84.94
320.587	80.94
320.816	75.94
321.046	72.94
321.275	88.94
321.504	92.94
321.733	87.94
321.962	80.94
322.191	94.94
322.42	79.94
322.649	82.94
322.878	93.94
323.108	93.94
323.337	87.94
323.566	98.94
323.795	84.94
324.024	70.94
324.253	76.94
324.482	83.94
324.71	89.94
324.939	76.94
325.168	77.94
325.397	85.94
325.626	77.94
325.855	79.94
326.084	84.94
326.313	83.94
326.542	96.94
326.77	72.94
326.999	75.94
327.228	82.94
327.457	85.94
327.686	76.94
327.914	77.94
328.143	82.94
328.372	82.94
328.6	76.94
328.829	96.94
329.058	94.94
329.287	85.94
329.515	89.94
329.744	83.94
329.972	79.94
330.201	81.94
330.43	86.94
330.658	90.94
330.887	89.94
331.115	88.94
331.344	84.94
331.572	83.94
331.801	94.94
332.03	78.94
332.258	90.94
332.486	75.94
332.715	88.94
332.943	78.94
333.172	90.94
333.4	99.94
333.629	80.94
333.857	88.94
334.085	85.94
334.314	82.94
334.542	79.94
334.771	96.94
334.999	76.94
335.227	81.94
335.455	78.94
335.684	92.94
335.912	86.94
336.14	61.94
336.369	94.94
336.597	78.94
336.825	97.94
337.053	92.94
337.281	100.94
337.51	98.94
337.738	93.94
337.966	72.94
338.194	75.94
338.422	91.94
338.65	82.94
338.878	98.94
339.106	91.94
339.334	80.94
339.562	86.94
339.79	90.94
340.018	71.94
340.246	76.94
340.474	78.94
340.702	80.94
340.93	78.94
341.158	67.94
341.386	88.94
341.614	90.94
341.842	97.94
342.07	82.94
342.298	85.94
342.526	74.94
342.754	80.94
342.981	77.94
343.209	70.94
343.437	82.94
343.665	78.94
343.893	90.94
344.12	78.94
344.348	79.94
344.576	92.94
344.804	73.94
345.031	73.94
345.259	85.94
345.487	87.94
345.714	66.94
345.942	85.94
346.17	82.94
346.397	98.94
346.625	81.94
346.853	94.94
347.08	78.94
347.308	77.94
347.535	86.94
347.763	78.94
347.99	80.94
348.218	90.94
348.445	92.94
348.673	85.94
348.9	76.94
349.128	92.94
349.355	81.94
349.583	73.94
349.81	72.94
350.037	89.94
350.265	77.94
350.492	74.94
350.72	69.94
350.947	88.94
351.174	95.94
351.402	81.94
351.629	83.94
351.856	85.94
352.083	85.94
352.311	74.94
352.538	82.94
352.765	74.94
352.992	71.94
353.22	76.94
353.447	89.94
353.674	78.94
353.901	80.94
354.128	84.94
354.355	83.94
354.583	81.94
354.81	78.94
355.037	71.94
355.264	96.94
355.491	88.94
355.718	78.94
355.945	86.94
356.172	95.94
356.399	78.94
356.626	77.94
356.853	90.94
357.08	78.94
357.307	82.94
357.534	70.94
357.761	77.94
357.988	82.94
358.215	86.94
358.441	91.94
358.668	82.94
358.895	77.94
359.122	80.94
359.349	81.94
359.576	74.94
359.802	82.94
360.029	88.94
360.256	83.94
360.483	86.94
360.709	76.94
360.936	73.94
361.163	84.94
361.39	74.94
361.616	86.94
361.843	79.94
362.07	79.94
362.296	70.94
362.523	95.94
362.749	81.94
362.976	68.94
363.203	82.94
363.429	92.94
363.656	65.94
363.882	83.94
364.109	84.94
364.335	82.94
364.562	83.94
364.788	86.94
365.015	75.94
365.241	93.94
365.468	99.94
365.694	76.94
365.92	83.94
366.147	85.94
366.373	83.94
366.599	84.94
366.826	85.94
367.052	90.94
367.278	95.94
367.505	70.94
367.731	93.94
367.957	93.94
368.184	91.94
368.41	81.94
368.636	81.94
368.862	85.94
369.089	106.94
369.315	88.94
369.541	90.94
369.767	91.94
369.993	91.94
370.219	84.94
370.445	73.94
370.672	90.94
370.898	82.94
371.124	87.94
371.35	84.94
371.576	84.94
371.802	81.94
372.028	92.94
372.254	98.94
372.48	97.94
372.706	97.94
372.932	81.94
373.158	99.94
373.384	87.94
373.61	98.94
373.835	96.94
374.061	93.94
374.287	85.94
374.513	75.94
374.739	82.94
374.965	96.94
375.191	94.94
375.416	72.94
375.642	97.94
375.868	84.94
376.094	93.94
376.319	100.94
376.545	76.94
376.771	76.94
376.997	87.94
377.222	92.94
377.448	90.94
377.674	92.94
377.899	96.94
378.125	98.94
378.35	100.94
378.576	97.94
378.802	84.94
379.027	93.94
379.253	104.94
379.478	86.94
379.704	88.94
379.929	85.94
380.155	92.94
380.38	92.94
380.606	98.94
380.831	93.94
381.057	99.94
381.282	109.94
381.507	107.94
381.733	90.94
381.958	91.94
382.184	87.94
382.409	100.94
382.634	101.94
382.86	87.94
383.085	73.94
383.31	113.94
383.535	89.94
383.761	97.94
383.986	95.94
384.211	93.94
384.436	86.94
384.662	98.94
384.887	98.94
385.112	99.94
385.337	86.94
385.562	97.94
385.787	97.94
386.013	91.94
386.238	94.94
386.463	100.94
386.688	98.94
386.913	102.94
387.138	100.94
387.363	91.94
387.588	98.94
387.813	96.94
388.038	101.94
388.263	99.94
388.488	105.94
388.713	100.94
388.938	109.94
389.163	88.94
389.387	100.94
389.612	101.94
389.837	103.94
390.062	102.94
390.287	85.94
390.512	92.94
390.736	102.94
390.961	106.94
391.186	87.94
391.411	100.94
391.636	104.94
391.86	107.94
392.085	91.94
392.31	101.94
392.534	92.94
392.759	98.94
392.984	105.94
393.208	96.94
393.433	101.94
393.658	88.94
393.882	109.94
394.107	83.94
394.331	110.94
394.556	100.94
394.78	98.94
395.005	106.94
395.229	111.94
395.454	101.94
395.678	108.94
395.903	105.94
396.127	101.94
396.352	95.94
396.576	99.94
396.801	109.94
397.025	114.94
397.249	104.94
397.474	116.94
397.698	101.94
397.922	116.94
398.147	100.94
398.371	101.94
398.595	103.94
398.82	106.94
399.044	110.94
399.268	112.94
399.492	112.94
399.717	105.94
399.941	93.94
400.165	104.94
400.389	105.94
400.613	115.94
400.837	106.94
401.062	87.94
401.286	104.94
401.51	110.94
401.734	101.94
401.958	100.94
402.182	120.94
402.406	102.94
402.63	105.94
402.854	118.94
403.078	112.94
403.302	118.94
403.526	104.94
403.75	118.94
403.974	111.94
404.198	116.94
404.422	114.94
404.645	110.94
404.869	102.94
405.093	97.94
405.317	110.94
405.541	119.94
405.765	114.94
405.988	118.94
406.212	102.94
406.436	117.94
406.66	112.94
406.883	111.94
407.107	119.94
407.331	104.94
407.555	109.94
407.778	112.94
408.002	99.94
408.226	106.94
408.449	108.94
408.673	125.94
408.896	116.94
409.12	104.94
409.344	114.94
409.567	113.94
409.791	118.94
410.014	136.94
410.238	126.94
410.461	120.94
410.685	122.94
410.908	113.94
411.132	118.94
411.355	117.94
411.578	105.94
411.802	105.94
412.025	117.94
412.249	120.94
412.472	113.94
412.695	114.94
412.919	124.94
413.142	115.94
413.365	118.94
413.589	123.94
413.812	103.94
414.035	124.94
414.258	114.94
414.482	133.94
414.705	120.94
414.928	117.94
415.151	119.94
415.374	112.94
415.597	122.94
415.821	124.94
416.044	118.94
416.267	122.94
416.49	132.94
416.713	122.94
416.936	127.94
417.159	140.94
417.382	126.94
417.605	124.94
417.828	130.94
418.051	114.94
418.274	129.94
418.497	126.94
418.72	113.94
418.943	134.94
419.166	133.94
419.389	132.94
419.611	129.94
419.834	134.94
420.057	132.94
420.28	125.94
420.503	138.94
420.726	126.94
420.948	127.94
421.171	132.94
421.394	138.94
421.617	147.94
421.839	128.94
422.062	128.94
422.285	136.94
422.507	131.94
422.73	123.94
422.953	135.94
423.175	114.94
423.398	119.94
423.621	121.94
423.843	130.94
424.066	138.94
424.288	130.94
424.511	133.94
424.733	131.94
424.956	136.94
425.178	150.94
425.401	135.94
425.623	137.94
425.846	137.94
426.068	125.94
426.291	118.94
426.513	123.94
426.735	123.94
426.958	128.94
427.18	126.94
427.402	116.94
427.625	137.94
427.847	126.94
428.069	128.94
428.292	122.94
428.514	118.94
428.736	124.94
428.958	133.94
429.181	114.94
429.403	112.94
429.625	134.94
429.847	127.94
430.069	120.94
430.292	117.94
430.514	134.94
430.736	130.94
430.958	122.94
431.18	130.94
431.402	128.94
431.624	106.94
431.846	116.94
432.068	96.94
432.29	101.94
432.512	114.94
432.734	114.94
432.956	131.94
433.178	133.94
433.4	129.94
433.622	126.94
433.844	122.94
434.066	119.94
434.287	119.94
434.509	115.94
434.731	94.94
434.953	114.94
435.175	122.94
435.397	118.94
435.618	114.94
435.84	111.94
436.062	103.94
436.284	113.94
436.505	122.94
436.727	108.94
436.949	122.94
437.17	130.94
437.392	114.94
437.614	133.94
437.835	112.94
438.057	118.94
438.278	104.94
438.5	126.94
438.721	128.94
438.943	134.94
439.165	126.94
439.386	132.94
439.608	133.94
439.829	138.94
440.05	149.94
440.272	157.94
440.493	146.94
440.715	140.94
440.936	152.94
441.158	128.94
441.379	140.94
441.6	153.94
441.822	125.94
442.043	137.94
442.264	134.94
442.486	143.94
442.707	113.94
442.928	137.94
443.149	133.94
443.371	129.94
443.592	117.94
443.813	140.94
444.034	127.94
444.255	122.94
444.476	116.94
444.698	150.94
444.919	130.94
445.14	236.94
445.361	176.94
445.582	132.94
445.803	142.94
446.024	149.94
446.245	148.94
446.466	148.94
446.687	173.94
446.908	149.94
447.129	163.94
447.35	134.94
447.571	149.94
447.792	144.94
448.013	139.94
448.234	136.94
448.455	132.94
448.675	133.94
448.896	128.94
449.117	133.94
449.338	130.94
449.559	127.94
449.779	135.94
450	129.94
450.221	122.94
450.442	137.94
450.662	139.94
450.883	128.94
451.104	132.94
451.324	126.94
451.545	132.94
451.766	132.94
451.986	132.94
452.207	120.94
452.428	119.94
452.648	117.94
452.869	119.94
453.089	127.94
453.31	103.94
453.53	93.94
453.751	109.94
453.971	101.94
454.192	91.94
454.412	106.94
454.633	103.94
454.853	107.94
455.073	117.94
455.294	116.94
455.514	121.94
455.734	131.94
455.955	114.94
456.175	96.94
456.395	105.94
456.616	102.94
456.836	99.94
457.056	104.94
457.276	100.94
457.497	110.94
457.717	109.94
457.937	99.94
458.157	120.94
458.377	101.94
458.598	78.94
458.818	91.94
459.038	93.94
459.258	74.94
459.478	85.94
459.698	89.94
459.918	99.94
460.138	107.94
460.358	113.94
460.578	130.94
460.798	113.94
461.018	114.94
461.238	125.94
461.458	102.94
461.678	109.94
461.898	116.94
462.118	122.94
462.338	100.94
462.558	112.94
462.777	89.94
462.997	102.94
463.217	107.94
463.437	105.94
463.657	86.94
463.876	110.94
464.096	100.94
464.316	98.94
464.536	102.94
464.755	108.94
464.975	98.94
465.195	104.94
465.414	125.94
465.634	95.94
465.854	114.94
466.073	120.94
466.293	116.94
466.512	134.94
466.732	129.94
466.951	134.94
467.171	118.94
467.391	128.94
467.61	128.94
467.829	147.94
468.049	134.94
468.268	140.94
468.488	135.94
468.707	132.94
468.927	138.94
469.146	130.94
469.365	150.94
469.585	137.94
469.804	132.94
470.023	151.94
470.243	131.94
470.462	124.94
470.681	136.94
470.901	133.94
471.12	138.94
471.339	146.94
471.558	124.94
471.777	150.94
471.997	131.94
472.216	126.94
472.435	120.94
472.654	113.94
472.873	119.94
473.092	110.94
473.311	112.94
473.53	113.94
473.749	123.94
473.968	121.94
474.187	123.94
474.406	105.94
474.625	118.94
474.844	118.94
475.063	134.94
475.282	119.94
475.501	113.94
475.72	115.94
475.939	117.94
476.158	117.94
476.377	114.94
476.596	125.94
476.814	107.94
477.033	100.94
477.252	104.94
477.471	116.94
477.69	133.94
477.908	124.94
478.127	138.94
478.346	136.94
478.564	132.94
478.783	137.94
479.002	124.94
479.22	140.94
479.439	138.94
479.658	126.94
479.876	101.94
480.095	105.94
480.313	106.94
480.532	97.94
480.751	119.94
480.969	90.94
481.188	87.94
481.406	89.94
481.624	83.94
481.843	92.94
482.061	82.94
482.28	101.94
482.498	111.94
482.717	91.94
482.935	115.94
483.153	119.94
483.372	150.94
483.59	145.94
483.808	125.94
484.027	124.94
484.245	139.94
484.463	149.94
484.681	156.94
484.9	135.94
485.118	130.94
485.336	119.94
485.554	103.94
485.772	108.94
485.99	98.94
486.209	105.94
486.427	97.94
486.645	109.94
486.863	135.94
487.081	136.94
487.299	136.94
487.517	123.94
487.735	163.94
487.953	171.94
488.171	183.94
488.389	173.94
488.607	146.94
488.825	138.94
489.043	131.94
489.261	128.94
489.479	142.94
489.696	134.94
489.914	139.94
490.132	136.94
490.35	145.94
490.568	158.94
490.786	161.94
491.003	158.94
491.221	179.94
491.439	185.94
491.657	190.94
491.874	203.94
492.092	209.94
492.31	230.94
492.527	225.94
492.745	204.94
492.963	199.94
493.18	180.94
493.398	189.94
493.615	160.94
493.833	178.94
494.05	169.94
494.268	154.94
494.485	168.94
494.703	160.94
494.92	180.94
495.138	149.94
495.355	161.94
495.573	184.94
495.79	162.94
496.008	160.94
496.225	157.94
496.442	169.94
496.66	155.94
496.877	148.94
497.094	158.94
497.312	141.94
497.529	153.94
497.746	141.94
497.963	142.94
498.181	123.94
498.398	113.94
498.615	98.94
498.832	103.94
499.049	119.94
499.267	106.94
499.484	130.94
499.701	124.94
499.918	126.94
500.135	126.94
500.352	124.94
500.569	141.94
500.786	140.94
501.003	133.94
501.22	144.94
501.437	139.94
501.654	127.94
501.871	122.94
502.088	117.94
502.305	126.94
502.522	126.94
502.739	126.94
502.956	121.94
503.172	117.94
503.389	114.94
503.606	105.94
503.823	123.94
504.04	129.94
504.256	124.94
504.473	117.94
504.69	116.94
504.907	106.94
505.123	128.94
505.34	101.94
505.557	128.94
505.773	115.94
505.99	110.94
506.207	104.94
506.423	124.94
506.64	122.94
506.856	112.94
507.073	119.94
507.289	117.94
507.506	121.94
507.722	117.94
507.939	108.94
508.155	120.94
508.372	104.94
508.588	114.94
508.805	114.94
509.021	111.94
509.238	94.94
509.454	105.94
509.67	104.94
509.887	90.94
510.103	101.94
510.319	102.94
510.536	100.94
510.752	101.94
510.968	85.94
511.184	94.94
511.401	81.94
511.617	92.94
511.833	93.94
