Data from Location1.07152019.Energy5.Lamp.07192019.3%Agarose_HRD10591_14-33-23-016.txt Node
Date: Fri Jul 19 14:33:23 EDT 2019
User: cochatt
Spectrometer: HR+D1059
Trigger mode: 1
Integration Time (sec): 1.000000E-1
Scans to average: 1
Electric dark correction enabled: true
Nonlinearity correction enabled: false
Boxcar width: 0
XAxis mode: Wavelengths
Number of Pixels in Spectrum: 2048
>>>>>Begin Spectral Data<<<<<
223.165	-12.44
223.4	-12.44
223.635	-12.44
223.869	-20.44
224.104	-12.44
224.338	-11.44
224.573	-18.44
224.808	-6.44
225.042	-14.44
225.277	-2.44
225.511	-2.44
225.746	2.56
225.98	5.56
226.215	14.56
226.449	25.56
226.683	14.56
226.918	24.56
227.152	13.56
227.387	27.56
227.621	49.56
227.856	51.56
228.09	42.56
228.324	51.56
228.559	46.56
228.793	40.56
229.027	53.56
229.262	67.56
229.496	53.56
229.73	65.56
229.964	64.56
230.199	65.56
230.433	85.56
230.667	81.56
230.901	66.56
231.136	90.56
231.37	78.56
231.604	73.56
231.838	79.56
232.072	83.56
232.306	78.56
232.541	91.56
232.775	76.56
233.009	78.56
233.243	90.56
233.477	91.56
233.711	71.56
233.945	88.56
234.179	91.56
234.413	69.56
234.647	89.56
234.881	82.56
235.115	75.56
235.349	79.56
235.583	76.56
235.817	77.56
236.051	76.56
236.285	73.56
236.519	76.56
236.753	77.56
236.987	84.56
237.221	86.56
237.455	70.56
237.689	87.56
237.922	82.56
238.156	82.56
238.39	73.56
238.624	78.56
238.858	78.56
239.091	64.56
239.325	66.56
239.559	76.56
239.793	75.56
240.027	71.56
240.26	88.56
240.494	74.56
240.728	87.56
240.961	74.56
241.195	75.56
241.429	77.56
241.662	71.56
241.896	70.56
242.13	82.56
242.363	79.56
242.597	76.56
242.83	88.56
243.064	77.56
243.298	83.56
243.531	83.56
243.765	76.56
243.998	67.56
244.232	71.56
244.465	78.56
244.699	83.56
244.932	76.56
245.166	73.56
245.399	72.56
245.633	84.56
245.866	67.56
246.099	75.56
246.333	76.56
246.566	82.56
246.8	68.56
247.033	62.56
247.266	90.56
247.5	77.56
247.733	78.56
247.966	79.56
248.2	89.56
248.433	75.56
248.666	65.56
248.899	80.56
249.133	75.56
249.366	79.56
249.599	85.56
249.832	71.56
250.066	99.56
250.299	69.56
250.532	68.56
250.765	79.56
250.998	77.56
251.231	69.56
251.465	78.56
251.698	75.56
251.931	67.56
252.164	79.56
252.397	91.56
252.63	77.56
252.863	82.56
253.096	78.56
253.329	78.56
253.562	75.56
253.795	85.56
254.028	63.56
254.261	83.56
254.494	83.56
254.727	83.56
254.96	68.56
255.193	66.56
255.426	78.56
255.659	78.56
255.892	90.56
256.124	84.56
256.357	76.56
256.59	92.56
256.823	76.56
257.056	87.56
257.289	83.56
257.521	67.56
257.754	68.56
257.987	83.56
258.22	73.56
258.452	85.56
258.685	101.56
258.918	83.56
259.151	62.56
259.383	83.56
259.616	78.56
259.849	85.56
260.081	80.56
260.314	85.56
260.547	89.56
260.779	69.56
261.012	83.56
261.244	77.56
261.477	74.56
261.71	78.56
261.942	83.56
262.175	77.56
262.407	77.56
262.64	77.56
262.872	80.56
263.105	75.56
263.337	79.56
263.57	77.56
263.802	79.56
264.035	81.56
264.267	83.56
264.499	76.56
264.732	83.56
264.964	83.56
265.197	83.56
265.429	75.56
265.661	84.56
265.894	75.56
266.126	83.56
266.358	82.56
266.591	71.56
266.823	97.56
267.055	68.56
267.287	77.56
267.52	79.56
267.752	76.56
267.984	79.56
268.216	86.56
268.448	77.56
268.681	83.56
268.913	91.56
269.145	83.56
269.377	91.56
269.609	88.56
269.841	85.56
270.073	67.56
270.306	75.56
270.538	81.56
270.77	90.56
271.002	89.56
271.234	73.56
271.466	82.56
271.698	78.56
271.93	85.56
272.162	94.56
272.394	85.56
272.626	66.56
272.858	83.56
273.09	77.56
273.322	93.56
273.553	84.56
273.785	82.56
274.017	82.56
274.249	71.56
274.481	90.56
274.713	75.56
274.945	83.56
275.176	87.56
275.408	86.56
275.64	87.56
275.872	86.56
276.104	74.56
276.335	95.56
276.567	87.56
276.799	86.56
277.031	79.56
277.262	91.56
277.494	93.56
277.726	73.56
277.957	74.56
278.189	85.56
278.421	79.56
278.652	85.56
278.884	85.56
279.115	77.56
279.347	95.56
279.579	79.56
279.81	65.56
280.042	74.56
280.273	67.56
280.505	81.56
280.736	87.56
280.968	82.56
281.199	89.56
281.431	79.56
281.662	86.56
281.894	93.56
282.125	76.56
282.356	93.56
282.588	76.56
282.819	70.56
283.051	93.56
283.282	94.56
283.513	92.56
283.745	92.56
283.976	92.56
284.207	84.56
284.439	96.56
284.67	79.56
284.901	87.56
285.132	86.56
285.364	76.56
285.595	83.56
285.826	83.56
286.057	76.56
286.288	87.56
286.52	82.56
286.751	85.56
286.982	95.56
287.213	93.56
287.444	95.56
287.675	82.56
287.906	85.56
288.138	90.56
288.369	84.56
288.6	83.56
288.831	87.56
289.062	85.56
289.293	78.56
289.524	105.56
289.755	99.56
289.986	77.56
290.217	79.56
290.448	86.56
290.679	91.56
290.91	102.56
291.141	96.56
291.371	93.56
291.602	70.56
291.833	74.56
292.064	83.56
292.295	85.56
292.526	75.56
292.757	88.56
292.987	80.56
293.218	97.56
293.449	85.56
293.68	87.56
293.91	75.56
294.141	79.56
294.372	79.56
294.603	92.56
294.833	87.56
295.064	67.56
295.295	78.56
295.525	90.56
295.756	84.56
295.987	85.56
296.217	77.56
296.448	70.56
296.679	70.56
296.909	77.56
297.14	85.56
297.37	83.56
297.601	81.56
297.831	75.56
298.062	89.56
298.292	73.56
298.523	95.56
298.753	97.56
298.984	78.56
299.214	89.56
299.445	88.56
299.675	99.56
299.905	83.56
300.136	88.56
300.366	78.56
300.597	83.56
300.827	90.56
301.057	87.56
301.288	79.56
301.518	77.56
301.748	81.56
301.979	97.56
302.209	85.56
302.439	90.56
302.669	91.56
302.9	82.56
303.13	93.56
303.36	85.56
303.59	84.56
303.82	92.56
304.051	83.56
304.281	85.56
304.511	100.56
304.741	91.56
304.971	96.56
305.201	85.56
305.431	91.56
305.661	92.56
305.891	82.56
306.121	79.56
306.352	79.56
306.582	75.56
306.812	73.56
307.042	79.56
307.272	85.56
307.502	80.56
307.731	83.56
307.961	75.56
308.191	82.56
308.421	82.56
308.651	83.56
308.881	85.56
309.111	86.56
309.341	98.56
309.571	86.56
309.8	86.56
310.03	89.56
310.26	67.56
310.49	88.56
310.72	91.56
310.949	101.56
311.179	84.56
311.409	95.56
311.639	89.56
311.868	93.56
312.098	85.56
312.328	84.56
312.557	86.56
312.787	91.56
313.017	83.56
313.246	80.56
313.476	75.56
313.706	91.56
313.935	89.56
314.165	90.56
314.394	82.56
314.624	74.56
314.853	83.56
315.083	91.56
315.312	79.56
315.542	90.56
315.771	84.56
316.001	87.56
316.23	77.56
316.46	86.56
316.689	79.56
316.919	80.56
317.148	90.56
317.377	80.56
317.607	92.56
317.836	87.56
318.065	78.56
318.295	96.56
318.524	77.56
318.753	83.56
318.983	74.56
319.212	95.56
319.441	91.56
319.67	90.56
319.9	88.56
320.129	93.56
320.358	85.56
320.587	78.56
320.816	85.56
321.046	87.56
321.275	93.56
321.504	79.56
321.733	72.56
321.962	95.56
322.191	92.56
322.42	79.56
322.649	87.56
322.878	87.56
323.108	84.56
323.337	87.56
323.566	86.56
323.795	88.56
324.024	90.56
324.253	85.56
324.482	70.56
324.71	85.56
324.939	90.56
325.168	88.56
325.397	97.56
325.626	91.56
325.855	94.56
326.084	92.56
326.313	81.56
326.542	74.56
326.77	89.56
326.999	95.56
327.228	102.56
327.457	93.56
327.686	85.56
327.914	91.56
328.143	83.56
328.372	101.56
328.6	90.56
328.829	94.56
329.058	91.56
329.287	88.56
329.515	92.56
329.744	105.56
329.972	70.56
330.201	83.56
330.43	86.56
330.658	62.56
330.887	91.56
331.115	74.56
331.344	93.56
331.572	87.56
331.801	85.56
332.03	81.56
332.258	86.56
332.486	93.56
332.715	93.56
332.943	91.56
333.172	91.56
333.4	75.56
333.629	90.56
333.857	83.56
334.085	97.56
334.314	97.56
334.542	78.56
334.771	66.56
334.999	85.56
335.227	75.56
335.455	89.56
335.684	90.56
335.912	76.56
336.14	78.56
336.369	87.56
336.597	97.56
336.825	91.56
337.053	87.56
337.281	89.56
337.51	85.56
337.738	83.56
337.966	77.56
338.194	71.56
338.422	85.56
338.65	92.56
338.878	96.56
339.106	71.56
339.334	81.56
339.562	90.56
339.79	96.56
340.018	68.56
340.246	88.56
340.474	80.56
340.702	81.56
340.93	89.56
341.158	70.56
341.386	87.56
341.614	97.56
341.842	69.56
342.07	79.56
342.298	76.56
342.526	99.56
342.754	89.56
342.981	68.56
343.209	81.56
343.437	92.56
343.665	67.56
343.893	93.56
344.12	98.56
344.348	92.56
344.576	93.56
344.804	90.56
345.031	88.56
345.259	85.56
345.487	82.56
345.714	78.56
345.942	76.56
346.17	86.56
346.397	86.56
346.625	99.56
346.853	84.56
347.08	77.56
347.308	74.56
347.535	77.56
347.763	81.56
347.99	89.56
348.218	86.56
348.445	88.56
348.673	91.56
348.9	92.56
349.128	82.56
349.355	84.56
349.583	81.56
349.81	81.56
350.037	84.56
350.265	83.56
350.492	93.56
350.72	87.56
350.947	99.56
351.174	73.56
351.402	91.56
351.629	93.56
351.856	75.56
352.083	83.56
352.311	87.56
352.538	89.56
352.765	89.56
352.992	78.56
353.22	91.56
353.447	94.56
353.674	86.56
353.901	70.56
354.128	92.56
354.355	80.56
354.583	84.56
354.81	87.56
355.037	81.56
355.264	86.56
355.491	88.56
355.718	78.56
355.945	96.56
356.172	93.56
356.399	78.56
356.626	92.56
356.853	77.56
357.08	81.56
357.307	97.56
357.534	80.56
357.761	87.56
357.988	85.56
358.215	90.56
358.441	83.56
358.668	91.56
358.895	87.56
359.122	85.56
359.349	83.56
359.576	99.56
359.802	93.56
360.029	87.56
360.256	88.56
360.483	80.56
360.709	92.56
360.936	82.56
361.163	73.56
361.39	87.56
361.616	85.56
361.843	85.56
362.07	99.56
362.296	80.56
362.523	71.56
362.749	83.56
362.976	82.56
363.203	70.56
363.429	79.56
363.656	98.56
363.882	85.56
364.109	95.56
364.335	99.56
364.562	90.56
364.788	76.56
365.015	77.56
365.241	92.56
365.468	78.56
365.694	80.56
365.92	79.56
366.147	86.56
366.373	72.56
366.599	85.56
366.826	101.56
367.052	95.56
367.278	72.56
367.505	95.56
367.731	91.56
367.957	93.56
368.184	90.56
368.41	88.56
368.636	101.56
368.862	84.56
369.089	86.56
369.315	93.56
369.541	99.56
369.767	95.56
369.993	89.56
370.219	94.56
370.445	93.56
370.672	82.56
370.898	88.56
371.124	74.56
371.35	82.56
371.576	83.56
371.802	96.56
372.028	92.56
372.254	93.56
372.48	94.56
372.706	93.56
372.932	89.56
373.158	100.56
373.384	105.56
373.61	79.56
373.835	100.56
374.061	89.56
374.287	91.56
374.513	103.56
374.739	94.56
374.965	86.56
375.191	94.56
375.416	88.56
375.642	81.56
375.868	91.56
376.094	81.56
376.319	98.56
376.545	92.56
376.771	97.56
376.997	95.56
377.222	97.56
377.448	101.56
377.674	87.56
377.899	83.56
378.125	95.56
378.35	98.56
378.576	84.56
378.802	88.56
379.027	91.56
379.253	109.56
379.478	92.56
379.704	100.56
379.929	78.56
380.155	85.56
380.38	90.56
380.606	85.56
380.831	85.56
381.057	89.56
381.282	105.56
381.507	94.56
381.733	79.56
381.958	98.56
382.184	100.56
382.409	75.56
382.634	102.56
382.86	102.56
383.085	95.56
383.31	94.56
383.535	93.56
383.761	85.56
383.986	95.56
384.211	106.56
384.436	90.56
384.662	94.56
384.887	106.56
385.112	95.56
385.337	86.56
385.562	100.56
385.787	92.56
386.013	107.56
386.238	102.56
386.463	102.56
386.688	102.56
386.913	100.56
387.138	106.56
387.363	100.56
387.588	121.56
387.813	86.56
388.038	94.56
388.263	104.56
388.488	113.56
388.713	100.56
388.938	95.56
389.163	91.56
389.387	102.56
389.612	100.56
389.837	86.56
390.062	92.56
390.287	97.56
390.512	93.56
390.736	98.56
390.961	97.56
391.186	106.56
391.411	86.56
391.636	97.56
391.86	99.56
392.085	106.56
392.31	114.56
392.534	94.56
392.759	91.56
392.984	98.56
393.208	101.56
393.433	103.56
393.658	93.56
393.882	104.56
394.107	100.56
394.331	113.56
394.556	99.56
394.78	108.56
395.005	103.56
395.229	95.56
395.454	109.56
395.678	99.56
395.903	104.56
396.127	114.56
396.352	101.56
396.576	103.56
396.801	113.56
397.025	95.56
397.249	117.56
397.474	125.56
397.698	102.56
397.922	118.56
398.147	106.56
398.371	103.56
398.595	118.56
398.82	114.56
399.044	106.56
399.268	102.56
399.492	120.56
399.717	104.56
399.941	108.56
400.165	121.56
400.389	99.56
400.613	101.56
400.837	104.56
401.062	119.56
401.286	108.56
401.51	123.56
401.734	121.56
401.958	106.56
402.182	109.56
402.406	115.56
402.63	102.56
402.854	114.56
403.078	95.56
403.302	105.56
403.526	115.56
403.75	121.56
403.974	122.56
404.198	101.56
404.422	116.56
404.645	125.56
404.869	107.56
405.093	119.56
405.317	113.56
405.541	115.56
405.765	116.56
405.988	120.56
406.212	122.56
406.436	122.56
406.66	130.56
406.883	105.56
407.107	115.56
407.331	108.56
407.555	121.56
407.778	115.56
408.002	120.56
408.226	126.56
408.449	113.56
408.673	125.56
408.896	120.56
409.12	115.56
409.344	120.56
409.567	129.56
409.791	111.56
410.014	104.56
410.238	119.56
410.461	118.56
410.685	105.56
410.908	121.56
411.132	116.56
411.355	117.56
411.578	121.56
411.802	135.56
412.025	114.56
412.249	117.56
412.472	115.56
412.695	117.56
412.919	96.56
413.142	102.56
413.365	132.56
413.589	121.56
413.812	110.56
414.035	119.56
414.258	129.56
414.482	117.56
414.705	119.56
414.928	134.56
415.151	125.56
415.374	114.56
415.597	106.56
415.821	122.56
416.044	110.56
416.267	117.56
416.49	126.56
416.713	119.56
416.936	122.56
417.159	122.56
417.382	127.56
417.605	113.56
417.828	113.56
418.051	128.56
418.274	129.56
418.497	124.56
418.72	135.56
418.943	129.56
419.166	125.56
419.389	125.56
419.611	129.56
419.834	148.56
420.057	143.56
420.28	130.56
420.503	115.56
420.726	126.56
420.948	130.56
421.171	137.56
421.394	126.56
421.617	133.56
421.839	136.56
422.062	123.56
422.285	119.56
422.507	120.56
422.73	125.56
422.953	121.56
423.175	117.56
423.398	132.56
423.621	130.56
423.843	124.56
424.066	135.56
424.288	139.56
424.511	139.56
424.733	141.56
424.956	136.56
425.178	145.56
425.401	129.56
425.623	132.56
425.846	138.56
426.068	115.56
426.291	131.56
426.513	124.56
426.735	126.56
426.958	135.56
427.18	131.56
427.402	136.56
427.625	137.56
427.847	126.56
428.069	127.56
428.292	117.56
428.514	134.56
428.736	114.56
428.958	125.56
429.181	123.56
429.403	138.56
429.625	127.56
429.847	125.56
430.069	124.56
430.292	133.56
430.514	122.56
430.736	121.56
430.958	121.56
431.18	130.56
431.402	129.56
431.624	113.56
431.846	101.56
432.068	119.56
432.29	99.56
432.512	115.56
432.734	115.56
432.956	146.56
433.178	130.56
433.4	143.56
433.622	133.56
433.844	135.56
434.066	125.56
434.287	117.56
434.509	100.56
434.731	101.56
434.953	107.56
435.175	129.56
435.397	132.56
435.618	98.56
435.84	101.56
436.062	109.56
436.284	112.56
436.505	135.56
436.727	120.56
436.949	141.56
437.17	129.56
437.392	119.56
437.614	114.56
437.835	127.56
438.057	112.56
438.278	114.56
438.5	114.56
438.721	131.56
438.943	131.56
439.165	147.56
439.386	138.56
439.608	144.56
439.829	132.56
440.05	150.56
440.272	145.56
440.493	152.56
440.715	143.56
440.936	137.56
441.158	131.56
441.379	141.56
441.6	129.56
441.822	138.56
442.043	151.56
442.264	145.56
442.486	136.56
442.707	147.56
442.928	128.56
443.149	141.56
443.371	151.56
443.592	152.56
443.813	140.56
444.034	130.56
444.255	137.56
444.476	139.56
444.698	130.56
444.919	155.56
445.14	213.56
445.361	186.56
445.582	152.56
445.803	142.56
446.024	150.56
446.245	149.56
446.466	159.56
446.687	169.56
446.908	153.56
447.129	142.56
447.35	149.56
447.571	150.56
447.792	139.56
448.013	147.56
448.234	151.56
448.455	134.56
448.675	132.56
448.896	145.56
449.117	141.56
449.338	126.56
449.559	134.56
449.779	128.56
450	129.56
450.221	138.56
450.442	121.56
450.662	140.56
450.883	135.56
451.104	126.56
451.324	119.56
451.545	141.56
451.766	137.56
451.986	116.56
452.207	114.56
452.428	129.56
452.648	125.56
452.869	127.56
453.089	102.56
453.31	103.56
453.53	104.56
453.751	99.56
453.971	94.56
454.192	98.56
454.412	110.56
454.633	115.56
454.853	130.56
455.073	124.56
455.294	110.56
455.514	117.56
455.734	117.56
455.955	124.56
456.175	110.56
456.395	117.56
456.616	109.56
456.836	104.56
457.056	102.56
457.276	103.56
457.497	102.56
457.717	119.56
457.937	107.56
458.157	121.56
458.377	104.56
458.598	92.56
458.818	93.56
459.038	92.56
459.258	83.56
459.478	89.56
459.698	86.56
459.918	99.56
460.138	107.56
460.358	108.56
460.578	116.56
460.798	107.56
461.018	120.56
461.238	127.56
461.458	107.56
461.678	108.56
461.898	127.56
462.118	119.56
462.338	99.56
462.558	118.56
462.777	110.56
462.997	86.56
463.217	99.56
463.437	102.56
463.657	104.56
463.876	110.56
464.096	113.56
464.316	109.56
464.536	110.56
464.755	119.56
464.975	104.56
465.195	133.56
465.414	125.56
465.634	115.56
465.854	106.56
466.073	121.56
466.293	108.56
466.512	129.56
466.732	129.56
466.951	134.56
467.171	122.56
467.391	129.56
467.61	143.56
467.829	121.56
468.049	118.56
468.268	133.56
468.488	126.56
468.707	147.56
468.927	146.56
469.146	131.56
469.365	137.56
469.585	131.56
469.804	151.56
470.023	138.56
470.243	147.56
470.462	148.56
470.681	150.56
470.901	131.56
471.12	133.56
471.339	137.56
471.558	150.56
471.777	141.56
471.997	124.56
472.216	131.56
472.435	103.56
472.654	103.56
472.873	108.56
473.092	107.56
473.311	143.56
473.53	136.56
473.749	129.56
473.968	144.56
474.187	127.56
474.406	109.56
474.625	122.56
474.844	115.56
475.063	115.56
475.282	117.56
475.501	116.56
475.72	128.56
475.939	133.56
476.158	133.56
476.377	117.56
476.596	132.56
476.814	107.56
477.033	96.56
477.252	90.56
477.471	105.56
477.69	133.56
477.908	134.56
478.127	126.56
478.346	148.56
478.564	144.56
478.783	132.56
479.002	149.56
479.22	133.56
479.439	136.56
479.658	120.56
479.876	112.56
480.095	109.56
480.313	119.56
480.532	130.56
480.751	123.56
480.969	94.56
481.188	83.56
481.406	89.56
481.624	90.56
481.843	91.56
482.061	87.56
482.28	114.56
482.498	120.56
482.717	102.56
482.935	126.56
483.153	133.56
483.372	135.56
483.59	141.56
483.808	141.56
484.027	139.56
484.245	139.56
484.463	154.56
484.681	164.56
484.9	144.56
485.118	137.56
485.336	123.56
485.554	115.56
485.772	108.56
485.99	104.56
486.209	119.56
486.427	99.56
486.645	108.56
486.863	132.56
487.081	141.56
487.299	131.56
487.517	138.56
487.735	161.56
487.953	202.56
488.171	173.56
488.389	158.56
488.607	156.56
488.825	134.56
489.043	129.56
489.261	130.56
489.479	134.56
489.696	142.56
489.914	131.56
490.132	134.56
490.35	144.56
490.568	158.56
490.786	162.56
491.003	173.56
491.221	182.56
491.439	185.56
491.657	184.56
491.874	200.56
492.092	213.56
492.31	242.56
492.527	223.56
492.745	208.56
492.963	177.56
493.18	177.56
493.398	183.56
493.615	182.56
493.833	185.56
494.05	174.56
494.268	162.56
494.485	179.56
494.703	163.56
494.92	158.56
495.138	183.56
495.355	177.56
495.573	175.56
495.79	156.56
496.008	169.56
496.225	167.56
496.442	156.56
496.66	177.56
496.877	158.56
497.094	167.56
497.312	159.56
497.529	166.56
497.746	153.56
497.963	136.56
498.181	143.56
498.398	115.56
498.615	113.56
498.832	117.56
499.049	110.56
499.267	118.56
499.484	109.56
499.701	131.56
499.918	135.56
500.135	128.56
500.352	141.56
500.569	133.56
500.786	126.56
501.003	149.56
501.22	157.56
501.437	148.56
501.654	132.56
501.871	128.56
502.088	121.56
502.305	126.56
502.522	139.56
502.739	135.56
502.956	130.56
503.172	125.56
503.389	125.56
503.606	116.56
503.823	107.56
504.04	127.56
504.256	122.56
504.473	121.56
504.69	125.56
504.907	135.56
505.123	132.56
505.34	118.56
505.557	125.56
505.773	125.56
505.99	117.56
506.207	120.56
506.423	123.56
506.64	125.56
506.856	114.56
507.073	108.56
507.289	125.56
507.506	121.56
507.722	116.56
507.939	116.56
508.155	113.56
508.372	110.56
508.588	110.56
508.805	109.56
509.021	99.56
509.238	100.56
509.454	106.56
509.67	104.56
509.887	94.56
510.103	91.56
510.319	100.56
510.536	105.56
510.752	101.56
510.968	79.56
511.184	76.56
511.401	71.56
511.617	92.56
511.833	94.56
