Data from Location1.07152019.Energy5.Lamp.07192019.3%Agarose_HRD10591_14-32-10-018.txt Node
Date: Fri Jul 19 14:32:10 EDT 2019
User: cochatt
Spectrometer: HR+D1059
Trigger mode: 1
Integration Time (sec): 1.000000E-1
Scans to average: 1
Electric dark correction enabled: true
Nonlinearity correction enabled: false
Boxcar width: 0
XAxis mode: Wavelengths
Number of Pixels in Spectrum: 2048
>>>>>Begin Spectral Data<<<<<
223.165	-1.06
223.4	-1.06
223.635	-1.06
223.869	-5.06
224.104	-17.06
224.338	-16.06
224.573	-18.06
224.808	-24.06
225.042	-19.06
225.277	-13.06
225.511	-6.06
225.746	-1.06
225.98	4.94
226.215	17.94
226.449	0.94
226.683	25.94
226.918	36.94
227.152	33.94
227.387	26.94
227.621	35.94
227.856	32.94
228.09	25.94
228.324	64.94
228.559	48.94
228.793	66.94
229.027	62.94
229.262	61.94
229.496	57.94
229.73	73.94
229.964	62.94
230.199	75.94
230.433	74.94
230.667	79.94
230.901	66.94
231.136	71.94
231.37	89.94
231.604	80.94
231.838	75.94
232.072	89.94
232.306	78.94
232.541	74.94
232.775	59.94
233.009	91.94
233.243	75.94
233.477	69.94
233.711	83.94
233.945	76.94
234.179	81.94
234.413	84.94
234.647	73.94
234.881	70.94
235.115	83.94
235.349	78.94
235.583	86.94
235.817	92.94
236.051	82.94
236.285	81.94
236.519	83.94
236.753	87.94
236.987	82.94
237.221	64.94
237.455	92.94
237.689	96.94
237.922	78.94
238.156	79.94
238.39	72.94
238.624	75.94
238.858	76.94
239.091	76.94
239.325	61.94
239.559	73.94
239.793	83.94
240.027	67.94
240.26	72.94
240.494	69.94
240.728	78.94
240.961	69.94
241.195	76.94
241.429	70.94
241.662	68.94
241.896	68.94
242.13	82.94
242.363	79.94
242.597	79.94
242.83	67.94
243.064	74.94
243.298	56.94
243.531	81.94
243.765	79.94
243.998	92.94
244.232	97.94
244.465	78.94
244.699	74.94
244.932	76.94
245.166	76.94
245.399	73.94
245.633	78.94
245.866	69.94
246.099	76.94
246.333	74.94
246.566	73.94
246.8	84.94
247.033	84.94
247.266	67.94
247.5	89.94
247.733	82.94
247.966	74.94
248.2	86.94
248.433	75.94
248.666	66.94
248.899	66.94
249.133	78.94
249.366	77.94
249.599	70.94
249.832	82.94
250.066	71.94
250.299	75.94
250.532	78.94
250.765	78.94
250.998	73.94
251.231	72.94
251.465	88.94
251.698	80.94
251.931	82.94
252.164	70.94
252.397	77.94
252.63	78.94
252.863	81.94
253.096	71.94
253.329	72.94
253.562	84.94
253.795	72.94
254.028	74.94
254.261	80.94
254.494	84.94
254.727	81.94
254.96	80.94
255.193	74.94
255.426	93.94
255.659	81.94
255.892	68.94
256.124	91.94
256.357	83.94
256.59	96.94
256.823	70.94
257.056	75.94
257.289	72.94
257.521	75.94
257.754	72.94
257.987	73.94
258.22	71.94
258.452	80.94
258.685	75.94
258.918	72.94
259.151	78.94
259.383	72.94
259.616	82.94
259.849	85.94
260.081	76.94
260.314	97.94
260.547	72.94
260.779	77.94
261.012	79.94
261.244	72.94
261.477	97.94
261.71	87.94
261.942	78.94
262.175	85.94
262.407	76.94
262.64	70.94
262.872	70.94
263.105	72.94
263.337	70.94
263.57	74.94
263.802	87.94
264.035	72.94
264.267	76.94
264.499	82.94
264.732	91.94
264.964	74.94
265.197	86.94
265.429	73.94
265.661	69.94
265.894	78.94
266.126	86.94
266.358	79.94
266.591	82.94
266.823	76.94
267.055	80.94
267.287	78.94
267.52	75.94
267.752	93.94
267.984	88.94
268.216	89.94
268.448	88.94
268.681	71.94
268.913	77.94
269.145	72.94
269.377	81.94
269.609	88.94
269.841	71.94
270.073	72.94
270.306	81.94
270.538	85.94
270.77	78.94
271.002	78.94
271.234	75.94
271.466	81.94
271.698	64.94
271.93	84.94
272.162	85.94
272.394	76.94
272.626	94.94
272.858	80.94
273.09	87.94
273.322	81.94
273.553	85.94
273.785	75.94
274.017	98.94
274.249	72.94
274.481	87.94
274.713	84.94
274.945	88.94
275.176	76.94
275.408	74.94
275.64	92.94
275.872	84.94
276.104	73.94
276.335	96.94
276.567	75.94
276.799	91.94
277.031	89.94
277.262	89.94
277.494	93.94
277.726	84.94
277.957	86.94
278.189	98.94
278.421	84.94
278.652	73.94
278.884	87.94
279.115	88.94
279.347	83.94
279.579	79.94
279.81	86.94
280.042	89.94
280.273	80.94
280.505	77.94
280.736	85.94
280.968	89.94
281.199	94.94
281.431	76.94
281.662	84.94
281.894	81.94
282.125	77.94
282.356	92.94
282.588	69.94
282.819	73.94
283.051	75.94
283.282	87.94
283.513	83.94
283.745	82.94
283.976	69.94
284.207	74.94
284.439	83.94
284.67	86.94
284.901	83.94
285.132	81.94
285.364	77.94
285.595	80.94
285.826	91.94
286.057	79.94
286.288	82.94
286.52	81.94
286.751	78.94
286.982	79.94
287.213	77.94
287.444	79.94
287.675	86.94
287.906	80.94
288.138	82.94
288.369	84.94
288.6	71.94
288.831	81.94
289.062	77.94
289.293	82.94
289.524	93.94
289.755	91.94
289.986	76.94
290.217	79.94
290.448	85.94
290.679	87.94
290.91	70.94
291.141	92.94
291.371	83.94
291.602	84.94
291.833	84.94
292.064	89.94
292.295	91.94
292.526	79.94
292.757	88.94
292.987	80.94
293.218	85.94
293.449	82.94
293.68	102.94
293.91	81.94
294.141	79.94
294.372	93.94
294.603	90.94
294.833	72.94
295.064	88.94
295.295	74.94
295.525	75.94
295.756	81.94
295.987	84.94
296.217	78.94
296.448	85.94
296.679	83.94
296.909	101.94
297.14	81.94
297.37	85.94
297.601	76.94
297.831	72.94
298.062	94.94
298.292	73.94
298.523	86.94
298.753	92.94
298.984	76.94
299.214	85.94
299.445	75.94
299.675	76.94
299.905	80.94
300.136	82.94
300.366	88.94
300.597	72.94
300.827	77.94
301.057	81.94
301.288	88.94
301.518	93.94
301.748	66.94
301.979	86.94
302.209	78.94
302.439	86.94
302.669	77.94
302.9	80.94
303.13	80.94
303.36	87.94
303.59	88.94
303.82	88.94
304.051	93.94
304.281	82.94
304.511	82.94
304.741	75.94
304.971	73.94
305.201	78.94
305.431	96.94
305.661	66.94
305.891	66.94
306.121	71.94
306.352	89.94
306.582	82.94
306.812	99.94
307.042	80.94
307.272	85.94
307.502	90.94
307.731	90.94
307.961	79.94
308.191	80.94
308.421	88.94
308.651	98.94
308.881	88.94
309.111	79.94
309.341	90.94
309.571	92.94
309.8	78.94
310.03	76.94
310.26	84.94
310.49	76.94
310.72	79.94
310.949	75.94
311.179	92.94
311.409	103.94
311.639	95.94
311.868	86.94
312.098	73.94
312.328	82.94
312.557	85.94
312.787	94.94
313.017	96.94
313.246	88.94
313.476	77.94
313.706	95.94
313.935	77.94
314.165	84.94
314.394	86.94
314.624	85.94
314.853	86.94
315.083	86.94
315.312	92.94
315.542	92.94
315.771	106.94
316.001	101.94
316.23	90.94
316.46	83.94
316.689	84.94
316.919	81.94
317.148	85.94
317.377	94.94
317.607	74.94
317.836	97.94
318.065	104.94
318.295	72.94
318.524	77.94
318.753	87.94
318.983	85.94
319.212	78.94
319.441	80.94
319.67	96.94
319.9	81.94
320.129	76.94
320.358	86.94
320.587	91.94
320.816	86.94
321.046	90.94
321.275	80.94
321.504	83.94
321.733	86.94
321.962	90.94
322.191	87.94
322.42	76.94
322.649	84.94
322.878	86.94
323.108	89.94
323.337	86.94
323.566	90.94
323.795	86.94
324.024	80.94
324.253	82.94
324.482	68.94
324.71	82.94
324.939	88.94
325.168	92.94
325.397	75.94
325.626	85.94
325.855	80.94
326.084	80.94
326.313	81.94
326.542	87.94
326.77	93.94
326.999	96.94
327.228	82.94
327.457	92.94
327.686	88.94
327.914	74.94
328.143	83.94
328.372	82.94
328.6	76.94
328.829	75.94
329.058	76.94
329.287	81.94
329.515	92.94
329.744	85.94
329.972	85.94
330.201	89.94
330.43	92.94
330.658	84.94
330.887	85.94
331.115	82.94
331.344	83.94
331.572	69.94
331.801	85.94
332.03	81.94
332.258	90.94
332.486	78.94
332.715	83.94
332.943	78.94
333.172	76.94
333.4	83.94
333.629	79.94
333.857	89.94
334.085	74.94
334.314	88.94
334.542	80.94
334.771	90.94
334.999	76.94
335.227	88.94
335.455	79.94
335.684	90.94
335.912	87.94
336.14	83.94
336.369	83.94
336.597	93.94
336.825	81.94
337.053	87.94
337.281	73.94
337.51	85.94
337.738	90.94
337.966	88.94
338.194	74.94
338.422	82.94
338.65	90.94
338.878	92.94
339.106	104.94
339.334	91.94
339.562	77.94
339.79	90.94
340.018	84.94
340.246	60.94
340.474	85.94
340.702	71.94
340.93	82.94
341.158	77.94
341.386	73.94
341.614	80.94
341.842	77.94
342.07	81.94
342.298	92.94
342.526	86.94
342.754	80.94
342.981	79.94
343.209	93.94
343.437	82.94
343.665	83.94
343.893	87.94
344.12	79.94
344.348	88.94
344.576	86.94
344.804	90.94
345.031	81.94
345.259	81.94
345.487	79.94
345.714	88.94
345.942	82.94
346.17	74.94
346.397	79.94
346.625	76.94
346.853	85.94
347.08	72.94
347.308	83.94
347.535	85.94
347.763	91.94
347.99	93.94
348.218	79.94
348.445	90.94
348.673	89.94
348.9	90.94
349.128	78.94
349.355	83.94
349.583	77.94
349.81	79.94
350.037	90.94
350.265	100.94
350.492	84.94
350.72	104.94
350.947	75.94
351.174	85.94
351.402	72.94
351.629	75.94
351.856	77.94
352.083	86.94
352.311	93.94
352.538	88.94
352.765	71.94
352.992	83.94
353.22	76.94
353.447	87.94
353.674	78.94
353.901	78.94
354.128	87.94
354.355	86.94
354.583	81.94
354.81	73.94
355.037	80.94
355.264	83.94
355.491	73.94
355.718	73.94
355.945	89.94
356.172	81.94
356.399	82.94
356.626	81.94
356.853	82.94
357.08	92.94
357.307	72.94
357.534	88.94
357.761	92.94
357.988	87.94
358.215	76.94
358.441	75.94
358.668	82.94
358.895	86.94
359.122	91.94
359.349	88.94
359.576	67.94
359.802	80.94
360.029	70.94
360.256	83.94
360.483	76.94
360.709	88.94
360.936	78.94
361.163	78.94
361.39	72.94
361.616	82.94
361.843	65.94
362.07	74.94
362.296	82.94
362.523	77.94
362.749	77.94
362.976	80.94
363.203	89.94
363.429	83.94
363.656	84.94
363.882	94.94
364.109	85.94
364.335	74.94
364.562	70.94
364.788	89.94
365.015	87.94
365.241	79.94
365.468	83.94
365.694	83.94
365.92	84.94
366.147	90.94
366.373	84.94
366.599	81.94
366.826	80.94
367.052	86.94
367.278	95.94
367.505	82.94
367.731	97.94
367.957	78.94
368.184	86.94
368.41	75.94
368.636	74.94
368.862	90.94
369.089	92.94
369.315	101.94
369.541	104.94
369.767	74.94
369.993	84.94
370.219	80.94
370.445	84.94
370.672	86.94
370.898	90.94
371.124	89.94
371.35	100.94
371.576	97.94
371.802	92.94
372.028	89.94
372.254	101.94
372.48	89.94
372.706	84.94
372.932	90.94
373.158	82.94
373.384	104.94
373.61	83.94
373.835	88.94
374.061	73.94
374.287	102.94
374.513	96.94
374.739	82.94
374.965	90.94
375.191	78.94
375.416	98.94
375.642	98.94
375.868	95.94
376.094	80.94
376.319	100.94
376.545	93.94
376.771	98.94
376.997	88.94
377.222	87.94
377.448	107.94
377.674	87.94
377.899	91.94
378.125	88.94
378.35	97.94
378.576	98.94
378.802	86.94
379.027	91.94
379.253	82.94
379.478	108.94
379.704	78.94
379.929	89.94
380.155	85.94
380.38	80.94
380.606	100.94
380.831	88.94
381.057	102.94
381.282	100.94
381.507	100.94
381.733	81.94
381.958	94.94
382.184	103.94
382.409	104.94
382.634	96.94
382.86	93.94
383.085	107.94
383.31	118.94
383.535	87.94
383.761	91.94
383.986	113.94
384.211	88.94
384.436	93.94
384.662	98.94
384.887	80.94
385.112	94.94
385.337	89.94
385.562	95.94
385.787	120.94
386.013	106.94
386.238	103.94
386.463	92.94
386.688	88.94
386.913	89.94
387.138	91.94
387.363	93.94
387.588	104.94
387.813	103.94
388.038	102.94
388.263	92.94
388.488	91.94
388.713	102.94
388.938	103.94
389.163	97.94
389.387	86.94
389.612	99.94
389.837	97.94
390.062	95.94
390.287	102.94
390.512	100.94
390.736	99.94
390.961	103.94
391.186	99.94
391.411	104.94
391.636	99.94
391.86	94.94
392.085	95.94
392.31	96.94
392.534	102.94
392.759	93.94
392.984	98.94
393.208	101.94
393.433	92.94
393.658	80.94
393.882	96.94
394.107	109.94
394.331	101.94
394.556	92.94
394.78	119.94
395.005	96.94
395.229	100.94
395.454	110.94
395.678	106.94
395.903	108.94
396.127	103.94
396.352	103.94
396.576	95.94
396.801	101.94
397.025	84.94
397.249	116.94
397.474	116.94
397.698	116.94
397.922	98.94
398.147	101.94
398.371	116.94
398.595	102.94
398.82	112.94
399.044	109.94
399.268	106.94
399.492	113.94
399.717	111.94
399.941	100.94
400.165	102.94
400.389	111.94
400.613	102.94
400.837	114.94
401.062	116.94
401.286	98.94
401.51	108.94
401.734	99.94
401.958	107.94
402.182	108.94
402.406	97.94
402.63	105.94
402.854	114.94
403.078	94.94
403.302	116.94
403.526	105.94
403.75	114.94
403.974	93.94
404.198	112.94
404.422	112.94
404.645	113.94
404.869	118.94
405.093	120.94
405.317	118.94
405.541	109.94
405.765	114.94
405.988	119.94
406.212	94.94
406.436	115.94
406.66	121.94
406.883	111.94
407.107	106.94
407.331	120.94
407.555	120.94
407.778	114.94
408.002	125.94
408.226	112.94
408.449	125.94
408.673	112.94
408.896	116.94
409.12	106.94
409.344	108.94
409.567	124.94
409.791	116.94
410.014	130.94
410.238	113.94
410.461	122.94
410.685	122.94
410.908	117.94
411.132	124.94
411.355	108.94
411.578	118.94
411.802	115.94
412.025	118.94
412.249	117.94
412.472	121.94
412.695	123.94
412.919	110.94
413.142	114.94
413.365	121.94
413.589	126.94
413.812	125.94
414.035	118.94
414.258	127.94
414.482	116.94
414.705	116.94
414.928	112.94
415.151	108.94
415.374	109.94
415.597	130.94
415.821	102.94
416.044	126.94
416.267	134.94
416.49	132.94
416.713	131.94
416.936	133.94
417.159	129.94
417.382	119.94
417.605	121.94
417.828	120.94
418.051	122.94
418.274	145.94
418.497	137.94
418.72	135.94
418.943	131.94
419.166	141.94
419.389	138.94
419.611	135.94
419.834	119.94
420.057	131.94
420.28	119.94
420.503	127.94
420.726	136.94
420.948	139.94
421.171	127.94
421.394	134.94
421.617	139.94
421.839	133.94
422.062	142.94
422.285	133.94
422.507	122.94
422.73	121.94
422.953	119.94
423.175	135.94
423.398	121.94
423.621	120.94
423.843	125.94
424.066	123.94
424.288	129.94
424.511	144.94
424.733	121.94
424.956	149.94
425.178	135.94
425.401	132.94
425.623	129.94
425.846	128.94
426.068	135.94
426.291	143.94
426.513	132.94
426.735	130.94
426.958	133.94
427.18	139.94
427.402	127.94
427.625	118.94
427.847	124.94
428.069	125.94
428.292	128.94
428.514	126.94
428.736	120.94
428.958	134.94
429.181	137.94
429.403	136.94
429.625	133.94
429.847	138.94
430.069	118.94
430.292	132.94
430.514	128.94
430.736	114.94
430.958	129.94
431.18	122.94
431.402	130.94
431.624	117.94
431.846	104.94
432.068	86.94
432.29	97.94
432.512	112.94
432.734	112.94
432.956	132.94
433.178	146.94
433.4	123.94
433.622	129.94
433.844	126.94
434.066	126.94
434.287	94.94
434.509	91.94
434.731	90.94
434.953	103.94
435.175	120.94
435.397	119.94
435.618	113.94
435.84	110.94
436.062	116.94
436.284	121.94
436.505	122.94
436.727	125.94
436.949	122.94
437.17	125.94
437.392	125.94
437.614	124.94
437.835	98.94
438.057	117.94
438.278	118.94
438.5	136.94
438.721	119.94
438.943	123.94
439.165	133.94
439.386	132.94
439.608	136.94
439.829	141.94
440.05	156.94
440.272	151.94
440.493	146.94
440.715	160.94
440.936	141.94
441.158	148.94
441.379	126.94
441.6	132.94
441.822	147.94
442.043	150.94
442.264	131.94
442.486	131.94
442.707	142.94
442.928	142.94
443.149	138.94
443.371	134.94
443.592	137.94
443.813	136.94
444.034	138.94
444.255	144.94
444.476	136.94
444.698	132.94
444.919	154.94
445.14	270.94
445.361	218.94
445.582	146.94
445.803	141.94
446.024	139.94
446.245	142.94
446.466	145.94
446.687	147.94
446.908	155.94
447.129	145.94
447.35	154.94
447.571	158.94
447.792	146.94
448.013	145.94
448.234	143.94
448.455	142.94
448.675	140.94
448.896	130.94
449.117	139.94
449.338	136.94
449.559	146.94
449.779	140.94
450	124.94
450.221	134.94
450.442	135.94
450.662	137.94
450.883	134.94
451.104	128.94
451.324	118.94
451.545	122.94
451.766	132.94
451.986	130.94
452.207	117.94
452.428	126.94
452.648	115.94
452.869	121.94
453.089	107.94
453.31	114.94
453.53	109.94
453.751	107.94
453.971	104.94
454.192	101.94
454.412	93.94
454.633	103.94
454.853	105.94
455.073	116.94
455.294	130.94
455.514	116.94
455.734	127.94
455.955	105.94
456.175	106.94
456.395	115.94
456.616	108.94
456.836	115.94
457.056	97.94
457.276	108.94
457.497	114.94
457.717	108.94
457.937	120.94
458.157	105.94
458.377	105.94
458.598	97.94
458.818	98.94
459.038	79.94
459.258	91.94
459.478	95.94
459.698	78.94
459.918	101.94
460.138	108.94
460.358	106.94
460.578	124.94
460.798	105.94
461.018	99.94
461.238	102.94
461.458	120.94
461.678	118.94
461.898	108.94
462.118	124.94
462.338	110.94
462.558	122.94
462.777	108.94
462.997	104.94
463.217	105.94
463.437	90.94
463.657	93.94
463.876	98.94
464.096	92.94
464.316	95.94
464.536	110.94
464.755	106.94
464.975	103.94
465.195	118.94
465.414	116.94
465.634	106.94
465.854	123.94
466.073	125.94
466.293	130.94
466.512	130.94
466.732	129.94
466.951	121.94
467.171	111.94
467.391	123.94
467.61	124.94
467.829	132.94
468.049	131.94
468.268	117.94
468.488	123.94
468.707	132.94
468.927	139.94
469.146	132.94
469.365	137.94
469.585	154.94
469.804	148.94
470.023	144.94
470.243	138.94
470.462	136.94
470.681	150.94
470.901	144.94
471.12	137.94
471.339	141.94
471.558	161.94
471.777	132.94
471.997	141.94
472.216	123.94
472.435	116.94
472.654	105.94
472.873	109.94
473.092	121.94
473.311	122.94
473.53	113.94
473.749	124.94
473.968	128.94
474.187	128.94
474.406	113.94
474.625	120.94
474.844	120.94
475.063	129.94
475.282	122.94
475.501	128.94
475.72	141.94
475.939	142.94
476.158	119.94
476.377	112.94
476.596	114.94
476.814	119.94
477.033	116.94
477.252	95.94
477.471	117.94
477.69	138.94
477.908	126.94
478.127	142.94
478.346	122.94
478.564	128.94
478.783	121.94
479.002	126.94
479.22	132.94
479.439	135.94
479.658	116.94
479.876	112.94
480.095	97.94
480.313	114.94
480.532	121.94
480.751	110.94
480.969	94.94
481.188	91.94
481.406	93.94
481.624	93.94
481.843	78.94
482.061	89.94
482.28	113.94
482.498	116.94
482.717	114.94
482.935	101.94
483.153	140.94
483.372	150.94
483.59	136.94
483.808	140.94
484.027	123.94
484.245	139.94
484.463	148.94
484.681	151.94
484.9	147.94
485.118	146.94
485.336	122.94
485.554	105.94
485.772	97.94
485.99	86.94
486.209	105.94
486.427	110.94
486.645	119.94
486.863	131.94
487.081	130.94
487.299	119.94
487.517	132.94
487.735	160.94
487.953	194.94
488.171	189.94
488.389	182.94
488.607	163.94
488.825	142.94
489.043	146.94
489.261	126.94
489.479	141.94
489.696	126.94
489.914	121.94
490.132	137.94
490.35	142.94
490.568	134.94
490.786	175.94
491.003	189.94
491.221	171.94
491.439	180.94
491.657	172.94
491.874	194.94
492.092	221.94
492.31	242.94
492.527	229.94
492.745	189.94
492.963	188.94
493.18	181.94
493.398	192.94
493.615	170.94
493.833	170.94
494.05	171.94
494.268	177.94
494.485	176.94
494.703	176.94
494.92	163.94
495.138	166.94
495.355	173.94
495.573	178.94
495.79	160.94
496.008	152.94
496.225	166.94
496.442	153.94
496.66	162.94
496.877	137.94
497.094	158.94
497.312	164.94
497.529	156.94
497.746	146.94
497.963	140.94
498.181	149.94
498.398	126.94
498.615	115.94
498.832	128.94
499.049	120.94
499.267	122.94
499.484	117.94
499.701	134.94
499.918	153.94
500.135	121.94
500.352	141.94
500.569	149.94
500.786	134.94
501.003	132.94
501.22	134.94
501.437	137.94
501.654	138.94
501.871	110.94
502.088	132.94
502.305	124.94
502.522	134.94
502.739	125.94
502.956	128.94
503.172	121.94
503.389	113.94
503.606	93.94
503.823	125.94
504.04	117.94
504.256	117.94
504.473	110.94
504.69	105.94
504.907	130.94
505.123	120.94
505.34	125.94
505.557	120.94
505.773	116.94
505.99	117.94
506.207	136.94
506.423	101.94
506.64	110.94
506.856	102.94
507.073	126.94
507.289	122.94
507.506	112.94
507.722	117.94
507.939	128.94
508.155	116.94
508.372	104.94
508.588	114.94
508.805	107.94
509.021	109.94
509.238	116.94
509.454	105.94
509.67	109.94
509.887	94.94
510.103	106.94
510.319	93.94
510.536	91.94
510.752	94.94
510.968	79.94
511.184	83.94
511.401	86.94
511.617	86.94
511.833	93.94
512.049	92.94
