Data from Location1.07152019.Energy5.Lamp.07192019.3%Agarose_HRD10591_14-31-17-017.txt Node
Date: Fri Jul 19 14:31:17 EDT 2019
User: cochatt
Spectrometer: HR+D1059
Trigger mode: 1
Integration Time (sec): 1.000000E-1
Scans to average: 1
Electric dark correction enabled: true
Nonlinearity correction enabled: false
Boxcar width: 0
XAxis mode: Wavelengths
Number of Pixels in Spectrum: 2048
>>>>>Begin Spectral Data<<<<<
223.165	-7.25
223.4	-7.25
223.635	-7.25
223.869	-22.25
224.104	-13.25
224.338	-27.25
224.573	-17.25
224.808	-10.25
225.042	-6.25
225.277	-1.25
225.511	3.75
225.746	19.75
225.98	-9.25
226.215	20.75
226.449	15.75
226.683	9.75
226.918	24.75
227.152	19.75
227.387	28.75
227.621	36.75
227.856	54.75
228.09	48.75
228.324	65.75
228.559	49.75
228.793	66.75
229.027	65.75
229.262	54.75
229.496	59.75
229.73	72.75
229.964	75.75
230.199	59.75
230.433	71.75
230.667	78.75
230.901	75.75
231.136	77.75
231.37	88.75
231.604	77.75
231.838	87.75
232.072	77.75
232.306	89.75
232.541	79.75
232.775	80.75
233.009	98.75
233.243	84.75
233.477	81.75
233.711	72.75
233.945	80.75
234.179	75.75
234.413	66.75
234.647	70.75
234.881	84.75
235.115	95.75
235.349	86.75
235.583	84.75
235.817	70.75
236.051	78.75
236.285	81.75
236.519	74.75
236.753	75.75
236.987	91.75
237.221	68.75
237.455	69.75
237.689	90.75
237.922	84.75
238.156	67.75
238.39	71.75
238.624	67.75
238.858	76.75
239.091	84.75
239.325	73.75
239.559	79.75
239.793	78.75
240.027	70.75
240.26	64.75
240.494	76.75
240.728	75.75
240.961	77.75
241.195	77.75
241.429	70.75
241.662	71.75
241.896	72.75
242.13	65.75
242.363	61.75
242.597	77.75
242.83	78.75
243.064	74.75
243.298	88.75
243.531	68.75
243.765	78.75
243.998	77.75
244.232	69.75
244.465	79.75
244.699	69.75
244.932	88.75
245.166	75.75
245.399	84.75
245.633	87.75
245.866	86.75
246.099	87.75
246.333	77.75
246.566	59.75
246.8	60.75
247.033	62.75
247.266	77.75
247.5	76.75
247.733	80.75
247.966	77.75
248.2	70.75
248.433	78.75
248.666	88.75
248.899	74.75
249.133	85.75
249.366	64.75
249.599	84.75
249.832	72.75
250.066	75.75
250.299	69.75
250.532	77.75
250.765	76.75
250.998	91.75
251.231	77.75
251.465	76.75
251.698	79.75
251.931	72.75
252.164	77.75
252.397	74.75
252.63	71.75
252.863	86.75
253.096	75.75
253.329	77.75
253.562	83.75
253.795	77.75
254.028	91.75
254.261	79.75
254.494	72.75
254.727	74.75
254.96	76.75
255.193	69.75
255.426	76.75
255.659	81.75
255.892	68.75
256.124	82.75
256.357	90.75
256.59	88.75
256.823	85.75
257.056	84.75
257.289	77.75
257.521	79.75
257.754	73.75
257.987	83.75
258.22	89.75
258.452	89.75
258.685	79.75
258.918	70.75
259.151	81.75
259.383	95.75
259.616	86.75
259.849	68.75
260.081	72.75
260.314	72.75
260.547	83.75
260.779	83.75
261.012	83.75
261.244	69.75
261.477	80.75
261.71	77.75
261.942	74.75
262.175	81.75
262.407	97.75
262.64	77.75
262.872	64.75
263.105	88.75
263.337	83.75
263.57	73.75
263.802	74.75
264.035	84.75
264.267	87.75
264.499	79.75
264.732	89.75
264.964	88.75
265.197	80.75
265.429	84.75
265.661	86.75
265.894	85.75
266.126	90.75
266.358	74.75
266.591	78.75
266.823	71.75
267.055	96.75
267.287	84.75
267.52	90.75
267.752	89.75
267.984	71.75
268.216	98.75
268.448	88.75
268.681	84.75
268.913	78.75
269.145	87.75
269.377	83.75
269.609	90.75
269.841	79.75
270.073	90.75
270.306	76.75
270.538	84.75
270.77	75.75
271.002	90.75
271.234	92.75
271.466	98.75
271.698	90.75
271.93	87.75
272.162	84.75
272.394	87.75
272.626	73.75
272.858	85.75
273.09	79.75
273.322	79.75
273.553	81.75
273.785	85.75
274.017	84.75
274.249	85.75
274.481	86.75
274.713	84.75
274.945	66.75
275.176	81.75
275.408	82.75
275.64	75.75
275.872	88.75
276.104	84.75
276.335	86.75
276.567	89.75
276.799	83.75
277.031	85.75
277.262	89.75
277.494	89.75
277.726	88.75
277.957	65.75
278.189	98.75
278.421	90.75
278.652	88.75
278.884	69.75
279.115	84.75
279.347	80.75
279.579	77.75
279.81	76.75
280.042	71.75
280.273	81.75
280.505	76.75
280.736	75.75
280.968	77.75
281.199	87.75
281.431	76.75
281.662	70.75
281.894	78.75
282.125	83.75
282.356	70.75
282.588	78.75
282.819	75.75
283.051	75.75
283.282	83.75
283.513	86.75
283.745	88.75
283.976	77.75
284.207	74.75
284.439	82.75
284.67	75.75
284.901	84.75
285.132	76.75
285.364	80.75
285.595	72.75
285.826	88.75
286.057	78.75
286.288	81.75
286.52	88.75
286.751	76.75
286.982	83.75
287.213	80.75
287.444	81.75
287.675	95.75
287.906	85.75
288.138	91.75
288.369	85.75
288.6	89.75
288.831	76.75
289.062	98.75
289.293	75.75
289.524	96.75
289.755	79.75
289.986	75.75
290.217	92.75
290.448	76.75
290.679	94.75
290.91	95.75
291.141	75.75
291.371	80.75
291.602	76.75
291.833	93.75
292.064	80.75
292.295	84.75
292.526	86.75
292.757	76.75
292.987	83.75
293.218	76.75
293.449	79.75
293.68	88.75
293.91	89.75
294.141	93.75
294.372	78.75
294.603	81.75
294.833	85.75
295.064	79.75
295.295	77.75
295.525	82.75
295.756	94.75
295.987	93.75
296.217	75.75
296.448	78.75
296.679	89.75
296.909	89.75
297.14	84.75
297.37	78.75
297.601	90.75
297.831	85.75
298.062	71.75
298.292	78.75
298.523	90.75
298.753	87.75
298.984	87.75
299.214	76.75
299.445	77.75
299.675	92.75
299.905	88.75
300.136	83.75
300.366	80.75
300.597	83.75
300.827	78.75
301.057	88.75
301.288	81.75
301.518	93.75
301.748	84.75
301.979	76.75
302.209	90.75
302.439	74.75
302.669	87.75
302.9	75.75
303.13	82.75
303.36	98.75
303.59	92.75
303.82	85.75
304.051	77.75
304.281	92.75
304.511	91.75
304.741	77.75
304.971	96.75
305.201	88.75
305.431	77.75
305.661	82.75
305.891	82.75
306.121	94.75
306.352	86.75
306.582	73.75
306.812	86.75
307.042	90.75
307.272	77.75
307.502	90.75
307.731	84.75
307.961	84.75
308.191	84.75
308.421	83.75
308.651	88.75
308.881	87.75
309.111	73.75
309.341	89.75
309.571	75.75
309.8	85.75
310.03	66.75
310.26	88.75
310.49	80.75
310.72	96.75
310.949	82.75
311.179	77.75
311.409	70.75
311.639	88.75
311.868	70.75
312.098	84.75
312.328	85.75
312.557	92.75
312.787	78.75
313.017	84.75
313.246	93.75
313.476	94.75
313.706	81.75
313.935	78.75
314.165	73.75
314.394	82.75
314.624	74.75
314.853	68.75
315.083	86.75
315.312	94.75
315.542	89.75
315.771	86.75
316.001	82.75
316.23	86.75
316.46	77.75
316.689	89.75
316.919	90.75
317.148	75.75
317.377	74.75
317.607	85.75
317.836	92.75
318.065	85.75
318.295	85.75
318.524	85.75
318.753	63.75
318.983	78.75
319.212	93.75
319.441	84.75
319.67	89.75
319.9	83.75
320.129	75.75
320.358	82.75
320.587	82.75
320.816	86.75
321.046	80.75
321.275	73.75
321.504	75.75
321.733	88.75
321.962	97.75
322.191	89.75
322.42	76.75
322.649	87.75
322.878	77.75
323.108	88.75
323.337	72.75
323.566	92.75
323.795	102.75
324.024	84.75
324.253	94.75
324.482	88.75
324.71	71.75
324.939	81.75
325.168	83.75
325.397	80.75
325.626	94.75
325.855	77.75
326.084	75.75
326.313	75.75
326.542	84.75
326.77	74.75
326.999	97.75
327.228	89.75
327.457	80.75
327.686	79.75
327.914	84.75
328.143	79.75
328.372	83.75
328.6	83.75
328.829	82.75
329.058	71.75
329.287	74.75
329.515	78.75
329.744	78.75
329.972	84.75
330.201	75.75
330.43	76.75
330.658	94.75
330.887	80.75
331.115	74.75
331.344	79.75
331.572	76.75
331.801	87.75
332.03	81.75
332.258	93.75
332.486	74.75
332.715	94.75
332.943	83.75
333.172	68.75
333.4	93.75
333.629	89.75
333.857	83.75
334.085	82.75
334.314	92.75
334.542	96.75
334.771	89.75
334.999	67.75
335.227	85.75
335.455	86.75
335.684	92.75
335.912	85.75
336.14	82.75
336.369	82.75
336.597	79.75
336.825	92.75
337.053	84.75
337.281	97.75
337.51	90.75
337.738	89.75
337.966	84.75
338.194	82.75
338.422	89.75
338.65	92.75
338.878	78.75
339.106	67.75
339.334	89.75
339.562	80.75
339.79	77.75
340.018	96.75
340.246	69.75
340.474	83.75
340.702	76.75
340.93	86.75
341.158	91.75
341.386	76.75
341.614	92.75
341.842	79.75
342.07	77.75
342.298	95.75
342.526	91.75
342.754	93.75
342.981	74.75
343.209	76.75
343.437	81.75
343.665	98.75
343.893	73.75
344.12	81.75
344.348	83.75
344.576	82.75
344.804	71.75
345.031	83.75
345.259	89.75
345.487	80.75
345.714	84.75
345.942	71.75
346.17	97.75
346.397	85.75
346.625	69.75
346.853	86.75
347.08	85.75
347.308	78.75
347.535	90.75
347.763	79.75
347.99	77.75
348.218	80.75
348.445	80.75
348.673	100.75
348.9	78.75
349.128	97.75
349.355	89.75
349.583	99.75
349.81	84.75
350.037	75.75
350.265	78.75
350.492	90.75
350.72	79.75
350.947	100.75
351.174	93.75
351.402	65.75
351.629	88.75
351.856	71.75
352.083	75.75
352.311	92.75
352.538	78.75
352.765	80.75
352.992	82.75
353.22	79.75
353.447	82.75
353.674	92.75
353.901	80.75
354.128	79.75
354.355	92.75
354.583	81.75
354.81	91.75
355.037	68.75
355.264	89.75
355.491	82.75
355.718	85.75
355.945	93.75
356.172	78.75
356.399	76.75
356.626	82.75
356.853	76.75
357.08	78.75
357.307	89.75
357.534	88.75
357.761	73.75
357.988	80.75
358.215	73.75
358.441	86.75
358.668	88.75
358.895	80.75
359.122	76.75
359.349	74.75
359.576	75.75
359.802	84.75
360.029	68.75
360.256	73.75
360.483	72.75
360.709	91.75
360.936	86.75
361.163	85.75
361.39	78.75
361.616	74.75
361.843	88.75
362.07	78.75
362.296	83.75
362.523	92.75
362.749	85.75
362.976	92.75
363.203	89.75
363.429	81.75
363.656	92.75
363.882	92.75
364.109	82.75
364.335	79.75
364.562	77.75
364.788	78.75
365.015	73.75
365.241	84.75
365.468	92.75
365.694	77.75
365.92	86.75
366.147	92.75
366.373	69.75
366.599	92.75
366.826	101.75
367.052	68.75
367.278	89.75
367.505	83.75
367.731	89.75
367.957	84.75
368.184	88.75
368.41	78.75
368.636	96.75
368.862	98.75
369.089	97.75
369.315	89.75
369.541	94.75
369.767	103.75
369.993	85.75
370.219	92.75
370.445	74.75
370.672	78.75
370.898	87.75
371.124	82.75
371.35	81.75
371.576	96.75
371.802	82.75
372.028	90.75
372.254	81.75
372.48	93.75
372.706	79.75
372.932	106.75
373.158	84.75
373.384	88.75
373.61	85.75
373.835	84.75
374.061	86.75
374.287	78.75
374.513	86.75
374.739	111.75
374.965	87.75
375.191	86.75
375.416	101.75
375.642	97.75
375.868	69.75
376.094	98.75
376.319	96.75
376.545	84.75
376.771	87.75
376.997	98.75
377.222	88.75
377.448	93.75
377.674	85.75
377.899	90.75
378.125	94.75
378.35	88.75
378.576	93.75
378.802	96.75
379.027	98.75
379.253	90.75
379.478	95.75
379.704	85.75
379.929	98.75
380.155	92.75
380.38	91.75
380.606	81.75
380.831	101.75
381.057	96.75
381.282	96.75
381.507	92.75
381.733	92.75
381.958	94.75
382.184	91.75
382.409	88.75
382.634	92.75
382.86	83.75
383.085	91.75
383.31	81.75
383.535	84.75
383.761	84.75
383.986	92.75
384.211	105.75
384.436	106.75
384.662	96.75
384.887	92.75
385.112	102.75
385.337	90.75
385.562	93.75
385.787	104.75
386.013	94.75
386.238	90.75
386.463	99.75
386.688	100.75
386.913	104.75
387.138	104.75
387.363	104.75
387.588	105.75
387.813	78.75
388.038	110.75
388.263	108.75
388.488	91.75
388.713	105.75
388.938	100.75
389.163	109.75
389.387	114.75
389.612	98.75
389.837	92.75
390.062	94.75
390.287	115.75
390.512	105.75
390.736	95.75
390.961	107.75
391.186	97.75
391.411	112.75
391.636	110.75
391.86	99.75
392.085	113.75
392.31	112.75
392.534	102.75
392.759	112.75
392.984	99.75
393.208	101.75
393.433	107.75
393.658	95.75
393.882	106.75
394.107	89.75
394.331	104.75
394.556	99.75
394.78	116.75
395.005	112.75
395.229	90.75
395.454	101.75
395.678	92.75
395.903	89.75
396.127	86.75
396.352	98.75
396.576	107.75
396.801	92.75
397.025	109.75
397.249	100.75
397.474	99.75
397.698	93.75
397.922	119.75
398.147	106.75
398.371	107.75
398.595	116.75
398.82	102.75
399.044	97.75
399.268	91.75
399.492	98.75
399.717	117.75
399.941	96.75
400.165	99.75
400.389	100.75
400.613	116.75
400.837	115.75
401.062	118.75
401.286	119.75
401.51	114.75
401.734	100.75
401.958	108.75
402.182	105.75
402.406	117.75
402.63	108.75
402.854	104.75
403.078	112.75
403.302	117.75
403.526	109.75
403.75	109.75
403.974	98.75
404.198	105.75
404.422	118.75
404.645	102.75
404.869	116.75
405.093	100.75
405.317	101.75
405.541	129.75
405.765	125.75
405.988	134.75
406.212	127.75
406.436	125.75
406.66	124.75
406.883	123.75
407.107	120.75
407.331	118.75
407.555	116.75
407.778	116.75
408.002	122.75
408.226	125.75
408.449	114.75
408.673	100.75
408.896	112.75
409.12	118.75
409.344	128.75
409.567	116.75
409.791	107.75
410.014	114.75
410.238	110.75
410.461	120.75
410.685	118.75
410.908	109.75
411.132	108.75
411.355	127.75
411.578	107.75
411.802	114.75
412.025	106.75
412.249	114.75
412.472	117.75
412.695	122.75
412.919	126.75
413.142	118.75
413.365	117.75
413.589	122.75
413.812	124.75
414.035	113.75
414.258	136.75
414.482	112.75
414.705	98.75
414.928	103.75
415.151	116.75
415.374	130.75
415.597	117.75
415.821	117.75
416.044	120.75
416.267	123.75
416.49	132.75
416.713	122.75
416.936	124.75
417.159	116.75
417.382	115.75
417.605	117.75
417.828	122.75
418.051	130.75
418.274	113.75
418.497	131.75
418.72	130.75
418.943	128.75
419.166	124.75
419.389	118.75
419.611	123.75
419.834	131.75
420.057	113.75
420.28	149.75
420.503	134.75
420.726	118.75
420.948	131.75
421.171	123.75
421.394	149.75
421.617	124.75
421.839	121.75
422.062	128.75
422.285	121.75
422.507	129.75
422.73	122.75
422.953	124.75
423.175	126.75
423.398	120.75
423.621	134.75
423.843	124.75
424.066	132.75
424.288	132.75
424.511	158.75
424.733	151.75
424.956	131.75
425.178	130.75
425.401	136.75
425.623	135.75
425.846	117.75
426.068	136.75
426.291	118.75
426.513	133.75
426.735	137.75
426.958	126.75
427.18	135.75
427.402	134.75
427.625	133.75
427.847	134.75
428.069	121.75
428.292	119.75
428.514	116.75
428.736	120.75
428.958	124.75
429.181	119.75
429.403	135.75
429.625	106.75
429.847	115.75
430.069	122.75
430.292	122.75
430.514	119.75
430.736	126.75
430.958	122.75
431.18	118.75
431.402	121.75
431.624	105.75
431.846	119.75
432.068	120.75
432.29	89.75
432.512	112.75
432.734	118.75
432.956	119.75
433.178	124.75
433.4	130.75
433.622	139.75
433.844	134.75
434.066	136.75
434.287	110.75
434.509	99.75
434.731	96.75
434.953	104.75
435.175	105.75
435.397	120.75
435.618	121.75
435.84	105.75
436.062	101.75
436.284	110.75
436.505	132.75
436.727	142.75
436.949	134.75
437.17	123.75
437.392	120.75
437.614	108.75
437.835	120.75
438.057	117.75
438.278	112.75
438.5	116.75
438.721	118.75
438.943	131.75
439.165	122.75
439.386	130.75
439.608	151.75
439.829	148.75
440.05	132.75
440.272	127.75
440.493	129.75
440.715	135.75
440.936	146.75
441.158	138.75
441.379	130.75
441.6	150.75
441.822	148.75
442.043	138.75
442.264	136.75
442.486	139.75
442.707	121.75
442.928	129.75
443.149	134.75
443.371	131.75
443.592	154.75
443.813	125.75
444.034	127.75
444.255	129.75
444.476	148.75
444.698	138.75
444.919	134.75
445.14	236.75
445.361	201.75
445.582	150.75
445.803	128.75
446.024	149.75
446.245	148.75
446.466	160.75
446.687	149.75
446.908	147.75
447.129	145.75
447.35	150.75
447.571	148.75
447.792	145.75
448.013	131.75
448.234	141.75
448.455	135.75
448.675	135.75
448.896	130.75
449.117	154.75
449.338	120.75
449.559	130.75
449.779	139.75
450	114.75
450.221	141.75
450.442	145.75
450.662	142.75
450.883	130.75
451.104	131.75
451.324	143.75
451.545	122.75
451.766	124.75
451.986	128.75
452.207	122.75
452.428	127.75
452.648	104.75
452.869	126.75
453.089	118.75
453.31	118.75
453.53	105.75
453.751	128.75
453.971	102.75
454.192	115.75
454.412	94.75
454.633	97.75
454.853	133.75
455.073	108.75
455.294	122.75
455.514	120.75
455.734	112.75
455.955	115.75
456.175	105.75
456.395	117.75
456.616	105.75
456.836	93.75
457.056	95.75
457.276	104.75
457.497	100.75
457.717	112.75
457.937	106.75
458.157	108.75
458.377	105.75
458.598	101.75
458.818	93.75
459.038	89.75
459.258	82.75
459.478	86.75
459.698	96.75
459.918	97.75
460.138	101.75
460.358	110.75
460.578	113.75
460.798	105.75
461.018	99.75
461.238	112.75
461.458	112.75
461.678	117.75
461.898	114.75
462.118	114.75
462.338	118.75
462.558	118.75
462.777	95.75
462.997	96.75
463.217	97.75
463.437	96.75
463.657	122.75
463.876	115.75
464.096	95.75
464.316	98.75
464.536	103.75
464.755	120.75
464.975	109.75
465.195	114.75
465.414	116.75
465.634	108.75
465.854	126.75
466.073	116.75
466.293	107.75
466.512	128.75
466.732	118.75
466.951	141.75
467.171	122.75
467.391	125.75
467.61	126.75
467.829	134.75
468.049	137.75
468.268	128.75
468.488	140.75
468.707	128.75
468.927	116.75
469.146	122.75
469.365	150.75
469.585	150.75
469.804	125.75
470.023	139.75
470.243	139.75
470.462	132.75
470.681	138.75
470.901	119.75
471.12	148.75
471.339	134.75
471.558	127.75
471.777	132.75
471.997	129.75
472.216	120.75
472.435	128.75
472.654	110.75
472.873	106.75
473.092	125.75
473.311	120.75
473.53	112.75
473.749	121.75
473.968	122.75
474.187	113.75
474.406	109.75
474.625	109.75
474.844	125.75
475.063	116.75
475.282	116.75
475.501	107.75
475.72	120.75
475.939	128.75
476.158	121.75
476.377	119.75
476.596	107.75
476.814	97.75
477.033	98.75
477.252	109.75
477.471	133.75
477.69	134.75
477.908	127.75
478.127	132.75
478.346	138.75
478.564	125.75
478.783	140.75
479.002	120.75
479.22	120.75
479.439	122.75
479.658	115.75
479.876	112.75
480.095	116.75
480.313	116.75
480.532	108.75
480.751	105.75
480.969	103.75
481.188	86.75
481.406	80.75
481.624	72.75
481.843	86.75
482.061	97.75
482.28	110.75
482.498	119.75
482.717	116.75
482.935	109.75
483.153	146.75
483.372	160.75
483.59	143.75
483.808	134.75
484.027	132.75
484.245	151.75
484.463	154.75
484.681	165.75
484.9	150.75
485.118	131.75
485.336	121.75
485.554	101.75
485.772	92.75
485.99	97.75
486.209	94.75
486.427	104.75
486.645	98.75
486.863	125.75
487.081	128.75
487.299	126.75
487.517	146.75
487.735	146.75
487.953	183.75
488.171	175.75
488.389	162.75
488.607	157.75
488.825	138.75
489.043	142.75
489.261	123.75
489.479	142.75
489.696	140.75
489.914	142.75
490.132	137.75
490.35	147.75
490.568	155.75
490.786	168.75
491.003	165.75
491.221	189.75
491.439	168.75
491.657	184.75
491.874	196.75
492.092	215.75
492.31	219.75
492.527	215.75
492.745	201.75
492.963	192.75
493.18	182.75
493.398	177.75
493.615	183.75
493.833	166.75
494.05	162.75
494.268	165.75
494.485	184.75
494.703	165.75
494.92	183.75
495.138	179.75
495.355	168.75
495.573	170.75
495.79	171.75
496.008	160.75
496.225	166.75
496.442	169.75
496.66	162.75
496.877	168.75
497.094	177.75
497.312	149.75
497.529	147.75
497.746	140.75
497.963	131.75
498.181	106.75
498.398	120.75
498.615	124.75
498.832	114.75
499.049	116.75
499.267	119.75
499.484	125.75
499.701	130.75
499.918	128.75
500.135	136.75
500.352	142.75
500.569	144.75
500.786	140.75
501.003	147.75
501.22	142.75
501.437	126.75
501.654	133.75
501.871	123.75
502.088	140.75
502.305	125.75
502.522	118.75
502.739	136.75
502.956	120.75
503.172	113.75
503.389	134.75
503.606	122.75
503.823	115.75
504.04	116.75
504.256	129.75
504.473	118.75
504.69	114.75
504.907	129.75
505.123	119.75
505.34	120.75
505.557	113.75
505.773	116.75
505.99	118.75
506.207	140.75
506.423	126.75
506.64	130.75
506.856	120.75
507.073	110.75
507.289	114.75
507.506	121.75
507.722	123.75
507.939	121.75
508.155	130.75
508.372	118.75
508.588	116.75
508.805	134.75
509.021	100.75
509.238	102.75
509.454	100.75
509.67	93.75
509.887	93.75
510.103	92.75
510.319	94.75
510.536	101.75
510.752	84.75
510.968	75.75
511.184	78.75
511.401	90.75
511.617	78.75
511.833	98.75
512.049	100.75
