Data from Location1.07152019.Energy5.Lamp.07192019.3%Agarose_HRD10591_14-31-58-015.txt Node
Date: Fri Jul 19 14:31:58 EDT 2019
User: cochatt
Spectrometer: HR+D1059
Trigger mode: 1
Integration Time (sec): 1.000000E-1
Scans to average: 1
Electric dark correction enabled: true
Nonlinearity correction enabled: false
Boxcar width: 0
XAxis mode: Wavelengths
Number of Pixels in Spectrum: 2048
>>>>>Begin Spectral Data<<<<<
223.165	-12.06
223.4	-12.06
223.635	-12.06
223.869	-27.06
224.104	-22.06
224.338	-6.06
224.573	-19.06
224.808	-24.06
225.042	0.94
225.277	-11.06
225.511	-2.06
225.746	-1.06
225.98	20.94
226.215	18.94
226.449	9.94
226.683	26.94
226.918	29.94
227.152	16.94
227.387	23.94
227.621	32.94
227.856	41.94
228.09	45.94
228.324	59.94
228.559	63.94
228.793	64.94
229.027	46.94
229.262	55.94
229.496	61.94
229.73	73.94
229.964	73.94
230.199	66.94
230.433	78.94
230.667	69.94
230.901	65.94
231.136	52.94
231.37	97.94
231.604	84.94
231.838	76.94
232.072	90.94
232.306	75.94
232.541	85.94
232.775	96.94
233.009	78.94
233.243	77.94
233.477	83.94
233.711	85.94
233.945	79.94
234.179	93.94
234.413	70.94
234.647	89.94
234.881	70.94
235.115	74.94
235.349	73.94
235.583	73.94
235.817	68.94
236.051	85.94
236.285	85.94
236.519	76.94
236.753	84.94
236.987	77.94
237.221	62.94
237.455	72.94
237.689	81.94
237.922	58.94
238.156	68.94
238.39	84.94
238.624	60.94
238.858	77.94
239.091	89.94
239.325	78.94
239.559	78.94
239.793	85.94
240.027	80.94
240.26	67.94
240.494	69.94
240.728	84.94
240.961	74.94
241.195	70.94
241.429	73.94
241.662	80.94
241.896	73.94
242.13	75.94
242.363	76.94
242.597	82.94
242.83	80.94
243.064	78.94
243.298	81.94
243.531	96.94
243.765	60.94
243.998	73.94
244.232	68.94
244.465	72.94
244.699	85.94
244.932	65.94
245.166	65.94
245.399	82.94
245.633	85.94
245.866	79.94
246.099	86.94
246.333	88.94
246.566	87.94
246.8	72.94
247.033	75.94
247.266	69.94
247.5	64.94
247.733	68.94
247.966	78.94
248.2	74.94
248.433	70.94
248.666	87.94
248.899	80.94
249.133	76.94
249.366	85.94
249.599	85.94
249.832	80.94
250.066	60.94
250.299	82.94
250.532	78.94
250.765	89.94
250.998	76.94
251.231	83.94
251.465	86.94
251.698	70.94
251.931	73.94
252.164	90.94
252.397	78.94
252.63	86.94
252.863	66.94
253.096	73.94
253.329	75.94
253.562	83.94
253.795	78.94
254.028	80.94
254.261	89.94
254.494	82.94
254.727	73.94
254.96	70.94
255.193	83.94
255.426	74.94
255.659	73.94
255.892	72.94
256.124	91.94
256.357	74.94
256.59	76.94
256.823	76.94
257.056	72.94
257.289	90.94
257.521	73.94
257.754	83.94
257.987	72.94
258.22	83.94
258.452	72.94
258.685	73.94
258.918	75.94
259.151	76.94
259.383	71.94
259.616	85.94
259.849	81.94
260.081	74.94
260.314	81.94
260.547	77.94
260.779	84.94
261.012	74.94
261.244	84.94
261.477	88.94
261.71	72.94
261.942	77.94
262.175	74.94
262.407	80.94
262.64	84.94
262.872	73.94
263.105	74.94
263.337	72.94
263.57	79.94
263.802	83.94
264.035	81.94
264.267	76.94
264.499	82.94
264.732	76.94
264.964	76.94
265.197	72.94
265.429	79.94
265.661	64.94
265.894	76.94
266.126	76.94
266.358	85.94
266.591	74.94
266.823	77.94
267.055	75.94
267.287	81.94
267.52	62.94
267.752	81.94
267.984	89.94
268.216	78.94
268.448	77.94
268.681	80.94
268.913	74.94
269.145	80.94
269.377	72.94
269.609	77.94
269.841	88.94
270.073	89.94
270.306	83.94
270.538	83.94
270.77	90.94
271.002	86.94
271.234	81.94
271.466	87.94
271.698	77.94
271.93	84.94
272.162	72.94
272.394	78.94
272.626	81.94
272.858	80.94
273.09	65.94
273.322	76.94
273.553	81.94
273.785	72.94
274.017	73.94
274.249	93.94
274.481	97.94
274.713	88.94
274.945	66.94
275.176	78.94
275.408	85.94
275.64	84.94
275.872	78.94
276.104	84.94
276.335	73.94
276.567	82.94
276.799	83.94
277.031	74.94
277.262	79.94
277.494	83.94
277.726	80.94
277.957	88.94
278.189	80.94
278.421	79.94
278.652	90.94
278.884	90.94
279.115	73.94
279.347	74.94
279.579	80.94
279.81	80.94
280.042	80.94
280.273	80.94
280.505	81.94
280.736	85.94
280.968	78.94
281.199	90.94
281.431	77.94
281.662	54.94
281.894	92.94
282.125	81.94
282.356	80.94
282.588	63.94
282.819	81.94
283.051	77.94
283.282	75.94
283.513	75.94
283.745	81.94
283.976	81.94
284.207	90.94
284.439	77.94
284.67	80.94
284.901	88.94
285.132	84.94
285.364	77.94
285.595	68.94
285.826	76.94
286.057	83.94
286.288	84.94
286.52	79.94
286.751	88.94
286.982	73.94
287.213	80.94
287.444	80.94
287.675	73.94
287.906	77.94
288.138	84.94
288.369	77.94
288.6	79.94
288.831	81.94
289.062	91.94
289.293	84.94
289.524	77.94
289.755	87.94
289.986	89.94
290.217	82.94
290.448	74.94
290.679	77.94
290.91	71.94
291.141	81.94
291.371	80.94
291.602	89.94
291.833	99.94
292.064	78.94
292.295	71.94
292.526	82.94
292.757	91.94
292.987	78.94
293.218	84.94
293.449	101.94
293.68	92.94
293.91	83.94
294.141	85.94
294.372	86.94
294.603	79.94
294.833	71.94
295.064	89.94
295.295	78.94
295.525	83.94
295.756	93.94
295.987	94.94
296.217	78.94
296.448	82.94
296.679	89.94
296.909	68.94
297.14	80.94
297.37	76.94
297.601	83.94
297.831	86.94
298.062	87.94
298.292	78.94
298.523	77.94
298.753	88.94
298.984	94.94
299.214	88.94
299.445	70.94
299.675	78.94
299.905	79.94
300.136	73.94
300.366	80.94
300.597	88.94
300.827	84.94
301.057	77.94
301.288	96.94
301.518	85.94
301.748	89.94
301.979	78.94
302.209	84.94
302.439	82.94
302.669	85.94
302.9	76.94
303.13	96.94
303.36	82.94
303.59	82.94
303.82	87.94
304.051	88.94
304.281	95.94
304.511	102.94
304.741	83.94
304.971	75.94
305.201	95.94
305.431	83.94
305.661	85.94
305.891	85.94
306.121	85.94
306.352	74.94
306.582	73.94
306.812	92.94
307.042	88.94
307.272	91.94
307.502	92.94
307.731	86.94
307.961	84.94
308.191	73.94
308.421	72.94
308.651	90.94
308.881	84.94
309.111	74.94
309.341	86.94
309.571	88.94
309.8	76.94
310.03	85.94
310.26	74.94
310.49	75.94
310.72	85.94
310.949	82.94
311.179	85.94
311.409	80.94
311.639	72.94
311.868	93.94
312.098	88.94
312.328	89.94
312.557	82.94
312.787	82.94
313.017	92.94
313.246	81.94
313.476	69.94
313.706	79.94
313.935	89.94
314.165	91.94
314.394	87.94
314.624	77.94
314.853	91.94
315.083	76.94
315.312	80.94
315.542	76.94
315.771	93.94
316.001	78.94
316.23	84.94
316.46	80.94
316.689	81.94
316.919	83.94
317.148	78.94
317.377	80.94
317.607	93.94
317.836	82.94
318.065	74.94
318.295	89.94
318.524	71.94
318.753	64.94
318.983	80.94
319.212	96.94
319.441	68.94
319.67	95.94
319.9	77.94
320.129	81.94
320.358	75.94
320.587	68.94
320.816	88.94
321.046	92.94
321.275	85.94
321.504	74.94
321.733	86.94
321.962	69.94
322.191	76.94
322.42	82.94
322.649	76.94
322.878	98.94
323.108	88.94
323.337	80.94
323.566	84.94
323.795	92.94
324.024	86.94
324.253	77.94
324.482	79.94
324.71	81.94
324.939	82.94
325.168	82.94
325.397	69.94
325.626	91.94
325.855	84.94
326.084	80.94
326.313	82.94
326.542	84.94
326.77	92.94
326.999	83.94
327.228	78.94
327.457	87.94
327.686	90.94
327.914	89.94
328.143	91.94
328.372	88.94
328.6	69.94
328.829	80.94
329.058	91.94
329.287	84.94
329.515	75.94
329.744	89.94
329.972	81.94
330.201	87.94
330.43	82.94
330.658	70.94
330.887	87.94
331.115	81.94
331.344	80.94
331.572	78.94
331.801	84.94
332.03	87.94
332.258	80.94
332.486	99.94
332.715	78.94
332.943	91.94
333.172	75.94
333.4	90.94
333.629	68.94
333.857	80.94
334.085	91.94
334.314	87.94
334.542	85.94
334.771	84.94
334.999	85.94
335.227	77.94
335.455	77.94
335.684	82.94
335.912	81.94
336.14	87.94
336.369	67.94
336.597	79.94
336.825	91.94
337.053	93.94
337.281	87.94
337.51	78.94
337.738	91.94
337.966	82.94
338.194	87.94
338.422	86.94
338.65	92.94
338.878	91.94
339.106	82.94
339.334	86.94
339.562	92.94
339.79	79.94
340.018	86.94
340.246	80.94
340.474	88.94
340.702	86.94
340.93	66.94
341.158	74.94
341.386	83.94
341.614	78.94
341.842	96.94
342.07	91.94
342.298	77.94
342.526	82.94
342.754	89.94
342.981	84.94
343.209	81.94
343.437	81.94
343.665	78.94
343.893	69.94
344.12	81.94
344.348	84.94
344.576	95.94
344.804	88.94
345.031	83.94
345.259	85.94
345.487	73.94
345.714	91.94
345.942	67.94
346.17	76.94
346.397	87.94
346.625	81.94
346.853	81.94
347.08	75.94
347.308	82.94
347.535	90.94
347.763	76.94
347.99	93.94
348.218	89.94
348.445	84.94
348.673	81.94
348.9	85.94
349.128	79.94
349.355	67.94
349.583	82.94
349.81	81.94
350.037	85.94
350.265	87.94
350.492	73.94
350.72	81.94
350.947	89.94
351.174	76.94
351.402	80.94
351.629	85.94
351.856	82.94
352.083	81.94
352.311	93.94
352.538	91.94
352.765	93.94
352.992	82.94
353.22	84.94
353.447	87.94
353.674	92.94
353.901	84.94
354.128	92.94
354.355	88.94
354.583	76.94
354.81	89.94
355.037	81.94
355.264	74.94
355.491	84.94
355.718	102.94
355.945	105.94
356.172	85.94
356.399	75.94
356.626	84.94
356.853	73.94
357.08	79.94
357.307	77.94
357.534	86.94
357.761	82.94
357.988	70.94
358.215	80.94
358.441	80.94
358.668	79.94
358.895	85.94
359.122	72.94
359.349	94.94
359.576	94.94
359.802	89.94
360.029	87.94
360.256	104.94
360.483	83.94
360.709	81.94
360.936	83.94
361.163	92.94
361.39	85.94
361.616	77.94
361.843	89.94
362.07	82.94
362.296	87.94
362.523	81.94
362.749	84.94
362.976	74.94
363.203	88.94
363.429	79.94
363.656	81.94
363.882	75.94
364.109	78.94
364.335	100.94
364.562	75.94
364.788	77.94
365.015	97.94
365.241	73.94
365.468	67.94
365.694	76.94
365.92	75.94
366.147	91.94
366.373	86.94
366.599	70.94
366.826	82.94
367.052	98.94
367.278	88.94
367.505	86.94
367.731	83.94
367.957	98.94
368.184	84.94
368.41	103.94
368.636	80.94
368.862	90.94
369.089	82.94
369.315	95.94
369.541	87.94
369.767	86.94
369.993	92.94
370.219	90.94
370.445	85.94
370.672	83.94
370.898	96.94
371.124	85.94
371.35	87.94
371.576	93.94
371.802	96.94
372.028	93.94
372.254	87.94
372.48	85.94
372.706	89.94
372.932	81.94
373.158	85.94
373.384	89.94
373.61	98.94
373.835	103.94
374.061	87.94
374.287	88.94
374.513	83.94
374.739	81.94
374.965	77.94
375.191	93.94
375.416	74.94
375.642	100.94
375.868	89.94
376.094	88.94
376.319	96.94
376.545	85.94
376.771	85.94
376.997	97.94
377.222	100.94
377.448	103.94
377.674	96.94
377.899	102.94
378.125	91.94
378.35	107.94
378.576	91.94
378.802	99.94
379.027	91.94
379.253	93.94
379.478	102.94
379.704	90.94
379.929	95.94
380.155	100.94
380.38	89.94
380.606	89.94
380.831	99.94
381.057	107.94
381.282	99.94
381.507	92.94
381.733	92.94
381.958	95.94
382.184	84.94
382.409	105.94
382.634	98.94
382.86	91.94
383.085	92.94
383.31	90.94
383.535	99.94
383.761	101.94
383.986	80.94
384.211	96.94
384.436	98.94
384.662	97.94
384.887	94.94
385.112	92.94
385.337	101.94
385.562	95.94
385.787	106.94
386.013	99.94
386.238	89.94
386.463	99.94
386.688	86.94
386.913	109.94
387.138	112.94
387.363	113.94
387.588	93.94
387.813	97.94
388.038	103.94
388.263	103.94
388.488	84.94
388.713	107.94
388.938	84.94
389.163	99.94
389.387	100.94
389.612	86.94
389.837	94.94
390.062	105.94
390.287	99.94
390.512	114.94
390.736	86.94
390.961	97.94
391.186	96.94
391.411	91.94
391.636	114.94
391.86	106.94
392.085	108.94
392.31	113.94
392.534	101.94
392.759	96.94
392.984	93.94
393.208	101.94
393.433	106.94
393.658	108.94
393.882	106.94
394.107	98.94
394.331	114.94
394.556	102.94
394.78	103.94
395.005	103.94
395.229	102.94
395.454	107.94
395.678	100.94
395.903	112.94
396.127	99.94
396.352	100.94
396.576	98.94
396.801	100.94
397.025	102.94
397.249	112.94
397.474	106.94
397.698	93.94
397.922	107.94
398.147	117.94
398.371	120.94
398.595	117.94
398.82	109.94
399.044	100.94
399.268	97.94
399.492	101.94
399.717	119.94
399.941	96.94
400.165	115.94
400.389	98.94
400.613	107.94
400.837	112.94
401.062	112.94
401.286	100.94
401.51	112.94
401.734	111.94
401.958	116.94
402.182	110.94
402.406	112.94
402.63	112.94
402.854	115.94
403.078	121.94
403.302	107.94
403.526	106.94
403.75	118.94
403.974	99.94
404.198	112.94
404.422	124.94
404.645	112.94
404.869	111.94
405.093	112.94
405.317	122.94
405.541	106.94
405.765	97.94
405.988	128.94
406.212	122.94
406.436	122.94
406.66	125.94
406.883	112.94
407.107	112.94
407.331	102.94
407.555	112.94
407.778	119.94
408.002	118.94
408.226	114.94
408.449	112.94
408.673	118.94
408.896	124.94
409.12	128.94
409.344	119.94
409.567	108.94
409.791	123.94
410.014	124.94
410.238	117.94
410.461	124.94
410.685	128.94
410.908	131.94
411.132	120.94
411.355	109.94
411.578	118.94
411.802	118.94
412.025	122.94
412.249	105.94
412.472	119.94
412.695	107.94
412.919	118.94
413.142	123.94
413.365	113.94
413.589	121.94
413.812	123.94
414.035	123.94
414.258	130.94
414.482	122.94
414.705	106.94
414.928	112.94
415.151	120.94
415.374	126.94
415.597	121.94
415.821	118.94
416.044	123.94
416.267	127.94
416.49	120.94
416.713	104.94
416.936	124.94
417.159	122.94
417.382	129.94
417.605	140.94
417.828	118.94
418.051	122.94
418.274	130.94
418.497	116.94
418.72	131.94
418.943	135.94
419.166	122.94
419.389	124.94
419.611	127.94
419.834	132.94
420.057	143.94
420.28	121.94
420.503	126.94
420.726	125.94
420.948	125.94
421.171	140.94
421.394	125.94
421.617	144.94
421.839	149.94
422.062	134.94
422.285	139.94
422.507	141.94
422.73	125.94
422.953	136.94
423.175	110.94
423.398	119.94
423.621	118.94
423.843	128.94
424.066	129.94
424.288	133.94
424.511	137.94
424.733	143.94
424.956	127.94
425.178	142.94
425.401	141.94
425.623	136.94
425.846	133.94
426.068	127.94
426.291	142.94
426.513	125.94
426.735	130.94
426.958	128.94
427.18	122.94
427.402	133.94
427.625	131.94
427.847	126.94
428.069	124.94
428.292	120.94
428.514	135.94
428.736	123.94
428.958	124.94
429.181	124.94
429.403	133.94
429.625	139.94
429.847	124.94
430.069	125.94
430.292	137.94
430.514	110.94
430.736	144.94
430.958	133.94
431.18	110.94
431.402	124.94
431.624	108.94
431.846	100.94
432.068	98.94
432.29	105.94
432.512	103.94
432.734	132.94
432.956	123.94
433.178	116.94
433.4	136.94
433.622	125.94
433.844	134.94
434.066	121.94
434.287	104.94
434.509	97.94
434.731	100.94
434.953	117.94
435.175	114.94
435.397	131.94
435.618	112.94
435.84	121.94
436.062	104.94
436.284	114.94
436.505	115.94
436.727	124.94
436.949	120.94
437.17	127.94
437.392	125.94
437.614	109.94
437.835	104.94
438.057	124.94
438.278	113.94
438.5	135.94
438.721	124.94
438.943	138.94
439.165	106.94
439.386	134.94
439.608	132.94
439.829	139.94
440.05	140.94
440.272	141.94
440.493	142.94
440.715	135.94
440.936	141.94
441.158	155.94
441.379	128.94
441.6	144.94
441.822	137.94
442.043	147.94
442.264	139.94
442.486	146.94
442.707	136.94
442.928	129.94
443.149	138.94
443.371	130.94
443.592	122.94
443.813	124.94
444.034	124.94
444.255	142.94
444.476	158.94
444.698	136.94
444.919	150.94
445.14	268.94
445.361	210.94
445.582	154.94
445.803	134.94
446.024	135.94
446.245	149.94
446.466	140.94
446.687	155.94
446.908	162.94
447.129	164.94
447.35	137.94
447.571	152.94
447.792	131.94
448.013	138.94
448.234	143.94
448.455	146.94
448.675	141.94
448.896	130.94
449.117	135.94
449.338	146.94
449.559	141.94
449.779	145.94
450	146.94
450.221	122.94
450.442	116.94
450.662	131.94
450.883	120.94
451.104	119.94
451.324	121.94
451.545	121.94
451.766	138.94
451.986	128.94
452.207	123.94
452.428	123.94
452.648	124.94
452.869	113.94
453.089	113.94
453.31	96.94
453.53	104.94
453.751	89.94
453.971	101.94
454.192	95.94
454.412	113.94
454.633	109.94
454.853	128.94
455.073	106.94
455.294	112.94
455.514	118.94
455.734	119.94
455.955	117.94
456.175	107.94
456.395	114.94
456.616	96.94
456.836	101.94
457.056	110.94
457.276	104.94
457.497	107.94
457.717	88.94
457.937	96.94
458.157	92.94
458.377	90.94
458.598	89.94
458.818	101.94
459.038	100.94
459.258	94.94
459.478	85.94
459.698	83.94
459.918	113.94
460.138	110.94
460.358	108.94
460.578	121.94
460.798	112.94
461.018	121.94
461.238	116.94
461.458	116.94
461.678	104.94
461.898	121.94
462.118	109.94
462.338	135.94
462.558	119.94
462.777	105.94
462.997	105.94
463.217	86.94
463.437	99.94
463.657	118.94
463.876	112.94
464.096	108.94
464.316	104.94
464.536	116.94
464.755	118.94
464.975	105.94
465.195	120.94
465.414	102.94
465.634	120.94
465.854	123.94
466.073	108.94
466.293	126.94
466.512	139.94
466.732	128.94
466.951	137.94
467.171	135.94
467.391	135.94
467.61	138.94
467.829	128.94
468.049	123.94
468.268	148.94
468.488	126.94
468.707	130.94
468.927	130.94
469.146	134.94
469.365	128.94
469.585	144.94
469.804	138.94
470.023	139.94
470.243	136.94
470.462	135.94
470.681	129.94
470.901	132.94
471.12	133.94
471.339	127.94
471.558	141.94
471.777	120.94
471.997	125.94
472.216	115.94
472.435	106.94
472.654	104.94
472.873	102.94
473.092	113.94
473.311	133.94
473.53	131.94
473.749	128.94
473.968	136.94
474.187	116.94
474.406	124.94
474.625	121.94
474.844	128.94
475.063	122.94
475.282	124.94
475.501	119.94
475.72	123.94
475.939	114.94
476.158	121.94
476.377	123.94
476.596	124.94
476.814	123.94
477.033	110.94
477.252	108.94
477.471	123.94
477.69	126.94
477.908	134.94
478.127	140.94
478.346	119.94
478.564	130.94
478.783	120.94
479.002	130.94
479.22	129.94
479.439	148.94
479.658	132.94
479.876	113.94
480.095	108.94
480.313	118.94
480.532	115.94
480.751	113.94
480.969	90.94
481.188	107.94
481.406	92.94
481.624	80.94
481.843	89.94
482.061	101.94
482.28	101.94
482.498	103.94
482.717	104.94
482.935	109.94
483.153	135.94
483.372	137.94
483.59	151.94
483.808	132.94
484.027	118.94
484.245	126.94
484.463	146.94
484.681	139.94
484.9	137.94
485.118	140.94
485.336	124.94
485.554	108.94
485.772	102.94
485.99	108.94
486.209	120.94
486.427	124.94
486.645	119.94
486.863	128.94
487.081	141.94
487.299	129.94
487.517	145.94
487.735	172.94
487.953	184.94
488.171	168.94
488.389	179.94
488.607	132.94
488.825	138.94
489.043	134.94
489.261	130.94
489.479	125.94
489.696	136.94
489.914	138.94
490.132	133.94
490.35	140.94
490.568	168.94
490.786	168.94
491.003	176.94
491.221	173.94
491.439	181.94
491.657	182.94
491.874	197.94
492.092	214.94
492.31	232.94
492.527	220.94
492.745	199.94
492.963	185.94
493.18	180.94
493.398	181.94
493.615	175.94
493.833	170.94
494.05	176.94
494.268	182.94
494.485	185.94
494.703	169.94
494.92	166.94
495.138	162.94
495.355	165.94
495.573	164.94
495.79	147.94
496.008	167.94
496.225	153.94
496.442	167.94
496.66	176.94
496.877	153.94
497.094	180.94
497.312	169.94
497.529	151.94
497.746	137.94
497.963	128.94
498.181	119.94
498.398	114.94
498.615	117.94
498.832	94.94
499.049	101.94
499.267	121.94
499.484	117.94
499.701	124.94
499.918	138.94
500.135	142.94
500.352	129.94
500.569	123.94
500.786	129.94
501.003	142.94
501.22	144.94
501.437	134.94
501.654	130.94
501.871	134.94
502.088	148.94
502.305	121.94
502.522	117.94
502.739	126.94
502.956	119.94
503.172	125.94
503.389	115.94
503.606	117.94
503.823	126.94
504.04	124.94
504.256	125.94
504.473	123.94
504.69	114.94
504.907	123.94
505.123	123.94
505.34	104.94
505.557	128.94
505.773	134.94
505.99	120.94
506.207	130.94
506.423	123.94
506.64	119.94
506.856	119.94
507.073	118.94
507.289	125.94
507.506	115.94
507.722	119.94
507.939	113.94
508.155	116.94
508.372	114.94
508.588	104.94
508.805	119.94
509.021	108.94
509.238	97.94
509.454	109.94
509.67	96.94
509.887	95.94
510.103	109.94
510.319	97.94
510.536	74.94
510.752	90.94
510.968	77.94
511.184	82.94
511.401	74.94
511.617	87.94
511.833	84.94
