Data from Location1.07152019.Energy5.Lamp.07192019.3%Agarose_HRD10591_14-30-37-014.txt Node
Date: Fri Jul 19 14:30:37 EDT 2019
User: cochatt
Spectrometer: HR+D1059
Trigger mode: 1
Integration Time (sec): 1.000000E-1
Scans to average: 1
Electric dark correction enabled: true
Nonlinearity correction enabled: false
Boxcar width: 0
XAxis mode: Wavelengths
Number of Pixels in Spectrum: 2048
>>>>>Begin Spectral Data<<<<<
223.165	-9
223.4	-9
223.635	-9
223.869	-4
224.104	-17
224.338	-19
224.573	-12
224.808	-20
225.042	-3
225.277	-11
225.511	-1
225.746	1
225.98	-6
226.215	12
226.449	20
226.683	12
226.918	29
227.152	28
227.387	31
227.621	29
227.856	45
228.09	39
228.324	48
228.559	45
228.793	43
229.027	52
229.262	62
229.496	48
229.73	68
229.964	77
230.199	76
230.433	69
230.667	100
230.901	79
231.136	85
231.37	84
231.604	83
231.838	77
232.072	79
232.306	63
232.541	80
232.775	90
233.009	84
233.243	83
233.477	86
233.711	83
233.945	67
234.179	92
234.413	84
234.647	88
234.881	94
235.115	72
235.349	90
235.583	86
235.817	92
236.051	73
236.285	75
236.519	83
236.753	76
236.987	53
237.221	74
237.455	80
237.689	71
237.922	74
238.156	82
238.39	73
238.624	78
238.858	83
239.091	70
239.325	78
239.559	71
239.793	76
240.027	82
240.26	76
240.494	74
240.728	62
240.961	59
241.195	66
241.429	71
241.662	85
241.896	78
242.13	76
242.363	60
242.597	76
242.83	77
243.064	82
243.298	70
243.531	62
243.765	70
243.998	74
244.232	79
244.465	69
244.699	71
244.932	82
245.166	70
245.399	94
245.633	78
245.866	77
246.099	91
246.333	86
246.566	76
246.8	91
247.033	77
247.266	77
247.5	80
247.733	63
247.966	86
248.2	74
248.433	75
248.666	74
248.899	69
249.133	66
249.366	81
249.599	75
249.832	66
250.066	88
250.299	80
250.532	78
250.765	81
250.998	57
251.231	83
251.465	89
251.698	80
251.931	66
252.164	85
252.397	81
252.63	82
252.863	90
253.096	77
253.329	86
253.562	68
253.795	86
254.028	76
254.261	90
254.494	78
254.727	77
254.96	72
255.193	84
255.426	93
255.659	83
255.892	91
256.124	80
256.357	89
256.59	66
256.823	72
257.056	71
257.289	77
257.521	87
257.754	90
257.987	79
258.22	86
258.452	84
258.685	67
258.918	81
259.151	68
259.383	79
259.616	78
259.849	76
260.081	87
260.314	84
260.547	89
260.779	86
261.012	88
261.244	76
261.477	100
261.71	86
261.942	88
262.175	83
262.407	73
262.64	75
262.872	78
263.105	84
263.337	70
263.57	92
263.802	66
264.035	88
264.267	82
264.499	75
264.732	88
264.964	89
265.197	88
265.429	86
265.661	75
265.894	75
266.126	76
266.358	84
266.591	82
266.823	84
267.055	72
267.287	99
267.52	83
267.752	82
267.984	71
268.216	82
268.448	80
268.681	79
268.913	88
269.145	98
269.377	89
269.609	80
269.841	82
270.073	80
270.306	99
270.538	77
270.77	90
271.002	91
271.234	70
271.466	84
271.698	90
271.93	76
272.162	88
272.394	76
272.626	78
272.858	80
273.09	71
273.322	88
273.553	83
273.785	83
274.017	85
274.249	76
274.481	103
274.713	64
274.945	89
275.176	83
275.408	82
275.64	75
275.872	84
276.104	84
276.335	90
276.567	84
276.799	90
277.031	78
277.262	75
277.494	71
277.726	93
277.957	73
278.189	84
278.421	77
278.652	90
278.884	85
279.115	84
279.347	85
279.579	81
279.81	96
280.042	88
280.273	82
280.505	83
280.736	77
280.968	89
281.199	89
281.431	90
281.662	85
281.894	88
282.125	96
282.356	79
282.588	79
282.819	94
283.051	90
283.282	83
283.513	88
283.745	75
283.976	84
284.207	83
284.439	71
284.67	90
284.901	82
285.132	91
285.364	85
285.595	84
285.826	92
286.057	90
286.288	98
286.52	92
286.751	75
286.982	84
287.213	76
287.444	69
287.675	73
287.906	98
288.138	92
288.369	87
288.6	80
288.831	80
289.062	81
289.293	76
289.524	76
289.755	83
289.986	88
290.217	80
290.448	71
290.679	86
290.91	81
291.141	99
291.371	78
291.602	75
291.833	83
292.064	63
292.295	80
292.526	77
292.757	82
292.987	79
293.218	98
293.449	91
293.68	89
293.91	65
294.141	77
294.372	94
294.603	72
294.833	80
295.064	80
295.295	92
295.525	80
295.756	82
295.987	104
296.217	71
296.448	76
296.679	85
296.909	82
297.14	90
297.37	78
297.601	71
297.831	89
298.062	83
298.292	78
298.523	100
298.753	71
298.984	92
299.214	82
299.445	89
299.675	93
299.905	80
300.136	68
300.366	80
300.597	91
300.827	94
301.057	84
301.288	80
301.518	86
301.748	93
301.979	67
302.209	88
302.439	83
302.669	65
302.9	84
303.13	70
303.36	87
303.59	94
303.82	74
304.051	85
304.281	90
304.511	93
304.741	87
304.971	88
305.201	96
305.431	78
305.661	73
305.891	88
306.121	82
306.352	66
306.582	87
306.812	85
307.042	86
307.272	77
307.502	85
307.731	82
307.961	79
308.191	75
308.421	92
308.651	97
308.881	86
309.111	82
309.341	87
309.571	85
309.8	82
310.03	87
310.26	85
310.49	109
310.72	89
310.949	90
311.179	78
311.409	81
311.639	90
311.868	77
312.098	71
312.328	94
312.557	81
312.787	80
313.017	89
313.246	101
313.476	90
313.706	84
313.935	64
314.165	83
314.394	81
314.624	82
314.853	89
315.083	75
315.312	80
315.542	95
315.771	82
316.001	86
316.23	88
316.46	71
316.689	90
316.919	78
317.148	95
317.377	91
317.607	90
317.836	87
318.065	75
318.295	89
318.524	82
318.753	71
318.983	78
319.212	79
319.441	70
319.67	76
319.9	91
320.129	87
320.358	74
320.587	96
320.816	93
321.046	71
321.275	78
321.504	81
321.733	84
321.962	89
322.191	83
322.42	78
322.649	70
322.878	78
323.108	71
323.337	92
323.566	87
323.795	89
324.024	77
324.253	91
324.482	81
324.71	90
324.939	93
325.168	87
325.397	63
325.626	83
325.855	83
326.084	78
326.313	84
326.542	89
326.77	97
326.999	98
327.228	88
327.457	77
327.686	80
327.914	88
328.143	85
328.372	75
328.6	87
328.829	94
329.058	89
329.287	86
329.515	86
329.744	94
329.972	84
330.201	71
330.43	82
330.658	87
330.887	87
331.115	81
331.344	102
331.572	83
331.801	82
332.03	81
332.258	100
332.486	87
332.715	84
332.943	86
333.172	90
333.4	83
333.629	80
333.857	76
334.085	63
334.314	90
334.542	78
334.771	99
334.999	87
335.227	78
335.455	82
335.684	75
335.912	87
336.14	80
336.369	83
336.597	78
336.825	83
337.053	83
337.281	71
337.51	84
337.738	73
337.966	85
338.194	86
338.422	78
338.65	87
338.878	75
339.106	72
339.334	90
339.562	88
339.79	93
340.018	83
340.246	88
340.474	70
340.702	92
340.93	88
341.158	71
341.386	87
341.614	80
341.842	86
342.07	94
342.298	72
342.526	91
342.754	90
342.981	82
343.209	86
343.437	84
343.665	80
343.893	88
344.12	78
344.348	90
344.576	88
344.804	84
345.031	81
345.259	95
345.487	76
345.714	87
345.942	87
346.17	97
346.397	87
346.625	77
346.853	96
347.08	90
347.308	102
347.535	80
347.763	74
347.99	78
348.218	90
348.445	89
348.673	75
348.9	80
349.128	88
349.355	74
349.583	70
349.81	80
350.037	90
350.265	84
350.492	85
350.72	79
350.947	85
351.174	79
351.402	77
351.629	72
351.856	94
352.083	92
352.311	86
352.538	90
352.765	69
352.992	92
353.22	67
353.447	77
353.674	90
353.901	88
354.128	79
354.355	84
354.583	83
354.81	94
355.037	81
355.264	90
355.491	78
355.718	78
355.945	79
356.172	77
356.399	70
356.626	78
356.853	87
357.08	92
357.307	94
357.534	83
357.761	82
357.988	83
358.215	82
358.441	95
358.668	83
358.895	85
359.122	82
359.349	83
359.576	90
359.802	100
360.029	75
360.256	84
360.483	87
360.709	90
360.936	99
361.163	92
361.39	95
361.616	79
361.843	89
362.07	90
362.296	84
362.523	87
362.749	87
362.976	93
363.203	80
363.429	78
363.656	83
363.882	78
364.109	75
364.335	77
364.562	89
364.788	79
365.015	90
365.241	87
365.468	94
365.694	82
365.92	79
366.147	92
366.373	93
366.599	85
366.826	88
367.052	89
367.278	85
367.505	86
367.731	93
367.957	82
368.184	80
368.41	72
368.636	76
368.862	86
369.089	104
369.315	82
369.541	103
369.767	90
369.993	78
370.219	91
370.445	84
370.672	87
370.898	88
371.124	81
371.35	106
371.576	81
371.802	90
372.028	91
372.254	92
372.48	89
372.706	106
372.932	103
373.158	108
373.384	93
373.61	75
373.835	74
374.061	79
374.287	94
374.513	85
374.739	93
374.965	90
375.191	88
375.416	89
375.642	93
375.868	87
376.094	80
376.319	77
376.545	101
376.771	99
376.997	92
377.222	99
377.448	98
377.674	89
377.899	85
378.125	79
378.35	95
378.576	92
378.802	85
379.027	105
379.253	102
379.478	87
379.704	100
379.929	95
380.155	88
380.38	95
380.606	79
380.831	92
381.057	90
381.282	78
381.507	79
381.733	95
381.958	84
382.184	92
382.409	100
382.634	94
382.86	83
383.085	82
383.31	102
383.535	84
383.761	92
383.986	100
384.211	88
384.436	95
384.662	96
384.887	104
385.112	92
385.337	91
385.562	83
385.787	88
386.013	83
386.238	97
386.463	83
386.688	108
386.913	83
387.138	98
387.363	112
387.588	105
387.813	96
388.038	100
388.263	100
388.488	108
388.713	92
388.938	99
389.163	96
389.387	102
389.612	105
389.837	108
390.062	101
390.287	93
390.512	96
390.736	100
390.961	115
391.186	101
391.411	114
391.636	105
391.86	112
392.085	104
392.31	109
392.534	106
392.759	109
392.984	95
393.208	92
393.433	97
393.658	107
393.882	110
394.107	102
394.331	102
394.556	110
394.78	101
395.005	112
395.229	102
395.454	100
395.678	101
395.903	121
396.127	108
396.352	106
396.576	109
396.801	117
397.025	105
397.249	107
397.474	110
397.698	99
397.922	94
398.147	118
398.371	102
398.595	98
398.82	102
399.044	100
399.268	114
399.492	109
399.717	100
399.941	116
400.165	118
400.389	110
400.613	101
400.837	109
401.062	112
401.286	101
401.51	107
401.734	106
401.958	119
402.182	112
402.406	101
402.63	110
402.854	94
403.078	110
403.302	110
403.526	111
403.75	110
403.974	121
404.198	119
404.422	98
404.645	117
404.869	120
405.093	123
405.317	123
405.541	136
405.765	132
405.988	122
406.212	110
406.436	112
406.66	127
406.883	109
407.107	109
407.331	122
407.555	120
407.778	117
408.002	131
408.226	136
408.449	115
408.673	121
408.896	124
409.12	128
409.344	121
409.567	111
409.791	107
410.014	120
410.238	127
410.461	132
410.685	116
410.908	105
411.132	112
411.355	112
411.578	120
411.802	111
412.025	118
412.249	110
412.472	119
412.695	125
412.919	129
413.142	114
413.365	127
413.589	111
413.812	125
414.035	139
414.258	111
414.482	122
414.705	118
414.928	129
415.151	113
415.374	117
415.597	122
415.821	137
416.044	122
416.267	130
416.49	127
416.713	139
416.936	123
417.159	129
417.382	116
417.605	123
417.828	110
418.051	140
418.274	134
418.497	132
418.72	133
418.943	134
419.166	125
419.389	120
419.611	144
419.834	129
420.057	134
420.28	139
420.503	132
420.726	114
420.948	134
421.171	126
421.394	114
421.617	116
421.839	133
422.062	146
422.285	129
422.507	124
422.73	131
422.953	114
423.175	121
423.398	132
423.621	128
423.843	125
424.066	140
424.288	140
424.511	132
424.733	140
424.956	123
425.178	138
425.401	136
425.623	136
425.846	119
426.068	138
426.291	123
426.513	134
426.735	130
426.958	145
427.18	131
427.402	130
427.625	130
427.847	118
428.069	123
428.292	125
428.514	125
428.736	114
428.958	118
429.181	130
429.403	120
429.625	120
429.847	127
430.069	118
430.292	125
430.514	122
430.736	122
430.958	133
431.18	119
431.402	122
431.624	124
431.846	99
432.068	94
432.29	102
432.512	99
432.734	123
432.956	126
433.178	123
433.4	138
433.622	120
433.844	136
434.066	109
434.287	100
434.509	98
434.731	96
434.953	100
435.175	119
435.397	120
435.618	112
435.84	107
436.062	112
436.284	116
436.505	119
436.727	105
436.949	122
437.17	110
437.392	130
437.614	124
437.835	112
438.057	107
438.278	107
438.5	108
438.721	118
438.943	122
439.165	135
439.386	137
439.608	131
439.829	144
440.05	143
440.272	137
440.493	148
440.715	131
440.936	138
441.158	135
441.379	156
441.6	143
441.822	145
442.043	132
442.264	144
442.486	139
442.707	134
442.928	139
443.149	134
443.371	141
443.592	145
443.813	140
444.034	125
444.255	138
444.476	140
444.698	146
444.919	135
445.14	268
445.361	208
445.582	144
445.803	146
446.024	137
446.245	158
446.466	162
446.687	161
446.908	143
447.129	159
447.35	158
447.571	153
447.792	147
448.013	151
448.234	128
448.455	134
448.675	150
448.896	139
449.117	144
449.338	137
449.559	140
449.779	142
450	123
450.221	146
450.442	122
450.662	124
450.883	126
451.104	131
451.324	135
451.545	133
451.766	134
451.986	123
452.207	124
452.428	113
452.648	124
452.869	110
453.089	114
453.31	119
453.53	103
453.751	103
453.971	93
454.192	111
454.412	109
454.633	124
454.853	120
455.073	119
455.294	127
455.514	124
455.734	112
455.955	118
456.175	92
456.395	105
456.616	120
456.836	96
457.056	98
457.276	120
457.497	120
457.717	107
457.937	103
458.157	109
458.377	106
458.598	88
458.818	92
459.038	92
459.258	83
459.478	70
459.698	99
459.918	96
460.138	119
460.358	109
460.578	104
460.798	101
461.018	116
461.238	132
461.458	115
461.678	118
461.898	115
462.118	126
462.338	119
462.558	110
462.777	113
462.997	118
463.217	91
463.437	112
463.657	106
463.876	97
464.096	105
464.316	93
464.536	105
464.755	111
464.975	116
465.195	100
465.414	108
465.634	126
465.854	115
466.073	105
466.293	120
466.512	138
466.732	127
466.951	138
467.171	130
467.391	129
467.61	136
467.829	125
468.049	120
468.268	118
468.488	126
468.707	128
468.927	128
469.146	137
469.365	138
469.585	139
469.804	137
470.023	132
470.243	146
470.462	144
470.681	147
470.901	147
471.12	137
471.339	140
471.558	131
471.777	127
471.997	135
472.216	121
472.435	117
472.654	96
472.873	110
473.092	102
473.311	107
473.53	125
473.749	123
473.968	131
474.187	123
474.406	122
474.625	127
474.844	129
475.063	136
475.282	126
475.501	119
475.72	118
475.939	114
476.158	127
476.377	128
476.596	125
476.814	106
477.033	107
477.252	108
477.471	125
477.69	130
477.908	146
478.127	128
478.346	133
478.564	137
478.783	132
479.002	144
479.22	146
479.439	144
479.658	122
479.876	128
480.095	109
480.313	116
480.532	122
480.751	115
480.969	97
481.188	103
481.406	96
481.624	96
481.843	86
482.061	88
482.28	117
482.498	104
482.717	104
482.935	107
483.153	139
483.372	141
483.59	141
483.808	142
484.027	134
484.245	143
484.463	126
484.681	174
484.9	160
485.118	149
485.336	129
485.554	112
485.772	99
485.99	101
486.209	105
486.427	107
486.645	118
486.863	132
487.081	130
487.299	128
487.517	125
487.735	182
487.953	192
488.171	178
488.389	172
488.607	167
488.825	134
489.043	134
489.261	140
489.479	150
489.696	134
489.914	130
490.132	118
490.35	157
490.568	160
490.786	169
491.003	186
491.221	167
491.439	171
491.657	205
491.874	203
492.092	227
492.31	226
492.527	239
492.745	199
492.963	174
493.18	181
493.398	190
493.615	199
493.833	182
494.05	182
494.268	170
494.485	154
494.703	181
494.92	172
495.138	182
495.355	182
495.573	166
495.79	174
496.008	156
496.225	162
496.442	150
496.66	153
496.877	161
497.094	167
497.312	160
497.529	153
497.746	142
497.963	140
498.181	127
498.398	120
498.615	102
498.832	110
499.049	123
499.267	134
499.484	124
499.701	130
499.918	134
500.135	112
500.352	141
500.569	140
500.786	156
501.003	154
501.22	137
501.437	136
501.654	127
501.871	117
502.088	136
502.305	144
502.522	131
502.739	128
502.956	129
503.172	122
503.389	115
503.606	126
503.823	116
504.04	122
504.256	122
504.473	125
504.69	114
504.907	128
505.123	115
505.34	122
505.557	113
505.773	125
505.99	127
506.207	127
506.423	115
506.64	116
506.856	114
507.073	127
507.289	128
507.506	122
507.722	126
507.939	128
508.155	104
508.372	115
508.588	120
508.805	103
509.021	118
509.238	108
509.454	108
509.67	102
509.887	87
510.103	97
510.319	88
510.536	88
510.752	97
510.968	87
511.184	91
511.401	88
511.617	87
511.833	95
512.049	94
512.265	87
512.481	98
512.698	90
512.914	91
513.13	77
513.346	91
513.562	100
513.778	93
513.994	105
514.21	91
514.426	103
514.642	95
514.858	92
515.074	85
515.29	86
515.506	89
515.721	83
515.937	98
516.153	84
516.369	100
516.585	94
516.801	75
517.016	100
517.232	84
517.448	88
517.664	91
517.879	92
518.095	98
518.311	90
518.527	96
518.742	117
518.958	103
519.173	118
519.389	92
519.605	102
519.82	99
520.036	105
520.251	97
520.467	93
520.682	96
520.898	89
521.113	93
521.329	79
521.544	86
521.76	92
521.975	90
522.19	91
522.406	96
522.621	111
522.836	106
523.052	111
523.267	102
523.482	101
523.698	108
523.913	116
524.128	110
524.343	116
524.559	130
524.774	122
524.989	126
525.204	119
525.419	119
525.634	109
525.849	108
526.064	97
526.28	103
526.495	84
526.71	86
526.925	89
527.14	99
527.355	94
527.57	89
527.785	97
527.999	83
528.214	97
528.429	107
528.644	123
528.859	130
529.074	144
529.289	150
529.503	148
529.718	135
529.933	123
530.148	110
530.363	96
530.577	76
530.792	95
531.007	86
531.221	88
531.436	94
531.651	88
531.865	80
532.08	74
532.295	88
532.509	86
532.724	92
532.938	82
533.153	104
533.367	98
533.582	116
533.796	122
534.011	115
534.225	96
534.44	86
534.654	103
534.868	86
535.083	114
535.297	106
535.511	95
535.726	98
535.94	100
536.154	85
536.369	94
536.583	77
536.797	90
537.011	78
537.225	97
537.44	100
537.654	94
537.868	92
538.082	89
538.296	96
538.51	108
538.724	110
538.938	114
539.153	116
539.367	118
539.581	115
539.795	117
540.009	115
540.222	108
540.436	90
540.65	114
540.864	137
541.078	138
541.292	141
541.506	148
541.72	148
541.934	178
542.147	197
542.361	174
542.575	159
542.789	135
543.002	125
543.216	107
543.43	115
543.644	127
543.857	142
544.071	152
544.285	178
544.498	164
544.712	158
544.925	149
545.139	150
545.352	153
545.566	159
545.779	146
545.993	162
546.206	160
546.42	162
546.633	165
546.847	146
547.06	147
547.274	170
547.487	156
547.7	170
547.914	162
548.127	166
548.34	172
548.554	152
548.767	147
548.98	160
549.193	157
549.407	142
549.62	158
549.833	145
550.046	143
550.259	150
550.473	148
550.686	151
550.899	132
551.112	139
551.325	126
551.538	133
551.751	113
551.964	118
552.177	123
552.39	156
552.603	138
552.816	150
553.029	154
553.242	130
553.455	158
553.667	168
553.88	136
554.093	142
554.306	154
554.519	139
554.732	143
554.944	154
555.157	137
555.37	140
555.583	130
555.795	132
556.008	137
556.221	129
556.433	133
556.646	135
556.859	147
557.071	127
557.284	150
557.496	140
557.709	124
557.921	129
558.134	122
558.346	134
558.559	133
558.771	135
558.984	136
559.196	125
559.409	130
559.621	140
559.833	135
560.046	144
560.258	140
560.47	137
560.683	137
560.895	121
561.107	139
561.32	120
561.532	143
561.744	125
561.956	127
562.168	142
562.381	132
562.593	124
562.805	137
563.017	114
563.229	125
563.441	132
563.653	113
563.865	114
564.077	112
564.289	118
564.501	123
564.713	114
564.925	116
565.137	112
565.349	108
565.561	107
565.773	123
565.985	120
566.197	112
566.408	118
566.62	133
566.832	126
567.044	116
567.255	124
567.467	117
567.679	95
567.891	116
568.102	105
568.314	111
568.526	98
568.737	96
568.949	102
569.161	92
569.372	92
569.584	75
569.795	90
570.007	95
570.218	84
570.43	87
570.641	93
570.853	91
571.064	107
571.276	93
571.487	91
571.698	107
571.91	116
572.121	99
572.333	96
572.544	95
572.755	86
572.966	94
573.178	92
573.389	80
573.6	93
573.811	83
574.023	76
574.234	88
574.445	74
574.656	95
574.867	94
575.078	98
575.289	82
575.501	100
575.712	86
575.923	102
576.134	101
576.345	97
576.556	95
576.767	99
576.978	98
577.188	105
