Data from Location1.07152019.Energy5.Lamp.07192019.3%Agarose_HRD10591_14-30-12-015.txt Node
Date: Fri Jul 19 14:30:12 EDT 2019
User: cochatt
Spectrometer: HR+D1059
Trigger mode: 1
Integration Time (sec): 1.000000E-1
Scans to average: 1
Electric dark correction enabled: true
Nonlinearity correction enabled: false
Boxcar width: 0
XAxis mode: Wavelengths
Number of Pixels in Spectrum: 2048
>>>>>Begin Spectral Data<<<<<
223.165	-15.81
223.4	-15.81
223.635	-15.81
223.869	-23.81
224.104	-9.81
224.338	-9.81
224.573	-13.81
224.808	-13.81
225.042	-1.81
225.277	1.19
225.511	11.19
225.746	2.19
225.98	4.19
226.215	6.19
226.449	4.19
226.683	10.19
226.918	17.19
227.152	32.19
227.387	26.19
227.621	26.19
227.856	41.19
228.09	51.19
228.324	50.19
228.559	46.19
228.793	65.19
229.027	47.19
229.262	69.19
229.496	79.19
229.73	62.19
229.964	62.19
230.199	78.19
230.433	68.19
230.667	66.19
230.901	82.19
231.136	79.19
231.37	69.19
231.604	94.19
231.838	82.19
232.072	87.19
232.306	73.19
232.541	93.19
232.775	83.19
233.009	83.19
233.243	88.19
233.477	81.19
233.711	90.19
233.945	75.19
234.179	73.19
234.413	100.19
234.647	96.19
234.881	91.19
235.115	71.19
235.349	77.19
235.583	89.19
235.817	78.19
236.051	79.19
236.285	74.19
236.519	63.19
236.753	79.19
236.987	82.19
237.221	81.19
237.455	80.19
237.689	74.19
237.922	69.19
238.156	89.19
238.39	70.19
238.624	73.19
238.858	81.19
239.091	81.19
239.325	64.19
239.559	85.19
239.793	70.19
240.027	97.19
240.26	73.19
240.494	73.19
240.728	66.19
240.961	79.19
241.195	80.19
241.429	70.19
241.662	73.19
241.896	66.19
242.13	85.19
242.363	74.19
242.597	80.19
242.83	81.19
243.064	73.19
243.298	72.19
243.531	76.19
243.765	84.19
243.998	83.19
244.232	78.19
244.465	85.19
244.699	72.19
244.932	63.19
245.166	71.19
245.399	80.19
245.633	80.19
245.866	76.19
246.099	72.19
246.333	94.19
246.566	85.19
246.8	83.19
247.033	72.19
247.266	55.19
247.5	78.19
247.733	85.19
247.966	85.19
248.2	73.19
248.433	71.19
248.666	67.19
248.899	81.19
249.133	75.19
249.366	68.19
249.599	69.19
249.832	76.19
250.066	87.19
250.299	80.19
250.532	83.19
250.765	83.19
250.998	86.19
251.231	83.19
251.465	83.19
251.698	81.19
251.931	90.19
252.164	74.19
252.397	70.19
252.63	84.19
252.863	74.19
253.096	89.19
253.329	74.19
253.562	77.19
253.795	77.19
254.028	84.19
254.261	83.19
254.494	82.19
254.727	77.19
254.96	81.19
255.193	67.19
255.426	73.19
255.659	90.19
255.892	78.19
256.124	79.19
256.357	91.19
256.59	69.19
256.823	79.19
257.056	85.19
257.289	79.19
257.521	79.19
257.754	97.19
257.987	85.19
258.22	83.19
258.452	78.19
258.685	71.19
258.918	84.19
259.151	80.19
259.383	83.19
259.616	88.19
259.849	93.19
260.081	89.19
260.314	92.19
260.547	83.19
260.779	77.19
261.012	77.19
261.244	79.19
261.477	107.19
261.71	88.19
261.942	80.19
262.175	82.19
262.407	81.19
262.64	86.19
262.872	87.19
263.105	87.19
263.337	90.19
263.57	79.19
263.802	73.19
264.035	85.19
264.267	75.19
264.499	79.19
264.732	84.19
264.964	76.19
265.197	89.19
265.429	77.19
265.661	73.19
265.894	81.19
266.126	61.19
266.358	84.19
266.591	86.19
266.823	74.19
267.055	89.19
267.287	77.19
267.52	86.19
267.752	80.19
267.984	85.19
268.216	88.19
268.448	87.19
268.681	91.19
268.913	78.19
269.145	85.19
269.377	86.19
269.609	79.19
269.841	89.19
270.073	77.19
270.306	78.19
270.538	74.19
270.77	83.19
271.002	91.19
271.234	84.19
271.466	77.19
271.698	72.19
271.93	87.19
272.162	83.19
272.394	84.19
272.626	64.19
272.858	78.19
273.09	71.19
273.322	77.19
273.553	82.19
273.785	78.19
274.017	72.19
274.249	96.19
274.481	78.19
274.713	81.19
274.945	82.19
275.176	92.19
275.408	86.19
275.64	94.19
275.872	82.19
276.104	80.19
276.335	93.19
276.567	83.19
276.799	66.19
277.031	74.19
277.262	73.19
277.494	71.19
277.726	87.19
277.957	82.19
278.189	76.19
278.421	82.19
278.652	84.19
278.884	82.19
279.115	74.19
279.347	69.19
279.579	78.19
279.81	73.19
280.042	77.19
280.273	77.19
280.505	99.19
280.736	92.19
280.968	84.19
281.199	83.19
281.431	92.19
281.662	92.19
281.894	89.19
282.125	89.19
282.356	76.19
282.588	88.19
282.819	93.19
283.051	85.19
283.282	94.19
283.513	85.19
283.745	72.19
283.976	94.19
284.207	87.19
284.439	95.19
284.67	88.19
284.901	96.19
285.132	83.19
285.364	66.19
285.595	79.19
285.826	83.19
286.057	75.19
286.288	67.19
286.52	67.19
286.751	79.19
286.982	69.19
287.213	74.19
287.444	91.19
287.675	98.19
287.906	80.19
288.138	99.19
288.369	88.19
288.6	86.19
288.831	82.19
289.062	79.19
289.293	90.19
289.524	83.19
289.755	84.19
289.986	94.19
290.217	90.19
290.448	82.19
290.679	74.19
290.91	97.19
291.141	90.19
291.371	95.19
291.602	97.19
291.833	85.19
292.064	93.19
292.295	85.19
292.526	81.19
292.757	76.19
292.987	75.19
293.218	82.19
293.449	82.19
293.68	95.19
293.91	84.19
294.141	79.19
294.372	81.19
294.603	84.19
294.833	95.19
295.064	80.19
295.295	77.19
295.525	81.19
295.756	85.19
295.987	90.19
296.217	75.19
296.448	79.19
296.679	85.19
296.909	87.19
297.14	79.19
297.37	84.19
297.601	100.19
297.831	83.19
298.062	85.19
298.292	85.19
298.523	90.19
298.753	74.19
298.984	86.19
299.214	85.19
299.445	89.19
299.675	87.19
299.905	82.19
300.136	81.19
300.366	84.19
300.597	89.19
300.827	97.19
301.057	80.19
301.288	83.19
301.518	82.19
301.748	85.19
301.979	75.19
302.209	84.19
302.439	81.19
302.669	88.19
302.9	90.19
303.13	79.19
303.36	83.19
303.59	84.19
303.82	92.19
304.051	86.19
304.281	82.19
304.511	75.19
304.741	89.19
304.971	72.19
305.201	80.19
305.431	67.19
305.661	70.19
305.891	91.19
306.121	77.19
306.352	79.19
306.582	82.19
306.812	87.19
307.042	82.19
307.272	81.19
307.502	97.19
307.731	88.19
307.961	86.19
308.191	85.19
308.421	97.19
308.651	78.19
308.881	105.19
309.111	88.19
309.341	97.19
309.571	79.19
309.8	78.19
310.03	77.19
310.26	89.19
310.49	77.19
310.72	94.19
310.949	81.19
311.179	78.19
311.409	78.19
311.639	76.19
311.868	87.19
312.098	99.19
312.328	86.19
312.557	88.19
312.787	75.19
313.017	81.19
313.246	84.19
313.476	70.19
313.706	74.19
313.935	83.19
314.165	91.19
314.394	81.19
314.624	82.19
314.853	79.19
315.083	89.19
315.312	90.19
315.542	76.19
315.771	85.19
316.001	98.19
316.23	85.19
316.46	90.19
316.689	88.19
316.919	78.19
317.148	79.19
317.377	75.19
317.607	75.19
317.836	76.19
318.065	77.19
318.295	92.19
318.524	89.19
318.753	78.19
318.983	89.19
319.212	91.19
319.441	88.19
319.67	77.19
319.9	92.19
320.129	84.19
320.358	88.19
320.587	99.19
320.816	86.19
321.046	94.19
321.275	92.19
321.504	88.19
321.733	83.19
321.962	72.19
322.191	90.19
322.42	88.19
322.649	76.19
322.878	77.19
323.108	82.19
323.337	90.19
323.566	82.19
323.795	74.19
324.024	85.19
324.253	70.19
324.482	67.19
324.71	96.19
324.939	78.19
325.168	90.19
325.397	88.19
325.626	85.19
325.855	90.19
326.084	89.19
326.313	95.19
326.542	83.19
326.77	75.19
326.999	87.19
327.228	79.19
327.457	74.19
327.686	94.19
327.914	89.19
328.143	88.19
328.372	75.19
328.6	81.19
328.829	94.19
329.058	89.19
329.287	90.19
329.515	80.19
329.744	97.19
329.972	85.19
330.201	87.19
330.43	87.19
330.658	80.19
330.887	93.19
331.115	91.19
331.344	89.19
331.572	83.19
331.801	80.19
332.03	79.19
332.258	80.19
332.486	81.19
332.715	79.19
332.943	83.19
333.172	82.19
333.4	78.19
333.629	89.19
333.857	75.19
334.085	83.19
334.314	90.19
334.542	85.19
334.771	91.19
334.999	79.19
335.227	83.19
335.455	89.19
335.684	95.19
335.912	87.19
336.14	94.19
336.369	95.19
336.597	82.19
336.825	90.19
337.053	80.19
337.281	74.19
337.51	78.19
337.738	88.19
337.966	90.19
338.194	68.19
338.422	73.19
338.65	80.19
338.878	88.19
339.106	77.19
339.334	94.19
339.562	74.19
339.79	77.19
340.018	77.19
340.246	90.19
340.474	85.19
340.702	90.19
340.93	101.19
341.158	69.19
341.386	79.19
341.614	84.19
341.842	88.19
342.07	81.19
342.298	95.19
342.526	78.19
342.754	83.19
342.981	89.19
343.209	77.19
343.437	95.19
343.665	84.19
343.893	87.19
344.12	89.19
344.348	79.19
344.576	79.19
344.804	88.19
345.031	75.19
345.259	87.19
345.487	86.19
345.714	81.19
345.942	84.19
346.17	81.19
346.397	90.19
346.625	87.19
346.853	103.19
347.08	85.19
347.308	74.19
347.535	100.19
347.763	78.19
347.99	100.19
348.218	92.19
348.445	81.19
348.673	79.19
348.9	76.19
349.128	83.19
349.355	80.19
349.583	83.19
349.81	76.19
350.037	70.19
350.265	81.19
350.492	76.19
350.72	96.19
350.947	73.19
351.174	82.19
351.402	88.19
351.629	81.19
351.856	85.19
352.083	89.19
352.311	84.19
352.538	103.19
352.765	91.19
352.992	85.19
353.22	83.19
353.447	79.19
353.674	87.19
353.901	89.19
354.128	77.19
354.355	64.19
354.583	89.19
354.81	87.19
355.037	80.19
355.264	86.19
355.491	88.19
355.718	85.19
355.945	85.19
356.172	97.19
356.399	87.19
356.626	90.19
356.853	98.19
357.08	95.19
357.307	86.19
357.534	81.19
357.761	74.19
357.988	80.19
358.215	77.19
358.441	87.19
358.668	87.19
358.895	81.19
359.122	71.19
359.349	75.19
359.576	94.19
359.802	102.19
360.029	83.19
360.256	84.19
360.483	78.19
360.709	90.19
360.936	85.19
361.163	88.19
361.39	82.19
361.616	85.19
361.843	89.19
362.07	86.19
362.296	78.19
362.523	80.19
362.749	93.19
362.976	76.19
363.203	75.19
363.429	75.19
363.656	81.19
363.882	85.19
364.109	90.19
364.335	88.19
364.562	85.19
364.788	86.19
365.015	91.19
365.241	87.19
365.468	77.19
365.694	85.19
365.92	85.19
366.147	76.19
366.373	88.19
366.599	88.19
366.826	85.19
367.052	91.19
367.278	95.19
367.505	78.19
367.731	95.19
367.957	89.19
368.184	86.19
368.41	91.19
368.636	83.19
368.862	89.19
369.089	98.19
369.315	81.19
369.541	96.19
369.767	96.19
369.993	89.19
370.219	85.19
370.445	87.19
370.672	87.19
370.898	93.19
371.124	94.19
371.35	87.19
371.576	96.19
371.802	89.19
372.028	95.19
372.254	88.19
372.48	102.19
372.706	94.19
372.932	86.19
373.158	96.19
373.384	89.19
373.61	90.19
373.835	93.19
374.061	93.19
374.287	103.19
374.513	92.19
374.739	88.19
374.965	99.19
375.191	74.19
375.416	98.19
375.642	86.19
375.868	95.19
376.094	83.19
376.319	95.19
376.545	94.19
376.771	95.19
376.997	94.19
377.222	95.19
377.448	87.19
377.674	94.19
377.899	90.19
378.125	92.19
378.35	101.19
378.576	96.19
378.802	100.19
379.027	89.19
379.253	87.19
379.478	95.19
379.704	97.19
379.929	85.19
380.155	87.19
380.38	86.19
380.606	88.19
380.831	98.19
381.057	92.19
381.282	87.19
381.507	79.19
381.733	107.19
381.958	106.19
382.184	95.19
382.409	102.19
382.634	105.19
382.86	98.19
383.085	102.19
383.31	95.19
383.535	105.19
383.761	96.19
383.986	93.19
384.211	91.19
384.436	106.19
384.662	100.19
384.887	94.19
385.112	90.19
385.337	93.19
385.562	98.19
385.787	106.19
386.013	119.19
386.238	79.19
386.463	100.19
386.688	91.19
386.913	94.19
387.138	99.19
387.363	107.19
387.588	100.19
387.813	105.19
388.038	94.19
388.263	103.19
388.488	100.19
388.713	107.19
388.938	100.19
389.163	108.19
389.387	103.19
389.612	98.19
389.837	93.19
390.062	92.19
390.287	103.19
390.512	102.19
390.736	106.19
390.961	110.19
391.186	108.19
391.411	117.19
391.636	107.19
391.86	99.19
392.085	102.19
392.31	95.19
392.534	79.19
392.759	100.19
392.984	96.19
393.208	109.19
393.433	108.19
393.658	106.19
393.882	105.19
394.107	110.19
394.331	109.19
394.556	99.19
394.78	108.19
395.005	96.19
395.229	103.19
395.454	103.19
395.678	109.19
395.903	106.19
396.127	102.19
396.352	101.19
396.576	105.19
396.801	114.19
397.025	113.19
397.249	106.19
397.474	120.19
397.698	106.19
397.922	103.19
398.147	111.19
398.371	93.19
398.595	104.19
398.82	116.19
399.044	103.19
399.268	100.19
399.492	109.19
399.717	110.19
399.941	111.19
400.165	117.19
400.389	111.19
400.613	109.19
400.837	105.19
401.062	110.19
401.286	99.19
401.51	119.19
401.734	113.19
401.958	109.19
402.182	111.19
402.406	95.19
402.63	115.19
402.854	108.19
403.078	107.19
403.302	126.19
403.526	98.19
403.75	119.19
403.974	125.19
404.198	118.19
404.422	119.19
404.645	118.19
404.869	117.19
405.093	117.19
405.317	114.19
405.541	121.19
405.765	108.19
405.988	105.19
406.212	118.19
406.436	120.19
406.66	125.19
406.883	113.19
407.107	121.19
407.331	108.19
407.555	120.19
407.778	118.19
408.002	100.19
408.226	102.19
408.449	104.19
408.673	119.19
408.896	119.19
409.12	119.19
409.344	121.19
409.567	113.19
409.791	125.19
410.014	114.19
410.238	115.19
410.461	108.19
410.685	129.19
410.908	119.19
411.132	124.19
411.355	110.19
411.578	125.19
411.802	140.19
412.025	118.19
412.249	129.19
412.472	120.19
412.695	108.19
412.919	120.19
413.142	121.19
413.365	122.19
413.589	127.19
413.812	121.19
414.035	134.19
414.258	128.19
414.482	118.19
414.705	122.19
414.928	131.19
415.151	104.19
415.374	118.19
415.597	122.19
415.821	124.19
416.044	121.19
416.267	130.19
416.49	124.19
416.713	121.19
416.936	130.19
417.159	123.19
417.382	123.19
417.605	126.19
417.828	138.19
418.051	124.19
418.274	125.19
418.497	120.19
418.72	110.19
418.943	122.19
419.166	135.19
419.389	148.19
419.611	141.19
419.834	151.19
420.057	143.19
420.28	129.19
420.503	125.19
420.726	136.19
420.948	137.19
421.171	137.19
421.394	134.19
421.617	147.19
421.839	156.19
422.062	147.19
422.285	137.19
422.507	123.19
422.73	125.19
422.953	131.19
423.175	109.19
423.398	133.19
423.621	149.19
423.843	130.19
424.066	133.19
424.288	145.19
424.511	136.19
424.733	141.19
424.956	134.19
425.178	143.19
425.401	143.19
425.623	134.19
425.846	131.19
426.068	137.19
426.291	122.19
426.513	123.19
426.735	128.19
426.958	141.19
427.18	130.19
427.402	133.19
427.625	120.19
427.847	125.19
428.069	116.19
428.292	131.19
428.514	124.19
428.736	137.19
428.958	131.19
429.181	127.19
429.403	118.19
429.625	122.19
429.847	127.19
430.069	125.19
430.292	137.19
430.514	133.19
430.736	126.19
430.958	127.19
431.18	113.19
431.402	129.19
431.624	121.19
431.846	115.19
432.068	109.19
432.29	78.19
432.512	124.19
432.734	133.19
432.956	140.19
433.178	131.19
433.4	142.19
433.622	132.19
433.844	141.19
434.066	126.19
434.287	110.19
434.509	102.19
434.731	108.19
434.953	105.19
435.175	133.19
435.397	132.19
435.618	103.19
435.84	109.19
436.062	121.19
436.284	124.19
436.505	142.19
436.727	128.19
436.949	140.19
437.17	129.19
437.392	133.19
437.614	127.19
437.835	116.19
438.057	111.19
438.278	112.19
438.5	125.19
438.721	134.19
438.943	144.19
439.165	127.19
439.386	137.19
439.608	136.19
439.829	141.19
440.05	146.19
440.272	139.19
440.493	149.19
440.715	138.19
440.936	139.19
441.158	135.19
441.379	149.19
441.6	135.19
441.822	144.19
442.043	141.19
442.264	134.19
442.486	140.19
442.707	133.19
442.928	133.19
443.149	120.19
443.371	133.19
443.592	124.19
443.813	143.19
444.034	141.19
444.255	131.19
444.476	124.19
444.698	143.19
444.919	132.19
445.14	278.19
445.361	213.19
445.582	169.19
445.803	139.19
446.024	141.19
446.245	143.19
446.466	136.19
446.687	157.19
446.908	153.19
447.129	155.19
447.35	154.19
447.571	155.19
447.792	165.19
448.013	133.19
448.234	138.19
448.455	138.19
448.675	142.19
448.896	131.19
449.117	134.19
449.338	136.19
449.559	132.19
449.779	129.19
450	133.19
450.221	140.19
450.442	132.19
450.662	124.19
450.883	136.19
451.104	136.19
451.324	139.19
451.545	124.19
451.766	125.19
451.986	125.19
452.207	128.19
452.428	134.19
452.648	131.19
452.869	123.19
453.089	97.19
453.31	102.19
453.53	111.19
453.751	105.19
453.971	93.19
454.192	106.19
454.412	108.19
454.633	121.19
454.853	117.19
455.073	131.19
455.294	131.19
455.514	122.19
455.734	113.19
455.955	117.19
456.175	116.19
456.395	126.19
456.616	118.19
456.836	110.19
457.056	109.19
457.276	113.19
457.497	89.19
457.717	99.19
457.937	102.19
458.157	110.19
458.377	114.19
458.598	102.19
458.818	108.19
459.038	96.19
459.258	91.19
459.478	97.19
459.698	97.19
459.918	97.19
460.138	100.19
460.358	111.19
460.578	119.19
460.798	105.19
461.018	110.19
461.238	117.19
461.458	130.19
461.678	115.19
461.898	113.19
462.118	114.19
462.338	120.19
462.558	115.19
462.777	97.19
462.997	115.19
463.217	113.19
463.437	115.19
463.657	102.19
463.876	97.19
464.096	112.19
464.316	112.19
464.536	110.19
464.755	105.19
464.975	104.19
465.195	124.19
465.414	123.19
465.634	110.19
465.854	114.19
466.073	115.19
466.293	112.19
466.512	116.19
466.732	134.19
466.951	131.19
467.171	135.19
467.391	145.19
467.61	140.19
467.829	140.19
468.049	126.19
468.268	142.19
468.488	129.19
468.707	130.19
468.927	134.19
469.146	140.19
469.365	138.19
469.585	129.19
469.804	151.19
470.023	142.19
470.243	140.19
470.462	143.19
470.681	150.19
470.901	169.19
471.12	147.19
471.339	139.19
471.558	136.19
471.777	138.19
471.997	150.19
472.216	123.19
472.435	116.19
472.654	109.19
472.873	105.19
473.092	118.19
473.311	118.19
473.53	125.19
473.749	115.19
473.968	121.19
474.187	126.19
474.406	106.19
474.625	137.19
474.844	135.19
475.063	121.19
475.282	144.19
475.501	114.19
475.72	126.19
475.939	116.19
476.158	119.19
476.377	124.19
476.596	134.19
476.814	127.19
477.033	112.19
477.252	122.19
477.471	126.19
477.69	145.19
477.908	125.19
478.127	143.19
478.346	149.19
478.564	131.19
478.783	135.19
479.002	144.19
479.22	121.19
479.439	141.19
479.658	122.19
479.876	125.19
480.095	101.19
480.313	124.19
480.532	132.19
480.751	100.19
480.969	92.19
481.188	76.19
481.406	102.19
481.624	107.19
481.843	104.19
482.061	97.19
482.28	117.19
482.498	113.19
482.717	102.19
482.935	125.19
483.153	147.19
483.372	149.19
483.59	142.19
483.808	142.19
484.027	139.19
484.245	140.19
484.463	143.19
484.681	154.19
484.9	156.19
485.118	142.19
485.336	127.19
485.554	124.19
485.772	97.19
485.99	115.19
486.209	105.19
486.427	92.19
486.645	126.19
486.863	126.19
487.081	121.19
487.299	133.19
487.517	129.19
487.735	166.19
487.953	180.19
488.171	190.19
488.389	185.19
488.607	169.19
488.825	121.19
489.043	137.19
489.261	130.19
489.479	145.19
489.696	129.19
489.914	142.19
490.132	162.19
490.35	140.19
490.568	151.19
490.786	166.19
491.003	165.19
491.221	178.19
491.439	195.19
491.657	197.19
491.874	200.19
492.092	207.19
492.31	226.19
492.527	220.19
492.745	191.19
492.963	177.19
493.18	199.19
493.398	178.19
493.615	189.19
493.833	183.19
494.05	171.19
494.268	168.19
494.485	163.19
494.703	175.19
494.92	171.19
495.138	173.19
495.355	162.19
495.573	149.19
495.79	165.19
496.008	173.19
496.225	163.19
496.442	159.19
496.66	171.19
496.877	157.19
497.094	161.19
497.312	163.19
497.529	163.19
497.746	138.19
497.963	146.19
498.181	142.19
498.398	119.19
498.615	120.19
498.832	110.19
499.049	118.19
499.267	113.19
499.484	123.19
499.701	124.19
499.918	145.19
500.135	141.19
500.352	132.19
500.569	156.19
500.786	149.19
501.003	147.19
501.22	149.19
501.437	134.19
501.654	135.19
501.871	124.19
502.088	132.19
502.305	125.19
502.522	134.19
502.739	136.19
502.956	136.19
503.172	121.19
503.389	103.19
503.606	124.19
503.823	129.19
504.04	120.19
504.256	125.19
504.473	122.19
504.69	119.19
504.907	128.19
505.123	122.19
505.34	117.19
505.557	133.19
505.773	114.19
505.99	127.19
506.207	111.19
506.423	113.19
506.64	123.19
506.856	125.19
507.073	109.19
507.289	117.19
507.506	121.19
507.722	140.19
507.939	120.19
508.155	121.19
508.372	124.19
508.588	119.19
508.805	109.19
509.021	110.19
509.238	101.19
509.454	108.19
509.67	96.19
509.887	86.19
510.103	98.19
510.319	84.19
510.536	97.19
510.752	93.19
510.968	94.19
511.184	100.19
511.401	87.19
511.617	96.19
