Data from Location1.07152019.Energy5.Lamp.07192019.3%Agarose_HRD10591_14-32-01-015.txt Node
Date: Fri Jul 19 14:32:01 EDT 2019
User: cochatt
Spectrometer: HR+D1059
Trigger mode: 1
Integration Time (sec): 1.000000E-1
Scans to average: 1
Electric dark correction enabled: true
Nonlinearity correction enabled: false
Boxcar width: 0
XAxis mode: Wavelengths
Number of Pixels in Spectrum: 2048
>>>>>Begin Spectral Data<<<<<
223.165	-30
223.4	-30
223.635	-30
223.869	-14
224.104	-17
224.338	-11
224.573	-8
224.808	-13
225.042	-8
225.277	-16
225.511	-5
225.746	-7
225.98	13
226.215	24
226.449	18
226.683	15
226.918	24
227.152	35
227.387	28
227.621	38
227.856	43
228.09	40
228.324	36
228.559	57
228.793	49
229.027	64
229.262	63
229.496	63
229.73	72
229.964	78
230.199	76
230.433	72
230.667	74
230.901	75
231.136	80
231.37	83
231.604	75
231.838	88
232.072	84
232.306	82
232.541	85
232.775	85
233.009	71
233.243	86
233.477	91
233.711	92
233.945	91
234.179	71
234.413	83
234.647	93
234.881	85
235.115	83
235.349	95
235.583	75
235.817	77
236.051	84
236.285	81
236.519	90
236.753	87
236.987	70
237.221	77
237.455	77
237.689	78
237.922	81
238.156	67
238.39	80
238.624	72
238.858	80
239.091	93
239.325	89
239.559	69
239.793	71
240.027	75
240.26	79
240.494	69
240.728	87
240.961	80
241.195	76
241.429	86
241.662	77
241.896	75
242.13	85
242.363	72
242.597	70
242.83	72
243.064	71
243.298	79
243.531	78
243.765	77
243.998	71
244.232	73
244.465	71
244.699	65
244.932	91
245.166	86
245.399	78
245.633	80
245.866	73
246.099	67
246.333	58
246.566	89
246.8	92
247.033	82
247.266	68
247.5	80
247.733	82
247.966	73
248.2	84
248.433	63
248.666	71
248.899	87
249.133	63
249.366	76
249.599	73
249.832	64
250.066	71
250.299	80
250.532	78
250.765	83
250.998	82
251.231	80
251.465	80
251.698	65
251.931	77
252.164	83
252.397	87
252.63	76
252.863	83
253.096	81
253.329	83
253.562	80
253.795	92
254.028	87
254.261	88
254.494	73
254.727	82
254.96	80
255.193	81
255.426	100
255.659	89
255.892	75
256.124	88
256.357	75
256.59	81
256.823	81
257.056	84
257.289	93
257.521	79
257.754	84
257.987	82
258.22	81
258.452	69
258.685	83
258.918	86
259.151	89
259.383	86
259.616	73
259.849	76
260.081	79
260.314	89
260.547	81
260.779	69
261.012	64
261.244	88
261.477	85
261.71	90
261.942	87
262.175	85
262.407	81
262.64	80
262.872	73
263.105	58
263.337	79
263.57	90
263.802	85
264.035	77
264.267	85
264.499	83
264.732	73
264.964	73
265.197	73
265.429	59
265.661	89
265.894	81
266.126	91
266.358	88
266.591	80
266.823	92
267.055	76
267.287	80
267.52	91
267.752	86
267.984	77
268.216	71
268.448	81
268.681	90
268.913	79
269.145	75
269.377	75
269.609	73
269.841	83
270.073	86
270.306	88
270.538	77
270.77	85
271.002	74
271.234	67
271.466	80
271.698	74
271.93	67
272.162	89
272.394	76
272.626	72
272.858	78
273.09	89
273.322	76
273.553	100
273.785	96
274.017	92
274.249	83
274.481	68
274.713	77
274.945	85
275.176	88
275.408	97
275.64	75
275.872	78
276.104	84
276.335	77
276.567	77
276.799	90
277.031	79
277.262	80
277.494	73
277.726	92
277.957	81
278.189	96
278.421	75
278.652	64
278.884	91
279.115	89
279.347	99
279.579	91
279.81	77
280.042	111
280.273	88
280.505	89
280.736	93
280.968	82
281.199	70
281.431	74
281.662	87
281.894	78
282.125	85
282.356	76
282.588	65
282.819	86
283.051	85
283.282	77
283.513	89
283.745	79
283.976	93
284.207	89
284.439	83
284.67	89
284.901	85
285.132	70
285.364	93
285.595	80
285.826	93
286.057	91
286.288	75
286.52	82
286.751	90
286.982	79
287.213	69
287.444	81
287.675	79
287.906	97
288.138	91
288.369	91
288.6	76
288.831	87
289.062	84
289.293	91
289.524	87
289.755	101
289.986	85
290.217	78
290.448	101
290.679	92
290.91	77
291.141	87
291.371	82
291.602	82
291.833	77
292.064	98
292.295	87
292.526	95
292.757	89
292.987	83
293.218	77
293.449	79
293.68	93
293.91	86
294.141	78
294.372	84
294.603	81
294.833	84
295.064	93
295.295	92
295.525	91
295.756	88
295.987	81
296.217	88
296.448	98
296.679	97
296.909	94
297.14	84
297.37	74
297.601	91
297.831	79
298.062	95
298.292	67
298.523	75
298.753	95
298.984	80
299.214	80
299.445	97
299.675	93
299.905	78
300.136	64
300.366	78
300.597	78
300.827	71
301.057	78
301.288	98
301.518	91
301.748	77
301.979	86
302.209	83
302.439	80
302.669	84
302.9	85
303.13	76
303.36	87
303.59	84
303.82	86
304.051	97
304.281	91
304.511	91
304.741	87
304.971	94
305.201	79
305.431	87
305.661	84
305.891	81
306.121	89
306.352	75
306.582	77
306.812	62
307.042	81
307.272	83
307.502	83
307.731	93
307.961	96
308.191	78
308.421	73
308.651	92
308.881	91
309.111	89
309.341	86
309.571	97
309.8	92
310.03	102
310.26	89
310.49	89
310.72	78
310.949	84
311.179	77
311.409	94
311.639	93
311.868	87
312.098	79
312.328	88
312.557	85
312.787	79
313.017	98
313.246	85
313.476	91
313.706	96
313.935	89
314.165	89
314.394	95
314.624	77
314.853	91
315.083	99
315.312	84
315.542	96
315.771	87
316.001	81
316.23	93
316.46	88
316.689	88
316.919	85
317.148	80
317.377	90
317.607	75
317.836	90
318.065	79
318.295	102
318.524	93
318.753	87
318.983	96
319.212	88
319.441	96
319.67	83
319.9	94
320.129	90
320.358	84
320.587	73
320.816	80
321.046	90
321.275	96
321.504	83
321.733	88
321.962	89
322.191	95
322.42	84
322.649	92
322.878	96
323.108	89
323.337	78
323.566	76
323.795	103
324.024	100
324.253	88
324.482	85
324.71	65
324.939	88
325.168	88
325.397	85
325.626	94
325.855	87
326.084	79
326.313	85
326.542	85
326.77	87
326.999	89
327.228	84
327.457	84
327.686	85
327.914	91
328.143	100
328.372	103
328.6	79
328.829	74
329.058	84
329.287	91
329.515	89
329.744	90
329.972	91
330.201	95
330.43	73
330.658	72
330.887	90
331.115	82
331.344	81
331.572	88
331.801	86
332.03	74
332.258	96
332.486	92
332.715	75
332.943	80
333.172	78
333.4	82
333.629	77
333.857	83
334.085	88
334.314	99
334.542	86
334.771	89
334.999	85
335.227	82
335.455	78
335.684	76
335.912	70
336.14	76
336.369	92
336.597	79
336.825	83
337.053	76
337.281	74
337.51	93
337.738	95
337.966	91
338.194	91
338.422	71
338.65	88
338.878	87
339.106	80
339.334	87
339.562	80
339.79	76
340.018	76
340.246	81
340.474	85
340.702	89
340.93	99
341.158	100
341.386	94
341.614	92
341.842	80
342.07	89
342.298	76
342.526	83
342.754	75
342.981	79
343.209	74
343.437	80
343.665	87
343.893	89
344.12	81
344.348	71
344.576	82
344.804	81
345.031	87
345.259	93
345.487	85
345.714	85
345.942	75
346.17	92
346.397	86
346.625	95
346.853	82
347.08	71
347.308	76
347.535	79
347.763	80
347.99	77
348.218	77
348.445	73
348.673	75
348.9	86
349.128	97
349.355	93
349.583	87
349.81	98
350.037	86
350.265	80
350.492	79
350.72	79
350.947	74
351.174	93
351.402	79
351.629	80
351.856	78
352.083	94
352.311	73
352.538	77
352.765	93
352.992	86
353.22	82
353.447	84
353.674	96
353.901	78
354.128	71
354.355	88
354.583	71
354.81	80
355.037	76
355.264	91
355.491	80
355.718	90
355.945	71
356.172	79
356.399	95
356.626	81
356.853	83
357.08	77
357.307	85
357.534	72
357.761	89
357.988	88
358.215	93
358.441	89
358.668	101
358.895	93
359.122	88
359.349	84
359.576	79
359.802	91
360.029	74
360.256	90
360.483	86
360.709	88
360.936	91
361.163	95
361.39	67
361.616	92
361.843	75
362.07	93
362.296	89
362.523	82
362.749	96
362.976	93
363.203	84
363.429	91
363.656	82
363.882	81
364.109	86
364.335	90
364.562	78
364.788	75
365.015	79
365.241	81
365.468	84
365.694	81
365.92	79
366.147	88
366.373	81
366.599	75
366.826	90
367.052	85
367.278	101
367.505	89
367.731	81
367.957	87
368.184	91
368.41	78
368.636	87
368.862	87
369.089	85
369.315	86
369.541	94
369.767	96
369.993	87
370.219	89
370.445	82
370.672	93
370.898	92
371.124	79
371.35	89
371.576	92
371.802	73
372.028	83
372.254	106
372.48	89
372.706	94
372.932	90
373.158	92
373.384	85
373.61	73
373.835	103
374.061	92
374.287	96
374.513	96
374.739	80
374.965	87
375.191	102
375.416	99
375.642	103
375.868	97
376.094	96
376.319	83
376.545	77
376.771	89
376.997	99
377.222	82
377.448	104
377.674	111
377.899	100
378.125	88
378.35	93
378.576	93
378.802	90
379.027	106
379.253	97
379.478	98
379.704	110
379.929	109
380.155	104
380.38	96
380.606	86
380.831	101
381.057	102
381.282	89
381.507	97
381.733	111
381.958	100
382.184	98
382.409	90
382.634	105
382.86	88
383.085	92
383.31	91
383.535	107
383.761	95
383.986	102
384.211	88
384.436	105
384.662	96
384.887	103
385.112	100
385.337	91
385.562	97
385.787	90
386.013	122
386.238	123
386.463	97
386.688	101
386.913	92
387.138	101
387.363	101
387.588	103
387.813	103
388.038	110
388.263	100
388.488	93
388.713	102
388.938	83
389.163	105
389.387	100
389.612	80
389.837	97
390.062	107
390.287	94
390.512	100
390.736	106
390.961	107
391.186	88
391.411	104
391.636	125
391.86	97
392.085	105
392.31	111
392.534	126
392.759	112
392.984	103
393.208	112
393.433	117
393.658	122
393.882	109
394.107	116
394.331	122
394.556	99
394.78	111
395.005	102
395.229	114
395.454	111
395.678	96
395.903	102
396.127	110
396.352	101
396.576	106
396.801	99
397.025	92
397.249	97
397.474	101
397.698	115
397.922	117
398.147	119
398.371	119
398.595	110
398.82	85
399.044	102
399.268	113
399.492	124
399.717	111
399.941	107
400.165	121
400.389	110
400.613	100
400.837	88
401.062	115
401.286	88
401.51	106
401.734	98
401.958	102
402.182	112
402.406	122
402.63	103
402.854	106
403.078	116
403.302	109
403.526	110
403.75	106
403.974	118
404.198	111
404.422	125
404.645	96
404.869	128
405.093	124
405.317	107
405.541	125
405.765	129
405.988	111
406.212	118
406.436	115
406.66	113
406.883	118
407.107	117
407.331	101
407.555	121
407.778	121
408.002	127
408.226	124
408.449	108
408.673	129
408.896	131
409.12	124
409.344	129
409.567	125
409.791	115
410.014	120
410.238	119
410.461	108
410.685	111
410.908	123
411.132	112
411.355	120
411.578	118
411.802	109
412.025	132
412.249	125
412.472	125
412.695	127
412.919	103
413.142	112
413.365	123
413.589	115
413.812	121
414.035	124
414.258	122
414.482	126
414.705	132
414.928	123
415.151	131
415.374	140
415.597	121
415.821	126
416.044	131
416.267	121
416.49	129
416.713	131
416.936	121
417.159	127
417.382	132
417.605	127
417.828	123
418.051	124
418.274	127
418.497	131
418.72	125
418.943	119
419.166	135
419.389	136
419.611	113
419.834	108
420.057	139
420.28	141
420.503	133
420.726	122
420.948	128
421.171	123
421.394	144
421.617	137
421.839	129
422.062	134
422.285	124
422.507	129
422.73	124
422.953	136
423.175	132
423.398	117
423.621	128
423.843	137
424.066	153
424.288	139
424.511	152
424.733	147
424.956	132
425.178	126
425.401	139
425.623	140
425.846	130
426.068	127
426.291	133
426.513	133
426.735	124
426.958	129
427.18	135
427.402	120
427.625	135
427.847	123
428.069	131
428.292	120
428.514	126
428.736	127
428.958	130
429.181	127
429.403	135
429.625	131
429.847	131
430.069	128
430.292	129
430.514	118
430.736	122
430.958	134
431.18	125
431.402	121
431.624	131
431.846	105
432.068	90
432.29	106
432.512	124
432.734	121
432.956	123
433.178	137
433.4	142
433.622	131
433.844	137
434.066	134
434.287	100
434.509	113
434.731	97
434.953	112
435.175	101
435.397	131
435.618	132
435.84	100
436.062	119
436.284	134
436.505	120
436.727	129
436.949	120
437.17	137
437.392	119
437.614	125
437.835	112
438.057	104
438.278	119
438.5	105
438.721	135
438.943	133
439.165	135
439.386	147
439.608	140
439.829	142
440.05	136
440.272	135
440.493	136
440.715	140
440.936	149
441.158	147
441.379	154
441.6	158
441.822	145
442.043	144
442.264	138
442.486	148
442.707	131
442.928	127
443.149	133
443.371	133
443.592	129
443.813	127
444.034	143
444.255	157
444.476	132
444.698	149
444.919	141
445.14	277
445.361	196
445.582	139
445.803	145
446.024	159
446.245	145
446.466	149
446.687	148
446.908	160
447.129	157
447.35	141
447.571	166
447.792	137
448.013	147
448.234	137
448.455	131
448.675	136
448.896	131
449.117	150
449.338	133
449.559	139
449.779	127
450	134
450.221	139
450.442	129
450.662	138
450.883	153
451.104	135
451.324	135
451.545	125
451.766	121
451.986	117
452.207	127
452.428	127
452.648	121
452.869	119
453.089	125
453.31	110
453.53	96
453.751	96
453.971	109
454.192	102
454.412	103
454.633	101
454.853	127
455.073	120
455.294	124
455.514	122
455.734	118
455.955	131
456.175	106
456.395	106
456.616	117
456.836	110
457.056	104
457.276	113
457.497	110
457.717	93
457.937	115
458.157	100
458.377	109
458.598	111
458.818	95
459.038	111
459.258	96
459.478	87
459.698	88
459.918	98
460.138	105
460.358	126
460.578	112
460.798	125
461.018	113
461.238	104
461.458	118
461.678	112
461.898	108
462.118	121
462.338	104
462.558	109
462.777	116
462.997	122
463.217	112
463.437	111
463.657	107
463.876	99
464.096	102
464.316	103
464.536	119
464.755	119
464.975	103
465.195	111
465.414	99
465.634	111
465.854	119
466.073	119
466.293	107
466.512	111
466.732	124
466.951	133
467.171	140
467.391	131
467.61	127
467.829	127
468.049	146
468.268	137
468.488	149
468.707	141
468.927	138
469.146	143
469.365	130
469.585	150
469.804	139
470.023	141
470.243	138
470.462	149
470.681	131
470.901	139
471.12	149
471.339	133
471.558	145
471.777	133
471.997	138
472.216	129
472.435	133
472.654	106
472.873	106
473.092	108
473.311	122
473.53	122
473.749	128
473.968	128
474.187	119
474.406	113
474.625	124
474.844	134
475.063	129
475.282	111
475.501	126
475.72	124
475.939	107
476.158	127
476.377	116
476.596	129
476.814	119
477.033	110
477.252	109
477.471	112
477.69	121
477.908	131
478.127	136
478.346	128
478.564	127
478.783	131
479.002	142
479.22	151
479.439	113
479.658	107
479.876	117
480.095	110
480.313	106
480.532	110
480.751	106
480.969	112
481.188	96
481.406	103
481.624	77
481.843	95
482.061	92
482.28	104
482.498	120
482.717	109
482.935	108
483.153	133
483.372	151
483.59	159
483.808	141
484.027	116
484.245	133
484.463	151
484.681	149
484.9	145
485.118	143
485.336	120
485.554	106
485.772	108
485.99	100
486.209	103
486.427	107
486.645	120
486.863	133
487.081	134
487.299	141
487.517	136
487.735	174
487.953	189
488.171	176
488.389	172
488.607	172
488.825	140
489.043	139
489.261	136
489.479	147
489.696	149
489.914	143
490.132	128
490.35	152
490.568	159
490.786	167
491.003	173
491.221	171
491.439	175
491.657	205
491.874	190
492.092	207
492.31	223
492.527	209
492.745	193
492.963	197
493.18	172
493.398	164
493.615	175
493.833	164
494.05	161
494.268	173
494.485	167
494.703	165
494.92	177
495.138	165
495.355	156
495.573	169
495.79	183
496.008	172
496.225	153
496.442	167
496.66	153
496.877	154
497.094	179
497.312	160
497.529	157
497.746	137
497.963	144
498.181	119
498.398	113
498.615	114
498.832	139
499.049	127
499.267	110
499.484	115
499.701	126
499.918	128
500.135	130
500.352	133
500.569	133
500.786	146
501.003	135
501.22	153
501.437	136
501.654	139
501.871	127
502.088	132
502.305	147
502.522	126
502.739	129
502.956	137
503.172	130
503.389	131
503.606	129
503.823	111
504.04	115
504.256	111
504.473	125
504.69	123
504.907	123
505.123	124
505.34	123
505.557	131
505.773	120
505.99	115
506.207	119
506.423	111
506.64	140
506.856	115
507.073	132
507.289	127
507.506	119
507.722	113
507.939	109
508.155	112
508.372	113
508.588	107
508.805	120
509.021	103
509.238	115
509.454	102
509.67	97
509.887	91
510.103	90
510.319	80
510.536	90
510.752	105
510.968	94
511.184	85
511.401	92
511.617	95
511.833	93
512.049	94
512.265	77
512.481	87
512.698	101
512.914	98
513.13	110
513.346	102
513.562	87
513.778	86
513.994	86
514.21	81
514.426	89
514.642	96
514.858	96
515.074	83
515.29	95
515.506	92
515.721	73
515.937	94
516.153	89
516.369	91
516.585	89
516.801	89
517.016	91
517.232	93
517.448	89
517.664	94
517.879	111
518.095	86
518.311	91
518.527	94
518.742	88
518.958	98
519.173	96
519.389	121
519.605	111
519.82	105
520.036	101
520.251	114
520.467	97
520.682	96
520.898	94
521.113	93
521.329	86
521.544	104
521.76	99
521.975	95
522.19	95
522.406	104
522.621	97
522.836	118
523.052	104
523.267	109
523.482	111
523.698	115
523.913	112
524.128	115
524.343	108
524.559	121
524.774	112
524.989	118
525.204	123
525.419	107
525.634	113
525.849	109
526.064	104
526.28	99
526.495	107
526.71	89
526.925	89
527.14	79
527.355	89
527.57	96
527.785	92
527.999	104
528.214	96
528.429	120
528.644	121
528.859	130
529.074	145
529.289	163
529.503	159
529.718	142
529.933	121
530.148	126
530.363	107
530.577	79
530.792	85
531.007	75
531.221	76
531.436	89
531.651	75
531.865	82
532.08	86
532.295	93
532.509	81
532.724	92
532.938	101
533.153	95
533.367	109
533.582	115
533.796	127
534.011	121
534.225	89
534.44	86
534.654	105
534.868	100
535.083	107
535.297	99
535.511	94
535.726	109
535.94	106
536.154	101
536.369	98
536.583	100
536.797	86
537.011	94
537.225	96
537.44	86
537.654	96
537.868	85
538.082	85
538.296	94
538.51	94
538.724	100
538.938	124
539.153	118
539.367	112
539.581	121
539.795	87
540.009	88
540.222	97
540.436	99
540.65	105
540.864	126
541.078	121
541.292	135
541.506	159
541.72	167
541.934	183
542.147	180
542.361	179
542.575	161
542.789	149
543.002	142
543.216	127
543.43	113
543.644	135
543.857	135
544.071	151
544.285	167
544.498	145
544.712	165
544.925	145
545.139	158
545.352	169
545.566	137
545.779	149
545.993	146
546.206	151
546.42	158
546.633	176
546.847	173
547.06	172
547.274	156
547.487	174
547.7	185
547.914	153
548.127	159
548.34	166
548.554	139
548.767	158
548.98	169
549.193	145
549.407	148
549.62	165
549.833	162
550.046	151
550.259	143
550.473	160
550.686	152
550.899	145
551.112	131
551.325	123
551.538	135
551.751	127
551.964	119
552.177	134
552.39	141
552.603	137
552.816	147
553.029	159
553.242	139
553.455	165
553.667	149
553.88	143
554.093	150
554.306	143
554.519	145
554.732	128
554.944	144
555.157	141
555.37	138
555.583	141
555.795	128
556.008	125
556.221	137
556.433	144
556.646	136
556.859	120
557.071	135
557.284	137
557.496	139
557.709	137
557.921	127
558.134	133
558.346	141
558.559	137
558.771	119
558.984	127
559.196	138
559.409	129
559.621	121
559.833	113
560.046	111
560.258	125
560.47	125
560.683	130
560.895	124
561.107	113
561.32	127
561.532	132
561.744	145
561.956	137
562.168	127
562.381	134
562.593	131
562.805	128
563.017	124
563.229	107
563.441	125
563.653	129
563.865	120
564.077	100
564.289	110
564.501	121
564.713	112
564.925	107
565.137	123
565.349	103
565.561	113
565.773	104
565.985	109
566.197	101
566.408	126
566.62	121
566.832	112
567.044	114
567.255	110
567.467	108
567.679	111
567.891	108
568.102	112
568.314	92
568.526	89
568.737	91
568.949	88
569.161	76
569.372	79
569.584	81
569.795	103
570.007	81
570.218	89
570.43	76
570.641	96
570.853	91
571.064	89
571.276	106
571.487	91
571.698	104
571.91	94
572.121	113
572.333	93
572.544	88
572.755	89
572.966	103
573.178	91
573.389	86
573.6	90
573.811	91
574.023	73
574.234	83
574.445	98
574.656	106
574.867	98
575.078	92
575.289	100
575.501	103
575.712	85
575.923	100
576.134	83
576.345	99
576.556	115
576.767	98
