Data from Location1.07152019.Energy5.Lamp.07192019.3%Agarose_HRD10591_14-31-25-014.txt Node
Date: Fri Jul 19 14:31:25 EDT 2019
User: cochatt
Spectrometer: HR+D1059
Trigger mode: 1
Integration Time (sec): 1.000000E-1
Scans to average: 1
Electric dark correction enabled: true
Nonlinearity correction enabled: false
Boxcar width: 0
XAxis mode: Wavelengths
Number of Pixels in Spectrum: 2048
>>>>>Begin Spectral Data<<<<<
223.165	-30.31
223.4	-30.31
223.635	-30.31
223.869	-11.31
224.104	-8.31
224.338	-17.31
224.573	-14.31
224.808	-9.31
225.042	-11.31
225.277	-13.31
225.511	6.69
225.746	-2.31
225.98	10.69
226.215	8.69
226.449	11.69
226.683	30.69
226.918	12.69
227.152	36.69
227.387	39.69
227.621	42.69
227.856	39.69
228.09	43.69
228.324	47.69
228.559	61.69
228.793	53.69
229.027	61.69
229.262	81.69
229.496	70.69
229.73	80.69
229.964	73.69
230.199	72.69
230.433	78.69
230.667	91.69
230.901	67.69
231.136	89.69
231.37	96.69
231.604	81.69
231.838	85.69
232.072	88.69
232.306	97.69
232.541	92.69
232.775	81.69
233.009	79.69
233.243	81.69
233.477	73.69
233.711	70.69
233.945	78.69
234.179	68.69
234.413	80.69
234.647	77.69
234.881	91.69
235.115	85.69
235.349	89.69
235.583	77.69
235.817	72.69
236.051	72.69
236.285	86.69
236.519	77.69
236.753	81.69
236.987	83.69
237.221	87.69
237.455	91.69
237.689	77.69
237.922	78.69
238.156	82.69
238.39	83.69
238.624	70.69
238.858	80.69
239.091	77.69
239.325	68.69
239.559	84.69
239.793	80.69
240.027	85.69
240.26	91.69
240.494	81.69
240.728	89.69
240.961	77.69
241.195	76.69
241.429	107.69
241.662	81.69
241.896	87.69
242.13	71.69
242.363	90.69
242.597	71.69
242.83	98.69
243.064	90.69
243.298	78.69
243.531	82.69
243.765	64.69
243.998	79.69
244.232	96.69
244.465	78.69
244.699	72.69
244.932	73.69
245.166	87.69
245.399	79.69
245.633	81.69
245.866	77.69
246.099	86.69
246.333	58.69
246.566	81.69
246.8	89.69
247.033	83.69
247.266	76.69
247.5	65.69
247.733	76.69
247.966	93.69
248.2	68.69
248.433	93.69
248.666	81.69
248.899	88.69
249.133	84.69
249.366	95.69
249.599	74.69
249.832	76.69
250.066	76.69
250.299	67.69
250.532	75.69
250.765	72.69
250.998	82.69
251.231	86.69
251.465	76.69
251.698	72.69
251.931	69.69
252.164	90.69
252.397	88.69
252.63	77.69
252.863	81.69
253.096	70.69
253.329	81.69
253.562	98.69
253.795	78.69
254.028	85.69
254.261	75.69
254.494	88.69
254.727	98.69
254.96	74.69
255.193	93.69
255.426	92.69
255.659	77.69
255.892	88.69
256.124	84.69
256.357	85.69
256.59	84.69
256.823	79.69
257.056	78.69
257.289	95.69
257.521	84.69
257.754	83.69
257.987	90.69
258.22	93.69
258.452	76.69
258.685	76.69
258.918	81.69
259.151	90.69
259.383	86.69
259.616	73.69
259.849	83.69
260.081	90.69
260.314	83.69
260.547	86.69
260.779	82.69
261.012	75.69
261.244	80.69
261.477	90.69
261.71	93.69
261.942	76.69
262.175	85.69
262.407	78.69
262.64	92.69
262.872	82.69
263.105	88.69
263.337	84.69
263.57	89.69
263.802	78.69
264.035	69.69
264.267	90.69
264.499	76.69
264.732	109.69
264.964	82.69
265.197	96.69
265.429	91.69
265.661	83.69
265.894	88.69
266.126	89.69
266.358	72.69
266.591	79.69
266.823	91.69
267.055	72.69
267.287	97.69
267.52	75.69
267.752	87.69
267.984	84.69
268.216	69.69
268.448	90.69
268.681	90.69
268.913	93.69
269.145	72.69
269.377	75.69
269.609	70.69
269.841	92.69
270.073	93.69
270.306	83.69
270.538	81.69
270.77	82.69
271.002	89.69
271.234	88.69
271.466	79.69
271.698	89.69
271.93	87.69
272.162	72.69
272.394	86.69
272.626	82.69
272.858	93.69
273.09	78.69
273.322	93.69
273.553	80.69
273.785	91.69
274.017	96.69
274.249	90.69
274.481	77.69
274.713	88.69
274.945	79.69
275.176	77.69
275.408	87.69
275.64	90.69
275.872	84.69
276.104	100.69
276.335	92.69
276.567	84.69
276.799	94.69
277.031	94.69
277.262	96.69
277.494	93.69
277.726	65.69
277.957	70.69
278.189	84.69
278.421	90.69
278.652	87.69
278.884	81.69
279.115	100.69
279.347	64.69
279.579	86.69
279.81	88.69
280.042	101.69
280.273	88.69
280.505	101.69
280.736	85.69
280.968	88.69
281.199	85.69
281.431	92.69
281.662	79.69
281.894	100.69
282.125	101.69
282.356	99.69
282.588	82.69
282.819	95.69
283.051	99.69
283.282	73.69
283.513	89.69
283.745	85.69
283.976	78.69
284.207	91.69
284.439	100.69
284.67	80.69
284.901	84.69
285.132	84.69
285.364	78.69
285.595	86.69
285.826	95.69
286.057	82.69
286.288	77.69
286.52	94.69
286.751	96.69
286.982	92.69
287.213	83.69
287.444	88.69
287.675	88.69
287.906	86.69
288.138	82.69
288.369	92.69
288.6	90.69
288.831	82.69
289.062	90.69
289.293	81.69
289.524	79.69
289.755	79.69
289.986	93.69
290.217	81.69
290.448	82.69
290.679	91.69
290.91	89.69
291.141	84.69
291.371	84.69
291.602	92.69
291.833	77.69
292.064	86.69
292.295	82.69
292.526	88.69
292.757	86.69
292.987	77.69
293.218	87.69
293.449	88.69
293.68	88.69
293.91	101.69
294.141	87.69
294.372	93.69
294.603	84.69
294.833	94.69
295.064	97.69
295.295	80.69
295.525	87.69
295.756	91.69
295.987	80.69
296.217	85.69
296.448	85.69
296.679	85.69
296.909	92.69
297.14	81.69
297.37	91.69
297.601	84.69
297.831	103.69
298.062	81.69
298.292	83.69
298.523	85.69
298.753	86.69
298.984	92.69
299.214	86.69
299.445	83.69
299.675	72.69
299.905	92.69
300.136	90.69
300.366	102.69
300.597	87.69
300.827	79.69
301.057	86.69
301.288	89.69
301.518	73.69
301.748	81.69
301.979	74.69
302.209	82.69
302.439	104.69
302.669	87.69
302.9	92.69
303.13	72.69
303.36	94.69
303.59	90.69
303.82	95.69
304.051	95.69
304.281	95.69
304.511	88.69
304.741	84.69
304.971	82.69
305.201	101.69
305.431	91.69
305.661	95.69
305.891	96.69
306.121	94.69
306.352	81.69
306.582	92.69
306.812	81.69
307.042	94.69
307.272	100.69
307.502	84.69
307.731	73.69
307.961	91.69
308.191	86.69
308.421	93.69
308.651	86.69
308.881	87.69
309.111	84.69
309.341	91.69
309.571	95.69
309.8	85.69
310.03	89.69
310.26	88.69
310.49	88.69
310.72	90.69
310.949	74.69
311.179	85.69
311.409	87.69
311.639	94.69
311.868	87.69
312.098	94.69
312.328	88.69
312.557	69.69
312.787	89.69
313.017	88.69
313.246	72.69
313.476	76.69
313.706	88.69
313.935	89.69
314.165	86.69
314.394	111.69
314.624	81.69
314.853	90.69
315.083	97.69
315.312	78.69
315.542	92.69
315.771	92.69
316.001	85.69
316.23	94.69
316.46	84.69
316.689	85.69
316.919	92.69
317.148	75.69
317.377	86.69
317.607	91.69
317.836	90.69
318.065	78.69
318.295	99.69
318.524	79.69
318.753	93.69
318.983	82.69
319.212	86.69
319.441	90.69
319.67	80.69
319.9	86.69
320.129	101.69
320.358	84.69
320.587	72.69
320.816	84.69
321.046	74.69
321.275	78.69
321.504	76.69
321.733	88.69
321.962	90.69
322.191	81.69
322.42	85.69
322.649	96.69
322.878	79.69
323.108	90.69
323.337	77.69
323.566	98.69
323.795	93.69
324.024	82.69
324.253	89.69
324.482	78.69
324.71	76.69
324.939	91.69
325.168	89.69
325.397	83.69
325.626	101.69
325.855	82.69
326.084	81.69
326.313	86.69
326.542	88.69
326.77	94.69
326.999	86.69
327.228	80.69
327.457	77.69
327.686	83.69
327.914	89.69
328.143	90.69
328.372	73.69
328.6	77.69
328.829	92.69
329.058	88.69
329.287	100.69
329.515	85.69
329.744	86.69
329.972	88.69
330.201	104.69
330.43	84.69
330.658	84.69
330.887	91.69
331.115	82.69
331.344	73.69
331.572	91.69
331.801	103.69
332.03	76.69
332.258	80.69
332.486	91.69
332.715	75.69
332.943	82.69
333.172	98.69
333.4	95.69
333.629	87.69
333.857	76.69
334.085	72.69
334.314	80.69
334.542	74.69
334.771	97.69
334.999	74.69
335.227	89.69
335.455	78.69
335.684	82.69
335.912	90.69
336.14	97.69
336.369	84.69
336.597	93.69
336.825	87.69
337.053	80.69
337.281	85.69
337.51	96.69
337.738	84.69
337.966	89.69
338.194	80.69
338.422	87.69
338.65	91.69
338.878	80.69
339.106	86.69
339.334	93.69
339.562	82.69
339.79	91.69
340.018	82.69
340.246	92.69
340.474	84.69
340.702	88.69
340.93	70.69
341.158	76.69
341.386	88.69
341.614	88.69
341.842	91.69
342.07	80.69
342.298	74.69
342.526	85.69
342.754	80.69
342.981	86.69
343.209	79.69
343.437	84.69
343.665	78.69
343.893	82.69
344.12	84.69
344.348	85.69
344.576	87.69
344.804	83.69
345.031	84.69
345.259	79.69
345.487	72.69
345.714	94.69
345.942	82.69
346.17	72.69
346.397	80.69
346.625	87.69
346.853	86.69
347.08	86.69
347.308	93.69
347.535	77.69
347.763	79.69
347.99	92.69
348.218	88.69
348.445	84.69
348.673	81.69
348.9	83.69
349.128	98.69
349.355	72.69
349.583	93.69
349.81	93.69
350.037	80.69
350.265	89.69
350.492	82.69
350.72	79.69
350.947	85.69
351.174	83.69
351.402	72.69
351.629	83.69
351.856	85.69
352.083	69.69
352.311	77.69
352.538	89.69
352.765	79.69
352.992	102.69
353.22	91.69
353.447	92.69
353.674	84.69
353.901	82.69
354.128	87.69
354.355	90.69
354.583	81.69
354.81	83.69
355.037	86.69
355.264	101.69
355.491	92.69
355.718	107.69
355.945	80.69
356.172	105.69
356.399	81.69
356.626	73.69
356.853	81.69
357.08	95.69
357.307	85.69
357.534	76.69
357.761	75.69
357.988	92.69
358.215	87.69
358.441	92.69
358.668	87.69
358.895	84.69
359.122	74.69
359.349	86.69
359.576	90.69
359.802	85.69
360.029	81.69
360.256	78.69
360.483	90.69
360.709	77.69
360.936	78.69
361.163	86.69
361.39	84.69
361.616	87.69
361.843	88.69
362.07	101.69
362.296	94.69
362.523	81.69
362.749	84.69
362.976	90.69
363.203	72.69
363.429	78.69
363.656	80.69
363.882	87.69
364.109	95.69
364.335	90.69
364.562	82.69
364.788	101.69
365.015	86.69
365.241	72.69
365.468	75.69
365.694	86.69
365.92	82.69
366.147	93.69
366.373	82.69
366.599	107.69
366.826	76.69
367.052	89.69
367.278	93.69
367.505	89.69
367.731	92.69
367.957	82.69
368.184	89.69
368.41	88.69
368.636	99.69
368.862	95.69
369.089	97.69
369.315	84.69
369.541	99.69
369.767	83.69
369.993	89.69
370.219	82.69
370.445	82.69
370.672	101.69
370.898	97.69
371.124	90.69
371.35	90.69
371.576	87.69
371.802	89.69
372.028	95.69
372.254	108.69
372.48	101.69
372.706	78.69
372.932	79.69
373.158	87.69
373.384	93.69
373.61	97.69
373.835	99.69
374.061	97.69
374.287	89.69
374.513	95.69
374.739	86.69
374.965	109.69
375.191	102.69
375.416	109.69
375.642	91.69
375.868	120.69
376.094	97.69
376.319	81.69
376.545	77.69
376.771	89.69
376.997	82.69
377.222	104.69
377.448	93.69
377.674	93.69
377.899	101.69
378.125	81.69
378.35	121.69
378.576	105.69
378.802	94.69
379.027	88.69
379.253	101.69
379.478	94.69
379.704	96.69
379.929	97.69
380.155	96.69
380.38	101.69
380.606	90.69
380.831	87.69
381.057	109.69
381.282	92.69
381.507	89.69
381.733	96.69
381.958	104.69
382.184	100.69
382.409	88.69
382.634	99.69
382.86	108.69
383.085	98.69
383.31	90.69
383.535	94.69
383.761	91.69
383.986	104.69
384.211	116.69
384.436	103.69
384.662	91.69
384.887	89.69
385.112	92.69
385.337	82.69
385.562	102.69
385.787	97.69
386.013	114.69
386.238	108.69
386.463	92.69
386.688	100.69
386.913	93.69
387.138	96.69
387.363	98.69
387.588	104.69
387.813	107.69
388.038	105.69
388.263	105.69
388.488	97.69
388.713	105.69
388.938	109.69
389.163	114.69
389.387	97.69
389.612	102.69
389.837	101.69
390.062	107.69
390.287	114.69
390.512	100.69
390.736	105.69
390.961	109.69
391.186	104.69
391.411	117.69
391.636	102.69
391.86	98.69
392.085	121.69
392.31	100.69
392.534	114.69
392.759	114.69
392.984	120.69
393.208	96.69
393.433	98.69
393.658	95.69
393.882	104.69
394.107	125.69
394.331	94.69
394.556	108.69
394.78	116.69
395.005	116.69
395.229	108.69
395.454	97.69
395.678	106.69
395.903	104.69
396.127	113.69
396.352	108.69
396.576	101.69
396.801	93.69
397.025	93.69
397.249	100.69
397.474	108.69
397.698	108.69
397.922	117.69
398.147	105.69
398.371	122.69
398.595	96.69
398.82	106.69
399.044	107.69
399.268	107.69
399.492	109.69
399.717	125.69
399.941	111.69
400.165	106.69
400.389	103.69
400.613	114.69
400.837	110.69
401.062	126.69
401.286	116.69
401.51	111.69
401.734	116.69
401.958	116.69
402.182	118.69
402.406	115.69
402.63	111.69
402.854	112.69
403.078	130.69
403.302	116.69
403.526	106.69
403.75	114.69
403.974	109.69
404.198	124.69
404.422	125.69
404.645	104.69
404.869	115.69
405.093	124.69
405.317	121.69
405.541	121.69
405.765	101.69
405.988	119.69
406.212	114.69
406.436	112.69
406.66	106.69
406.883	113.69
407.107	113.69
407.331	116.69
407.555	120.69
407.778	122.69
408.002	118.69
408.226	120.69
408.449	124.69
408.673	116.69
408.896	125.69
409.12	125.69
409.344	118.69
409.567	119.69
409.791	119.69
410.014	113.69
410.238	122.69
410.461	117.69
410.685	122.69
410.908	118.69
411.132	132.69
411.355	117.69
411.578	121.69
411.802	124.69
412.025	130.69
412.249	112.69
412.472	121.69
412.695	126.69
412.919	120.69
413.142	130.69
413.365	122.69
413.589	118.69
413.812	127.69
414.035	131.69
414.258	134.69
414.482	126.69
414.705	112.69
414.928	135.69
415.151	129.69
415.374	123.69
415.597	128.69
415.821	111.69
416.044	130.69
416.267	120.69
416.49	122.69
416.713	117.69
416.936	132.69
417.159	134.69
417.382	133.69
417.605	150.69
417.828	133.69
418.051	114.69
418.274	130.69
418.497	128.69
418.72	127.69
418.943	129.69
419.166	130.69
419.389	143.69
419.611	142.69
419.834	134.69
420.057	135.69
420.28	136.69
420.503	140.69
420.726	110.69
420.948	132.69
421.171	132.69
421.394	139.69
421.617	144.69
421.839	134.69
422.062	141.69
422.285	130.69
422.507	147.69
422.73	130.69
422.953	123.69
423.175	128.69
423.398	112.69
423.621	133.69
423.843	132.69
424.066	134.69
424.288	140.69
424.511	141.69
424.733	162.69
424.956	137.69
425.178	144.69
425.401	156.69
425.623	126.69
425.846	129.69
426.068	129.69
426.291	136.69
426.513	130.69
426.735	126.69
426.958	132.69
427.18	130.69
427.402	125.69
427.625	123.69
427.847	120.69
428.069	122.69
428.292	123.69
428.514	121.69
428.736	131.69
428.958	130.69
429.181	126.69
429.403	128.69
429.625	132.69
429.847	121.69
430.069	118.69
430.292	135.69
430.514	129.69
430.736	140.69
430.958	142.69
431.18	108.69
431.402	133.69
431.624	114.69
431.846	112.69
432.068	88.69
432.29	112.69
432.512	135.69
432.734	132.69
432.956	135.69
433.178	139.69
433.4	133.69
433.622	144.69
433.844	126.69
434.066	124.69
434.287	106.69
434.509	93.69
434.731	107.69
434.953	111.69
435.175	127.69
435.397	125.69
435.618	98.69
435.84	116.69
436.062	105.69
436.284	124.69
436.505	127.69
436.727	133.69
436.949	134.69
437.17	121.69
437.392	139.69
437.614	126.69
437.835	113.69
438.057	102.69
438.278	113.69
438.5	125.69
438.721	133.69
438.943	150.69
439.165	137.69
439.386	139.69
439.608	141.69
439.829	131.69
440.05	147.69
440.272	141.69
440.493	153.69
440.715	167.69
440.936	151.69
441.158	151.69
441.379	146.69
441.6	161.69
441.822	165.69
442.043	132.69
442.264	136.69
442.486	137.69
442.707	127.69
442.928	136.69
443.149	116.69
443.371	128.69
443.592	133.69
443.813	136.69
444.034	144.69
444.255	143.69
444.476	140.69
444.698	144.69
444.919	139.69
445.14	280.69
445.361	198.69
445.582	147.69
445.803	129.69
446.024	152.69
446.245	140.69
446.466	142.69
446.687	164.69
446.908	155.69
447.129	158.69
447.35	138.69
447.571	146.69
447.792	145.69
448.013	147.69
448.234	149.69
448.455	144.69
448.675	148.69
448.896	141.69
449.117	144.69
449.338	128.69
449.559	128.69
449.779	131.69
450	129.69
450.221	146.69
450.442	138.69
450.662	136.69
450.883	136.69
451.104	122.69
451.324	140.69
451.545	133.69
451.766	136.69
451.986	136.69
452.207	134.69
452.428	128.69
452.648	121.69
452.869	132.69
453.089	125.69
453.31	128.69
453.53	101.69
453.751	105.69
453.971	114.69
454.192	115.69
454.412	120.69
454.633	125.69
454.853	129.69
455.073	133.69
455.294	127.69
455.514	122.69
455.734	128.69
455.955	118.69
456.175	112.69
456.395	122.69
456.616	116.69
456.836	109.69
457.056	103.69
457.276	110.69
457.497	105.69
457.717	125.69
457.937	117.69
458.157	106.69
458.377	118.69
458.598	110.69
458.818	103.69
459.038	72.69
459.258	93.69
459.478	96.69
459.698	103.69
459.918	97.69
460.138	121.69
460.358	113.69
460.578	110.69
460.798	130.69
461.018	111.69
461.238	102.69
461.458	117.69
461.678	124.69
461.898	118.69
462.118	116.69
462.338	113.69
462.558	123.69
462.777	122.69
462.997	115.69
463.217	108.69
463.437	112.69
463.657	112.69
463.876	103.69
464.096	110.69
464.316	102.69
464.536	108.69
464.755	119.69
464.975	94.69
465.195	126.69
465.414	121.69
465.634	117.69
465.854	124.69
466.073	117.69
466.293	127.69
466.512	117.69
466.732	139.69
466.951	134.69
467.171	141.69
467.391	140.69
467.61	128.69
467.829	131.69
468.049	142.69
468.268	128.69
468.488	140.69
468.707	121.69
468.927	136.69
469.146	143.69
469.365	130.69
469.585	132.69
469.804	140.69
470.023	144.69
470.243	148.69
470.462	160.69
470.681	134.69
470.901	136.69
471.12	145.69
471.339	138.69
471.558	142.69
471.777	138.69
471.997	138.69
472.216	143.69
472.435	125.69
472.654	99.69
472.873	122.69
473.092	132.69
473.311	126.69
473.53	125.69
473.749	109.69
473.968	124.69
474.187	133.69
474.406	119.69
474.625	132.69
474.844	147.69
475.063	131.69
475.282	128.69
475.501	127.69
475.72	139.69
475.939	120.69
476.158	124.69
476.377	132.69
476.596	132.69
476.814	129.69
477.033	104.69
477.252	120.69
477.471	120.69
477.69	121.69
477.908	119.69
478.127	140.69
478.346	129.69
478.564	135.69
478.783	128.69
479.002	136.69
479.22	139.69
479.439	143.69
479.658	119.69
479.876	116.69
480.095	112.69
480.313	112.69
480.532	118.69
480.751	113.69
480.969	90.69
481.188	97.69
481.406	93.69
481.624	94.69
481.843	95.69
482.061	95.69
482.28	124.69
482.498	116.69
482.717	116.69
482.935	122.69
483.153	140.69
483.372	142.69
483.59	143.69
483.808	129.69
484.027	134.69
484.245	131.69
484.463	134.69
484.681	156.69
484.9	165.69
485.118	155.69
485.336	146.69
485.554	127.69
485.772	112.69
485.99	105.69
486.209	122.69
486.427	108.69
486.645	114.69
486.863	137.69
487.081	146.69
487.299	151.69
487.517	145.69
487.735	150.69
487.953	176.69
488.171	203.69
488.389	170.69
488.607	154.69
488.825	132.69
489.043	145.69
489.261	109.69
489.479	140.69
489.696	133.69
489.914	147.69
490.132	142.69
490.35	154.69
490.568	153.69
490.786	169.69
491.003	174.69
491.221	182.69
491.439	194.69
491.657	177.69
491.874	209.69
492.092	209.69
492.31	231.69
492.527	228.69
492.745	202.69
492.963	186.69
493.18	196.69
493.398	192.69
493.615	187.69
493.833	189.69
494.05	185.69
494.268	166.69
494.485	176.69
494.703	176.69
494.92	159.69
495.138	154.69
495.355	185.69
495.573	177.69
495.79	181.69
496.008	161.69
496.225	166.69
496.442	176.69
496.66	192.69
496.877	171.69
497.094	166.69
497.312	172.69
497.529	154.69
497.746	152.69
497.963	150.69
498.181	165.69
498.398	128.69
498.615	122.69
498.832	115.69
499.049	125.69
499.267	130.69
499.484	124.69
499.701	137.69
499.918	129.69
500.135	142.69
500.352	151.69
500.569	143.69
500.786	127.69
501.003	157.69
501.22	147.69
501.437	129.69
501.654	132.69
501.871	128.69
502.088	138.69
502.305	140.69
502.522	134.69
502.739	132.69
502.956	133.69
503.172	132.69
503.389	125.69
503.606	137.69
503.823	110.69
504.04	117.69
504.256	113.69
504.473	125.69
504.69	140.69
504.907	134.69
505.123	124.69
505.34	121.69
505.557	122.69
505.773	131.69
505.99	130.69
506.207	127.69
506.423	105.69
506.64	116.69
506.856	142.69
507.073	121.69
507.289	117.69
507.506	108.69
507.722	111.69
507.939	126.69
508.155	116.69
508.372	113.69
508.588	129.69
508.805	94.69
509.021	109.69
509.238	103.69
509.454	99.69
509.67	93.69
509.887	99.69
510.103	93.69
510.319	105.69
510.536	101.69
510.752	97.69
510.968	81.69
511.184	89.69
