Data from Location1.07152019.Energy5.Lamp.07192019.3%Agarose_HRD10591_14-33-26-016.txt Node
Date: Fri Jul 19 14:33:26 EDT 2019
User: cochatt
Spectrometer: HR+D1059
Trigger mode: 1
Integration Time (sec): 1.000000E-1
Scans to average: 1
Electric dark correction enabled: true
Nonlinearity correction enabled: false
Boxcar width: 0
XAxis mode: Wavelengths
Number of Pixels in Spectrum: 2048
>>>>>Begin Spectral Data<<<<<
223.165	-21.31
223.4	-21.31
223.635	-21.31
223.869	-31.31
224.104	-9.31
224.338	-13.31
224.573	-21.31
224.808	-7.31
225.042	-0.31
225.277	-6.31
225.511	-5.31
225.746	-16.31
225.98	13.69
226.215	20.69
226.449	16.69
226.683	25.69
226.918	25.69
227.152	29.69
227.387	44.69
227.621	39.69
227.856	54.69
228.09	29.69
228.324	53.69
228.559	50.69
228.793	59.69
229.027	63.69
229.262	60.69
229.496	67.69
229.73	53.69
229.964	72.69
230.199	64.69
230.433	71.69
230.667	78.69
230.901	83.69
231.136	90.69
231.37	76.69
231.604	82.69
231.838	78.69
232.072	75.69
232.306	80.69
232.541	83.69
232.775	78.69
233.009	80.69
233.243	78.69
233.477	82.69
233.711	82.69
233.945	68.69
234.179	68.69
234.413	72.69
234.647	75.69
234.881	68.69
235.115	71.69
235.349	78.69
235.583	74.69
235.817	76.69
236.051	83.69
236.285	84.69
236.519	89.69
236.753	81.69
236.987	64.69
237.221	66.69
237.455	72.69
237.689	65.69
237.922	64.69
238.156	85.69
238.39	68.69
238.624	71.69
238.858	77.69
239.091	78.69
239.325	69.69
239.559	83.69
239.793	88.69
240.027	74.69
240.26	72.69
240.494	71.69
240.728	63.69
240.961	74.69
241.195	83.69
241.429	80.69
241.662	67.69
241.896	66.69
242.13	74.69
242.363	87.69
242.597	76.69
242.83	76.69
243.064	82.69
243.298	64.69
243.531	69.69
243.765	66.69
243.998	90.69
244.232	96.69
244.465	72.69
244.699	75.69
244.932	83.69
245.166	78.69
245.399	80.69
245.633	88.69
245.866	69.69
246.099	75.69
246.333	87.69
246.566	83.69
246.8	75.69
247.033	89.69
247.266	75.69
247.5	66.69
247.733	74.69
247.966	78.69
248.2	69.69
248.433	88.69
248.666	56.69
248.899	77.69
249.133	83.69
249.366	75.69
249.599	83.69
249.832	88.69
250.066	71.69
250.299	75.69
250.532	89.69
250.765	91.69
250.998	81.69
251.231	80.69
251.465	63.69
251.698	76.69
251.931	86.69
252.164	68.69
252.397	67.69
252.63	71.69
252.863	70.69
253.096	84.69
253.329	88.69
253.562	77.69
253.795	66.69
254.028	70.69
254.261	80.69
254.494	74.69
254.727	73.69
254.96	91.69
255.193	74.69
255.426	80.69
255.659	72.69
255.892	84.69
256.124	77.69
256.357	83.69
256.59	77.69
256.823	77.69
257.056	77.69
257.289	84.69
257.521	68.69
257.754	79.69
257.987	96.69
258.22	79.69
258.452	66.69
258.685	79.69
258.918	82.69
259.151	81.69
259.383	77.69
259.616	63.69
259.849	80.69
260.081	71.69
260.314	81.69
260.547	87.69
260.779	77.69
261.012	82.69
261.244	74.69
261.477	89.69
261.71	87.69
261.942	62.69
262.175	78.69
262.407	68.69
262.64	88.69
262.872	80.69
263.105	77.69
263.337	84.69
263.57	67.69
263.802	71.69
264.035	78.69
264.267	68.69
264.499	84.69
264.732	77.69
264.964	83.69
265.197	85.69
265.429	87.69
265.661	89.69
265.894	67.69
266.126	65.69
266.358	73.69
266.591	75.69
266.823	70.69
267.055	72.69
267.287	69.69
267.52	76.69
267.752	87.69
267.984	89.69
268.216	84.69
268.448	94.69
268.681	89.69
268.913	98.69
269.145	82.69
269.377	71.69
269.609	71.69
269.841	85.69
270.073	71.69
270.306	87.69
270.538	66.69
270.77	70.69
271.002	84.69
271.234	75.69
271.466	85.69
271.698	85.69
271.93	81.69
272.162	75.69
272.394	90.69
272.626	83.69
272.858	82.69
273.09	90.69
273.322	86.69
273.553	84.69
273.785	79.69
274.017	83.69
274.249	76.69
274.481	70.69
274.713	78.69
274.945	80.69
275.176	79.69
275.408	76.69
275.64	80.69
275.872	72.69
276.104	84.69
276.335	85.69
276.567	80.69
276.799	71.69
277.031	86.69
277.262	86.69
277.494	90.69
277.726	83.69
277.957	80.69
278.189	87.69
278.421	75.69
278.652	96.69
278.884	83.69
279.115	85.69
279.347	80.69
279.579	86.69
279.81	78.69
280.042	77.69
280.273	92.69
280.505	77.69
280.736	72.69
280.968	91.69
281.199	82.69
281.431	82.69
281.662	75.69
281.894	96.69
282.125	81.69
282.356	81.69
282.588	83.69
282.819	81.69
283.051	76.69
283.282	80.69
283.513	83.69
283.745	97.69
283.976	78.69
284.207	76.69
284.439	83.69
284.67	77.69
284.901	77.69
285.132	84.69
285.364	85.69
285.595	82.69
285.826	83.69
286.057	74.69
286.288	88.69
286.52	77.69
286.751	81.69
286.982	77.69
287.213	92.69
287.444	90.69
287.675	85.69
287.906	82.69
288.138	90.69
288.369	87.69
288.6	81.69
288.831	75.69
289.062	81.69
289.293	82.69
289.524	82.69
289.755	80.69
289.986	82.69
290.217	75.69
290.448	89.69
290.679	86.69
290.91	76.69
291.141	90.69
291.371	84.69
291.602	79.69
291.833	83.69
292.064	85.69
292.295	95.69
292.526	71.69
292.757	60.69
292.987	84.69
293.218	77.69
293.449	95.69
293.68	79.69
293.91	67.69
294.141	83.69
294.372	82.69
294.603	103.69
294.833	84.69
295.064	64.69
295.295	77.69
295.525	85.69
295.756	88.69
295.987	91.69
296.217	82.69
296.448	88.69
296.679	82.69
296.909	95.69
297.14	90.69
297.37	73.69
297.601	76.69
297.831	80.69
298.062	87.69
298.292	84.69
298.523	106.69
298.753	84.69
298.984	75.69
299.214	81.69
299.445	87.69
299.675	78.69
299.905	91.69
300.136	71.69
300.366	86.69
300.597	58.69
300.827	81.69
301.057	67.69
301.288	84.69
301.518	86.69
301.748	90.69
301.979	83.69
302.209	89.69
302.439	74.69
302.669	81.69
302.9	87.69
303.13	66.69
303.36	85.69
303.59	77.69
303.82	81.69
304.051	85.69
304.281	85.69
304.511	74.69
304.741	87.69
304.971	75.69
305.201	83.69
305.431	75.69
305.661	87.69
305.891	87.69
306.121	83.69
306.352	97.69
306.582	91.69
306.812	81.69
307.042	85.69
307.272	73.69
307.502	77.69
307.731	91.69
307.961	91.69
308.191	80.69
308.421	57.69
308.651	77.69
308.881	85.69
309.111	84.69
309.341	89.69
309.571	85.69
309.8	77.69
310.03	84.69
310.26	73.69
310.49	77.69
310.72	80.69
310.949	73.69
311.179	90.69
311.409	94.69
311.639	85.69
311.868	86.69
312.098	70.69
312.328	81.69
312.557	75.69
312.787	79.69
313.017	85.69
313.246	82.69
313.476	88.69
313.706	64.69
313.935	68.69
314.165	74.69
314.394	75.69
314.624	74.69
314.853	80.69
315.083	69.69
315.312	74.69
315.542	69.69
315.771	74.69
316.001	96.69
316.23	91.69
316.46	87.69
316.689	89.69
316.919	85.69
317.148	88.69
317.377	84.69
317.607	85.69
317.836	79.69
318.065	73.69
318.295	91.69
318.524	70.69
318.753	92.69
318.983	82.69
319.212	94.69
319.441	73.69
319.67	70.69
319.9	91.69
320.129	88.69
320.358	73.69
320.587	76.69
320.816	81.69
321.046	78.69
321.275	88.69
321.504	78.69
321.733	94.69
321.962	79.69
322.191	91.69
322.42	80.69
322.649	102.69
322.878	71.69
323.108	72.69
323.337	80.69
323.566	93.69
323.795	85.69
324.024	77.69
324.253	87.69
324.482	64.69
324.71	79.69
324.939	76.69
325.168	73.69
325.397	86.69
325.626	59.69
325.855	67.69
326.084	74.69
326.313	80.69
326.542	81.69
326.77	83.69
326.999	87.69
327.228	81.69
327.457	80.69
327.686	80.69
327.914	97.69
328.143	83.69
328.372	78.69
328.6	76.69
328.829	86.69
329.058	81.69
329.287	76.69
329.515	86.69
329.744	88.69
329.972	77.69
330.201	69.69
330.43	77.69
330.658	84.69
330.887	88.69
331.115	80.69
331.344	78.69
331.572	72.69
331.801	84.69
332.03	81.69
332.258	81.69
332.486	75.69
332.715	82.69
332.943	89.69
333.172	97.69
333.4	88.69
333.629	87.69
333.857	101.69
334.085	79.69
334.314	80.69
334.542	90.69
334.771	63.69
334.999	67.69
335.227	73.69
335.455	77.69
335.684	84.69
335.912	83.69
336.14	69.69
336.369	87.69
336.597	83.69
336.825	80.69
337.053	91.69
337.281	85.69
337.51	80.69
337.738	85.69
337.966	75.69
338.194	89.69
338.422	89.69
338.65	79.69
338.878	79.69
339.106	84.69
339.334	86.69
339.562	75.69
339.79	84.69
340.018	62.69
340.246	77.69
340.474	77.69
340.702	85.69
340.93	84.69
341.158	81.69
341.386	81.69
341.614	96.69
341.842	84.69
342.07	63.69
342.298	78.69
342.526	75.69
342.754	87.69
342.981	83.69
343.209	60.69
343.437	89.69
343.665	83.69
343.893	80.69
344.12	86.69
344.348	93.69
344.576	80.69
344.804	93.69
345.031	81.69
345.259	91.69
345.487	71.69
345.714	88.69
345.942	77.69
346.17	78.69
346.397	93.69
346.625	78.69
346.853	93.69
347.08	73.69
347.308	99.69
347.535	103.69
347.763	76.69
347.99	78.69
348.218	83.69
348.445	74.69
348.673	95.69
348.9	85.69
349.128	81.69
349.355	77.69
349.583	90.69
349.81	98.69
350.037	93.69
350.265	89.69
350.492	77.69
350.72	74.69
350.947	83.69
351.174	73.69
351.402	80.69
351.629	78.69
351.856	74.69
352.083	77.69
352.311	85.69
352.538	71.69
352.765	77.69
352.992	74.69
353.22	88.69
353.447	61.69
353.674	85.69
353.901	85.69
354.128	83.69
354.355	80.69
354.583	77.69
354.81	81.69
355.037	83.69
355.264	75.69
355.491	88.69
355.718	79.69
355.945	80.69
356.172	89.69
356.399	85.69
356.626	84.69
356.853	80.69
357.08	75.69
357.307	66.69
357.534	90.69
357.761	79.69
357.988	88.69
358.215	69.69
358.441	81.69
358.668	75.69
358.895	83.69
359.122	81.69
359.349	84.69
359.576	76.69
359.802	88.69
360.029	91.69
360.256	82.69
360.483	89.69
360.709	87.69
360.936	96.69
361.163	91.69
361.39	74.69
361.616	77.69
361.843	70.69
362.07	72.69
362.296	89.69
362.523	84.69
362.749	90.69
362.976	85.69
363.203	87.69
363.429	83.69
363.656	82.69
363.882	90.69
364.109	88.69
364.335	83.69
364.562	86.69
364.788	82.69
365.015	81.69
365.241	77.69
365.468	85.69
365.694	76.69
365.92	82.69
366.147	75.69
366.373	78.69
366.599	81.69
366.826	75.69
367.052	76.69
367.278	90.69
367.505	103.69
367.731	96.69
367.957	81.69
368.184	78.69
368.41	84.69
368.636	89.69
368.862	77.69
369.089	89.69
369.315	92.69
369.541	93.69
369.767	89.69
369.993	74.69
370.219	93.69
370.445	88.69
370.672	91.69
370.898	87.69
371.124	92.69
371.35	87.69
371.576	99.69
371.802	99.69
372.028	79.69
372.254	97.69
372.48	101.69
372.706	95.69
372.932	83.69
373.158	99.69
373.384	87.69
373.61	84.69
373.835	92.69
374.061	89.69
374.287	87.69
374.513	93.69
374.739	92.69
374.965	91.69
375.191	88.69
375.416	94.69
375.642	94.69
375.868	91.69
376.094	79.69
376.319	84.69
376.545	66.69
376.771	81.69
376.997	76.69
377.222	83.69
377.448	100.69
377.674	99.69
377.899	97.69
378.125	90.69
378.35	98.69
378.576	88.69
378.802	82.69
379.027	87.69
379.253	83.69
379.478	88.69
379.704	87.69
379.929	87.69
380.155	91.69
380.38	92.69
380.606	87.69
380.831	87.69
381.057	104.69
381.282	97.69
381.507	88.69
381.733	84.69
381.958	107.69
382.184	84.69
382.409	95.69
382.634	89.69
382.86	98.69
383.085	100.69
383.31	78.69
383.535	92.69
383.761	93.69
383.986	93.69
384.211	83.69
384.436	99.69
384.662	85.69
384.887	88.69
385.112	98.69
385.337	95.69
385.562	88.69
385.787	100.69
386.013	98.69
386.238	95.69
386.463	95.69
386.688	91.69
386.913	78.69
387.138	94.69
387.363	92.69
387.588	99.69
387.813	96.69
388.038	99.69
388.263	95.69
388.488	86.69
388.713	88.69
388.938	91.69
389.163	94.69
389.387	78.69
389.612	86.69
389.837	100.69
390.062	105.69
390.287	93.69
390.512	107.69
390.736	104.69
390.961	97.69
391.186	95.69
391.411	99.69
391.636	121.69
391.86	111.69
392.085	99.69
392.31	105.69
392.534	110.69
392.759	90.69
392.984	97.69
393.208	100.69
393.433	90.69
393.658	117.69
393.882	101.69
394.107	105.69
394.331	108.69
394.556	103.69
394.78	88.69
395.005	109.69
395.229	100.69
395.454	112.69
395.678	114.69
395.903	110.69
396.127	123.69
396.352	106.69
396.576	115.69
396.801	110.69
397.025	102.69
397.249	104.69
397.474	102.69
397.698	96.69
397.922	97.69
398.147	114.69
398.371	109.69
398.595	91.69
398.82	94.69
399.044	88.69
399.268	98.69
399.492	107.69
399.717	93.69
399.941	97.69
400.165	103.69
400.389	95.69
400.613	109.69
400.837	94.69
401.062	103.69
401.286	99.69
401.51	108.69
401.734	104.69
401.958	114.69
402.182	86.69
402.406	98.69
402.63	107.69
402.854	111.69
403.078	113.69
403.302	100.69
403.526	113.69
403.75	107.69
403.974	99.69
404.198	117.69
404.422	114.69
404.645	122.69
404.869	119.69
405.093	123.69
405.317	115.69
405.541	104.69
405.765	103.69
405.988	120.69
406.212	121.69
406.436	116.69
406.66	107.69
406.883	125.69
407.107	127.69
407.331	125.69
407.555	115.69
407.778	108.69
408.002	106.69
408.226	108.69
408.449	115.69
408.673	108.69
408.896	127.69
409.12	121.69
409.344	102.69
409.567	121.69
409.791	117.69
410.014	116.69
410.238	122.69
410.461	123.69
410.685	123.69
410.908	111.69
411.132	111.69
411.355	122.69
411.578	130.69
411.802	116.69
412.025	114.69
412.249	112.69
412.472	105.69
412.695	109.69
412.919	115.69
413.142	121.69
413.365	127.69
413.589	124.69
413.812	114.69
414.035	119.69
414.258	126.69
414.482	124.69
414.705	132.69
414.928	112.69
415.151	129.69
415.374	120.69
415.597	122.69
415.821	120.69
416.044	131.69
416.267	124.69
416.49	131.69
416.713	125.69
416.936	133.69
417.159	108.69
417.382	128.69
417.605	124.69
417.828	129.69
418.051	121.69
418.274	127.69
418.497	122.69
418.72	117.69
418.943	125.69
419.166	132.69
419.389	141.69
419.611	135.69
419.834	136.69
420.057	137.69
420.28	118.69
420.503	140.69
420.726	131.69
420.948	117.69
421.171	154.69
421.394	120.69
421.617	118.69
421.839	149.69
422.062	145.69
422.285	134.69
422.507	144.69
422.73	126.69
422.953	121.69
423.175	129.69
423.398	131.69
423.621	123.69
423.843	131.69
424.066	144.69
424.288	151.69
424.511	145.69
424.733	146.69
424.956	144.69
425.178	145.69
425.401	135.69
425.623	125.69
425.846	122.69
426.068	129.69
426.291	123.69
426.513	124.69
426.735	127.69
426.958	125.69
427.18	125.69
427.402	122.69
427.625	125.69
427.847	121.69
428.069	138.69
428.292	127.69
428.514	119.69
428.736	131.69
428.958	125.69
429.181	136.69
429.403	120.69
429.625	116.69
429.847	121.69
430.069	118.69
430.292	139.69
430.514	116.69
430.736	132.69
430.958	124.69
431.18	122.69
431.402	134.69
431.624	131.69
431.846	100.69
432.068	98.69
432.29	95.69
432.512	108.69
432.734	131.69
432.956	112.69
433.178	136.69
433.4	131.69
433.622	133.69
433.844	130.69
434.066	117.69
434.287	110.69
434.509	84.69
434.731	107.69
434.953	110.69
435.175	114.69
435.397	122.69
435.618	118.69
435.84	107.69
436.062	111.69
436.284	118.69
436.505	122.69
436.727	122.69
436.949	110.69
437.17	127.69
437.392	113.69
437.614	119.69
437.835	98.69
438.057	113.69
438.278	116.69
438.5	114.69
438.721	132.69
438.943	141.69
439.165	131.69
439.386	114.69
439.608	124.69
439.829	142.69
440.05	151.69
440.272	127.69
440.493	131.69
440.715	154.69
440.936	137.69
441.158	147.69
441.379	161.69
441.6	137.69
441.822	139.69
442.043	138.69
442.264	132.69
442.486	144.69
442.707	133.69
442.928	139.69
443.149	113.69
443.371	136.69
443.592	126.69
443.813	119.69
444.034	127.69
444.255	155.69
444.476	137.69
444.698	131.69
444.919	145.69
445.14	226.69
445.361	188.69
445.582	153.69
445.803	147.69
446.024	141.69
446.245	148.69
446.466	148.69
446.687	159.69
446.908	130.69
447.129	164.69
447.35	141.69
447.571	153.69
447.792	144.69
448.013	133.69
448.234	156.69
448.455	133.69
448.675	133.69
448.896	135.69
449.117	126.69
449.338	133.69
449.559	131.69
449.779	149.69
450	139.69
450.221	128.69
450.442	136.69
450.662	112.69
450.883	126.69
451.104	147.69
451.324	127.69
451.545	141.69
451.766	121.69
451.986	104.69
452.207	122.69
452.428	115.69
452.648	125.69
452.869	125.69
453.089	121.69
453.31	103.69
453.53	108.69
453.751	109.69
453.971	105.69
454.192	101.69
454.412	110.69
454.633	111.69
454.853	112.69
455.073	116.69
455.294	117.69
455.514	115.69
455.734	102.69
455.955	115.69
456.175	118.69
456.395	99.69
456.616	96.69
456.836	96.69
457.056	106.69
457.276	106.69
457.497	90.69
457.717	92.69
457.937	98.69
458.157	113.69
458.377	89.69
458.598	101.69
458.818	85.69
459.038	99.69
459.258	92.69
459.478	92.69
459.698	79.69
459.918	104.69
460.138	101.69
460.358	111.69
460.578	109.69
460.798	104.69
461.018	108.69
461.238	120.69
461.458	109.69
461.678	114.69
461.898	105.69
462.118	103.69
462.338	113.69
462.558	115.69
462.777	116.69
462.997	114.69
463.217	103.69
463.437	85.69
463.657	106.69
463.876	123.69
464.096	109.69
464.316	93.69
464.536	107.69
464.755	100.69
464.975	118.69
465.195	116.69
465.414	117.69
465.634	114.69
465.854	105.69
466.073	109.69
466.293	110.69
466.512	122.69
466.732	123.69
466.951	140.69
467.171	131.69
467.391	131.69
467.61	123.69
467.829	137.69
468.049	127.69
468.268	138.69
468.488	139.69
468.707	149.69
468.927	137.69
469.146	135.69
469.365	136.69
469.585	139.69
469.804	132.69
470.023	136.69
470.243	143.69
470.462	135.69
470.681	132.69
470.901	139.69
471.12	142.69
471.339	135.69
471.558	130.69
471.777	134.69
471.997	127.69
472.216	124.69
472.435	115.69
472.654	108.69
472.873	91.69
473.092	120.69
473.311	123.69
473.53	131.69
473.749	134.69
473.968	123.69
474.187	119.69
474.406	119.69
474.625	115.69
474.844	135.69
475.063	125.69
475.282	119.69
475.501	102.69
475.72	120.69
475.939	111.69
476.158	121.69
476.377	121.69
476.596	104.69
476.814	97.69
477.033	95.69
477.252	108.69
477.471	127.69
477.69	136.69
477.908	145.69
478.127	147.69
478.346	120.69
478.564	131.69
478.783	128.69
479.002	132.69
479.22	132.69
479.439	111.69
479.658	104.69
479.876	121.69
480.095	106.69
480.313	137.69
480.532	120.69
480.751	105.69
480.969	86.69
481.188	95.69
481.406	94.69
481.624	91.69
481.843	90.69
482.061	97.69
482.28	109.69
482.498	121.69
482.717	95.69
482.935	124.69
483.153	147.69
483.372	155.69
483.59	139.69
483.808	136.69
484.027	121.69
484.245	131.69
484.463	144.69
484.681	139.69
484.9	140.69
485.118	136.69
485.336	122.69
485.554	105.69
485.772	93.69
485.99	92.69
486.209	112.69
486.427	127.69
486.645	124.69
486.863	127.69
487.081	129.69
487.299	128.69
487.517	125.69
487.735	154.69
487.953	191.69
488.171	187.69
488.389	152.69
488.607	146.69
488.825	141.69
489.043	125.69
489.261	134.69
489.479	141.69
489.696	148.69
489.914	133.69
490.132	137.69
490.35	156.69
490.568	167.69
490.786	167.69
491.003	165.69
491.221	170.69
491.439	184.69
491.657	183.69
491.874	187.69
492.092	228.69
492.31	232.69
492.527	240.69
492.745	192.69
492.963	186.69
493.18	173.69
493.398	173.69
493.615	182.69
493.833	167.69
494.05	169.69
494.268	170.69
494.485	159.69
494.703	171.69
494.92	172.69
495.138	168.69
495.355	168.69
495.573	165.69
495.79	167.69
496.008	158.69
496.225	156.69
496.442	154.69
496.66	171.69
496.877	165.69
497.094	162.69
497.312	163.69
497.529	138.69
497.746	141.69
497.963	122.69
498.181	124.69
498.398	124.69
498.615	118.69
498.832	121.69
499.049	115.69
499.267	125.69
499.484	122.69
499.701	122.69
499.918	123.69
500.135	129.69
500.352	129.69
500.569	137.69
500.786	150.69
501.003	128.69
501.22	131.69
501.437	130.69
501.654	149.69
501.871	125.69
502.088	136.69
502.305	119.69
502.522	128.69
502.739	121.69
502.956	133.69
503.172	107.69
503.389	125.69
503.606	122.69
503.823	128.69
504.04	127.69
504.256	111.69
504.473	122.69
504.69	104.69
504.907	121.69
505.123	130.69
505.34	105.69
505.557	119.69
505.773	120.69
505.99	120.69
506.207	125.69
506.423	98.69
506.64	120.69
506.856	115.69
507.073	122.69
507.289	126.69
507.506	109.69
507.722	112.69
507.939	121.69
508.155	101.69
508.372	102.69
508.588	118.69
508.805	104.69
509.021	107.69
509.238	105.69
509.454	105.69
509.67	86.69
509.887	101.69
510.103	92.69
510.319	97.69
510.536	100.69
510.752	87.69
510.968	66.69
511.184	70.69
511.401	81.69
511.617	76.69
511.833	83.69
512.049	96.69
512.265	96.69
