Data from Location1.07152019.Energy5.Lamp.07192019.3%Agarose_HRD10591_14-30-38-015.txt Node
Date: Fri Jul 19 14:30:38 EDT 2019
User: cochatt
Spectrometer: HR+D1059
Trigger mode: 1
Integration Time (sec): 1.000000E-1
Scans to average: 1
Electric dark correction enabled: true
Nonlinearity correction enabled: false
Boxcar width: 0
XAxis mode: Wavelengths
Number of Pixels in Spectrum: 2048
>>>>>Begin Spectral Data<<<<<
223.165	-0.94
223.4	-0.94
223.635	-0.94
223.869	-1.94
224.104	-23.94
224.338	-17.94
224.573	-17.94
224.808	-13.94
225.042	-2.94
225.277	-12.94
225.511	7.06
225.746	2.06
225.98	9.06
226.215	21.06
226.449	8.06
226.683	11.06
226.918	11.06
227.152	23.06
227.387	33.06
227.621	27.06
227.856	36.06
228.09	41.06
228.324	61.06
228.559	55.06
228.793	53.06
229.027	56.06
229.262	69.06
229.496	58.06
229.73	74.06
229.964	77.06
230.199	74.06
230.433	67.06
230.667	86.06
230.901	69.06
231.136	74.06
231.37	89.06
231.604	92.06
231.838	81.06
232.072	95.06
232.306	88.06
232.541	71.06
232.775	84.06
233.009	85.06
233.243	93.06
233.477	91.06
233.711	84.06
233.945	87.06
234.179	72.06
234.413	86.06
234.647	90.06
234.881	79.06
235.115	96.06
235.349	88.06
235.583	78.06
235.817	80.06
236.051	78.06
236.285	86.06
236.519	84.06
236.753	85.06
236.987	85.06
237.221	84.06
237.455	87.06
237.689	77.06
237.922	79.06
238.156	85.06
238.39	81.06
238.624	80.06
238.858	74.06
239.091	77.06
239.325	74.06
239.559	75.06
239.793	79.06
240.027	76.06
240.26	85.06
240.494	89.06
240.728	77.06
240.961	80.06
241.195	79.06
241.429	72.06
241.662	76.06
241.896	80.06
242.13	84.06
242.363	88.06
242.597	86.06
242.83	78.06
243.064	79.06
243.298	85.06
243.531	75.06
243.765	83.06
243.998	81.06
244.232	82.06
244.465	79.06
244.699	75.06
244.932	81.06
245.166	71.06
245.399	75.06
245.633	80.06
245.866	72.06
246.099	88.06
246.333	79.06
246.566	77.06
246.8	80.06
247.033	77.06
247.266	81.06
247.5	68.06
247.733	81.06
247.966	68.06
248.2	85.06
248.433	80.06
248.666	89.06
248.899	76.06
249.133	93.06
249.366	81.06
249.599	76.06
249.832	79.06
250.066	86.06
250.299	91.06
250.532	82.06
250.765	87.06
250.998	85.06
251.231	77.06
251.465	75.06
251.698	81.06
251.931	64.06
252.164	78.06
252.397	71.06
252.63	92.06
252.863	77.06
253.096	77.06
253.329	81.06
253.562	85.06
253.795	81.06
254.028	82.06
254.261	87.06
254.494	89.06
254.727	74.06
254.96	75.06
255.193	83.06
255.426	92.06
255.659	81.06
255.892	94.06
256.124	90.06
256.357	76.06
256.59	78.06
256.823	75.06
257.056	90.06
257.289	85.06
257.521	88.06
257.754	91.06
257.987	85.06
258.22	83.06
258.452	85.06
258.685	75.06
258.918	86.06
259.151	80.06
259.383	86.06
259.616	77.06
259.849	85.06
260.081	79.06
260.314	90.06
260.547	73.06
260.779	85.06
261.012	89.06
261.244	65.06
261.477	72.06
261.71	69.06
261.942	89.06
262.175	70.06
262.407	77.06
262.64	89.06
262.872	84.06
263.105	77.06
263.337	68.06
263.57	91.06
263.802	85.06
264.035	78.06
264.267	89.06
264.499	76.06
264.732	93.06
264.964	75.06
265.197	80.06
265.429	70.06
265.661	97.06
265.894	70.06
266.126	84.06
266.358	88.06
266.591	88.06
266.823	89.06
267.055	86.06
267.287	83.06
267.52	89.06
267.752	92.06
267.984	79.06
268.216	74.06
268.448	85.06
268.681	88.06
268.913	91.06
269.145	69.06
269.377	79.06
269.609	79.06
269.841	101.06
270.073	71.06
270.306	85.06
270.538	62.06
270.77	70.06
271.002	99.06
271.234	96.06
271.466	89.06
271.698	77.06
271.93	81.06
272.162	74.06
272.394	81.06
272.626	79.06
272.858	87.06
273.09	87.06
273.322	85.06
273.553	82.06
273.785	92.06
274.017	84.06
274.249	74.06
274.481	75.06
274.713	81.06
274.945	90.06
275.176	72.06
275.408	89.06
275.64	88.06
275.872	81.06
276.104	79.06
276.335	74.06
276.567	91.06
276.799	80.06
277.031	71.06
277.262	88.06
277.494	86.06
277.726	91.06
277.957	104.06
278.189	89.06
278.421	87.06
278.652	79.06
278.884	83.06
279.115	83.06
279.347	78.06
279.579	95.06
279.81	89.06
280.042	80.06
280.273	79.06
280.505	86.06
280.736	75.06
280.968	79.06
281.199	67.06
281.431	83.06
281.662	77.06
281.894	84.06
282.125	77.06
282.356	87.06
282.588	86.06
282.819	102.06
283.051	79.06
283.282	83.06
283.513	85.06
283.745	92.06
283.976	83.06
284.207	88.06
284.439	64.06
284.67	79.06
284.901	89.06
285.132	90.06
285.364	92.06
285.595	94.06
285.826	86.06
286.057	88.06
286.288	84.06
286.52	85.06
286.751	97.06
286.982	89.06
287.213	88.06
287.444	87.06
287.675	78.06
287.906	95.06
288.138	81.06
288.369	76.06
288.6	89.06
288.831	80.06
289.062	91.06
289.293	99.06
289.524	78.06
289.755	100.06
289.986	88.06
290.217	80.06
290.448	84.06
290.679	81.06
290.91	87.06
291.141	77.06
291.371	90.06
291.602	85.06
291.833	76.06
292.064	89.06
292.295	81.06
292.526	94.06
292.757	88.06
292.987	89.06
293.218	92.06
293.449	78.06
293.68	89.06
293.91	75.06
294.141	93.06
294.372	87.06
294.603	91.06
294.833	87.06
295.064	91.06
295.295	95.06
295.525	85.06
295.756	92.06
295.987	86.06
296.217	93.06
296.448	77.06
296.679	104.06
296.909	84.06
297.14	81.06
297.37	93.06
297.601	92.06
297.831	82.06
298.062	93.06
298.292	81.06
298.523	89.06
298.753	80.06
298.984	95.06
299.214	92.06
299.445	90.06
299.675	95.06
299.905	73.06
300.136	80.06
300.366	90.06
300.597	73.06
300.827	92.06
301.057	92.06
301.288	75.06
301.518	73.06
301.748	76.06
301.979	78.06
302.209	73.06
302.439	98.06
302.669	81.06
302.9	88.06
303.13	100.06
303.36	86.06
303.59	79.06
303.82	84.06
304.051	72.06
304.281	94.06
304.511	87.06
304.741	72.06
304.971	83.06
305.201	101.06
305.431	91.06
305.661	81.06
305.891	89.06
306.121	85.06
306.352	77.06
306.582	72.06
306.812	87.06
307.042	75.06
307.272	85.06
307.502	84.06
307.731	86.06
307.961	84.06
308.191	95.06
308.421	84.06
308.651	102.06
308.881	80.06
309.111	86.06
309.341	85.06
309.571	92.06
309.8	92.06
310.03	77.06
310.26	91.06
310.49	82.06
310.72	81.06
310.949	91.06
311.179	97.06
311.409	84.06
311.639	79.06
311.868	107.06
312.098	80.06
312.328	100.06
312.557	89.06
312.787	78.06
313.017	77.06
313.246	89.06
313.476	93.06
313.706	94.06
313.935	80.06
314.165	86.06
314.394	89.06
314.624	67.06
314.853	90.06
315.083	92.06
315.312	71.06
315.542	87.06
315.771	98.06
316.001	93.06
316.23	74.06
316.46	60.06
316.689	96.06
316.919	81.06
317.148	81.06
317.377	74.06
317.607	99.06
317.836	88.06
318.065	85.06
318.295	86.06
318.524	81.06
318.753	78.06
318.983	90.06
319.212	87.06
319.441	76.06
319.67	84.06
319.9	89.06
320.129	71.06
320.358	78.06
320.587	81.06
320.816	81.06
321.046	88.06
321.275	77.06
321.504	108.06
321.733	84.06
321.962	90.06
322.191	71.06
322.42	86.06
322.649	88.06
322.878	91.06
323.108	97.06
323.337	86.06
323.566	78.06
323.795	79.06
324.024	88.06
324.253	94.06
324.482	76.06
324.71	71.06
324.939	96.06
325.168	85.06
325.397	88.06
325.626	88.06
325.855	101.06
326.084	87.06
326.313	79.06
326.542	97.06
326.77	83.06
326.999	81.06
327.228	98.06
327.457	87.06
327.686	85.06
327.914	84.06
328.143	81.06
328.372	84.06
328.6	84.06
328.829	83.06
329.058	90.06
329.287	75.06
329.515	86.06
329.744	85.06
329.972	103.06
330.201	78.06
330.43	92.06
330.658	97.06
330.887	104.06
331.115	91.06
331.344	76.06
331.572	87.06
331.801	88.06
332.03	90.06
332.258	85.06
332.486	84.06
332.715	80.06
332.943	73.06
333.172	71.06
333.4	89.06
333.629	93.06
333.857	83.06
334.085	88.06
334.314	111.06
334.542	82.06
334.771	66.06
334.999	74.06
335.227	74.06
335.455	77.06
335.684	87.06
335.912	79.06
336.14	99.06
336.369	94.06
336.597	87.06
336.825	88.06
337.053	87.06
337.281	92.06
337.51	88.06
337.738	85.06
337.966	93.06
338.194	75.06
338.422	76.06
338.65	91.06
338.878	79.06
339.106	75.06
339.334	76.06
339.562	84.06
339.79	83.06
340.018	73.06
340.246	81.06
340.474	92.06
340.702	89.06
340.93	83.06
341.158	75.06
341.386	94.06
341.614	75.06
341.842	74.06
342.07	85.06
342.298	93.06
342.526	92.06
342.754	89.06
342.981	83.06
343.209	76.06
343.437	104.06
343.665	76.06
343.893	82.06
344.12	92.06
344.348	82.06
344.576	80.06
344.804	93.06
345.031	90.06
345.259	72.06
345.487	87.06
345.714	88.06
345.942	69.06
346.17	94.06
346.397	84.06
346.625	96.06
346.853	89.06
347.08	77.06
347.308	95.06
347.535	85.06
347.763	84.06
347.99	88.06
348.218	83.06
348.445	68.06
348.673	84.06
348.9	65.06
349.128	80.06
349.355	81.06
349.583	90.06
349.81	87.06
350.037	86.06
350.265	79.06
350.492	97.06
350.72	84.06
350.947	82.06
351.174	86.06
351.402	79.06
351.629	77.06
351.856	91.06
352.083	87.06
352.311	88.06
352.538	82.06
352.765	80.06
352.992	94.06
353.22	78.06
353.447	71.06
353.674	92.06
353.901	85.06
354.128	91.06
354.355	82.06
354.583	84.06
354.81	84.06
355.037	89.06
355.264	86.06
355.491	87.06
355.718	87.06
355.945	93.06
356.172	97.06
356.399	85.06
356.626	85.06
356.853	84.06
357.08	84.06
357.307	80.06
357.534	88.06
357.761	82.06
357.988	86.06
358.215	84.06
358.441	78.06
358.668	76.06
358.895	93.06
359.122	75.06
359.349	95.06
359.576	87.06
359.802	79.06
360.029	88.06
360.256	89.06
360.483	84.06
360.709	73.06
360.936	85.06
361.163	83.06
361.39	75.06
361.616	81.06
361.843	70.06
362.07	79.06
362.296	91.06
362.523	79.06
362.749	76.06
362.976	88.06
363.203	75.06
363.429	81.06
363.656	88.06
363.882	95.06
364.109	90.06
364.335	89.06
364.562	79.06
364.788	90.06
365.015	95.06
365.241	89.06
365.468	84.06
365.694	85.06
365.92	97.06
366.147	89.06
366.373	102.06
366.599	80.06
366.826	80.06
367.052	88.06
367.278	94.06
367.505	78.06
367.731	84.06
367.957	72.06
368.184	77.06
368.41	96.06
368.636	96.06
368.862	98.06
369.089	85.06
369.315	97.06
369.541	85.06
369.767	86.06
369.993	96.06
370.219	96.06
370.445	92.06
370.672	86.06
370.898	94.06
371.124	96.06
371.35	89.06
371.576	87.06
371.802	83.06
372.028	82.06
372.254	96.06
372.48	94.06
372.706	94.06
372.932	101.06
373.158	88.06
373.384	110.06
373.61	94.06
373.835	94.06
374.061	79.06
374.287	81.06
374.513	79.06
374.739	94.06
374.965	82.06
375.191	84.06
375.416	93.06
375.642	112.06
375.868	90.06
376.094	95.06
376.319	93.06
376.545	81.06
376.771	87.06
376.997	105.06
377.222	90.06
377.448	95.06
377.674	88.06
377.899	91.06
378.125	88.06
378.35	98.06
378.576	104.06
378.802	112.06
379.027	96.06
379.253	99.06
379.478	90.06
379.704	97.06
379.929	98.06
380.155	91.06
380.38	75.06
380.606	86.06
380.831	90.06
381.057	93.06
381.282	110.06
381.507	89.06
381.733	98.06
381.958	104.06
382.184	94.06
382.409	97.06
382.634	102.06
382.86	113.06
383.085	100.06
383.31	98.06
383.535	89.06
383.761	91.06
383.986	88.06
384.211	92.06
384.436	100.06
384.662	101.06
384.887	79.06
385.112	98.06
385.337	100.06
385.562	90.06
385.787	112.06
386.013	111.06
386.238	92.06
386.463	90.06
386.688	101.06
386.913	101.06
387.138	98.06
387.363	97.06
387.588	91.06
387.813	111.06
388.038	101.06
388.263	94.06
388.488	92.06
388.713	97.06
388.938	106.06
389.163	108.06
389.387	97.06
389.612	103.06
389.837	84.06
390.062	96.06
390.287	109.06
390.512	107.06
390.736	112.06
390.961	101.06
391.186	100.06
391.411	104.06
391.636	114.06
391.86	122.06
392.085	112.06
392.31	99.06
392.534	98.06
392.759	103.06
392.984	104.06
393.208	107.06
393.433	102.06
393.658	97.06
393.882	95.06
394.107	104.06
394.331	110.06
394.556	116.06
394.78	117.06
395.005	105.06
395.229	119.06
395.454	97.06
395.678	109.06
395.903	116.06
396.127	117.06
396.352	98.06
396.576	102.06
396.801	100.06
397.025	120.06
397.249	113.06
397.474	115.06
397.698	110.06
397.922	102.06
398.147	100.06
398.371	105.06
398.595	113.06
398.82	116.06
399.044	110.06
399.268	108.06
399.492	117.06
399.717	117.06
399.941	95.06
400.165	103.06
400.389	105.06
400.613	110.06
400.837	110.06
401.062	111.06
401.286	110.06
401.51	116.06
401.734	98.06
401.958	120.06
402.182	108.06
402.406	125.06
402.63	111.06
402.854	123.06
403.078	109.06
403.302	119.06
403.526	110.06
403.75	105.06
403.974	128.06
404.198	108.06
404.422	112.06
404.645	126.06
404.869	122.06
405.093	124.06
405.317	118.06
405.541	118.06
405.765	123.06
405.988	121.06
406.212	126.06
406.436	118.06
406.66	126.06
406.883	127.06
407.107	106.06
407.331	125.06
407.555	126.06
407.778	119.06
408.002	98.06
408.226	115.06
408.449	111.06
408.673	125.06
408.896	115.06
409.12	121.06
409.344	123.06
409.567	119.06
409.791	131.06
410.014	109.06
410.238	122.06
410.461	132.06
410.685	121.06
410.908	117.06
411.132	116.06
411.355	108.06
411.578	111.06
411.802	119.06
412.025	125.06
412.249	131.06
412.472	134.06
412.695	127.06
412.919	127.06
413.142	116.06
413.365	127.06
413.589	116.06
413.812	110.06
414.035	117.06
414.258	133.06
414.482	139.06
414.705	126.06
414.928	139.06
415.151	115.06
415.374	136.06
415.597	123.06
415.821	122.06
416.044	135.06
416.267	124.06
416.49	125.06
416.713	134.06
416.936	113.06
417.159	139.06
417.382	123.06
417.605	109.06
417.828	126.06
418.051	123.06
418.274	140.06
418.497	138.06
418.72	129.06
418.943	126.06
419.166	129.06
419.389	131.06
419.611	147.06
419.834	144.06
420.057	124.06
420.28	144.06
420.503	135.06
420.726	134.06
420.948	139.06
421.171	142.06
421.394	138.06
421.617	155.06
421.839	130.06
422.062	128.06
422.285	130.06
422.507	135.06
422.73	131.06
422.953	138.06
423.175	142.06
423.398	122.06
423.621	119.06
423.843	124.06
424.066	132.06
424.288	131.06
424.511	140.06
424.733	146.06
424.956	145.06
425.178	143.06
425.401	144.06
425.623	141.06
425.846	133.06
426.068	137.06
426.291	129.06
426.513	122.06
426.735	128.06
426.958	133.06
427.18	130.06
427.402	139.06
427.625	131.06
427.847	131.06
428.069	137.06
428.292	136.06
428.514	134.06
428.736	149.06
428.958	123.06
429.181	131.06
429.403	123.06
429.625	129.06
429.847	129.06
430.069	126.06
430.292	128.06
430.514	136.06
430.736	141.06
430.958	132.06
431.18	126.06
431.402	131.06
431.624	120.06
431.846	113.06
432.068	95.06
432.29	105.06
432.512	109.06
432.734	116.06
432.956	128.06
433.178	146.06
433.4	150.06
433.622	136.06
433.844	128.06
434.066	141.06
434.287	104.06
434.509	88.06
434.731	104.06
434.953	116.06
435.175	98.06
435.397	128.06
435.618	121.06
435.84	127.06
436.062	106.06
436.284	123.06
436.505	112.06
436.727	124.06
436.949	135.06
437.17	131.06
437.392	135.06
437.614	132.06
437.835	113.06
438.057	107.06
438.278	115.06
438.5	127.06
438.721	146.06
438.943	135.06
439.165	127.06
439.386	139.06
439.608	143.06
439.829	140.06
440.05	146.06
440.272	151.06
440.493	145.06
440.715	148.06
440.936	151.06
441.158	126.06
441.379	160.06
441.6	155.06
441.822	140.06
442.043	149.06
442.264	145.06
442.486	129.06
442.707	143.06
442.928	138.06
443.149	135.06
443.371	151.06
443.592	143.06
443.813	135.06
444.034	127.06
444.255	143.06
444.476	155.06
444.698	129.06
444.919	135.06
445.14	259.06
445.361	195.06
445.582	144.06
445.803	148.06
446.024	143.06
446.245	145.06
446.466	144.06
446.687	150.06
446.908	162.06
447.129	157.06
447.35	152.06
447.571	141.06
447.792	132.06
448.013	136.06
448.234	137.06
448.455	155.06
448.675	128.06
448.896	124.06
449.117	138.06
449.338	133.06
449.559	125.06
449.779	143.06
450	137.06
450.221	140.06
450.442	132.06
450.662	134.06
450.883	125.06
451.104	125.06
451.324	134.06
451.545	131.06
451.766	124.06
451.986	126.06
452.207	123.06
452.428	121.06
452.648	124.06
452.869	138.06
453.089	133.06
453.31	121.06
453.53	115.06
453.751	116.06
453.971	105.06
454.192	100.06
454.412	114.06
454.633	131.06
454.853	121.06
455.073	132.06
455.294	137.06
455.514	115.06
455.734	134.06
455.955	115.06
456.175	106.06
456.395	119.06
456.616	97.06
456.836	116.06
457.056	114.06
457.276	110.06
457.497	104.06
457.717	110.06
457.937	113.06
458.157	105.06
458.377	100.06
458.598	107.06
458.818	98.06
459.038	81.06
459.258	96.06
459.478	87.06
459.698	83.06
459.918	104.06
460.138	94.06
460.358	109.06
460.578	119.06
460.798	112.06
461.018	121.06
461.238	119.06
461.458	124.06
461.678	120.06
461.898	117.06
462.118	113.06
462.338	107.06
462.558	107.06
462.777	102.06
462.997	100.06
463.217	102.06
463.437	117.06
463.657	103.06
463.876	117.06
464.096	109.06
464.316	102.06
464.536	112.06
464.755	109.06
464.975	120.06
465.195	111.06
465.414	110.06
465.634	101.06
465.854	121.06
466.073	122.06
466.293	115.06
466.512	118.06
466.732	124.06
466.951	127.06
467.171	129.06
467.391	131.06
467.61	133.06
467.829	143.06
468.049	131.06
468.268	127.06
468.488	145.06
468.707	144.06
468.927	128.06
469.146	124.06
469.365	124.06
469.585	136.06
469.804	146.06
470.023	132.06
470.243	130.06
470.462	144.06
470.681	129.06
470.901	124.06
471.12	143.06
471.339	145.06
471.558	135.06
471.777	141.06
471.997	133.06
472.216	136.06
472.435	109.06
472.654	105.06
472.873	110.06
473.092	121.06
473.311	117.06
473.53	137.06
473.749	128.06
473.968	138.06
474.187	127.06
474.406	117.06
474.625	124.06
474.844	130.06
475.063	124.06
475.282	119.06
475.501	131.06
475.72	131.06
475.939	129.06
476.158	124.06
476.377	131.06
476.596	123.06
476.814	132.06
477.033	110.06
477.252	110.06
477.471	116.06
477.69	136.06
477.908	140.06
478.127	137.06
478.346	143.06
478.564	137.06
478.783	142.06
479.002	127.06
479.22	141.06
479.439	145.06
479.658	129.06
479.876	111.06
480.095	109.06
480.313	94.06
480.532	138.06
480.751	127.06
480.969	95.06
481.188	96.06
481.406	92.06
481.624	91.06
481.843	99.06
482.061	102.06
482.28	126.06
482.498	124.06
482.717	99.06
482.935	123.06
483.153	136.06
483.372	166.06
483.59	150.06
483.808	130.06
484.027	120.06
484.245	122.06
484.463	129.06
484.681	151.06
484.9	149.06
485.118	145.06
485.336	135.06
485.554	121.06
485.772	98.06
485.99	105.06
486.209	118.06
486.427	123.06
486.645	110.06
486.863	145.06
487.081	149.06
487.299	135.06
487.517	146.06
487.735	171.06
487.953	189.06
488.171	169.06
488.389	171.06
488.607	161.06
488.825	139.06
489.043	127.06
489.261	149.06
489.479	138.06
489.696	151.06
489.914	143.06
490.132	117.06
490.35	144.06
490.568	154.06
490.786	175.06
491.003	176.06
491.221	185.06
491.439	184.06
491.657	198.06
491.874	210.06
492.092	220.06
492.31	243.06
492.527	242.06
492.745	204.06
492.963	193.06
493.18	188.06
493.398	195.06
493.615	187.06
493.833	168.06
494.05	170.06
494.268	175.06
494.485	171.06
494.703	173.06
494.92	180.06
495.138	160.06
495.355	183.06
495.573	163.06
495.79	165.06
496.008	169.06
496.225	175.06
496.442	164.06
496.66	174.06
496.877	156.06
497.094	167.06
497.312	164.06
497.529	155.06
497.746	140.06
497.963	141.06
498.181	129.06
498.398	119.06
498.615	129.06
498.832	112.06
499.049	112.06
499.267	122.06
499.484	133.06
499.701	122.06
499.918	152.06
500.135	143.06
500.352	133.06
500.569	145.06
500.786	144.06
501.003	135.06
501.22	143.06
501.437	146.06
501.654	122.06
501.871	116.06
502.088	135.06
502.305	134.06
502.522	129.06
502.739	135.06
502.956	124.06
503.172	144.06
503.389	121.06
503.606	115.06
503.823	119.06
504.04	118.06
504.256	121.06
504.473	102.06
504.69	115.06
504.907	129.06
505.123	127.06
505.34	104.06
505.557	132.06
505.773	124.06
505.99	106.06
506.207	119.06
506.423	127.06
506.64	129.06
506.856	119.06
507.073	121.06
507.289	126.06
507.506	119.06
507.722	125.06
507.939	124.06
508.155	123.06
508.372	112.06
508.588	121.06
508.805	116.06
509.021	107.06
509.238	108.06
509.454	115.06
509.67	108.06
509.887	97.06
510.103	98.06
510.319	95.06
510.536	88.06
510.752	82.06
510.968	94.06
511.184	75.06
511.401	77.06
511.617	81.06
