Data from Location1.07152019.Energy5.Lamp.07192019.3%Agarose_HRD10591_14-32-50-016.txt Node
Date: Fri Jul 19 14:32:50 EDT 2019
User: cochatt
Spectrometer: HR+D1059
Trigger mode: 1
Integration Time (sec): 1.000000E-1
Scans to average: 1
Electric dark correction enabled: true
Nonlinearity correction enabled: false
Boxcar width: 0
XAxis mode: Wavelengths
Number of Pixels in Spectrum: 2048
>>>>>Begin Spectral Data<<<<<
223.165	-13.19
223.4	-13.19
223.635	-13.19
223.869	-9.19
224.104	-28.19
224.338	-12.19
224.573	-16.19
224.808	-7.19
225.042	-10.19
225.277	-0.19
225.511	7.81
225.746	-18.19
225.98	12.81
226.215	8.81
226.449	8.81
226.683	15.81
226.918	28.81
227.152	31.81
227.387	34.81
227.621	39.81
227.856	36.81
228.09	41.81
228.324	52.81
228.559	55.81
228.793	57.81
229.027	50.81
229.262	67.81
229.496	50.81
229.73	57.81
229.964	61.81
230.199	66.81
230.433	58.81
230.667	78.81
230.901	83.81
231.136	62.81
231.37	80.81
231.604	67.81
231.838	83.81
232.072	81.81
232.306	72.81
232.541	85.81
232.775	80.81
233.009	81.81
233.243	77.81
233.477	77.81
233.711	84.81
233.945	73.81
234.179	76.81
234.413	73.81
234.647	82.81
234.881	84.81
235.115	88.81
235.349	84.81
235.583	69.81
235.817	67.81
236.051	73.81
236.285	71.81
236.519	73.81
236.753	81.81
236.987	76.81
237.221	77.81
237.455	73.81
237.689	83.81
237.922	85.81
238.156	75.81
238.39	73.81
238.624	83.81
238.858	61.81
239.091	90.81
239.325	85.81
239.559	83.81
239.793	79.81
240.027	72.81
240.26	79.81
240.494	89.81
240.728	71.81
240.961	72.81
241.195	81.81
241.429	84.81
241.662	83.81
241.896	67.81
242.13	76.81
242.363	75.81
242.597	84.81
242.83	76.81
243.064	91.81
243.298	69.81
243.531	73.81
243.765	70.81
243.998	90.81
244.232	88.81
244.465	65.81
244.699	74.81
244.932	75.81
245.166	74.81
245.399	84.81
245.633	86.81
245.866	76.81
246.099	72.81
246.333	61.81
246.566	86.81
246.8	85.81
247.033	73.81
247.266	78.81
247.5	72.81
247.733	71.81
247.966	82.81
248.2	85.81
248.433	78.81
248.666	85.81
248.899	81.81
249.133	85.81
249.366	67.81
249.599	73.81
249.832	72.81
250.066	67.81
250.299	75.81
250.532	77.81
250.765	77.81
250.998	72.81
251.231	70.81
251.465	74.81
251.698	74.81
251.931	75.81
252.164	76.81
252.397	75.81
252.63	84.81
252.863	60.81
253.096	59.81
253.329	83.81
253.562	78.81
253.795	72.81
254.028	75.81
254.261	80.81
254.494	60.81
254.727	86.81
254.96	84.81
255.193	79.81
255.426	88.81
255.659	73.81
255.892	77.81
256.124	66.81
256.357	71.81
256.59	81.81
256.823	73.81
257.056	83.81
257.289	93.81
257.521	91.81
257.754	83.81
257.987	76.81
258.22	68.81
258.452	66.81
258.685	78.81
258.918	76.81
259.151	65.81
259.383	70.81
259.616	88.81
259.849	95.81
260.081	77.81
260.314	74.81
260.547	80.81
260.779	72.81
261.012	76.81
261.244	71.81
261.477	78.81
261.71	88.81
261.942	71.81
262.175	71.81
262.407	84.81
262.64	70.81
262.872	69.81
263.105	70.81
263.337	79.81
263.57	71.81
263.802	74.81
264.035	79.81
264.267	76.81
264.499	83.81
264.732	72.81
264.964	71.81
265.197	69.81
265.429	85.81
265.661	87.81
265.894	80.81
266.126	84.81
266.358	84.81
266.591	76.81
266.823	80.81
267.055	72.81
267.287	68.81
267.52	69.81
267.752	74.81
267.984	78.81
268.216	69.81
268.448	75.81
268.681	75.81
268.913	65.81
269.145	81.81
269.377	78.81
269.609	63.81
269.841	76.81
270.073	75.81
270.306	69.81
270.538	54.81
270.77	80.81
271.002	78.81
271.234	71.81
271.466	79.81
271.698	74.81
271.93	74.81
272.162	84.81
272.394	73.81
272.626	80.81
272.858	80.81
273.09	79.81
273.322	92.81
273.553	71.81
273.785	86.81
274.017	88.81
274.249	72.81
274.481	71.81
274.713	86.81
274.945	82.81
275.176	83.81
275.408	88.81
275.64	76.81
275.872	85.81
276.104	72.81
276.335	82.81
276.567	89.81
276.799	82.81
277.031	75.81
277.262	78.81
277.494	92.81
277.726	73.81
277.957	68.81
278.189	78.81
278.421	87.81
278.652	81.81
278.884	83.81
279.115	69.81
279.347	71.81
279.579	95.81
279.81	61.81
280.042	76.81
280.273	84.81
280.505	83.81
280.736	72.81
280.968	94.81
281.199	77.81
281.431	72.81
281.662	92.81
281.894	88.81
282.125	78.81
282.356	79.81
282.588	78.81
282.819	76.81
283.051	76.81
283.282	82.81
283.513	82.81
283.745	91.81
283.976	84.81
284.207	77.81
284.439	74.81
284.67	90.81
284.901	82.81
285.132	73.81
285.364	81.81
285.595	95.81
285.826	73.81
286.057	87.81
286.288	92.81
286.52	75.81
286.751	74.81
286.982	77.81
287.213	76.81
287.444	70.81
287.675	74.81
287.906	83.81
288.138	80.81
288.369	84.81
288.6	76.81
288.831	76.81
289.062	86.81
289.293	80.81
289.524	81.81
289.755	88.81
289.986	86.81
290.217	68.81
290.448	73.81
290.679	75.81
290.91	92.81
291.141	81.81
291.371	95.81
291.602	76.81
291.833	73.81
292.064	82.81
292.295	85.81
292.526	71.81
292.757	77.81
292.987	92.81
293.218	86.81
293.449	79.81
293.68	72.81
293.91	79.81
294.141	80.81
294.372	85.81
294.603	71.81
294.833	85.81
295.064	92.81
295.295	96.81
295.525	80.81
295.756	81.81
295.987	81.81
296.217	77.81
296.448	82.81
296.679	89.81
296.909	92.81
297.14	90.81
297.37	80.81
297.601	79.81
297.831	93.81
298.062	82.81
298.292	90.81
298.523	88.81
298.753	77.81
298.984	85.81
299.214	77.81
299.445	83.81
299.675	84.81
299.905	89.81
300.136	78.81
300.366	66.81
300.597	93.81
300.827	97.81
301.057	78.81
301.288	85.81
301.518	86.81
301.748	80.81
301.979	83.81
302.209	79.81
302.439	79.81
302.669	73.81
302.9	76.81
303.13	78.81
303.36	75.81
303.59	81.81
303.82	85.81
304.051	86.81
304.281	80.81
304.511	105.81
304.741	87.81
304.971	69.81
305.201	71.81
305.431	72.81
305.661	86.81
305.891	86.81
306.121	82.81
306.352	70.81
306.582	72.81
306.812	85.81
307.042	82.81
307.272	88.81
307.502	75.81
307.731	87.81
307.961	98.81
308.191	80.81
308.421	79.81
308.651	82.81
308.881	63.81
309.111	66.81
309.341	88.81
309.571	74.81
309.8	83.81
310.03	80.81
310.26	84.81
310.49	73.81
310.72	87.81
310.949	81.81
311.179	72.81
311.409	82.81
311.639	71.81
311.868	92.81
312.098	81.81
312.328	65.81
312.557	90.81
312.787	88.81
313.017	74.81
313.246	79.81
313.476	78.81
313.706	83.81
313.935	87.81
314.165	83.81
314.394	84.81
314.624	86.81
314.853	92.81
315.083	83.81
315.312	83.81
315.542	79.81
315.771	81.81
316.001	75.81
316.23	81.81
316.46	90.81
316.689	80.81
316.919	74.81
317.148	81.81
317.377	79.81
317.607	83.81
317.836	87.81
318.065	82.81
318.295	77.81
318.524	74.81
318.753	77.81
318.983	88.81
319.212	88.81
319.441	88.81
319.67	93.81
319.9	83.81
320.129	76.81
320.358	78.81
320.587	82.81
320.816	64.81
321.046	77.81
321.275	82.81
321.504	66.81
321.733	96.81
321.962	94.81
322.191	79.81
322.42	90.81
322.649	75.81
322.878	66.81
323.108	72.81
323.337	73.81
323.566	81.81
323.795	76.81
324.024	81.81
324.253	88.81
324.482	81.81
324.71	82.81
324.939	76.81
325.168	77.81
325.397	89.81
325.626	77.81
325.855	74.81
326.084	74.81
326.313	75.81
326.542	86.81
326.77	81.81
326.999	73.81
327.228	80.81
327.457	68.81
327.686	74.81
327.914	90.81
328.143	82.81
328.372	79.81
328.6	77.81
328.829	75.81
329.058	76.81
329.287	71.81
329.515	87.81
329.744	88.81
329.972	68.81
330.201	87.81
330.43	73.81
330.658	75.81
330.887	77.81
331.115	77.81
331.344	79.81
331.572	92.81
331.801	65.81
332.03	84.81
332.258	83.81
332.486	79.81
332.715	74.81
332.943	88.81
333.172	84.81
333.4	75.81
333.629	82.81
333.857	83.81
334.085	72.81
334.314	90.81
334.542	83.81
334.771	79.81
334.999	81.81
335.227	77.81
335.455	82.81
335.684	77.81
335.912	74.81
336.14	82.81
336.369	77.81
336.597	75.81
336.825	80.81
337.053	77.81
337.281	82.81
337.51	71.81
337.738	86.81
337.966	89.81
338.194	86.81
338.422	75.81
338.65	83.81
338.878	82.81
339.106	83.81
339.334	83.81
339.562	90.81
339.79	80.81
340.018	82.81
340.246	78.81
340.474	74.81
340.702	73.81
340.93	78.81
341.158	77.81
341.386	78.81
341.614	81.81
341.842	91.81
342.07	86.81
342.298	83.81
342.526	82.81
342.754	88.81
342.981	79.81
343.209	86.81
343.437	87.81
343.665	81.81
343.893	81.81
344.12	77.81
344.348	83.81
344.576	77.81
344.804	81.81
345.031	77.81
345.259	80.81
345.487	79.81
345.714	77.81
345.942	63.81
346.17	92.81
346.397	77.81
346.625	78.81
346.853	85.81
347.08	74.81
347.308	71.81
347.535	94.81
347.763	87.81
347.99	92.81
348.218	72.81
348.445	74.81
348.673	80.81
348.9	70.81
349.128	92.81
349.355	90.81
349.583	80.81
349.81	74.81
350.037	75.81
350.265	79.81
350.492	74.81
350.72	79.81
350.947	85.81
351.174	80.81
351.402	87.81
351.629	97.81
351.856	66.81
352.083	92.81
352.311	74.81
352.538	73.81
352.765	73.81
352.992	75.81
353.22	92.81
353.447	80.81
353.674	91.81
353.901	87.81
354.128	81.81
354.355	63.81
354.583	90.81
354.81	67.81
355.037	71.81
355.264	86.81
355.491	86.81
355.718	78.81
355.945	87.81
356.172	81.81
356.399	74.81
356.626	80.81
356.853	77.81
357.08	82.81
357.307	87.81
357.534	87.81
357.761	65.81
357.988	88.81
358.215	88.81
358.441	89.81
358.668	87.81
358.895	74.81
359.122	88.81
359.349	76.81
359.576	76.81
359.802	75.81
360.029	77.81
360.256	83.81
360.483	98.81
360.709	77.81
360.936	88.81
361.163	90.81
361.39	77.81
361.616	86.81
361.843	75.81
362.07	93.81
362.296	96.81
362.523	85.81
362.749	90.81
362.976	88.81
363.203	91.81
363.429	70.81
363.656	81.81
363.882	71.81
364.109	72.81
364.335	97.81
364.562	74.81
364.788	71.81
365.015	83.81
365.241	91.81
365.468	88.81
365.694	83.81
365.92	71.81
366.147	68.81
366.373	77.81
366.599	77.81
366.826	94.81
367.052	88.81
367.278	88.81
367.505	74.81
367.731	85.81
367.957	100.81
368.184	100.81
368.41	82.81
368.636	81.81
368.862	84.81
369.089	98.81
369.315	82.81
369.541	87.81
369.767	90.81
369.993	81.81
370.219	101.81
370.445	75.81
370.672	83.81
370.898	75.81
371.124	76.81
371.35	91.81
371.576	93.81
371.802	90.81
372.028	94.81
372.254	97.81
372.48	66.81
372.706	89.81
372.932	95.81
373.158	99.81
373.384	83.81
373.61	88.81
373.835	77.81
374.061	92.81
374.287	92.81
374.513	73.81
374.739	84.81
374.965	85.81
375.191	86.81
375.416	99.81
375.642	89.81
375.868	99.81
376.094	79.81
376.319	91.81
376.545	91.81
376.771	97.81
376.997	75.81
377.222	87.81
377.448	92.81
377.674	88.81
377.899	107.81
378.125	85.81
378.35	77.81
378.576	92.81
378.802	94.81
379.027	84.81
379.253	96.81
379.478	76.81
379.704	84.81
379.929	91.81
380.155	96.81
380.38	96.81
380.606	97.81
380.831	80.81
381.057	78.81
381.282	88.81
381.507	95.81
381.733	87.81
381.958	96.81
382.184	88.81
382.409	78.81
382.634	104.81
382.86	92.81
383.085	105.81
383.31	92.81
383.535	104.81
383.761	79.81
383.986	99.81
384.211	101.81
384.436	87.81
384.662	97.81
384.887	107.81
385.112	105.81
385.337	93.81
385.562	112.81
385.787	95.81
386.013	95.81
386.238	116.81
386.463	89.81
386.688	95.81
386.913	99.81
387.138	101.81
387.363	104.81
387.588	82.81
387.813	105.81
388.038	96.81
388.263	91.81
388.488	90.81
388.713	82.81
388.938	84.81
389.163	101.81
389.387	97.81
389.612	109.81
389.837	105.81
390.062	88.81
390.287	95.81
390.512	94.81
390.736	87.81
390.961	99.81
391.186	105.81
391.411	112.81
391.636	95.81
391.86	105.81
392.085	97.81
392.31	102.81
392.534	100.81
392.759	104.81
392.984	102.81
393.208	99.81
393.433	115.81
393.658	93.81
393.882	80.81
394.107	103.81
394.331	94.81
394.556	95.81
394.78	105.81
395.005	112.81
395.229	97.81
395.454	88.81
395.678	98.81
395.903	93.81
396.127	93.81
396.352	97.81
396.576	111.81
396.801	107.81
397.025	113.81
397.249	93.81
397.474	103.81
397.698	121.81
397.922	99.81
398.147	98.81
398.371	112.81
398.595	107.81
398.82	113.81
399.044	96.81
399.268	112.81
399.492	105.81
399.717	117.81
399.941	116.81
400.165	102.81
400.389	123.81
400.613	111.81
400.837	95.81
401.062	123.81
401.286	97.81
401.51	95.81
401.734	100.81
401.958	108.81
402.182	113.81
402.406	103.81
402.63	115.81
402.854	105.81
403.078	105.81
403.302	112.81
403.526	108.81
403.75	109.81
403.974	105.81
404.198	129.81
404.422	121.81
404.645	116.81
404.869	121.81
405.093	124.81
405.317	116.81
405.541	120.81
405.765	124.81
405.988	111.81
406.212	120.81
406.436	104.81
406.66	109.81
406.883	112.81
407.107	115.81
407.331	121.81
407.555	104.81
407.778	105.81
408.002	121.81
408.226	122.81
408.449	107.81
408.673	115.81
408.896	100.81
409.12	122.81
409.344	103.81
409.567	115.81
409.791	121.81
410.014	116.81
410.238	113.81
410.461	115.81
410.685	115.81
410.908	120.81
411.132	119.81
411.355	121.81
411.578	107.81
411.802	108.81
412.025	109.81
412.249	119.81
412.472	114.81
412.695	125.81
412.919	118.81
413.142	105.81
413.365	112.81
413.589	115.81
413.812	104.81
414.035	121.81
414.258	106.81
414.482	119.81
414.705	103.81
414.928	113.81
415.151	116.81
415.374	122.81
415.597	138.81
415.821	124.81
416.044	123.81
416.267	131.81
416.49	118.81
416.713	125.81
416.936	128.81
417.159	125.81
417.382	129.81
417.605	129.81
417.828	123.81
418.051	118.81
418.274	123.81
418.497	116.81
418.72	115.81
418.943	141.81
419.166	135.81
419.389	128.81
419.611	130.81
419.834	122.81
420.057	133.81
420.28	128.81
420.503	135.81
420.726	116.81
420.948	122.81
421.171	124.81
421.394	130.81
421.617	132.81
421.839	127.81
422.062	133.81
422.285	118.81
422.507	127.81
422.73	142.81
422.953	125.81
423.175	111.81
423.398	122.81
423.621	123.81
423.843	131.81
424.066	128.81
424.288	139.81
424.511	126.81
424.733	122.81
424.956	143.81
425.178	151.81
425.401	138.81
425.623	146.81
425.846	124.81
426.068	135.81
426.291	118.81
426.513	118.81
426.735	132.81
426.958	139.81
427.18	124.81
427.402	133.81
427.625	129.81
427.847	128.81
428.069	136.81
428.292	109.81
428.514	138.81
428.736	127.81
428.958	125.81
429.181	129.81
429.403	128.81
429.625	115.81
429.847	121.81
430.069	123.81
430.292	124.81
430.514	114.81
430.736	122.81
430.958	119.81
431.18	124.81
431.402	99.81
431.624	127.81
431.846	107.81
432.068	116.81
432.29	100.81
432.512	115.81
432.734	124.81
432.956	147.81
433.178	125.81
433.4	123.81
433.622	126.81
433.844	155.81
434.066	130.81
434.287	113.81
434.509	111.81
434.731	89.81
434.953	117.81
435.175	122.81
435.397	121.81
435.618	117.81
435.84	106.81
436.062	112.81
436.284	105.81
436.505	125.81
436.727	121.81
436.949	129.81
437.17	120.81
437.392	122.81
437.614	131.81
437.835	106.81
438.057	107.81
438.278	113.81
438.5	119.81
438.721	132.81
438.943	124.81
439.165	116.81
439.386	146.81
439.608	148.81
439.829	132.81
440.05	137.81
440.272	133.81
440.493	141.81
440.715	150.81
440.936	147.81
441.158	135.81
441.379	146.81
441.6	140.81
441.822	139.81
442.043	131.81
442.264	138.81
442.486	138.81
442.707	130.81
442.928	147.81
443.149	148.81
443.371	123.81
443.592	127.81
443.813	136.81
444.034	139.81
444.255	123.81
444.476	132.81
444.698	133.81
444.919	135.81
445.14	259.81
445.361	189.81
445.582	148.81
445.803	138.81
446.024	151.81
446.245	142.81
446.466	156.81
446.687	155.81
446.908	139.81
447.129	145.81
447.35	151.81
447.571	129.81
447.792	142.81
448.013	147.81
448.234	141.81
448.455	146.81
448.675	131.81
448.896	135.81
449.117	126.81
449.338	159.81
449.559	136.81
449.779	133.81
450	131.81
450.221	127.81
450.442	125.81
450.662	141.81
450.883	126.81
451.104	115.81
451.324	133.81
451.545	137.81
451.766	128.81
451.986	119.81
452.207	125.81
452.428	117.81
452.648	131.81
452.869	115.81
453.089	115.81
453.31	107.81
453.53	102.81
453.751	96.81
453.971	104.81
454.192	98.81
454.412	109.81
454.633	122.81
454.853	103.81
455.073	120.81
455.294	119.81
455.514	126.81
455.734	130.81
455.955	116.81
456.175	111.81
456.395	103.81
456.616	100.81
456.836	117.81
457.056	119.81
457.276	103.81
457.497	99.81
457.717	115.81
457.937	112.81
458.157	101.81
458.377	98.81
458.598	95.81
458.818	92.81
459.038	89.81
459.258	93.81
459.478	98.81
459.698	91.81
459.918	91.81
460.138	99.81
460.358	115.81
460.578	125.81
460.798	100.81
461.018	113.81
461.238	123.81
461.458	111.81
461.678	119.81
461.898	99.81
462.118	115.81
462.338	101.81
462.558	106.81
462.777	127.81
462.997	110.81
463.217	100.81
463.437	109.81
463.657	102.81
463.876	111.81
464.096	96.81
464.316	104.81
464.536	120.81
464.755	115.81
464.975	111.81
465.195	124.81
465.414	112.81
465.634	106.81
465.854	117.81
466.073	119.81
466.293	120.81
466.512	129.81
466.732	118.81
466.951	127.81
467.171	141.81
467.391	127.81
467.61	124.81
467.829	121.81
468.049	130.81
468.268	131.81
468.488	127.81
468.707	147.81
468.927	134.81
469.146	151.81
469.365	138.81
469.585	122.81
469.804	135.81
470.023	135.81
470.243	127.81
470.462	121.81
470.681	142.81
470.901	143.81
471.12	139.81
471.339	138.81
471.558	128.81
471.777	147.81
471.997	133.81
472.216	133.81
472.435	115.81
472.654	115.81
472.873	116.81
473.092	120.81
473.311	127.81
473.53	123.81
473.749	127.81
473.968	129.81
474.187	123.81
474.406	114.81
474.625	128.81
474.844	137.81
475.063	129.81
475.282	116.81
475.501	131.81
475.72	124.81
475.939	140.81
476.158	121.81
476.377	104.81
476.596	106.81
476.814	113.81
477.033	98.81
477.252	121.81
477.471	119.81
477.69	127.81
477.908	129.81
478.127	144.81
478.346	141.81
478.564	130.81
478.783	141.81
479.002	123.81
479.22	121.81
479.439	136.81
479.658	112.81
479.876	124.81
480.095	103.81
480.313	113.81
480.532	116.81
480.751	108.81
480.969	96.81
481.188	100.81
481.406	81.81
481.624	86.81
481.843	92.81
482.061	102.81
482.28	112.81
482.498	111.81
482.717	110.81
482.935	111.81
483.153	122.81
483.372	155.81
483.59	147.81
483.808	138.81
484.027	141.81
484.245	133.81
484.463	145.81
484.681	165.81
484.9	150.81
485.118	123.81
485.336	112.81
485.554	106.81
485.772	91.81
485.99	98.81
486.209	120.81
486.427	113.81
486.645	125.81
486.863	127.81
487.081	129.81
487.299	126.81
487.517	127.81
487.735	176.81
487.953	185.81
488.171	178.81
488.389	164.81
488.607	156.81
488.825	135.81
489.043	127.81
489.261	141.81
489.479	126.81
489.696	141.81
489.914	132.81
490.132	131.81
490.35	157.81
490.568	166.81
490.786	158.81
491.003	181.81
491.221	155.81
491.439	185.81
491.657	191.81
491.874	191.81
492.092	211.81
492.31	235.81
492.527	213.81
492.745	199.81
492.963	188.81
493.18	185.81
493.398	176.81
493.615	169.81
493.833	149.81
494.05	167.81
494.268	169.81
494.485	184.81
494.703	153.81
494.92	167.81
495.138	163.81
495.355	165.81
495.573	156.81
495.79	151.81
496.008	161.81
496.225	171.81
496.442	135.81
496.66	169.81
496.877	164.81
497.094	173.81
497.312	159.81
497.529	156.81
497.746	141.81
497.963	136.81
498.181	124.81
498.398	119.81
498.615	107.81
498.832	112.81
499.049	121.81
499.267	120.81
499.484	129.81
499.701	139.81
499.918	137.81
500.135	145.81
500.352	126.81
500.569	129.81
500.786	127.81
501.003	139.81
501.22	137.81
501.437	137.81
501.654	132.81
501.871	144.81
502.088	129.81
502.305	133.81
502.522	124.81
502.739	127.81
502.956	133.81
503.172	123.81
503.389	117.81
503.606	120.81
503.823	119.81
504.04	132.81
504.256	125.81
504.473	119.81
504.69	114.81
504.907	119.81
505.123	88.81
505.34	122.81
505.557	120.81
505.773	119.81
505.99	126.81
506.207	119.81
506.423	108.81
506.64	123.81
506.856	122.81
507.073	107.81
507.289	125.81
507.506	126.81
507.722	107.81
507.939	119.81
508.155	100.81
508.372	108.81
508.588	100.81
508.805	102.81
509.021	101.81
509.238	109.81
509.454	100.81
509.67	105.81
509.887	100.81
510.103	85.81
510.319	100.81
510.536	92.81
510.752	84.81
510.968	77.81
511.184	85.81
511.401	90.81
511.617	91.81
511.833	84.81
512.049	83.81
