Data from Location1.07152019.Energy5.Lamp.07192019.3%Agarose_HRD10591_14-32-41-017.txt Node
Date: Fri Jul 19 14:32:41 EDT 2019
User: cochatt
Spectrometer: HR+D1059
Trigger mode: 1
Integration Time (sec): 1.000000E-1
Scans to average: 1
Electric dark correction enabled: true
Nonlinearity correction enabled: false
Boxcar width: 0
XAxis mode: Wavelengths
Number of Pixels in Spectrum: 2048
>>>>>Begin Spectral Data<<<<<
223.165	-7.81
223.4	-7.81
223.635	-7.81
223.869	-21.81
224.104	-26.81
224.338	-25.81
224.573	-14.81
224.808	-15.81
225.042	-18.81
225.277	-5.81
225.511	-1.81
225.746	11.19
225.98	11.19
226.215	7.19
226.449	17.19
226.683	18.19
226.918	28.19
227.152	46.19
227.387	40.19
227.621	51.19
227.856	43.19
228.09	41.19
228.324	47.19
228.559	51.19
228.793	59.19
229.027	72.19
229.262	65.19
229.496	61.19
229.73	84.19
229.964	72.19
230.199	70.19
230.433	85.19
230.667	93.19
230.901	70.19
231.136	78.19
231.37	71.19
231.604	71.19
231.838	91.19
232.072	71.19
232.306	78.19
232.541	95.19
232.775	97.19
233.009	97.19
233.243	76.19
233.477	92.19
233.711	85.19
233.945	95.19
234.179	84.19
234.413	82.19
234.647	90.19
234.881	97.19
235.115	84.19
235.349	76.19
235.583	85.19
235.817	90.19
236.051	89.19
236.285	89.19
236.519	77.19
236.753	67.19
236.987	93.19
237.221	69.19
237.455	82.19
237.689	91.19
237.922	85.19
238.156	84.19
238.39	75.19
238.624	89.19
238.858	87.19
239.091	80.19
239.325	84.19
239.559	92.19
239.793	68.19
240.027	102.19
240.26	81.19
240.494	84.19
240.728	79.19
240.961	87.19
241.195	90.19
241.429	92.19
241.662	84.19
241.896	85.19
242.13	92.19
242.363	88.19
242.597	93.19
242.83	81.19
243.064	89.19
243.298	79.19
243.531	79.19
243.765	71.19
243.998	95.19
244.232	72.19
244.465	80.19
244.699	83.19
244.932	88.19
245.166	92.19
245.399	75.19
245.633	81.19
245.866	78.19
246.099	80.19
246.333	89.19
246.566	83.19
246.8	84.19
247.033	83.19
247.266	74.19
247.5	80.19
247.733	89.19
247.966	90.19
248.2	81.19
248.433	80.19
248.666	80.19
248.899	77.19
249.133	81.19
249.366	90.19
249.599	76.19
249.832	96.19
250.066	78.19
250.299	93.19
250.532	103.19
250.765	87.19
250.998	71.19
251.231	88.19
251.465	86.19
251.698	93.19
251.931	74.19
252.164	72.19
252.397	94.19
252.63	98.19
252.863	92.19
253.096	76.19
253.329	64.19
253.562	81.19
253.795	84.19
254.028	98.19
254.261	81.19
254.494	81.19
254.727	81.19
254.96	73.19
255.193	80.19
255.426	83.19
255.659	87.19
255.892	66.19
256.124	86.19
256.357	88.19
256.59	77.19
256.823	83.19
257.056	83.19
257.289	80.19
257.521	83.19
257.754	67.19
257.987	97.19
258.22	87.19
258.452	84.19
258.685	88.19
258.918	97.19
259.151	81.19
259.383	74.19
259.616	78.19
259.849	73.19
260.081	80.19
260.314	80.19
260.547	78.19
260.779	80.19
261.012	87.19
261.244	89.19
261.477	97.19
261.71	84.19
261.942	75.19
262.175	84.19
262.407	108.19
262.64	94.19
262.872	81.19
263.105	77.19
263.337	81.19
263.57	87.19
263.802	85.19
264.035	87.19
264.267	82.19
264.499	85.19
264.732	100.19
264.964	88.19
265.197	80.19
265.429	83.19
265.661	87.19
265.894	78.19
266.126	87.19
266.358	96.19
266.591	86.19
266.823	84.19
267.055	89.19
267.287	72.19
267.52	90.19
267.752	91.19
267.984	82.19
268.216	83.19
268.448	84.19
268.681	83.19
268.913	92.19
269.145	89.19
269.377	94.19
269.609	77.19
269.841	75.19
270.073	79.19
270.306	94.19
270.538	81.19
270.77	90.19
271.002	88.19
271.234	85.19
271.466	95.19
271.698	80.19
271.93	81.19
272.162	86.19
272.394	65.19
272.626	94.19
272.858	97.19
273.09	84.19
273.322	80.19
273.553	77.19
273.785	79.19
274.017	92.19
274.249	88.19
274.481	92.19
274.713	87.19
274.945	80.19
275.176	93.19
275.408	78.19
275.64	71.19
275.872	98.19
276.104	96.19
276.335	88.19
276.567	84.19
276.799	82.19
277.031	73.19
277.262	72.19
277.494	96.19
277.726	84.19
277.957	73.19
278.189	81.19
278.421	81.19
278.652	85.19
278.884	88.19
279.115	102.19
279.347	82.19
279.579	89.19
279.81	97.19
280.042	80.19
280.273	75.19
280.505	88.19
280.736	80.19
280.968	80.19
281.199	96.19
281.431	90.19
281.662	79.19
281.894	86.19
282.125	75.19
282.356	81.19
282.588	90.19
282.819	93.19
283.051	93.19
283.282	82.19
283.513	99.19
283.745	88.19
283.976	92.19
284.207	92.19
284.439	100.19
284.67	91.19
284.901	74.19
285.132	70.19
285.364	80.19
285.595	87.19
285.826	86.19
286.057	89.19
286.288	96.19
286.52	77.19
286.751	90.19
286.982	96.19
287.213	101.19
287.444	87.19
287.675	86.19
287.906	92.19
288.138	87.19
288.369	82.19
288.6	78.19
288.831	97.19
289.062	91.19
289.293	106.19
289.524	87.19
289.755	89.19
289.986	90.19
290.217	93.19
290.448	86.19
290.679	90.19
290.91	93.19
291.141	98.19
291.371	97.19
291.602	93.19
291.833	103.19
292.064	91.19
292.295	88.19
292.526	88.19
292.757	83.19
292.987	85.19
293.218	90.19
293.449	90.19
293.68	90.19
293.91	96.19
294.141	90.19
294.372	100.19
294.603	97.19
294.833	82.19
295.064	98.19
295.295	82.19
295.525	79.19
295.756	85.19
295.987	85.19
296.217	78.19
296.448	77.19
296.679	94.19
296.909	83.19
297.14	94.19
297.37	86.19
297.601	79.19
297.831	88.19
298.062	91.19
298.292	93.19
298.523	93.19
298.753	79.19
298.984	71.19
299.214	93.19
299.445	96.19
299.675	93.19
299.905	75.19
300.136	80.19
300.366	89.19
300.597	102.19
300.827	91.19
301.057	88.19
301.288	94.19
301.518	73.19
301.748	76.19
301.979	79.19
302.209	81.19
302.439	87.19
302.669	90.19
302.9	95.19
303.13	97.19
303.36	86.19
303.59	84.19
303.82	109.19
304.051	89.19
304.281	101.19
304.511	98.19
304.741	105.19
304.971	103.19
305.201	102.19
305.431	74.19
305.661	85.19
305.891	80.19
306.121	80.19
306.352	98.19
306.582	78.19
306.812	89.19
307.042	98.19
307.272	100.19
307.502	66.19
307.731	93.19
307.961	83.19
308.191	83.19
308.421	78.19
308.651	78.19
308.881	95.19
309.111	92.19
309.341	86.19
309.571	78.19
309.8	80.19
310.03	75.19
310.26	83.19
310.49	86.19
310.72	89.19
310.949	90.19
311.179	73.19
311.409	94.19
311.639	86.19
311.868	81.19
312.098	95.19
312.328	94.19
312.557	82.19
312.787	99.19
313.017	97.19
313.246	91.19
313.476	72.19
313.706	75.19
313.935	96.19
314.165	96.19
314.394	90.19
314.624	86.19
314.853	83.19
315.083	94.19
315.312	88.19
315.542	85.19
315.771	98.19
316.001	90.19
316.23	93.19
316.46	91.19
316.689	78.19
316.919	79.19
317.148	84.19
317.377	83.19
317.607	77.19
317.836	100.19
318.065	92.19
318.295	91.19
318.524	94.19
318.753	90.19
318.983	87.19
319.212	84.19
319.441	96.19
319.67	97.19
319.9	92.19
320.129	77.19
320.358	78.19
320.587	90.19
320.816	93.19
321.046	86.19
321.275	83.19
321.504	85.19
321.733	82.19
321.962	87.19
322.191	88.19
322.42	96.19
322.649	86.19
322.878	93.19
323.108	96.19
323.337	79.19
323.566	95.19
323.795	86.19
324.024	80.19
324.253	87.19
324.482	87.19
324.71	82.19
324.939	96.19
325.168	83.19
325.397	98.19
325.626	87.19
325.855	83.19
326.084	86.19
326.313	81.19
326.542	86.19
326.77	82.19
326.999	87.19
327.228	77.19
327.457	98.19
327.686	100.19
327.914	97.19
328.143	95.19
328.372	106.19
328.6	86.19
328.829	80.19
329.058	81.19
329.287	75.19
329.515	90.19
329.744	91.19
329.972	97.19
330.201	84.19
330.43	98.19
330.658	77.19
330.887	84.19
331.115	92.19
331.344	82.19
331.572	94.19
331.801	96.19
332.03	87.19
332.258	83.19
332.486	87.19
332.715	97.19
332.943	80.19
333.172	76.19
333.4	92.19
333.629	90.19
333.857	82.19
334.085	81.19
334.314	79.19
334.542	84.19
334.771	77.19
334.999	95.19
335.227	84.19
335.455	104.19
335.684	83.19
335.912	80.19
336.14	90.19
336.369	98.19
336.597	86.19
336.825	98.19
337.053	90.19
337.281	82.19
337.51	87.19
337.738	98.19
337.966	74.19
338.194	104.19
338.422	88.19
338.65	82.19
338.878	95.19
339.106	76.19
339.334	94.19
339.562	88.19
339.79	90.19
340.018	94.19
340.246	86.19
340.474	88.19
340.702	84.19
340.93	92.19
341.158	107.19
341.386	99.19
341.614	91.19
341.842	100.19
342.07	87.19
342.298	95.19
342.526	99.19
342.754	103.19
342.981	95.19
343.209	94.19
343.437	100.19
343.665	90.19
343.893	99.19
344.12	93.19
344.348	90.19
344.576	82.19
344.804	84.19
345.031	94.19
345.259	92.19
345.487	84.19
345.714	93.19
345.942	90.19
346.17	90.19
346.397	88.19
346.625	98.19
346.853	93.19
347.08	82.19
347.308	91.19
347.535	82.19
347.763	88.19
347.99	84.19
348.218	95.19
348.445	89.19
348.673	83.19
348.9	85.19
349.128	83.19
349.355	81.19
349.583	81.19
349.81	75.19
350.037	91.19
350.265	90.19
350.492	90.19
350.72	82.19
350.947	92.19
351.174	96.19
351.402	87.19
351.629	94.19
351.856	95.19
352.083	113.19
352.311	86.19
352.538	86.19
352.765	95.19
352.992	89.19
353.22	93.19
353.447	86.19
353.674	88.19
353.901	87.19
354.128	87.19
354.355	95.19
354.583	95.19
354.81	88.19
355.037	104.19
355.264	90.19
355.491	73.19
355.718	94.19
355.945	95.19
356.172	76.19
356.399	87.19
356.626	82.19
356.853	91.19
357.08	97.19
357.307	83.19
357.534	89.19
357.761	109.19
357.988	88.19
358.215	90.19
358.441	91.19
358.668	87.19
358.895	94.19
359.122	92.19
359.349	91.19
359.576	88.19
359.802	82.19
360.029	93.19
360.256	93.19
360.483	79.19
360.709	90.19
360.936	97.19
361.163	102.19
361.39	83.19
361.616	90.19
361.843	91.19
362.07	107.19
362.296	78.19
362.523	89.19
362.749	94.19
362.976	79.19
363.203	93.19
363.429	78.19
363.656	79.19
363.882	77.19
364.109	100.19
364.335	89.19
364.562	92.19
364.788	88.19
365.015	98.19
365.241	83.19
365.468	98.19
365.694	94.19
365.92	87.19
366.147	95.19
366.373	94.19
366.599	100.19
366.826	88.19
367.052	88.19
367.278	96.19
367.505	104.19
367.731	95.19
367.957	105.19
368.184	90.19
368.41	103.19
368.636	99.19
368.862	104.19
369.089	96.19
369.315	92.19
369.541	105.19
369.767	94.19
369.993	90.19
370.219	99.19
370.445	87.19
370.672	91.19
370.898	81.19
371.124	91.19
371.35	96.19
371.576	101.19
371.802	99.19
372.028	94.19
372.254	91.19
372.48	98.19
372.706	90.19
372.932	86.19
373.158	94.19
373.384	97.19
373.61	104.19
373.835	98.19
374.061	95.19
374.287	99.19
374.513	94.19
374.739	103.19
374.965	95.19
375.191	112.19
375.416	94.19
375.642	106.19
375.868	90.19
376.094	92.19
376.319	96.19
376.545	96.19
376.771	111.19
376.997	103.19
377.222	106.19
377.448	83.19
377.674	99.19
377.899	99.19
378.125	105.19
378.35	105.19
378.576	114.19
378.802	87.19
379.027	103.19
379.253	100.19
379.478	82.19
379.704	84.19
379.929	96.19
380.155	97.19
380.38	92.19
380.606	94.19
380.831	86.19
381.057	112.19
381.282	80.19
381.507	104.19
381.733	102.19
381.958	112.19
382.184	100.19
382.409	95.19
382.634	109.19
382.86	116.19
383.085	92.19
383.31	107.19
383.535	95.19
383.761	91.19
383.986	99.19
384.211	97.19
384.436	113.19
384.662	115.19
384.887	98.19
385.112	99.19
385.337	99.19
385.562	92.19
385.787	81.19
386.013	97.19
386.238	109.19
386.463	100.19
386.688	107.19
386.913	100.19
387.138	103.19
387.363	110.19
387.588	103.19
387.813	102.19
388.038	104.19
388.263	104.19
388.488	115.19
388.713	105.19
388.938	99.19
389.163	107.19
389.387	101.19
389.612	99.19
389.837	105.19
390.062	102.19
390.287	97.19
390.512	105.19
390.736	105.19
390.961	105.19
391.186	120.19
391.411	110.19
391.636	99.19
391.86	113.19
392.085	108.19
392.31	105.19
392.534	99.19
392.759	98.19
392.984	119.19
393.208	106.19
393.433	118.19
393.658	108.19
393.882	99.19
394.107	115.19
394.331	102.19
394.556	110.19
394.78	109.19
395.005	120.19
395.229	122.19
395.454	98.19
395.678	103.19
395.903	113.19
396.127	118.19
396.352	122.19
396.576	112.19
396.801	95.19
397.025	111.19
397.249	121.19
397.474	93.19
397.698	110.19
397.922	108.19
398.147	106.19
398.371	115.19
398.595	111.19
398.82	127.19
399.044	114.19
399.268	113.19
399.492	116.19
399.717	120.19
399.941	121.19
400.165	112.19
400.389	122.19
400.613	118.19
400.837	126.19
401.062	122.19
401.286	108.19
401.51	120.19
401.734	127.19
401.958	121.19
402.182	121.19
402.406	116.19
402.63	116.19
402.854	109.19
403.078	107.19
403.302	126.19
403.526	112.19
403.75	100.19
403.974	123.19
404.198	124.19
404.422	112.19
404.645	112.19
404.869	124.19
405.093	129.19
405.317	112.19
405.541	128.19
405.765	102.19
405.988	121.19
406.212	120.19
406.436	114.19
406.66	123.19
406.883	121.19
407.107	108.19
407.331	126.19
407.555	130.19
407.778	122.19
408.002	125.19
408.226	113.19
408.449	126.19
408.673	113.19
408.896	129.19
409.12	123.19
409.344	115.19
409.567	122.19
409.791	130.19
410.014	118.19
410.238	124.19
410.461	121.19
410.685	118.19
410.908	129.19
411.132	113.19
411.355	123.19
411.578	130.19
411.802	114.19
412.025	132.19
412.249	139.19
412.472	134.19
412.695	130.19
412.919	121.19
413.142	132.19
413.365	119.19
413.589	121.19
413.812	127.19
414.035	128.19
414.258	127.19
414.482	139.19
414.705	132.19
414.928	127.19
415.151	129.19
415.374	128.19
415.597	129.19
415.821	134.19
416.044	127.19
416.267	140.19
416.49	132.19
416.713	140.19
416.936	135.19
417.159	135.19
417.382	130.19
417.605	136.19
417.828	115.19
418.051	131.19
418.274	130.19
418.497	128.19
418.72	131.19
418.943	121.19
419.166	132.19
419.389	138.19
419.611	155.19
419.834	132.19
420.057	136.19
420.28	150.19
420.503	132.19
420.726	126.19
420.948	143.19
421.171	126.19
421.394	130.19
421.617	143.19
421.839	145.19
422.062	151.19
422.285	140.19
422.507	137.19
422.73	128.19
422.953	109.19
423.175	134.19
423.398	130.19
423.621	132.19
423.843	148.19
424.066	140.19
424.288	144.19
424.511	153.19
424.733	152.19
424.956	152.19
425.178	139.19
425.401	145.19
425.623	140.19
425.846	136.19
426.068	120.19
426.291	130.19
426.513	139.19
426.735	142.19
426.958	136.19
427.18	135.19
427.402	133.19
427.625	129.19
427.847	125.19
428.069	122.19
428.292	135.19
428.514	124.19
428.736	131.19
428.958	130.19
429.181	134.19
429.403	137.19
429.625	122.19
429.847	135.19
430.069	128.19
430.292	124.19
430.514	132.19
430.736	136.19
430.958	128.19
431.18	122.19
431.402	126.19
431.624	133.19
431.846	118.19
432.068	111.19
432.29	114.19
432.512	124.19
432.734	131.19
432.956	126.19
433.178	145.19
433.4	145.19
433.622	145.19
433.844	137.19
434.066	125.19
434.287	105.19
434.509	93.19
434.731	98.19
434.953	118.19
435.175	125.19
435.397	123.19
435.618	108.19
435.84	118.19
436.062	118.19
436.284	118.19
436.505	120.19
436.727	142.19
436.949	126.19
437.17	127.19
437.392	123.19
437.614	128.19
437.835	112.19
438.057	111.19
438.278	124.19
438.5	130.19
438.721	135.19
438.943	144.19
439.165	131.19
439.386	129.19
439.608	129.19
439.829	146.19
440.05	145.19
440.272	146.19
440.493	132.19
440.715	143.19
440.936	139.19
441.158	154.19
441.379	160.19
441.6	136.19
441.822	145.19
442.043	157.19
442.264	138.19
442.486	142.19
442.707	141.19
442.928	131.19
443.149	138.19
443.371	135.19
443.592	133.19
443.813	146.19
444.034	140.19
444.255	145.19
444.476	142.19
444.698	151.19
444.919	154.19
445.14	273.19
445.361	200.19
445.582	141.19
445.803	157.19
446.024	153.19
446.245	155.19
446.466	140.19
446.687	167.19
446.908	168.19
447.129	163.19
447.35	155.19
447.571	161.19
447.792	162.19
448.013	140.19
448.234	154.19
448.455	138.19
448.675	152.19
448.896	154.19
449.117	131.19
449.338	141.19
449.559	145.19
449.779	151.19
450	140.19
450.221	140.19
450.442	143.19
450.662	142.19
450.883	128.19
451.104	132.19
451.324	124.19
451.545	138.19
451.766	120.19
451.986	137.19
452.207	140.19
452.428	132.19
452.648	131.19
452.869	123.19
453.089	115.19
453.31	112.19
453.53	115.19
453.751	102.19
453.971	99.19
454.192	116.19
454.412	109.19
454.633	112.19
454.853	118.19
455.073	127.19
455.294	131.19
455.514	131.19
455.734	144.19
455.955	122.19
456.175	123.19
456.395	137.19
456.616	135.19
456.836	127.19
457.056	124.19
457.276	106.19
457.497	120.19
457.717	110.19
457.937	113.19
458.157	124.19
458.377	126.19
458.598	93.19
458.818	99.19
459.038	82.19
459.258	77.19
459.478	87.19
459.698	80.19
459.918	100.19
460.138	112.19
460.358	115.19
460.578	94.19
460.798	110.19
461.018	116.19
461.238	116.19
461.458	126.19
461.678	103.19
461.898	116.19
462.118	114.19
462.338	104.19
462.558	128.19
462.777	123.19
462.997	121.19
463.217	110.19
463.437	113.19
463.657	113.19
463.876	128.19
464.096	128.19
464.316	114.19
464.536	132.19
464.755	120.19
464.975	119.19
465.195	123.19
465.414	123.19
465.634	103.19
465.854	110.19
466.073	110.19
466.293	133.19
466.512	130.19
466.732	134.19
466.951	131.19
467.171	128.19
467.391	130.19
467.61	132.19
467.829	135.19
468.049	149.19
468.268	148.19
468.488	142.19
468.707	132.19
468.927	138.19
469.146	140.19
469.365	128.19
469.585	136.19
469.804	131.19
470.023	147.19
470.243	148.19
470.462	155.19
470.681	134.19
470.901	150.19
471.12	146.19
471.339	151.19
471.558	150.19
471.777	144.19
471.997	123.19
472.216	129.19
472.435	121.19
472.654	110.19
472.873	118.19
473.092	120.19
473.311	122.19
473.53	128.19
473.749	127.19
473.968	142.19
474.187	125.19
474.406	119.19
474.625	144.19
474.844	140.19
475.063	133.19
475.282	140.19
475.501	116.19
475.72	118.19
475.939	126.19
476.158	120.19
476.377	128.19
476.596	124.19
476.814	123.19
477.033	109.19
477.252	132.19
477.471	128.19
477.69	144.19
477.908	144.19
478.127	151.19
478.346	141.19
478.564	138.19
478.783	140.19
479.002	147.19
479.22	138.19
479.439	138.19
479.658	126.19
479.876	127.19
480.095	127.19
480.313	135.19
480.532	132.19
480.751	120.19
480.969	98.19
481.188	95.19
481.406	111.19
481.624	93.19
481.843	97.19
482.061	92.19
482.28	119.19
482.498	111.19
482.717	112.19
482.935	116.19
483.153	140.19
483.372	139.19
483.59	155.19
483.808	143.19
484.027	138.19
484.245	135.19
484.463	148.19
484.681	157.19
484.9	150.19
485.118	158.19
485.336	134.19
485.554	127.19
485.772	127.19
485.99	107.19
486.209	119.19
486.427	124.19
486.645	130.19
486.863	141.19
487.081	152.19
487.299	136.19
487.517	138.19
487.735	170.19
487.953	189.19
488.171	175.19
488.389	179.19
488.607	159.19
488.825	131.19
489.043	127.19
489.261	128.19
489.479	155.19
489.696	153.19
489.914	146.19
490.132	130.19
490.35	144.19
490.568	168.19
490.786	173.19
491.003	155.19
491.221	184.19
491.439	180.19
491.657	192.19
491.874	193.19
492.092	234.19
492.31	234.19
492.527	223.19
492.745	217.19
492.963	196.19
493.18	187.19
493.398	182.19
493.615	192.19
493.833	187.19
494.05	168.19
494.268	178.19
494.485	191.19
494.703	192.19
494.92	188.19
495.138	171.19
495.355	180.19
495.573	160.19
495.79	175.19
496.008	170.19
496.225	173.19
496.442	178.19
496.66	167.19
496.877	176.19
497.094	175.19
497.312	168.19
497.529	156.19
497.746	147.19
497.963	146.19
498.181	139.19
498.398	109.19
498.615	138.19
498.832	130.19
499.049	125.19
499.267	125.19
499.484	118.19
499.701	142.19
499.918	143.19
500.135	141.19
500.352	132.19
500.569	128.19
500.786	141.19
501.003	146.19
501.22	146.19
501.437	133.19
501.654	132.19
501.871	132.19
502.088	116.19
502.305	140.19
502.522	134.19
502.739	132.19
502.956	125.19
503.172	132.19
503.389	131.19
503.606	137.19
503.823	125.19
504.04	128.19
504.256	123.19
504.473	103.19
504.69	129.19
504.907	109.19
505.123	121.19
505.34	136.19
505.557	123.19
505.773	130.19
505.99	136.19
506.207	122.19
506.423	140.19
506.64	123.19
506.856	115.19
507.073	121.19
507.289	109.19
507.506	124.19
507.722	122.19
507.939	120.19
508.155	108.19
508.372	104.19
508.588	127.19
508.805	122.19
509.021	112.19
509.238	118.19
509.454	122.19
509.67	103.19
509.887	104.19
510.103	94.19
510.319	114.19
510.536	88.19
510.752	88.19
510.968	87.19
