Data from Location1.07152019.Energy5.Lamp.07192019.3%Agarose_HRD10591_14-32-17-017.txt Node
Date: Fri Jul 19 14:32:17 EDT 2019
User: cochatt
Spectrometer: HR+D1059
Trigger mode: 1
Integration Time (sec): 1.000000E-1
Scans to average: 1
Electric dark correction enabled: true
Nonlinearity correction enabled: false
Boxcar width: 0
XAxis mode: Wavelengths
Number of Pixels in Spectrum: 2048
>>>>>Begin Spectral Data<<<<<
223.165	-22.56
223.4	-22.56
223.635	-22.56
223.869	-14.56
224.104	-14.56
224.338	-13.56
224.573	-14.56
224.808	2.44
225.042	-8.56
225.277	-1.56
225.511	-12.56
225.746	-9.56
225.98	8.44
226.215	7.44
226.449	12.44
226.683	21.44
226.918	29.44
227.152	30.44
227.387	39.44
227.621	25.44
227.856	44.44
228.09	53.44
228.324	54.44
228.559	54.44
228.793	55.44
229.027	51.44
229.262	71.44
229.496	72.44
229.73	60.44
229.964	70.44
230.199	79.44
230.433	79.44
230.667	69.44
230.901	78.44
231.136	79.44
231.37	82.44
231.604	86.44
231.838	66.44
232.072	73.44
232.306	79.44
232.541	82.44
232.775	79.44
233.009	70.44
233.243	78.44
233.477	65.44
233.711	89.44
233.945	85.44
234.179	78.44
234.413	75.44
234.647	88.44
234.881	72.44
235.115	87.44
235.349	87.44
235.583	87.44
235.817	75.44
236.051	79.44
236.285	89.44
236.519	78.44
236.753	87.44
236.987	78.44
237.221	69.44
237.455	78.44
237.689	71.44
237.922	70.44
238.156	72.44
238.39	73.44
238.624	76.44
238.858	69.44
239.091	81.44
239.325	72.44
239.559	83.44
239.793	57.44
240.027	68.44
240.26	94.44
240.494	89.44
240.728	78.44
240.961	79.44
241.195	84.44
241.429	90.44
241.662	86.44
241.896	78.44
242.13	77.44
242.363	79.44
242.597	75.44
242.83	85.44
243.064	75.44
243.298	73.44
243.531	78.44
243.765	78.44
243.998	66.44
244.232	79.44
244.465	69.44
244.699	79.44
244.932	82.44
245.166	69.44
245.399	77.44
245.633	64.44
245.866	80.44
246.099	77.44
246.333	91.44
246.566	74.44
246.8	77.44
247.033	80.44
247.266	71.44
247.5	93.44
247.733	84.44
247.966	74.44
248.2	70.44
248.433	70.44
248.666	76.44
248.899	79.44
249.133	85.44
249.366	81.44
249.599	87.44
249.832	82.44
250.066	93.44
250.299	77.44
250.532	78.44
250.765	72.44
250.998	67.44
251.231	69.44
251.465	77.44
251.698	82.44
251.931	60.44
252.164	77.44
252.397	76.44
252.63	69.44
252.863	88.44
253.096	74.44
253.329	62.44
253.562	74.44
253.795	84.44
254.028	85.44
254.261	94.44
254.494	75.44
254.727	85.44
254.96	85.44
255.193	76.44
255.426	71.44
255.659	74.44
255.892	83.44
256.124	90.44
256.357	83.44
256.59	82.44
256.823	90.44
257.056	71.44
257.289	65.44
257.521	72.44
257.754	93.44
257.987	77.44
258.22	84.44
258.452	69.44
258.685	74.44
258.918	89.44
259.151	79.44
259.383	81.44
259.616	92.44
259.849	85.44
260.081	82.44
260.314	61.44
260.547	76.44
260.779	83.44
261.012	82.44
261.244	75.44
261.477	89.44
261.71	78.44
261.942	74.44
262.175	68.44
262.407	83.44
262.64	91.44
262.872	81.44
263.105	85.44
263.337	82.44
263.57	83.44
263.802	75.44
264.035	70.44
264.267	84.44
264.499	71.44
264.732	75.44
264.964	85.44
265.197	81.44
265.429	83.44
265.661	89.44
265.894	67.44
266.126	66.44
266.358	84.44
266.591	65.44
266.823	79.44
267.055	71.44
267.287	80.44
267.52	94.44
267.752	91.44
267.984	70.44
268.216	85.44
268.448	89.44
268.681	90.44
268.913	93.44
269.145	84.44
269.377	85.44
269.609	85.44
269.841	87.44
270.073	81.44
270.306	68.44
270.538	59.44
270.77	88.44
271.002	84.44
271.234	75.44
271.466	95.44
271.698	80.44
271.93	76.44
272.162	83.44
272.394	97.44
272.626	78.44
272.858	93.44
273.09	83.44
273.322	83.44
273.553	78.44
273.785	65.44
274.017	79.44
274.249	88.44
274.481	90.44
274.713	69.44
274.945	69.44
275.176	79.44
275.408	90.44
275.64	87.44
275.872	82.44
276.104	89.44
276.335	78.44
276.567	80.44
276.799	77.44
277.031	75.44
277.262	85.44
277.494	78.44
277.726	79.44
277.957	83.44
278.189	82.44
278.421	76.44
278.652	85.44
278.884	85.44
279.115	88.44
279.347	92.44
279.579	75.44
279.81	77.44
280.042	78.44
280.273	82.44
280.505	82.44
280.736	74.44
280.968	85.44
281.199	79.44
281.431	78.44
281.662	82.44
281.894	77.44
282.125	90.44
282.356	86.44
282.588	77.44
282.819	79.44
283.051	75.44
283.282	93.44
283.513	93.44
283.745	71.44
283.976	69.44
284.207	74.44
284.439	90.44
284.67	90.44
284.901	93.44
285.132	77.44
285.364	78.44
285.595	73.44
285.826	94.44
286.057	82.44
286.288	86.44
286.52	79.44
286.751	77.44
286.982	76.44
287.213	70.44
287.444	89.44
287.675	78.44
287.906	86.44
288.138	73.44
288.369	66.44
288.6	80.44
288.831	82.44
289.062	87.44
289.293	83.44
289.524	86.44
289.755	86.44
289.986	75.44
290.217	71.44
290.448	87.44
290.679	103.44
290.91	84.44
291.141	86.44
291.371	91.44
291.602	83.44
291.833	78.44
292.064	87.44
292.295	77.44
292.526	86.44
292.757	84.44
292.987	85.44
293.218	80.44
293.449	87.44
293.68	84.44
293.91	75.44
294.141	91.44
294.372	79.44
294.603	87.44
294.833	95.44
295.064	83.44
295.295	75.44
295.525	85.44
295.756	87.44
295.987	92.44
296.217	83.44
296.448	86.44
296.679	85.44
296.909	75.44
297.14	86.44
297.37	79.44
297.601	94.44
297.831	79.44
298.062	84.44
298.292	92.44
298.523	84.44
298.753	85.44
298.984	83.44
299.214	87.44
299.445	88.44
299.675	94.44
299.905	85.44
300.136	83.44
300.366	88.44
300.597	85.44
300.827	102.44
301.057	97.44
301.288	87.44
301.518	85.44
301.748	83.44
301.979	93.44
302.209	85.44
302.439	79.44
302.669	68.44
302.9	85.44
303.13	95.44
303.36	86.44
303.59	70.44
303.82	78.44
304.051	87.44
304.281	85.44
304.511	82.44
304.741	95.44
304.971	82.44
305.201	99.44
305.431	70.44
305.661	83.44
305.891	88.44
306.121	93.44
306.352	88.44
306.582	94.44
306.812	88.44
307.042	86.44
307.272	84.44
307.502	93.44
307.731	79.44
307.961	92.44
308.191	93.44
308.421	83.44
308.651	77.44
308.881	82.44
309.111	85.44
309.341	91.44
309.571	87.44
309.8	94.44
310.03	85.44
310.26	82.44
310.49	93.44
310.72	80.44
310.949	94.44
311.179	86.44
311.409	90.44
311.639	89.44
311.868	73.44
312.098	82.44
312.328	79.44
312.557	85.44
312.787	83.44
313.017	90.44
313.246	82.44
313.476	68.44
313.706	81.44
313.935	88.44
314.165	83.44
314.394	84.44
314.624	71.44
314.853	90.44
315.083	87.44
315.312	84.44
315.542	74.44
315.771	71.44
316.001	86.44
316.23	78.44
316.46	76.44
316.689	73.44
316.919	72.44
317.148	94.44
317.377	86.44
317.607	83.44
317.836	80.44
318.065	79.44
318.295	83.44
318.524	87.44
318.753	87.44
318.983	83.44
319.212	87.44
319.441	75.44
319.67	83.44
319.9	79.44
320.129	79.44
320.358	80.44
320.587	94.44
320.816	82.44
321.046	87.44
321.275	79.44
321.504	71.44
321.733	70.44
321.962	86.44
322.191	101.44
322.42	90.44
322.649	88.44
322.878	90.44
323.108	99.44
323.337	75.44
323.566	61.44
323.795	66.44
324.024	81.44
324.253	93.44
324.482	88.44
324.71	88.44
324.939	80.44
325.168	84.44
325.397	89.44
325.626	86.44
325.855	98.44
326.084	76.44
326.313	82.44
326.542	79.44
326.77	89.44
326.999	90.44
327.228	91.44
327.457	87.44
327.686	102.44
327.914	79.44
328.143	87.44
328.372	86.44
328.6	88.44
328.829	87.44
329.058	75.44
329.287	75.44
329.515	84.44
329.744	91.44
329.972	86.44
330.201	78.44
330.43	78.44
330.658	85.44
330.887	93.44
331.115	100.44
331.344	74.44
331.572	77.44
331.801	70.44
332.03	91.44
332.258	76.44
332.486	90.44
332.715	90.44
332.943	79.44
333.172	72.44
333.4	85.44
333.629	108.44
333.857	84.44
334.085	74.44
334.314	85.44
334.542	70.44
334.771	88.44
334.999	80.44
335.227	87.44
335.455	85.44
335.684	93.44
335.912	80.44
336.14	77.44
336.369	101.44
336.597	99.44
336.825	82.44
337.053	92.44
337.281	87.44
337.51	96.44
337.738	75.44
337.966	82.44
338.194	82.44
338.422	85.44
338.65	82.44
338.878	73.44
339.106	88.44
339.334	92.44
339.562	81.44
339.79	82.44
340.018	86.44
340.246	92.44
340.474	79.44
340.702	75.44
340.93	84.44
341.158	68.44
341.386	79.44
341.614	78.44
341.842	72.44
342.07	87.44
342.298	80.44
342.526	77.44
342.754	86.44
342.981	91.44
343.209	78.44
343.437	75.44
343.665	94.44
343.893	86.44
344.12	77.44
344.348	74.44
344.576	70.44
344.804	88.44
345.031	94.44
345.259	93.44
345.487	82.44
345.714	76.44
345.942	87.44
346.17	102.44
346.397	79.44
346.625	70.44
346.853	91.44
347.08	74.44
347.308	84.44
347.535	77.44
347.763	97.44
347.99	95.44
348.218	84.44
348.445	75.44
348.673	88.44
348.9	79.44
349.128	78.44
349.355	74.44
349.583	101.44
349.81	94.44
350.037	77.44
350.265	89.44
350.492	75.44
350.72	80.44
350.947	97.44
351.174	91.44
351.402	79.44
351.629	87.44
351.856	89.44
352.083	89.44
352.311	87.44
352.538	73.44
352.765	83.44
352.992	85.44
353.22	85.44
353.447	78.44
353.674	90.44
353.901	91.44
354.128	79.44
354.355	70.44
354.583	78.44
354.81	80.44
355.037	87.44
355.264	76.44
355.491	69.44
355.718	77.44
355.945	82.44
356.172	77.44
356.399	69.44
356.626	77.44
356.853	83.44
357.08	84.44
357.307	83.44
357.534	77.44
357.761	79.44
357.988	84.44
358.215	82.44
358.441	95.44
358.668	99.44
358.895	92.44
359.122	88.44
359.349	87.44
359.576	77.44
359.802	89.44
360.029	74.44
360.256	77.44
360.483	79.44
360.709	71.44
360.936	88.44
361.163	81.44
361.39	84.44
361.616	90.44
361.843	85.44
362.07	67.44
362.296	78.44
362.523	89.44
362.749	77.44
362.976	84.44
363.203	99.44
363.429	86.44
363.656	84.44
363.882	73.44
364.109	81.44
364.335	73.44
364.562	73.44
364.788	85.44
365.015	75.44
365.241	83.44
365.468	71.44
365.694	87.44
365.92	77.44
366.147	77.44
366.373	84.44
366.599	92.44
366.826	86.44
367.052	67.44
367.278	91.44
367.505	90.44
367.731	83.44
367.957	94.44
368.184	86.44
368.41	72.44
368.636	90.44
368.862	84.44
369.089	111.44
369.315	82.44
369.541	88.44
369.767	83.44
369.993	77.44
370.219	75.44
370.445	95.44
370.672	100.44
370.898	74.44
371.124	88.44
371.35	87.44
371.576	89.44
371.802	87.44
372.028	83.44
372.254	92.44
372.48	101.44
372.706	104.44
372.932	87.44
373.158	74.44
373.384	104.44
373.61	93.44
373.835	93.44
374.061	92.44
374.287	89.44
374.513	77.44
374.739	90.44
374.965	99.44
375.191	84.44
375.416	92.44
375.642	88.44
375.868	99.44
376.094	99.44
376.319	101.44
376.545	74.44
376.771	92.44
376.997	87.44
377.222	93.44
377.448	92.44
377.674	90.44
377.899	100.44
378.125	107.44
378.35	86.44
378.576	95.44
378.802	91.44
379.027	94.44
379.253	81.44
379.478	89.44
379.704	91.44
379.929	87.44
380.155	90.44
380.38	88.44
380.606	87.44
380.831	108.44
381.057	98.44
381.282	98.44
381.507	90.44
381.733	89.44
381.958	107.44
382.184	84.44
382.409	104.44
382.634	99.44
382.86	87.44
383.085	83.44
383.31	90.44
383.535	86.44
383.761	95.44
383.986	100.44
384.211	108.44
384.436	89.44
384.662	85.44
384.887	88.44
385.112	72.44
385.337	90.44
385.562	92.44
385.787	105.44
386.013	108.44
386.238	87.44
386.463	105.44
386.688	103.44
386.913	90.44
387.138	97.44
387.363	101.44
387.588	113.44
387.813	101.44
388.038	91.44
388.263	90.44
388.488	99.44
388.713	84.44
388.938	103.44
389.163	100.44
389.387	99.44
389.612	86.44
389.837	107.44
390.062	93.44
390.287	105.44
390.512	99.44
390.736	87.44
390.961	112.44
391.186	99.44
391.411	85.44
391.636	93.44
391.86	101.44
392.085	95.44
392.31	120.44
392.534	90.44
392.759	117.44
392.984	111.44
393.208	115.44
393.433	108.44
393.658	89.44
393.882	99.44
394.107	115.44
394.331	112.44
394.556	93.44
394.78	96.44
395.005	85.44
395.229	103.44
395.454	109.44
395.678	95.44
395.903	101.44
396.127	108.44
396.352	114.44
396.576	115.44
396.801	85.44
397.025	101.44
397.249	104.44
397.474	105.44
397.698	93.44
397.922	108.44
398.147	98.44
398.371	105.44
398.595	109.44
398.82	104.44
399.044	114.44
399.268	108.44
399.492	115.44
399.717	110.44
399.941	111.44
400.165	114.44
400.389	115.44
400.613	92.44
400.837	121.44
401.062	114.44
401.286	117.44
401.51	102.44
401.734	97.44
401.958	105.44
402.182	108.44
402.406	109.44
402.63	107.44
402.854	114.44
403.078	111.44
403.302	106.44
403.526	101.44
403.75	99.44
403.974	120.44
404.198	103.44
404.422	111.44
404.645	99.44
404.869	111.44
405.093	120.44
405.317	125.44
405.541	123.44
405.765	108.44
405.988	117.44
406.212	131.44
406.436	113.44
406.66	103.44
406.883	113.44
407.107	121.44
407.331	117.44
407.555	99.44
407.778	111.44
408.002	108.44
408.226	111.44
408.449	108.44
408.673	116.44
408.896	126.44
409.12	107.44
409.344	125.44
409.567	115.44
409.791	108.44
410.014	120.44
410.238	120.44
410.461	114.44
410.685	114.44
410.908	110.44
411.132	109.44
411.355	120.44
411.578	129.44
411.802	110.44
412.025	133.44
412.249	121.44
412.472	119.44
412.695	124.44
412.919	92.44
413.142	110.44
413.365	122.44
413.589	129.44
413.812	122.44
414.035	131.44
414.258	129.44
414.482	127.44
414.705	132.44
414.928	126.44
415.151	106.44
415.374	140.44
415.597	108.44
415.821	116.44
416.044	118.44
416.267	131.44
416.49	123.44
416.713	114.44
416.936	118.44
417.159	132.44
417.382	138.44
417.605	130.44
417.828	122.44
418.051	121.44
418.274	129.44
418.497	129.44
418.72	129.44
418.943	131.44
419.166	138.44
419.389	141.44
419.611	138.44
419.834	131.44
420.057	128.44
420.28	127.44
420.503	127.44
420.726	131.44
420.948	138.44
421.171	139.44
421.394	137.44
421.617	125.44
421.839	130.44
422.062	141.44
422.285	134.44
422.507	124.44
422.73	123.44
422.953	132.44
423.175	124.44
423.398	125.44
423.621	127.44
423.843	133.44
424.066	133.44
424.288	138.44
424.511	137.44
424.733	144.44
424.956	137.44
425.178	126.44
425.401	125.44
425.623	132.44
425.846	135.44
426.068	138.44
426.291	129.44
426.513	132.44
426.735	124.44
426.958	128.44
427.18	125.44
427.402	129.44
427.625	126.44
427.847	116.44
428.069	131.44
428.292	135.44
428.514	122.44
428.736	130.44
428.958	118.44
429.181	142.44
429.403	135.44
429.625	116.44
429.847	117.44
430.069	126.44
430.292	128.44
430.514	123.44
430.736	131.44
430.958	123.44
431.18	137.44
431.402	123.44
431.624	114.44
431.846	99.44
432.068	102.44
432.29	107.44
432.512	110.44
432.734	126.44
432.956	121.44
433.178	131.44
433.4	129.44
433.622	145.44
433.844	132.44
434.066	124.44
434.287	93.44
434.509	104.44
434.731	101.44
434.953	101.44
435.175	111.44
435.397	108.44
435.618	106.44
435.84	96.44
436.062	99.44
436.284	119.44
436.505	131.44
436.727	118.44
436.949	131.44
437.17	126.44
437.392	128.44
437.614	125.44
437.835	117.44
438.057	99.44
438.278	119.44
438.5	135.44
438.721	121.44
438.943	143.44
439.165	121.44
439.386	139.44
439.608	129.44
439.829	147.44
440.05	147.44
440.272	144.44
440.493	131.44
440.715	133.44
440.936	127.44
441.158	141.44
441.379	134.44
441.6	141.44
441.822	134.44
442.043	138.44
442.264	146.44
442.486	141.44
442.707	139.44
442.928	120.44
443.149	133.44
443.371	142.44
443.592	134.44
443.813	141.44
444.034	134.44
444.255	133.44
444.476	166.44
444.698	135.44
444.919	141.44
445.14	230.44
445.361	197.44
445.582	141.44
445.803	141.44
446.024	142.44
446.245	140.44
446.466	163.44
446.687	149.44
446.908	155.44
447.129	158.44
447.35	150.44
447.571	154.44
447.792	151.44
448.013	140.44
448.234	151.44
448.455	139.44
448.675	137.44
448.896	135.44
449.117	136.44
449.338	139.44
449.559	149.44
449.779	141.44
450	141.44
450.221	145.44
450.442	137.44
450.662	121.44
450.883	133.44
451.104	129.44
451.324	112.44
451.545	125.44
451.766	124.44
451.986	126.44
452.207	115.44
452.428	124.44
452.648	124.44
452.869	114.44
453.089	95.44
453.31	114.44
453.53	115.44
453.751	121.44
453.971	102.44
454.192	101.44
454.412	119.44
454.633	119.44
454.853	120.44
455.073	117.44
455.294	115.44
455.514	134.44
455.734	124.44
455.955	118.44
456.175	120.44
456.395	101.44
456.616	103.44
456.836	120.44
457.056	103.44
457.276	86.44
457.497	107.44
457.717	123.44
457.937	123.44
458.157	105.44
458.377	94.44
458.598	104.44
458.818	99.44
459.038	94.44
459.258	94.44
459.478	87.44
459.698	85.44
459.918	95.44
460.138	118.44
460.358	107.44
460.578	113.44
460.798	99.44
461.018	106.44
461.238	113.44
461.458	107.44
461.678	110.44
461.898	118.44
462.118	112.44
462.338	113.44
462.558	114.44
462.777	98.44
462.997	115.44
463.217	111.44
463.437	108.44
463.657	105.44
463.876	116.44
464.096	123.44
464.316	114.44
464.536	118.44
464.755	119.44
464.975	102.44
465.195	111.44
465.414	118.44
465.634	113.44
465.854	107.44
466.073	113.44
466.293	122.44
466.512	111.44
466.732	125.44
466.951	129.44
467.171	119.44
467.391	138.44
467.61	141.44
467.829	143.44
468.049	120.44
468.268	134.44
468.488	124.44
468.707	129.44
468.927	139.44
469.146	137.44
469.365	135.44
469.585	137.44
469.804	137.44
470.023	138.44
470.243	113.44
470.462	125.44
470.681	137.44
470.901	149.44
471.12	135.44
471.339	127.44
471.558	139.44
471.777	145.44
471.997	126.44
472.216	128.44
472.435	113.44
472.654	114.44
472.873	104.44
473.092	101.44
473.311	124.44
473.53	121.44
473.749	130.44
473.968	125.44
474.187	113.44
474.406	125.44
474.625	114.44
474.844	125.44
475.063	125.44
475.282	121.44
475.501	124.44
475.72	124.44
475.939	125.44
476.158	133.44
476.377	133.44
476.596	130.44
476.814	118.44
477.033	120.44
477.252	118.44
477.471	127.44
477.69	124.44
477.908	133.44
478.127	133.44
478.346	134.44
478.564	126.44
478.783	132.44
479.002	154.44
479.22	148.44
479.439	127.44
479.658	117.44
479.876	119.44
480.095	109.44
480.313	108.44
480.532	120.44
480.751	96.44
480.969	101.44
481.188	89.44
481.406	89.44
481.624	85.44
481.843	95.44
482.061	93.44
482.28	110.44
482.498	110.44
482.717	97.44
482.935	108.44
483.153	141.44
483.372	136.44
483.59	146.44
483.808	121.44
484.027	130.44
484.245	125.44
484.463	151.44
484.681	153.44
484.9	142.44
485.118	146.44
485.336	137.44
485.554	115.44
485.772	93.44
485.99	107.44
486.209	110.44
486.427	113.44
486.645	121.44
486.863	129.44
487.081	134.44
487.299	139.44
487.517	136.44
487.735	168.44
487.953	167.44
488.171	182.44
488.389	163.44
488.607	151.44
488.825	146.44
489.043	143.44
489.261	137.44
489.479	141.44
489.696	135.44
489.914	131.44
490.132	150.44
490.35	133.44
490.568	150.44
490.786	169.44
491.003	173.44
491.221	181.44
491.439	185.44
491.657	170.44
491.874	201.44
492.092	215.44
492.31	237.44
492.527	227.44
492.745	205.44
492.963	185.44
493.18	197.44
493.398	181.44
493.615	181.44
493.833	181.44
494.05	154.44
494.268	165.44
494.485	180.44
494.703	173.44
494.92	179.44
495.138	154.44
495.355	163.44
495.573	165.44
495.79	163.44
496.008	154.44
496.225	171.44
496.442	173.44
496.66	175.44
496.877	178.44
497.094	159.44
497.312	165.44
497.529	159.44
497.746	151.44
497.963	138.44
498.181	129.44
498.398	126.44
498.615	124.44
498.832	117.44
499.049	105.44
499.267	119.44
499.484	137.44
499.701	110.44
499.918	135.44
500.135	125.44
500.352	134.44
500.569	134.44
500.786	132.44
501.003	149.44
501.22	155.44
501.437	155.44
501.654	132.44
501.871	131.44
502.088	126.44
502.305	134.44
502.522	125.44
502.739	131.44
502.956	108.44
503.172	125.44
503.389	128.44
503.606	122.44
503.823	119.44
504.04	128.44
504.256	111.44
504.473	115.44
504.69	112.44
504.907	106.44
505.123	115.44
505.34	111.44
505.557	117.44
505.773	123.44
505.99	114.44
506.207	122.44
506.423	115.44
506.64	116.44
506.856	120.44
507.073	123.44
507.289	117.44
507.506	127.44
507.722	121.44
507.939	126.44
508.155	135.44
508.372	117.44
508.588	103.44
508.805	121.44
509.021	102.44
509.238	123.44
509.454	106.44
509.67	95.44
509.887	99.44
510.103	88.44
510.319	83.44
510.536	83.44
510.752	95.44
510.968	103.44
511.184	97.44
511.401	82.44
511.617	86.44
511.833	75.44
