Data from Location1.07152019.Energy5.Lamp.07192019.3%Agarose_HRD10591_14-30-56-015.txt Node
Date: Fri Jul 19 14:30:56 EDT 2019
User: cochatt
Spectrometer: HR+D1059
Trigger mode: 1
Integration Time (sec): 1.000000E-1
Scans to average: 1
Electric dark correction enabled: true
Nonlinearity correction enabled: false
Boxcar width: 0
XAxis mode: Wavelengths
Number of Pixels in Spectrum: 2048
>>>>>Begin Spectral Data<<<<<
223.165	-16.44
223.4	-16.44
223.635	-16.44
223.869	-14.44
224.104	-13.44
224.338	-18.44
224.573	-7.44
224.808	-14.44
225.042	-17.44
225.277	-22.44
225.511	0.56
225.746	8.56
225.98	8.56
226.215	10.56
226.449	13.56
226.683	15.56
226.918	27.56
227.152	39.56
227.387	43.56
227.621	51.56
227.856	40.56
228.09	39.56
228.324	48.56
228.559	58.56
228.793	63.56
229.027	42.56
229.262	62.56
229.496	64.56
229.73	76.56
229.964	76.56
230.199	74.56
230.433	76.56
230.667	72.56
230.901	81.56
231.136	75.56
231.37	80.56
231.604	85.56
231.838	76.56
232.072	92.56
232.306	81.56
232.541	90.56
232.775	86.56
233.009	95.56
233.243	75.56
233.477	82.56
233.711	86.56
233.945	87.56
234.179	91.56
234.413	104.56
234.647	84.56
234.881	85.56
235.115	92.56
235.349	83.56
235.583	82.56
235.817	82.56
236.051	83.56
236.285	81.56
236.519	83.56
236.753	88.56
236.987	72.56
237.221	81.56
237.455	91.56
237.689	88.56
237.922	73.56
238.156	81.56
238.39	81.56
238.624	65.56
238.858	84.56
239.091	82.56
239.325	84.56
239.559	76.56
239.793	79.56
240.027	82.56
240.26	80.56
240.494	89.56
240.728	76.56
240.961	81.56
241.195	93.56
241.429	85.56
241.662	78.56
241.896	69.56
242.13	79.56
242.363	84.56
242.597	80.56
242.83	93.56
243.064	73.56
243.298	82.56
243.531	81.56
243.765	83.56
243.998	73.56
244.232	74.56
244.465	85.56
244.699	87.56
244.932	84.56
245.166	93.56
245.399	84.56
245.633	80.56
245.866	81.56
246.099	77.56
246.333	77.56
246.566	64.56
246.8	85.56
247.033	75.56
247.266	74.56
247.5	80.56
247.733	76.56
247.966	86.56
248.2	89.56
248.433	76.56
248.666	81.56
248.899	100.56
249.133	88.56
249.366	85.56
249.599	82.56
249.832	92.56
250.066	78.56
250.299	68.56
250.532	84.56
250.765	80.56
250.998	79.56
251.231	84.56
251.465	86.56
251.698	70.56
251.931	80.56
252.164	82.56
252.397	83.56
252.63	82.56
252.863	84.56
253.096	77.56
253.329	80.56
253.562	77.56
253.795	74.56
254.028	92.56
254.261	75.56
254.494	74.56
254.727	83.56
254.96	82.56
255.193	106.56
255.426	77.56
255.659	81.56
255.892	90.56
256.124	91.56
256.357	67.56
256.59	70.56
256.823	73.56
257.056	68.56
257.289	87.56
257.521	88.56
257.754	86.56
257.987	73.56
258.22	66.56
258.452	66.56
258.685	80.56
258.918	78.56
259.151	92.56
259.383	84.56
259.616	91.56
259.849	90.56
260.081	85.56
260.314	88.56
260.547	79.56
260.779	92.56
261.012	82.56
261.244	74.56
261.477	80.56
261.71	92.56
261.942	80.56
262.175	90.56
262.407	86.56
262.64	86.56
262.872	89.56
263.105	88.56
263.337	74.56
263.57	83.56
263.802	94.56
264.035	67.56
264.267	79.56
264.499	84.56
264.732	73.56
264.964	93.56
265.197	72.56
265.429	81.56
265.661	87.56
265.894	87.56
266.126	80.56
266.358	75.56
266.591	93.56
266.823	104.56
267.055	79.56
267.287	82.56
267.52	82.56
267.752	94.56
267.984	81.56
268.216	87.56
268.448	90.56
268.681	82.56
268.913	88.56
269.145	86.56
269.377	76.56
269.609	90.56
269.841	78.56
270.073	84.56
270.306	78.56
270.538	90.56
270.77	78.56
271.002	93.56
271.234	85.56
271.466	87.56
271.698	84.56
271.93	88.56
272.162	82.56
272.394	103.56
272.626	72.56
272.858	95.56
273.09	86.56
273.322	78.56
273.553	78.56
273.785	83.56
274.017	78.56
274.249	78.56
274.481	92.56
274.713	97.56
274.945	90.56
275.176	83.56
275.408	100.56
275.64	89.56
275.872	83.56
276.104	86.56
276.335	86.56
276.567	87.56
276.799	95.56
277.031	77.56
277.262	86.56
277.494	94.56
277.726	85.56
277.957	74.56
278.189	97.56
278.421	91.56
278.652	82.56
278.884	87.56
279.115	79.56
279.347	94.56
279.579	86.56
279.81	85.56
280.042	86.56
280.273	84.56
280.505	87.56
280.736	88.56
280.968	81.56
281.199	82.56
281.431	76.56
281.662	86.56
281.894	102.56
282.125	86.56
282.356	96.56
282.588	101.56
282.819	96.56
283.051	83.56
283.282	91.56
283.513	106.56
283.745	84.56
283.976	82.56
284.207	84.56
284.439	95.56
284.67	75.56
284.901	81.56
285.132	81.56
285.364	84.56
285.595	89.56
285.826	73.56
286.057	82.56
286.288	97.56
286.52	100.56
286.751	92.56
286.982	90.56
287.213	98.56
287.444	96.56
287.675	78.56
287.906	93.56
288.138	68.56
288.369	95.56
288.6	88.56
288.831	84.56
289.062	86.56
289.293	93.56
289.524	100.56
289.755	78.56
289.986	97.56
290.217	88.56
290.448	97.56
290.679	91.56
290.91	91.56
291.141	92.56
291.371	83.56
291.602	89.56
291.833	86.56
292.064	81.56
292.295	78.56
292.526	90.56
292.757	88.56
292.987	80.56
293.218	94.56
293.449	80.56
293.68	88.56
293.91	94.56
294.141	86.56
294.372	96.56
294.603	102.56
294.833	99.56
295.064	82.56
295.295	91.56
295.525	84.56
295.756	85.56
295.987	87.56
296.217	101.56
296.448	93.56
296.679	79.56
296.909	84.56
297.14	77.56
297.37	75.56
297.601	83.56
297.831	91.56
298.062	84.56
298.292	84.56
298.523	82.56
298.753	88.56
298.984	76.56
299.214	79.56
299.445	85.56
299.675	102.56
299.905	94.56
300.136	83.56
300.366	96.56
300.597	81.56
300.827	97.56
301.057	85.56
301.288	90.56
301.518	103.56
301.748	87.56
301.979	82.56
302.209	87.56
302.439	77.56
302.669	86.56
302.9	92.56
303.13	92.56
303.36	89.56
303.59	87.56
303.82	79.56
304.051	98.56
304.281	95.56
304.511	95.56
304.741	79.56
304.971	94.56
305.201	83.56
305.431	73.56
305.661	77.56
305.891	88.56
306.121	92.56
306.352	92.56
306.582	95.56
306.812	92.56
307.042	86.56
307.272	82.56
307.502	82.56
307.731	80.56
307.961	90.56
308.191	76.56
308.421	80.56
308.651	73.56
308.881	78.56
309.111	88.56
309.341	85.56
309.571	85.56
309.8	77.56
310.03	91.56
310.26	93.56
310.49	100.56
310.72	92.56
310.949	86.56
311.179	97.56
311.409	92.56
311.639	106.56
311.868	69.56
312.098	89.56
312.328	92.56
312.557	81.56
312.787	92.56
313.017	98.56
313.246	87.56
313.476	86.56
313.706	89.56
313.935	99.56
314.165	93.56
314.394	84.56
314.624	86.56
314.853	88.56
315.083	99.56
315.312	82.56
315.542	84.56
315.771	78.56
316.001	86.56
316.23	97.56
316.46	90.56
316.689	83.56
316.919	88.56
317.148	85.56
317.377	93.56
317.607	96.56
317.836	88.56
318.065	97.56
318.295	74.56
318.524	85.56
318.753	85.56
318.983	74.56
319.212	97.56
319.441	80.56
319.67	90.56
319.9	80.56
320.129	78.56
320.358	92.56
320.587	101.56
320.816	80.56
321.046	83.56
321.275	77.56
321.504	85.56
321.733	78.56
321.962	107.56
322.191	79.56
322.42	92.56
322.649	93.56
322.878	104.56
323.108	93.56
323.337	90.56
323.566	82.56
323.795	80.56
324.024	78.56
324.253	89.56
324.482	118.56
324.71	86.56
324.939	82.56
325.168	82.56
325.397	79.56
325.626	98.56
325.855	90.56
326.084	93.56
326.313	85.56
326.542	94.56
326.77	88.56
326.999	94.56
327.228	82.56
327.457	78.56
327.686	106.56
327.914	99.56
328.143	81.56
328.372	92.56
328.6	83.56
328.829	90.56
329.058	83.56
329.287	92.56
329.515	77.56
329.744	95.56
329.972	93.56
330.201	89.56
330.43	80.56
330.658	92.56
330.887	85.56
331.115	88.56
331.344	82.56
331.572	97.56
331.801	82.56
332.03	86.56
332.258	94.56
332.486	107.56
332.715	80.56
332.943	76.56
333.172	76.56
333.4	93.56
333.629	95.56
333.857	86.56
334.085	82.56
334.314	87.56
334.542	91.56
334.771	90.56
334.999	80.56
335.227	87.56
335.455	89.56
335.684	98.56
335.912	86.56
336.14	84.56
336.369	88.56
336.597	74.56
336.825	87.56
337.053	78.56
337.281	78.56
337.51	91.56
337.738	89.56
337.966	94.56
338.194	76.56
338.422	85.56
338.65	84.56
338.878	86.56
339.106	86.56
339.334	86.56
339.562	92.56
339.79	93.56
340.018	100.56
340.246	94.56
340.474	95.56
340.702	85.56
340.93	89.56
341.158	80.56
341.386	95.56
341.614	71.56
341.842	77.56
342.07	86.56
342.298	88.56
342.526	91.56
342.754	92.56
342.981	92.56
343.209	86.56
343.437	94.56
343.665	99.56
343.893	81.56
344.12	91.56
344.348	91.56
344.576	94.56
344.804	97.56
345.031	83.56
345.259	96.56
345.487	87.56
345.714	82.56
345.942	80.56
346.17	97.56
346.397	73.56
346.625	84.56
346.853	86.56
347.08	74.56
347.308	92.56
347.535	94.56
347.763	91.56
347.99	97.56
348.218	102.56
348.445	90.56
348.673	82.56
348.9	82.56
349.128	94.56
349.355	87.56
349.583	92.56
349.81	81.56
350.037	89.56
350.265	85.56
350.492	98.56
350.72	88.56
350.947	92.56
351.174	84.56
351.402	91.56
351.629	86.56
351.856	100.56
352.083	86.56
352.311	85.56
352.538	79.56
352.765	81.56
352.992	73.56
353.22	95.56
353.447	82.56
353.674	82.56
353.901	89.56
354.128	102.56
354.355	91.56
354.583	108.56
354.81	81.56
355.037	89.56
355.264	86.56
355.491	86.56
355.718	82.56
355.945	100.56
356.172	79.56
356.399	90.56
356.626	89.56
356.853	88.56
357.08	90.56
357.307	96.56
357.534	94.56
357.761	89.56
357.988	102.56
358.215	85.56
358.441	82.56
358.668	80.56
358.895	80.56
359.122	79.56
359.349	85.56
359.576	89.56
359.802	89.56
360.029	86.56
360.256	88.56
360.483	95.56
360.709	82.56
360.936	95.56
361.163	102.56
361.39	84.56
361.616	77.56
361.843	73.56
362.07	83.56
362.296	90.56
362.523	85.56
362.749	80.56
362.976	79.56
363.203	98.56
363.429	83.56
363.656	79.56
363.882	75.56
364.109	74.56
364.335	93.56
364.562	84.56
364.788	81.56
365.015	88.56
365.241	76.56
365.468	77.56
365.694	77.56
365.92	87.56
366.147	83.56
366.373	85.56
366.599	85.56
366.826	95.56
367.052	83.56
367.278	86.56
367.505	93.56
367.731	110.56
367.957	91.56
368.184	87.56
368.41	82.56
368.636	88.56
368.862	103.56
369.089	101.56
369.315	84.56
369.541	84.56
369.767	94.56
369.993	106.56
370.219	103.56
370.445	96.56
370.672	88.56
370.898	91.56
371.124	101.56
371.35	86.56
371.576	92.56
371.802	94.56
372.028	100.56
372.254	105.56
372.48	92.56
372.706	92.56
372.932	102.56
373.158	79.56
373.384	88.56
373.61	93.56
373.835	88.56
374.061	93.56
374.287	99.56
374.513	88.56
374.739	96.56
374.965	89.56
375.191	93.56
375.416	90.56
375.642	93.56
375.868	91.56
376.094	85.56
376.319	96.56
376.545	96.56
376.771	97.56
376.997	100.56
377.222	80.56
377.448	96.56
377.674	98.56
377.899	104.56
378.125	111.56
378.35	88.56
378.576	78.56
378.802	98.56
379.027	93.56
379.253	96.56
379.478	88.56
379.704	89.56
379.929	103.56
380.155	97.56
380.38	94.56
380.606	95.56
380.831	92.56
381.057	92.56
381.282	94.56
381.507	90.56
381.733	89.56
381.958	97.56
382.184	89.56
382.409	97.56
382.634	96.56
382.86	95.56
383.085	121.56
383.31	108.56
383.535	110.56
383.761	103.56
383.986	100.56
384.211	88.56
384.436	100.56
384.662	93.56
384.887	106.56
385.112	98.56
385.337	97.56
385.562	90.56
385.787	94.56
386.013	100.56
386.238	103.56
386.463	93.56
386.688	84.56
386.913	97.56
387.138	97.56
387.363	92.56
387.588	115.56
387.813	105.56
388.038	99.56
388.263	95.56
388.488	105.56
388.713	103.56
388.938	106.56
389.163	99.56
389.387	102.56
389.612	95.56
389.837	100.56
390.062	103.56
390.287	123.56
390.512	108.56
390.736	97.56
390.961	102.56
391.186	96.56
391.411	99.56
391.636	103.56
391.86	114.56
392.085	117.56
392.31	114.56
392.534	87.56
392.759	121.56
392.984	92.56
393.208	96.56
393.433	114.56
393.658	87.56
393.882	97.56
394.107	103.56
394.331	112.56
394.556	111.56
394.78	109.56
395.005	97.56
395.229	100.56
395.454	110.56
395.678	118.56
395.903	86.56
396.127	110.56
396.352	93.56
396.576	108.56
396.801	124.56
397.025	113.56
397.249	109.56
397.474	109.56
397.698	109.56
397.922	112.56
398.147	105.56
398.371	103.56
398.595	117.56
398.82	99.56
399.044	112.56
399.268	119.56
399.492	118.56
399.717	108.56
399.941	99.56
400.165	96.56
400.389	105.56
400.613	122.56
400.837	119.56
401.062	113.56
401.286	112.56
401.51	108.56
401.734	100.56
401.958	116.56
402.182	106.56
402.406	110.56
402.63	111.56
402.854	120.56
403.078	112.56
403.302	122.56
403.526	122.56
403.75	105.56
403.974	114.56
404.198	111.56
404.422	124.56
404.645	138.56
404.869	132.56
405.093	112.56
405.317	128.56
405.541	118.56
405.765	123.56
405.988	125.56
406.212	133.56
406.436	120.56
406.66	119.56
406.883	107.56
407.107	112.56
407.331	125.56
407.555	126.56
407.778	110.56
408.002	119.56
408.226	105.56
408.449	118.56
408.673	116.56
408.896	126.56
409.12	128.56
409.344	124.56
409.567	127.56
409.791	132.56
410.014	113.56
410.238	132.56
410.461	127.56
410.685	123.56
410.908	121.56
411.132	116.56
411.355	130.56
411.578	120.56
411.802	116.56
412.025	121.56
412.249	121.56
412.472	134.56
412.695	128.56
412.919	118.56
413.142	109.56
413.365	119.56
413.589	109.56
413.812	112.56
414.035	142.56
414.258	120.56
414.482	126.56
414.705	128.56
414.928	134.56
415.151	109.56
415.374	120.56
415.597	109.56
415.821	112.56
416.044	128.56
416.267	122.56
416.49	124.56
416.713	123.56
416.936	122.56
417.159	139.56
417.382	136.56
417.605	122.56
417.828	107.56
418.051	128.56
418.274	138.56
418.497	121.56
418.72	125.56
418.943	134.56
419.166	146.56
419.389	142.56
419.611	135.56
419.834	139.56
420.057	135.56
420.28	143.56
420.503	120.56
420.726	120.56
420.948	140.56
421.171	137.56
421.394	130.56
421.617	132.56
421.839	151.56
422.062	144.56
422.285	131.56
422.507	128.56
422.73	122.56
422.953	122.56
423.175	127.56
423.398	122.56
423.621	142.56
423.843	128.56
424.066	147.56
424.288	143.56
424.511	144.56
424.733	139.56
424.956	142.56
425.178	141.56
425.401	141.56
425.623	146.56
425.846	140.56
426.068	125.56
426.291	131.56
426.513	118.56
426.735	124.56
426.958	125.56
427.18	128.56
427.402	141.56
427.625	135.56
427.847	126.56
428.069	138.56
428.292	125.56
428.514	130.56
428.736	145.56
428.958	129.56
429.181	115.56
429.403	133.56
429.625	135.56
429.847	131.56
430.069	116.56
430.292	149.56
430.514	132.56
430.736	133.56
430.958	122.56
431.18	111.56
431.402	143.56
431.624	119.56
431.846	119.56
432.068	101.56
432.29	96.56
432.512	95.56
432.734	116.56
432.956	128.56
433.178	139.56
433.4	141.56
433.622	125.56
433.844	135.56
434.066	126.56
434.287	107.56
434.509	87.56
434.731	112.56
434.953	116.56
435.175	126.56
435.397	128.56
435.618	125.56
435.84	122.56
436.062	109.56
436.284	123.56
436.505	126.56
436.727	126.56
436.949	140.56
437.17	129.56
437.392	111.56
437.614	128.56
437.835	113.56
438.057	115.56
438.278	129.56
438.5	116.56
438.721	139.56
438.943	144.56
439.165	140.56
439.386	130.56
439.608	126.56
439.829	135.56
440.05	139.56
440.272	157.56
440.493	134.56
440.715	132.56
440.936	132.56
441.158	146.56
441.379	135.56
441.6	154.56
441.822	148.56
442.043	142.56
442.264	141.56
442.486	144.56
442.707	133.56
442.928	151.56
443.149	134.56
443.371	130.56
443.592	129.56
443.813	130.56
444.034	135.56
444.255	131.56
444.476	156.56
444.698	153.56
444.919	130.56
445.14	274.56
445.361	210.56
445.582	145.56
445.803	150.56
446.024	141.56
446.245	132.56
446.466	154.56
446.687	147.56
446.908	147.56
447.129	162.56
447.35	148.56
447.571	150.56
447.792	140.56
448.013	156.56
448.234	142.56
448.455	150.56
448.675	140.56
448.896	143.56
449.117	153.56
449.338	140.56
449.559	146.56
449.779	133.56
450	137.56
450.221	130.56
450.442	147.56
450.662	140.56
450.883	132.56
451.104	139.56
451.324	136.56
451.545	139.56
451.766	132.56
451.986	139.56
452.207	128.56
452.428	113.56
452.648	123.56
452.869	113.56
453.089	105.56
453.31	117.56
453.53	113.56
453.751	99.56
453.971	93.56
454.192	95.56
454.412	107.56
454.633	117.56
454.853	122.56
455.073	122.56
455.294	128.56
455.514	131.56
455.734	129.56
455.955	124.56
456.175	120.56
456.395	132.56
456.616	121.56
456.836	120.56
457.056	107.56
457.276	122.56
457.497	110.56
457.717	104.56
457.937	110.56
458.157	108.56
458.377	103.56
458.598	105.56
458.818	89.56
459.038	93.56
459.258	100.56
459.478	87.56
459.698	91.56
459.918	113.56
460.138	95.56
460.358	115.56
460.578	124.56
460.798	120.56
461.018	107.56
461.238	130.56
461.458	120.56
461.678	112.56
461.898	120.56
462.118	106.56
462.338	110.56
462.558	117.56
462.777	117.56
462.997	106.56
463.217	114.56
463.437	112.56
463.657	117.56
463.876	124.56
464.096	107.56
464.316	119.56
464.536	129.56
464.755	119.56
464.975	116.56
465.195	117.56
465.414	123.56
465.634	112.56
465.854	118.56
466.073	108.56
466.293	127.56
466.512	130.56
466.732	126.56
466.951	130.56
467.171	121.56
467.391	142.56
467.61	147.56
467.829	152.56
468.049	138.56
468.268	127.56
468.488	143.56
468.707	123.56
468.927	134.56
469.146	132.56
469.365	149.56
469.585	152.56
469.804	144.56
470.023	133.56
470.243	145.56
470.462	138.56
470.681	129.56
470.901	141.56
471.12	142.56
471.339	136.56
471.558	138.56
471.777	141.56
471.997	158.56
472.216	128.56
472.435	122.56
472.654	104.56
472.873	111.56
473.092	128.56
473.311	122.56
473.53	128.56
473.749	146.56
473.968	132.56
474.187	122.56
474.406	127.56
474.625	133.56
474.844	128.56
475.063	129.56
475.282	142.56
475.501	116.56
475.72	115.56
475.939	121.56
476.158	124.56
476.377	122.56
476.596	113.56
476.814	126.56
477.033	118.56
477.252	108.56
477.471	125.56
477.69	132.56
477.908	120.56
478.127	142.56
478.346	137.56
478.564	129.56
478.783	134.56
479.002	131.56
479.22	139.56
479.439	125.56
479.658	124.56
479.876	105.56
480.095	109.56
480.313	116.56
480.532	126.56
480.751	104.56
480.969	92.56
481.188	84.56
481.406	90.56
481.624	96.56
481.843	96.56
482.061	100.56
482.28	110.56
482.498	125.56
482.717	124.56
482.935	121.56
483.153	151.56
483.372	159.56
483.59	146.56
483.808	133.56
484.027	134.56
484.245	142.56
484.463	136.56
484.681	144.56
484.9	141.56
485.118	129.56
485.336	129.56
485.554	107.56
485.772	110.56
485.99	113.56
486.209	122.56
486.427	110.56
486.645	125.56
486.863	140.56
487.081	148.56
487.299	132.56
487.517	153.56
487.735	165.56
487.953	190.56
488.171	186.56
488.389	168.56
488.607	160.56
488.825	136.56
489.043	120.56
489.261	141.56
489.479	141.56
489.696	138.56
489.914	143.56
490.132	130.56
490.35	152.56
490.568	159.56
490.786	172.56
491.003	180.56
491.221	180.56
491.439	183.56
491.657	181.56
491.874	211.56
492.092	228.56
492.31	262.56
492.527	238.56
492.745	209.56
492.963	190.56
493.18	182.56
493.398	188.56
493.615	161.56
493.833	182.56
494.05	175.56
494.268	183.56
494.485	158.56
494.703	174.56
494.92	181.56
495.138	177.56
495.355	172.56
495.573	174.56
495.79	166.56
496.008	158.56
496.225	167.56
496.442	168.56
496.66	158.56
496.877	158.56
497.094	166.56
497.312	150.56
497.529	156.56
497.746	144.56
497.963	145.56
498.181	132.56
498.398	128.56
498.615	136.56
498.832	121.56
499.049	112.56
499.267	122.56
499.484	121.56
499.701	131.56
499.918	138.56
500.135	141.56
500.352	118.56
500.569	142.56
500.786	133.56
501.003	146.56
501.22	129.56
501.437	128.56
501.654	132.56
501.871	143.56
502.088	123.56
502.305	126.56
502.522	124.56
502.739	132.56
502.956	138.56
503.172	123.56
503.389	129.56
503.606	112.56
503.823	126.56
504.04	117.56
504.256	109.56
504.473	123.56
504.69	118.56
504.907	126.56
505.123	111.56
505.34	118.56
505.557	108.56
505.773	134.56
505.99	117.56
506.207	115.56
506.423	127.56
506.64	124.56
506.856	104.56
507.073	124.56
507.289	118.56
507.506	100.56
507.722	121.56
507.939	109.56
508.155	122.56
508.372	118.56
508.588	106.56
508.805	110.56
509.021	108.56
509.238	119.56
509.454	104.56
509.67	86.56
509.887	97.56
510.103	106.56
510.319	101.56
510.536	104.56
510.752	96.56
510.968	81.56
511.184	93.56
