Data from Location1.07152019.Energy5.Lamp.07192019.3%Agarose_HRD10591_14-32-13-015.txt Node
Date: Fri Jul 19 14:32:13 EDT 2019
User: cochatt
Spectrometer: HR+D1059
Trigger mode: 1
Integration Time (sec): 1.000000E-1
Scans to average: 1
Electric dark correction enabled: true
Nonlinearity correction enabled: false
Boxcar width: 0
XAxis mode: Wavelengths
Number of Pixels in Spectrum: 2048
>>>>>Begin Spectral Data<<<<<
223.165	-2.75
223.4	-2.75
223.635	-2.75
223.869	-20.75
224.104	-26.75
224.338	-8.75
224.573	-6.75
224.808	-16.75
225.042	-4.75
225.277	-9.75
225.511	-20.75
225.746	-0.75
225.98	8.25
226.215	4.25
226.449	28.25
226.683	23.25
226.918	35.25
227.152	19.25
227.387	34.25
227.621	24.25
227.856	39.25
228.09	42.25
228.324	39.25
228.559	66.25
228.793	57.25
229.027	59.25
229.262	61.25
229.496	71.25
229.73	68.25
229.964	74.25
230.199	70.25
230.433	67.25
230.667	76.25
230.901	79.25
231.136	76.25
231.37	73.25
231.604	77.25
231.838	78.25
232.072	61.25
232.306	66.25
232.541	81.25
232.775	89.25
233.009	88.25
233.243	87.25
233.477	89.25
233.711	80.25
233.945	87.25
234.179	74.25
234.413	70.25
234.647	79.25
234.881	75.25
235.115	59.25
235.349	85.25
235.583	79.25
235.817	87.25
236.051	66.25
236.285	62.25
236.519	76.25
236.753	72.25
236.987	77.25
237.221	74.25
237.455	71.25
237.689	87.25
237.922	68.25
238.156	79.25
238.39	71.25
238.624	79.25
238.858	56.25
239.091	83.25
239.325	74.25
239.559	78.25
239.793	80.25
240.027	84.25
240.26	81.25
240.494	80.25
240.728	64.25
240.961	76.25
241.195	78.25
241.429	76.25
241.662	88.25
241.896	82.25
242.13	72.25
242.363	79.25
242.597	73.25
242.83	75.25
243.064	77.25
243.298	86.25
243.531	75.25
243.765	85.25
243.998	84.25
244.232	86.25
244.465	74.25
244.699	76.25
244.932	71.25
245.166	81.25
245.399	88.25
245.633	84.25
245.866	63.25
246.099	85.25
246.333	80.25
246.566	69.25
246.8	79.25
247.033	61.25
247.266	72.25
247.5	80.25
247.733	69.25
247.966	82.25
248.2	76.25
248.433	76.25
248.666	73.25
248.899	83.25
249.133	89.25
249.366	85.25
249.599	77.25
249.832	83.25
250.066	84.25
250.299	82.25
250.532	70.25
250.765	93.25
250.998	64.25
251.231	69.25
251.465	79.25
251.698	73.25
251.931	81.25
252.164	80.25
252.397	64.25
252.63	88.25
252.863	83.25
253.096	76.25
253.329	97.25
253.562	70.25
253.795	67.25
254.028	85.25
254.261	82.25
254.494	72.25
254.727	88.25
254.96	68.25
255.193	71.25
255.426	97.25
255.659	86.25
255.892	85.25
256.124	85.25
256.357	76.25
256.59	66.25
256.823	89.25
257.056	94.25
257.289	77.25
257.521	81.25
257.754	68.25
257.987	93.25
258.22	89.25
258.452	74.25
258.685	78.25
258.918	80.25
259.151	79.25
259.383	84.25
259.616	83.25
259.849	80.25
260.081	92.25
260.314	75.25
260.547	82.25
260.779	71.25
261.012	84.25
261.244	70.25
261.477	88.25
261.71	98.25
261.942	82.25
262.175	80.25
262.407	79.25
262.64	80.25
262.872	81.25
263.105	72.25
263.337	77.25
263.57	79.25
263.802	70.25
264.035	84.25
264.267	87.25
264.499	80.25
264.732	77.25
264.964	79.25
265.197	92.25
265.429	81.25
265.661	75.25
265.894	93.25
266.126	84.25
266.358	88.25
266.591	87.25
266.823	81.25
267.055	67.25
267.287	76.25
267.52	85.25
267.752	77.25
267.984	81.25
268.216	79.25
268.448	90.25
268.681	92.25
268.913	91.25
269.145	83.25
269.377	91.25
269.609	79.25
269.841	78.25
270.073	88.25
270.306	82.25
270.538	88.25
270.77	81.25
271.002	72.25
271.234	74.25
271.466	82.25
271.698	77.25
271.93	95.25
272.162	75.25
272.394	89.25
272.626	78.25
272.858	80.25
273.09	84.25
273.322	76.25
273.553	89.25
273.785	78.25
274.017	74.25
274.249	93.25
274.481	81.25
274.713	81.25
274.945	87.25
275.176	83.25
275.408	76.25
275.64	71.25
275.872	68.25
276.104	80.25
276.335	87.25
276.567	80.25
276.799	75.25
277.031	78.25
277.262	94.25
277.494	79.25
277.726	83.25
277.957	77.25
278.189	81.25
278.421	78.25
278.652	74.25
278.884	89.25
279.115	84.25
279.347	98.25
279.579	79.25
279.81	75.25
280.042	79.25
280.273	80.25
280.505	78.25
280.736	92.25
280.968	84.25
281.199	81.25
281.431	89.25
281.662	87.25
281.894	82.25
282.125	88.25
282.356	76.25
282.588	87.25
282.819	84.25
283.051	64.25
283.282	83.25
283.513	74.25
283.745	85.25
283.976	77.25
284.207	86.25
284.439	71.25
284.67	91.25
284.901	93.25
285.132	90.25
285.364	82.25
285.595	103.25
285.826	77.25
286.057	74.25
286.288	72.25
286.52	98.25
286.751	77.25
286.982	94.25
287.213	90.25
287.444	112.25
287.675	92.25
287.906	77.25
288.138	77.25
288.369	77.25
288.6	71.25
288.831	71.25
289.062	89.25
289.293	94.25
289.524	91.25
289.755	85.25
289.986	86.25
290.217	82.25
290.448	83.25
290.679	79.25
290.91	84.25
291.141	84.25
291.371	75.25
291.602	91.25
291.833	90.25
292.064	104.25
292.295	94.25
292.526	87.25
292.757	84.25
292.987	90.25
293.218	79.25
293.449	86.25
293.68	83.25
293.91	90.25
294.141	90.25
294.372	91.25
294.603	87.25
294.833	85.25
295.064	77.25
295.295	77.25
295.525	85.25
295.756	93.25
295.987	95.25
296.217	79.25
296.448	90.25
296.679	94.25
296.909	86.25
297.14	77.25
297.37	80.25
297.601	74.25
297.831	75.25
298.062	76.25
298.292	107.25
298.523	77.25
298.753	83.25
298.984	89.25
299.214	100.25
299.445	86.25
299.675	81.25
299.905	84.25
300.136	94.25
300.366	84.25
300.597	75.25
300.827	67.25
301.057	95.25
301.288	84.25
301.518	95.25
301.748	87.25
301.979	86.25
302.209	80.25
302.439	87.25
302.669	79.25
302.9	71.25
303.13	73.25
303.36	86.25
303.59	79.25
303.82	79.25
304.051	88.25
304.281	92.25
304.511	84.25
304.741	84.25
304.971	91.25
305.201	88.25
305.431	76.25
305.661	99.25
305.891	93.25
306.121	85.25
306.352	80.25
306.582	88.25
306.812	73.25
307.042	90.25
307.272	68.25
307.502	76.25
307.731	101.25
307.961	82.25
308.191	90.25
308.421	83.25
308.651	86.25
308.881	82.25
309.111	95.25
309.341	102.25
309.571	104.25
309.8	95.25
310.03	75.25
310.26	75.25
310.49	94.25
310.72	95.25
310.949	81.25
311.179	91.25
311.409	88.25
311.639	87.25
311.868	79.25
312.098	86.25
312.328	80.25
312.557	97.25
312.787	95.25
313.017	84.25
313.246	95.25
313.476	67.25
313.706	87.25
313.935	87.25
314.165	85.25
314.394	100.25
314.624	87.25
314.853	85.25
315.083	90.25
315.312	79.25
315.542	80.25
315.771	85.25
316.001	85.25
316.23	96.25
316.46	79.25
316.689	78.25
316.919	91.25
317.148	89.25
317.377	80.25
317.607	87.25
317.836	84.25
318.065	89.25
318.295	80.25
318.524	89.25
318.753	87.25
318.983	78.25
319.212	96.25
319.441	101.25
319.67	92.25
319.9	93.25
320.129	97.25
320.358	81.25
320.587	74.25
320.816	94.25
321.046	95.25
321.275	76.25
321.504	88.25
321.733	93.25
321.962	73.25
322.191	81.25
322.42	89.25
322.649	83.25
322.878	77.25
323.108	93.25
323.337	89.25
323.566	81.25
323.795	84.25
324.024	85.25
324.253	89.25
324.482	82.25
324.71	86.25
324.939	99.25
325.168	75.25
325.397	89.25
325.626	80.25
325.855	85.25
326.084	80.25
326.313	74.25
326.542	78.25
326.77	87.25
326.999	82.25
327.228	82.25
327.457	86.25
327.686	89.25
327.914	75.25
328.143	89.25
328.372	81.25
328.6	87.25
328.829	82.25
329.058	84.25
329.287	81.25
329.515	77.25
329.744	84.25
329.972	72.25
330.201	86.25
330.43	94.25
330.658	88.25
330.887	86.25
331.115	93.25
331.344	80.25
331.572	86.25
331.801	84.25
332.03	90.25
332.258	85.25
332.486	75.25
332.715	90.25
332.943	79.25
333.172	74.25
333.4	86.25
333.629	90.25
333.857	73.25
334.085	70.25
334.314	89.25
334.542	83.25
334.771	89.25
334.999	84.25
335.227	95.25
335.455	95.25
335.684	86.25
335.912	91.25
336.14	87.25
336.369	98.25
336.597	87.25
336.825	85.25
337.053	76.25
337.281	79.25
337.51	81.25
337.738	90.25
337.966	94.25
338.194	76.25
338.422	82.25
338.65	96.25
338.878	74.25
339.106	88.25
339.334	87.25
339.562	87.25
339.79	91.25
340.018	73.25
340.246	79.25
340.474	80.25
340.702	91.25
340.93	89.25
341.158	85.25
341.386	86.25
341.614	83.25
341.842	86.25
342.07	71.25
342.298	95.25
342.526	79.25
342.754	75.25
342.981	79.25
343.209	83.25
343.437	90.25
343.665	82.25
343.893	73.25
344.12	91.25
344.348	87.25
344.576	80.25
344.804	85.25
345.031	72.25
345.259	79.25
345.487	96.25
345.714	75.25
345.942	94.25
346.17	71.25
346.397	80.25
346.625	91.25
346.853	77.25
347.08	85.25
347.308	81.25
347.535	71.25
347.763	95.25
347.99	77.25
348.218	93.25
348.445	87.25
348.673	82.25
348.9	77.25
349.128	91.25
349.355	96.25
349.583	87.25
349.81	89.25
350.037	95.25
350.265	92.25
350.492	92.25
350.72	87.25
350.947	94.25
351.174	84.25
351.402	88.25
351.629	85.25
351.856	76.25
352.083	84.25
352.311	84.25
352.538	71.25
352.765	87.25
352.992	81.25
353.22	89.25
353.447	82.25
353.674	82.25
353.901	93.25
354.128	65.25
354.355	84.25
354.583	79.25
354.81	84.25
355.037	86.25
355.264	90.25
355.491	81.25
355.718	82.25
355.945	87.25
356.172	77.25
356.399	94.25
356.626	87.25
356.853	89.25
357.08	72.25
357.307	78.25
357.534	77.25
357.761	88.25
357.988	86.25
358.215	79.25
358.441	90.25
358.668	83.25
358.895	80.25
359.122	96.25
359.349	102.25
359.576	84.25
359.802	88.25
360.029	87.25
360.256	87.25
360.483	59.25
360.709	87.25
360.936	93.25
361.163	95.25
361.39	75.25
361.616	77.25
361.843	77.25
362.07	83.25
362.296	89.25
362.523	77.25
362.749	80.25
362.976	78.25
363.203	76.25
363.429	78.25
363.656	82.25
363.882	80.25
364.109	93.25
364.335	90.25
364.562	84.25
364.788	89.25
365.015	86.25
365.241	96.25
365.468	87.25
365.694	75.25
365.92	85.25
366.147	89.25
366.373	88.25
366.599	97.25
366.826	88.25
367.052	82.25
367.278	95.25
367.505	96.25
367.731	91.25
367.957	101.25
368.184	92.25
368.41	88.25
368.636	84.25
368.862	89.25
369.089	87.25
369.315	87.25
369.541	87.25
369.767	75.25
369.993	96.25
370.219	96.25
370.445	83.25
370.672	83.25
370.898	102.25
371.124	92.25
371.35	84.25
371.576	98.25
371.802	84.25
372.028	95.25
372.254	95.25
372.48	87.25
372.706	90.25
372.932	85.25
373.158	94.25
373.384	98.25
373.61	94.25
373.835	87.25
374.061	83.25
374.287	94.25
374.513	103.25
374.739	85.25
374.965	77.25
375.191	103.25
375.416	89.25
375.642	81.25
375.868	106.25
376.094	90.25
376.319	86.25
376.545	102.25
376.771	99.25
376.997	96.25
377.222	99.25
377.448	86.25
377.674	92.25
377.899	90.25
378.125	99.25
378.35	98.25
378.576	88.25
378.802	93.25
379.027	97.25
379.253	86.25
379.478	101.25
379.704	97.25
379.929	90.25
380.155	101.25
380.38	78.25
380.606	87.25
380.831	93.25
381.057	116.25
381.282	102.25
381.507	100.25
381.733	91.25
381.958	92.25
382.184	91.25
382.409	90.25
382.634	103.25
382.86	98.25
383.085	102.25
383.31	117.25
383.535	78.25
383.761	101.25
383.986	97.25
384.211	96.25
384.436	92.25
384.662	90.25
384.887	92.25
385.112	107.25
385.337	94.25
385.562	84.25
385.787	91.25
386.013	105.25
386.238	104.25
386.463	98.25
386.688	105.25
386.913	65.25
387.138	103.25
387.363	93.25
387.588	115.25
387.813	94.25
388.038	88.25
388.263	105.25
388.488	103.25
388.713	117.25
388.938	101.25
389.163	88.25
389.387	100.25
389.612	90.25
389.837	94.25
390.062	97.25
390.287	97.25
390.512	100.25
390.736	98.25
390.961	103.25
391.186	98.25
391.411	96.25
391.636	115.25
391.86	108.25
392.085	98.25
392.31	102.25
392.534	113.25
392.759	109.25
392.984	107.25
393.208	119.25
393.433	119.25
393.658	103.25
393.882	109.25
394.107	92.25
394.331	91.25
394.556	98.25
394.78	91.25
395.005	102.25
395.229	126.25
395.454	99.25
395.678	111.25
395.903	105.25
396.127	100.25
396.352	94.25
396.576	104.25
396.801	98.25
397.025	110.25
397.249	106.25
397.474	103.25
397.698	106.25
397.922	108.25
398.147	99.25
398.371	99.25
398.595	115.25
398.82	115.25
399.044	100.25
399.268	84.25
399.492	102.25
399.717	119.25
399.941	99.25
400.165	105.25
400.389	117.25
400.613	108.25
400.837	105.25
401.062	107.25
401.286	98.25
401.51	125.25
401.734	126.25
401.958	121.25
402.182	121.25
402.406	108.25
402.63	130.25
402.854	138.25
403.078	100.25
403.302	118.25
403.526	121.25
403.75	112.25
403.974	118.25
404.198	106.25
404.422	119.25
404.645	111.25
404.869	118.25
405.093	108.25
405.317	106.25
405.541	112.25
405.765	123.25
405.988	130.25
406.212	136.25
406.436	112.25
406.66	109.25
406.883	120.25
407.107	111.25
407.331	128.25
407.555	116.25
407.778	118.25
408.002	108.25
408.226	118.25
408.449	110.25
408.673	124.25
408.896	114.25
409.12	95.25
409.344	120.25
409.567	118.25
409.791	134.25
410.014	121.25
410.238	117.25
410.461	124.25
410.685	122.25
410.908	119.25
411.132	126.25
411.355	117.25
411.578	117.25
411.802	118.25
412.025	124.25
412.249	115.25
412.472	121.25
412.695	117.25
412.919	119.25
413.142	128.25
413.365	127.25
413.589	143.25
413.812	131.25
414.035	132.25
414.258	111.25
414.482	114.25
414.705	100.25
414.928	125.25
415.151	112.25
415.374	121.25
415.597	127.25
415.821	128.25
416.044	138.25
416.267	127.25
416.49	118.25
416.713	115.25
416.936	132.25
417.159	120.25
417.382	105.25
417.605	118.25
417.828	132.25
418.051	130.25
418.274	122.25
418.497	131.25
418.72	123.25
418.943	138.25
419.166	128.25
419.389	136.25
419.611	132.25
419.834	132.25
420.057	127.25
420.28	125.25
420.503	147.25
420.726	133.25
420.948	139.25
421.171	130.25
421.394	133.25
421.617	127.25
421.839	140.25
422.062	123.25
422.285	130.25
422.507	132.25
422.73	131.25
422.953	117.25
423.175	136.25
423.398	128.25
423.621	142.25
423.843	140.25
424.066	136.25
424.288	138.25
424.511	149.25
424.733	141.25
424.956	131.25
425.178	137.25
425.401	142.25
425.623	135.25
425.846	140.25
426.068	138.25
426.291	126.25
426.513	119.25
426.735	152.25
426.958	137.25
427.18	111.25
427.402	128.25
427.625	116.25
427.847	119.25
428.069	133.25
428.292	118.25
428.514	116.25
428.736	130.25
428.958	127.25
429.181	121.25
429.403	125.25
429.625	112.25
429.847	130.25
430.069	122.25
430.292	132.25
430.514	133.25
430.736	120.25
430.958	137.25
431.18	132.25
431.402	125.25
431.624	120.25
431.846	114.25
432.068	98.25
432.29	102.25
432.512	115.25
432.734	114.25
432.956	118.25
433.178	119.25
433.4	115.25
433.622	137.25
433.844	121.25
434.066	126.25
434.287	118.25
434.509	107.25
434.731	107.25
434.953	115.25
435.175	118.25
435.397	134.25
435.618	115.25
435.84	115.25
436.062	120.25
436.284	122.25
436.505	121.25
436.727	119.25
436.949	119.25
437.17	132.25
437.392	117.25
437.614	110.25
437.835	105.25
438.057	103.25
438.278	123.25
438.5	114.25
438.721	114.25
438.943	132.25
439.165	128.25
439.386	146.25
439.608	142.25
439.829	145.25
440.05	129.25
440.272	149.25
440.493	146.25
440.715	135.25
440.936	130.25
441.158	152.25
441.379	157.25
441.6	139.25
441.822	136.25
442.043	153.25
442.264	122.25
442.486	143.25
442.707	131.25
442.928	143.25
443.149	134.25
443.371	139.25
443.592	134.25
443.813	142.25
444.034	141.25
444.255	129.25
444.476	140.25
444.698	138.25
444.919	152.25
445.14	287.25
445.361	196.25
445.582	142.25
445.803	148.25
446.024	141.25
446.245	142.25
446.466	143.25
446.687	155.25
446.908	145.25
447.129	171.25
447.35	143.25
447.571	144.25
447.792	132.25
448.013	142.25
448.234	143.25
448.455	136.25
448.675	134.25
448.896	132.25
449.117	145.25
449.338	132.25
449.559	127.25
449.779	132.25
450	141.25
450.221	132.25
450.442	140.25
450.662	134.25
450.883	123.25
451.104	114.25
451.324	139.25
451.545	130.25
451.766	117.25
451.986	132.25
452.207	129.25
452.428	118.25
452.648	110.25
452.869	122.25
453.089	111.25
453.31	109.25
453.53	101.25
453.751	88.25
453.971	92.25
454.192	104.25
454.412	101.25
454.633	119.25
454.853	132.25
455.073	112.25
455.294	130.25
455.514	119.25
455.734	125.25
455.955	104.25
456.175	105.25
456.395	110.25
456.616	108.25
456.836	116.25
457.056	92.25
457.276	97.25
457.497	107.25
457.717	117.25
457.937	115.25
458.157	96.25
458.377	98.25
458.598	100.25
458.818	81.25
459.038	106.25
459.258	93.25
459.478	94.25
459.698	82.25
459.918	105.25
460.138	102.25
460.358	108.25
460.578	118.25
460.798	120.25
461.018	126.25
461.238	116.25
461.458	106.25
461.678	101.25
461.898	107.25
462.118	118.25
462.338	104.25
462.558	119.25
462.777	109.25
462.997	102.25
463.217	119.25
463.437	105.25
463.657	110.25
463.876	100.25
464.096	111.25
464.316	104.25
464.536	104.25
464.755	106.25
464.975	124.25
465.195	129.25
465.414	111.25
465.634	109.25
465.854	117.25
466.073	107.25
466.293	123.25
466.512	110.25
466.732	124.25
466.951	132.25
467.171	149.25
467.391	123.25
467.61	128.25
467.829	145.25
468.049	134.25
468.268	140.25
468.488	126.25
468.707	130.25
468.927	124.25
469.146	133.25
469.365	130.25
469.585	145.25
469.804	154.25
470.023	141.25
470.243	137.25
470.462	135.25
470.681	138.25
470.901	142.25
471.12	138.25
471.339	135.25
471.558	152.25
471.777	137.25
471.997	125.25
472.216	123.25
472.435	106.25
472.654	126.25
472.873	108.25
473.092	119.25
473.311	120.25
473.53	125.25
473.749	124.25
473.968	133.25
474.187	128.25
474.406	134.25
474.625	110.25
474.844	122.25
475.063	116.25
475.282	126.25
475.501	116.25
475.72	111.25
475.939	128.25
476.158	125.25
476.377	122.25
476.596	115.25
476.814	110.25
477.033	111.25
477.252	109.25
477.471	116.25
477.69	133.25
477.908	137.25
478.127	137.25
478.346	140.25
478.564	142.25
478.783	128.25
479.002	147.25
479.22	138.25
479.439	130.25
479.658	120.25
479.876	118.25
480.095	123.25
480.313	123.25
480.532	111.25
480.751	114.25
480.969	97.25
481.188	87.25
481.406	90.25
481.624	88.25
481.843	91.25
482.061	78.25
482.28	122.25
482.498	108.25
482.717	102.25
482.935	124.25
483.153	128.25
483.372	135.25
483.59	132.25
483.808	138.25
484.027	139.25
484.245	140.25
484.463	131.25
484.681	157.25
484.9	160.25
485.118	145.25
485.336	144.25
485.554	122.25
485.772	99.25
485.99	95.25
486.209	102.25
486.427	105.25
486.645	123.25
486.863	126.25
487.081	145.25
487.299	130.25
487.517	126.25
487.735	173.25
487.953	181.25
488.171	178.25
488.389	160.25
488.607	141.25
488.825	111.25
489.043	114.25
489.261	138.25
489.479	131.25
489.696	128.25
489.914	150.25
490.132	133.25
490.35	153.25
490.568	164.25
490.786	152.25
491.003	154.25
491.221	172.25
491.439	185.25
491.657	179.25
491.874	216.25
492.092	207.25
492.31	230.25
492.527	226.25
492.745	180.25
492.963	193.25
493.18	185.25
493.398	158.25
493.615	166.25
493.833	174.25
494.05	170.25
494.268	151.25
494.485	150.25
494.703	167.25
494.92	171.25
495.138	166.25
495.355	167.25
495.573	170.25
495.79	167.25
496.008	185.25
496.225	158.25
496.442	154.25
496.66	157.25
496.877	168.25
497.094	166.25
497.312	162.25
497.529	165.25
497.746	154.25
497.963	139.25
498.181	136.25
498.398	122.25
498.615	104.25
498.832	122.25
499.049	108.25
499.267	118.25
499.484	116.25
499.701	123.25
499.918	127.25
500.135	139.25
500.352	155.25
500.569	151.25
500.786	149.25
501.003	140.25
501.22	134.25
501.437	127.25
501.654	133.25
501.871	130.25
502.088	114.25
502.305	120.25
502.522	123.25
502.739	120.25
502.956	125.25
503.172	118.25
503.389	132.25
503.606	122.25
503.823	123.25
504.04	119.25
504.256	125.25
504.473	112.25
504.69	115.25
504.907	126.25
505.123	132.25
505.34	114.25
505.557	122.25
505.773	120.25
505.99	115.25
506.207	121.25
506.423	119.25
506.64	120.25
506.856	109.25
507.073	126.25
507.289	99.25
507.506	127.25
507.722	110.25
507.939	116.25
508.155	118.25
508.372	110.25
508.588	98.25
508.805	121.25
509.021	109.25
509.238	93.25
509.454	106.25
509.67	85.25
509.887	92.25
510.103	96.25
510.319	85.25
510.536	87.25
510.752	92.25
510.968	86.25
511.184	90.25
511.401	81.25
511.617	106.25
511.833	85.25
