Data from Location1.07152019.Energy5.Lamp.07192019.3%Agarose_HRD10591_14-31-52-015.txt Node
Date: Fri Jul 19 14:31:52 EDT 2019
User: cochatt
Spectrometer: HR+D1059
Trigger mode: 1
Integration Time (sec): 1.000000E-1
Scans to average: 1
Electric dark correction enabled: true
Nonlinearity correction enabled: false
Boxcar width: 0
XAxis mode: Wavelengths
Number of Pixels in Spectrum: 2048
>>>>>Begin Spectral Data<<<<<
223.165	-19.56
223.4	-19.56
223.635	-19.56
223.869	-17.56
224.104	-20.56
224.338	-26.56
224.573	-15.56
224.808	-17.56
225.042	-8.56
225.277	-4.56
225.511	3.44
225.746	2.44
225.98	1.44
226.215	12.44
226.449	28.44
226.683	19.44
226.918	31.44
227.152	31.44
227.387	30.44
227.621	32.44
227.856	49.44
228.09	42.44
228.324	47.44
228.559	53.44
228.793	65.44
229.027	63.44
229.262	61.44
229.496	63.44
229.73	56.44
229.964	69.44
230.199	70.44
230.433	81.44
230.667	72.44
230.901	80.44
231.136	87.44
231.37	79.44
231.604	81.44
231.838	85.44
232.072	71.44
232.306	72.44
232.541	91.44
232.775	78.44
233.009	90.44
233.243	93.44
233.477	78.44
233.711	82.44
233.945	68.44
234.179	88.44
234.413	91.44
234.647	67.44
234.881	83.44
235.115	90.44
235.349	78.44
235.583	61.44
235.817	79.44
236.051	92.44
236.285	77.44
236.519	82.44
236.753	75.44
236.987	78.44
237.221	62.44
237.455	70.44
237.689	57.44
237.922	79.44
238.156	68.44
238.39	88.44
238.624	73.44
238.858	66.44
239.091	78.44
239.325	65.44
239.559	78.44
239.793	75.44
240.027	83.44
240.26	83.44
240.494	68.44
240.728	80.44
240.961	76.44
241.195	82.44
241.429	76.44
241.662	68.44
241.896	79.44
242.13	82.44
242.363	77.44
242.597	71.44
242.83	87.44
243.064	70.44
243.298	84.44
243.531	69.44
243.765	82.44
243.998	88.44
244.232	69.44
244.465	77.44
244.699	85.44
244.932	74.44
245.166	87.44
245.399	77.44
245.633	75.44
245.866	79.44
246.099	73.44
246.333	68.44
246.566	73.44
246.8	76.44
247.033	78.44
247.266	68.44
247.5	81.44
247.733	76.44
247.966	77.44
248.2	78.44
248.433	72.44
248.666	90.44
248.899	69.44
249.133	83.44
249.366	92.44
249.599	80.44
249.832	75.44
250.066	77.44
250.299	91.44
250.532	82.44
250.765	70.44
250.998	76.44
251.231	68.44
251.465	74.44
251.698	80.44
251.931	75.44
252.164	80.44
252.397	81.44
252.63	80.44
252.863	77.44
253.096	80.44
253.329	70.44
253.562	89.44
253.795	84.44
254.028	89.44
254.261	75.44
254.494	85.44
254.727	80.44
254.96	74.44
255.193	76.44
255.426	83.44
255.659	91.44
255.892	87.44
256.124	84.44
256.357	90.44
256.59	73.44
256.823	84.44
257.056	82.44
257.289	84.44
257.521	86.44
257.754	72.44
257.987	68.44
258.22	91.44
258.452	89.44
258.685	89.44
258.918	92.44
259.151	91.44
259.383	68.44
259.616	68.44
259.849	74.44
260.081	78.44
260.314	79.44
260.547	80.44
260.779	78.44
261.012	76.44
261.244	93.44
261.477	79.44
261.71	84.44
261.942	80.44
262.175	71.44
262.407	80.44
262.64	83.44
262.872	83.44
263.105	87.44
263.337	74.44
263.57	85.44
263.802	80.44
264.035	79.44
264.267	92.44
264.499	83.44
264.732	86.44
264.964	87.44
265.197	78.44
265.429	76.44
265.661	87.44
265.894	90.44
266.126	74.44
266.358	96.44
266.591	92.44
266.823	79.44
267.055	90.44
267.287	76.44
267.52	70.44
267.752	87.44
267.984	91.44
268.216	86.44
268.448	91.44
268.681	64.44
268.913	95.44
269.145	91.44
269.377	84.44
269.609	81.44
269.841	85.44
270.073	70.44
270.306	86.44
270.538	87.44
270.77	79.44
271.002	82.44
271.234	87.44
271.466	74.44
271.698	87.44
271.93	75.44
272.162	94.44
272.394	93.44
272.626	83.44
272.858	80.44
273.09	91.44
273.322	76.44
273.553	82.44
273.785	65.44
274.017	71.44
274.249	66.44
274.481	93.44
274.713	83.44
274.945	94.44
275.176	93.44
275.408	80.44
275.64	78.44
275.872	77.44
276.104	82.44
276.335	94.44
276.567	88.44
276.799	80.44
277.031	76.44
277.262	63.44
277.494	91.44
277.726	82.44
277.957	95.44
278.189	85.44
278.421	84.44
278.652	90.44
278.884	82.44
279.115	83.44
279.347	69.44
279.579	84.44
279.81	94.44
280.042	70.44
280.273	75.44
280.505	71.44
280.736	79.44
280.968	97.44
281.199	75.44
281.431	90.44
281.662	82.44
281.894	91.44
282.125	84.44
282.356	99.44
282.588	83.44
282.819	77.44
283.051	72.44
283.282	79.44
283.513	86.44
283.745	88.44
283.976	89.44
284.207	83.44
284.439	89.44
284.67	75.44
284.901	95.44
285.132	77.44
285.364	83.44
285.595	81.44
285.826	85.44
286.057	72.44
286.288	90.44
286.52	95.44
286.751	79.44
286.982	88.44
287.213	79.44
287.444	82.44
287.675	84.44
287.906	95.44
288.138	100.44
288.369	92.44
288.6	65.44
288.831	68.44
289.062	92.44
289.293	85.44
289.524	87.44
289.755	79.44
289.986	83.44
290.217	82.44
290.448	94.44
290.679	88.44
290.91	86.44
291.141	83.44
291.371	84.44
291.602	82.44
291.833	68.44
292.064	71.44
292.295	92.44
292.526	82.44
292.757	74.44
292.987	84.44
293.218	83.44
293.449	79.44
293.68	85.44
293.91	74.44
294.141	69.44
294.372	86.44
294.603	85.44
294.833	97.44
295.064	91.44
295.295	79.44
295.525	79.44
295.756	95.44
295.987	74.44
296.217	97.44
296.448	81.44
296.679	79.44
296.909	82.44
297.14	86.44
297.37	83.44
297.601	77.44
297.831	86.44
298.062	80.44
298.292	87.44
298.523	94.44
298.753	87.44
298.984	90.44
299.214	74.44
299.445	84.44
299.675	86.44
299.905	79.44
300.136	78.44
300.366	85.44
300.597	83.44
300.827	86.44
301.057	84.44
301.288	78.44
301.518	75.44
301.748	73.44
301.979	85.44
302.209	82.44
302.439	87.44
302.669	85.44
302.9	86.44
303.13	77.44
303.36	76.44
303.59	90.44
303.82	88.44
304.051	101.44
304.281	100.44
304.511	85.44
304.741	88.44
304.971	89.44
305.201	78.44
305.431	77.44
305.661	81.44
305.891	80.44
306.121	92.44
306.352	81.44
306.582	84.44
306.812	79.44
307.042	94.44
307.272	86.44
307.502	81.44
307.731	84.44
307.961	87.44
308.191	81.44
308.421	71.44
308.651	93.44
308.881	77.44
309.111	77.44
309.341	78.44
309.571	86.44
309.8	78.44
310.03	72.44
310.26	81.44
310.49	77.44
310.72	89.44
310.949	88.44
311.179	78.44
311.409	90.44
311.639	85.44
311.868	80.44
312.098	86.44
312.328	84.44
312.557	98.44
312.787	79.44
313.017	90.44
313.246	98.44
313.476	95.44
313.706	98.44
313.935	86.44
314.165	71.44
314.394	74.44
314.624	80.44
314.853	72.44
315.083	81.44
315.312	92.44
315.542	76.44
315.771	74.44
316.001	80.44
316.23	100.44
316.46	78.44
316.689	79.44
316.919	80.44
317.148	87.44
317.377	86.44
317.607	90.44
317.836	83.44
318.065	72.44
318.295	86.44
318.524	86.44
318.753	102.44
318.983	79.44
319.212	89.44
319.441	90.44
319.67	76.44
319.9	79.44
320.129	86.44
320.358	85.44
320.587	84.44
320.816	77.44
321.046	83.44
321.275	91.44
321.504	100.44
321.733	83.44
321.962	78.44
322.191	88.44
322.42	85.44
322.649	79.44
322.878	89.44
323.108	85.44
323.337	82.44
323.566	82.44
323.795	88.44
324.024	85.44
324.253	93.44
324.482	93.44
324.71	85.44
324.939	66.44
325.168	95.44
325.397	90.44
325.626	70.44
325.855	81.44
326.084	88.44
326.313	88.44
326.542	89.44
326.77	86.44
326.999	101.44
327.228	75.44
327.457	78.44
327.686	87.44
327.914	85.44
328.143	93.44
328.372	72.44
328.6	89.44
328.829	88.44
329.058	86.44
329.287	89.44
329.515	83.44
329.744	87.44
329.972	85.44
330.201	95.44
330.43	90.44
330.658	93.44
330.887	87.44
331.115	82.44
331.344	81.44
331.572	101.44
331.801	88.44
332.03	85.44
332.258	67.44
332.486	79.44
332.715	86.44
332.943	77.44
333.172	79.44
333.4	78.44
333.629	77.44
333.857	89.44
334.085	88.44
334.314	92.44
334.542	64.44
334.771	79.44
334.999	88.44
335.227	85.44
335.455	81.44
335.684	86.44
335.912	88.44
336.14	76.44
336.369	76.44
336.597	87.44
336.825	85.44
337.053	87.44
337.281	77.44
337.51	86.44
337.738	87.44
337.966	72.44
338.194	75.44
338.422	76.44
338.65	87.44
338.878	94.44
339.106	76.44
339.334	91.44
339.562	79.44
339.79	84.44
340.018	83.44
340.246	72.44
340.474	69.44
340.702	90.44
340.93	86.44
341.158	78.44
341.386	76.44
341.614	84.44
341.842	71.44
342.07	84.44
342.298	77.44
342.526	76.44
342.754	79.44
342.981	75.44
343.209	88.44
343.437	70.44
343.665	86.44
343.893	66.44
344.12	88.44
344.348	83.44
344.576	92.44
344.804	93.44
345.031	90.44
345.259	87.44
345.487	90.44
345.714	87.44
345.942	86.44
346.17	80.44
346.397	83.44
346.625	86.44
346.853	90.44
347.08	98.44
347.308	88.44
347.535	85.44
347.763	89.44
347.99	63.44
348.218	83.44
348.445	73.44
348.673	91.44
348.9	81.44
349.128	76.44
349.355	87.44
349.583	94.44
349.81	97.44
350.037	83.44
350.265	83.44
350.492	87.44
350.72	76.44
350.947	71.44
351.174	80.44
351.402	89.44
351.629	84.44
351.856	76.44
352.083	83.44
352.311	81.44
352.538	74.44
352.765	91.44
352.992	86.44
353.22	83.44
353.447	86.44
353.674	86.44
353.901	79.44
354.128	110.44
354.355	91.44
354.583	98.44
354.81	80.44
355.037	88.44
355.264	80.44
355.491	91.44
355.718	75.44
355.945	78.44
356.172	79.44
356.399	80.44
356.626	93.44
356.853	89.44
357.08	75.44
357.307	83.44
357.534	87.44
357.761	78.44
357.988	84.44
358.215	74.44
358.441	89.44
358.668	83.44
358.895	92.44
359.122	88.44
359.349	68.44
359.576	83.44
359.802	97.44
360.029	86.44
360.256	87.44
360.483	84.44
360.709	82.44
360.936	84.44
361.163	74.44
361.39	86.44
361.616	82.44
361.843	83.44
362.07	70.44
362.296	86.44
362.523	70.44
362.749	85.44
362.976	90.44
363.203	90.44
363.429	85.44
363.656	79.44
363.882	81.44
364.109	69.44
364.335	98.44
364.562	88.44
364.788	77.44
365.015	78.44
365.241	89.44
365.468	77.44
365.694	89.44
365.92	76.44
366.147	88.44
366.373	91.44
366.599	89.44
366.826	85.44
367.052	78.44
367.278	91.44
367.505	78.44
367.731	84.44
367.957	83.44
368.184	87.44
368.41	87.44
368.636	58.44
368.862	92.44
369.089	90.44
369.315	89.44
369.541	91.44
369.767	91.44
369.993	90.44
370.219	100.44
370.445	95.44
370.672	90.44
370.898	103.44
371.124	89.44
371.35	99.44
371.576	83.44
371.802	84.44
372.028	84.44
372.254	94.44
372.48	93.44
372.706	79.44
372.932	76.44
373.158	78.44
373.384	100.44
373.61	93.44
373.835	99.44
374.061	83.44
374.287	87.44
374.513	87.44
374.739	94.44
374.965	88.44
375.191	77.44
375.416	79.44
375.642	89.44
375.868	106.44
376.094	88.44
376.319	79.44
376.545	94.44
376.771	97.44
376.997	98.44
377.222	87.44
377.448	89.44
377.674	83.44
377.899	82.44
378.125	93.44
378.35	83.44
378.576	99.44
378.802	97.44
379.027	104.44
379.253	101.44
379.478	85.44
379.704	84.44
379.929	100.44
380.155	83.44
380.38	100.44
380.606	94.44
380.831	106.44
381.057	94.44
381.282	90.44
381.507	89.44
381.733	100.44
381.958	98.44
382.184	98.44
382.409	90.44
382.634	93.44
382.86	85.44
383.085	89.44
383.31	84.44
383.535	109.44
383.761	102.44
383.986	97.44
384.211	90.44
384.436	103.44
384.662	97.44
384.887	106.44
385.112	92.44
385.337	81.44
385.562	96.44
385.787	95.44
386.013	111.44
386.238	107.44
386.463	103.44
386.688	96.44
386.913	95.44
387.138	102.44
387.363	93.44
387.588	99.44
387.813	98.44
388.038	111.44
388.263	102.44
388.488	107.44
388.713	100.44
388.938	102.44
389.163	97.44
389.387	103.44
389.612	120.44
389.837	98.44
390.062	98.44
390.287	98.44
390.512	95.44
390.736	103.44
390.961	108.44
391.186	108.44
391.411	103.44
391.636	114.44
391.86	102.44
392.085	111.44
392.31	101.44
392.534	108.44
392.759	100.44
392.984	93.44
393.208	100.44
393.433	98.44
393.658	99.44
393.882	99.44
394.107	89.44
394.331	117.44
394.556	113.44
394.78	122.44
395.005	102.44
395.229	106.44
395.454	94.44
395.678	95.44
395.903	106.44
396.127	118.44
396.352	97.44
396.576	113.44
396.801	104.44
397.025	88.44
397.249	91.44
397.474	110.44
397.698	102.44
397.922	117.44
398.147	110.44
398.371	101.44
398.595	118.44
398.82	97.44
399.044	109.44
399.268	107.44
399.492	118.44
399.717	105.44
399.941	116.44
400.165	106.44
400.389	99.44
400.613	101.44
400.837	108.44
401.062	107.44
401.286	120.44
401.51	104.44
401.734	116.44
401.958	115.44
402.182	108.44
402.406	100.44
402.63	102.44
402.854	118.44
403.078	116.44
403.302	118.44
403.526	110.44
403.75	119.44
403.974	110.44
404.198	112.44
404.422	117.44
404.645	113.44
404.869	104.44
405.093	107.44
405.317	97.44
405.541	106.44
405.765	115.44
405.988	125.44
406.212	111.44
406.436	124.44
406.66	113.44
406.883	118.44
407.107	109.44
407.331	98.44
407.555	108.44
407.778	121.44
408.002	109.44
408.226	115.44
408.449	109.44
408.673	111.44
408.896	101.44
409.12	115.44
409.344	110.44
409.567	107.44
409.791	129.44
410.014	108.44
410.238	113.44
410.461	108.44
410.685	127.44
410.908	110.44
411.132	126.44
411.355	118.44
411.578	105.44
411.802	115.44
412.025	124.44
412.249	133.44
412.472	111.44
412.695	113.44
412.919	105.44
413.142	99.44
413.365	108.44
413.589	115.44
413.812	107.44
414.035	129.44
414.258	121.44
414.482	130.44
414.705	125.44
414.928	129.44
415.151	124.44
415.374	117.44
415.597	115.44
415.821	128.44
416.044	124.44
416.267	117.44
416.49	120.44
416.713	116.44
416.936	129.44
417.159	123.44
417.382	117.44
417.605	119.44
417.828	129.44
418.051	132.44
418.274	128.44
418.497	138.44
418.72	131.44
418.943	123.44
419.166	144.44
419.389	135.44
419.611	131.44
419.834	119.44
420.057	130.44
420.28	142.44
420.503	127.44
420.726	141.44
420.948	142.44
421.171	133.44
421.394	122.44
421.617	143.44
421.839	154.44
422.062	129.44
422.285	137.44
422.507	139.44
422.73	128.44
422.953	137.44
423.175	122.44
423.398	117.44
423.621	122.44
423.843	135.44
424.066	138.44
424.288	123.44
424.511	141.44
424.733	137.44
424.956	139.44
425.178	142.44
425.401	137.44
425.623	136.44
425.846	130.44
426.068	127.44
426.291	133.44
426.513	126.44
426.735	139.44
426.958	131.44
427.18	129.44
427.402	121.44
427.625	129.44
427.847	132.44
428.069	123.44
428.292	117.44
428.514	142.44
428.736	109.44
428.958	114.44
429.181	141.44
429.403	121.44
429.625	123.44
429.847	119.44
430.069	132.44
430.292	137.44
430.514	124.44
430.736	139.44
430.958	122.44
431.18	114.44
431.402	124.44
431.624	112.44
431.846	101.44
432.068	91.44
432.29	96.44
432.512	113.44
432.734	133.44
432.956	130.44
433.178	146.44
433.4	128.44
433.622	130.44
433.844	128.44
434.066	127.44
434.287	108.44
434.509	99.44
434.731	104.44
434.953	100.44
435.175	123.44
435.397	126.44
435.618	120.44
435.84	114.44
436.062	107.44
436.284	110.44
436.505	134.44
436.727	115.44
436.949	123.44
437.17	124.44
437.392	120.44
437.614	116.44
437.835	116.44
438.057	110.44
438.278	113.44
438.5	100.44
438.721	121.44
438.943	138.44
439.165	137.44
439.386	134.44
439.608	147.44
439.829	144.44
440.05	142.44
440.272	140.44
440.493	135.44
440.715	121.44
440.936	133.44
441.158	132.44
441.379	149.44
441.6	140.44
441.822	139.44
442.043	134.44
442.264	149.44
442.486	135.44
442.707	123.44
442.928	144.44
443.149	151.44
443.371	145.44
443.592	137.44
443.813	139.44
444.034	133.44
444.255	133.44
444.476	147.44
444.698	151.44
444.919	130.44
445.14	278.44
445.361	203.44
445.582	157.44
445.803	149.44
446.024	147.44
446.245	155.44
446.466	148.44
446.687	159.44
446.908	153.44
447.129	150.44
447.35	158.44
447.571	148.44
447.792	137.44
448.013	129.44
448.234	135.44
448.455	148.44
448.675	129.44
448.896	135.44
449.117	145.44
449.338	138.44
449.559	138.44
449.779	137.44
450	142.44
450.221	128.44
450.442	139.44
450.662	139.44
450.883	126.44
451.104	123.44
451.324	138.44
451.545	138.44
451.766	129.44
451.986	122.44
452.207	111.44
452.428	116.44
452.648	131.44
452.869	121.44
453.089	115.44
453.31	120.44
453.53	105.44
453.751	101.44
453.971	106.44
454.192	105.44
454.412	106.44
454.633	106.44
454.853	117.44
455.073	117.44
455.294	108.44
455.514	115.44
455.734	116.44
455.955	101.44
456.175	120.44
456.395	112.44
456.616	109.44
456.836	95.44
457.056	113.44
457.276	99.44
457.497	92.44
457.717	101.44
457.937	105.44
458.157	113.44
458.377	98.44
458.598	103.44
458.818	102.44
459.038	79.44
459.258	86.44
459.478	92.44
459.698	96.44
459.918	100.44
460.138	88.44
460.358	107.44
460.578	116.44
460.798	105.44
461.018	128.44
461.238	127.44
461.458	121.44
461.678	110.44
461.898	110.44
462.118	110.44
462.338	123.44
462.558	124.44
462.777	102.44
462.997	86.44
463.217	105.44
463.437	113.44
463.657	104.44
463.876	115.44
464.096	112.44
464.316	99.44
464.536	105.44
464.755	130.44
464.975	106.44
465.195	111.44
465.414	106.44
465.634	128.44
465.854	103.44
466.073	126.44
466.293	126.44
466.512	146.44
466.732	127.44
466.951	126.44
467.171	123.44
467.391	120.44
467.61	129.44
467.829	121.44
468.049	138.44
468.268	137.44
468.488	133.44
468.707	129.44
468.927	136.44
469.146	125.44
469.365	142.44
469.585	125.44
469.804	137.44
470.023	141.44
470.243	147.44
470.462	138.44
470.681	140.44
470.901	137.44
471.12	139.44
471.339	133.44
471.558	123.44
471.777	148.44
471.997	166.44
472.216	137.44
472.435	125.44
472.654	101.44
472.873	115.44
473.092	115.44
473.311	125.44
473.53	120.44
473.749	140.44
473.968	132.44
474.187	123.44
474.406	118.44
474.625	121.44
474.844	122.44
475.063	126.44
475.282	121.44
475.501	119.44
475.72	122.44
475.939	128.44
476.158	132.44
476.377	133.44
476.596	125.44
476.814	122.44
477.033	90.44
477.252	111.44
477.471	126.44
477.69	128.44
477.908	115.44
478.127	125.44
478.346	139.44
478.564	139.44
478.783	136.44
479.002	120.44
479.22	148.44
479.439	131.44
479.658	132.44
479.876	116.44
480.095	117.44
480.313	113.44
480.532	126.44
480.751	107.44
480.969	94.44
481.188	88.44
481.406	87.44
481.624	88.44
481.843	97.44
482.061	101.44
482.28	107.44
482.498	115.44
482.717	107.44
482.935	121.44
483.153	141.44
483.372	141.44
483.59	148.44
483.808	140.44
484.027	138.44
484.245	133.44
484.463	147.44
484.681	159.44
484.9	142.44
485.118	132.44
485.336	135.44
485.554	117.44
485.772	100.44
485.99	88.44
486.209	117.44
486.427	104.44
486.645	122.44
486.863	140.44
487.081	150.44
487.299	141.44
487.517	155.44
487.735	169.44
487.953	174.44
488.171	190.44
488.389	172.44
488.607	156.44
488.825	148.44
489.043	141.44
489.261	129.44
489.479	134.44
489.696	126.44
489.914	140.44
490.132	135.44
490.35	140.44
490.568	160.44
490.786	163.44
491.003	169.44
491.221	168.44
491.439	187.44
491.657	190.44
491.874	209.44
492.092	220.44
492.31	241.44
492.527	225.44
492.745	190.44
492.963	171.44
493.18	179.44
493.398	189.44
493.615	169.44
493.833	185.44
494.05	168.44
494.268	168.44
494.485	131.44
494.703	170.44
494.92	161.44
495.138	168.44
495.355	176.44
495.573	169.44
495.79	148.44
496.008	157.44
496.225	154.44
496.442	164.44
496.66	161.44
496.877	165.44
497.094	155.44
497.312	154.44
497.529	159.44
497.746	151.44
497.963	127.44
498.181	136.44
498.398	114.44
498.615	126.44
498.832	116.44
499.049	116.44
499.267	118.44
499.484	121.44
499.701	121.44
499.918	129.44
500.135	125.44
500.352	130.44
500.569	149.44
500.786	153.44
501.003	147.44
501.22	142.44
501.437	141.44
501.654	153.44
501.871	123.44
502.088	119.44
502.305	126.44
502.522	127.44
502.739	118.44
502.956	127.44
503.172	131.44
503.389	134.44
503.606	111.44
503.823	131.44
504.04	122.44
504.256	111.44
504.473	114.44
504.69	115.44
504.907	108.44
505.123	113.44
505.34	123.44
505.557	126.44
505.773	128.44
505.99	116.44
506.207	118.44
506.423	131.44
506.64	120.44
506.856	113.44
507.073	99.44
507.289	119.44
507.506	120.44
507.722	115.44
507.939	111.44
508.155	116.44
508.372	125.44
508.588	117.44
508.805	114.44
509.021	105.44
509.238	106.44
509.454	89.44
509.67	104.44
509.887	85.44
510.103	107.44
510.319	106.44
510.536	102.44
510.752	84.44
510.968	81.44
511.184	83.44
511.401	88.44
511.617	92.44
511.833	98.44
