Data from Location1.07152019.Energy5.Lamp.07192019.3%Agarose_HRD10591_14-31-46-016.txt Node
Date: Fri Jul 19 14:31:46 EDT 2019
User: cochatt
Spectrometer: HR+D1059
Trigger mode: 1
Integration Time (sec): 1.000000E-1
Scans to average: 1
Electric dark correction enabled: true
Nonlinearity correction enabled: false
Boxcar width: 0
XAxis mode: Wavelengths
Number of Pixels in Spectrum: 2048
>>>>>Begin Spectral Data<<<<<
223.165	-13.25
223.4	-13.25
223.635	-13.25
223.869	-29.25
224.104	-6.25
224.338	-17.25
224.573	-18.25
224.808	4.75
225.042	-13.25
225.277	-16.25
225.511	10.75
225.746	5.75
225.98	-0.25
226.215	8.75
226.449	20.75
226.683	12.75
226.918	26.75
227.152	23.75
227.387	30.75
227.621	26.75
227.856	40.75
228.09	40.75
228.324	42.75
228.559	51.75
228.793	49.75
229.027	45.75
229.262	79.75
229.496	68.75
229.73	68.75
229.964	71.75
230.199	55.75
230.433	78.75
230.667	79.75
230.901	72.75
231.136	83.75
231.37	76.75
231.604	86.75
231.838	93.75
232.072	94.75
232.306	83.75
232.541	71.75
232.775	57.75
233.009	78.75
233.243	80.75
233.477	92.75
233.711	76.75
233.945	80.75
234.179	83.75
234.413	88.75
234.647	74.75
234.881	86.75
235.115	96.75
235.349	67.75
235.583	75.75
235.817	75.75
236.051	82.75
236.285	85.75
236.519	70.75
236.753	70.75
236.987	80.75
237.221	73.75
237.455	70.75
237.689	82.75
237.922	73.75
238.156	67.75
238.39	72.75
238.624	74.75
238.858	84.75
239.091	80.75
239.325	81.75
239.559	78.75
239.793	71.75
240.027	78.75
240.26	54.75
240.494	82.75
240.728	74.75
240.961	73.75
241.195	71.75
241.429	74.75
241.662	70.75
241.896	72.75
242.13	77.75
242.363	73.75
242.597	72.75
242.83	64.75
243.064	73.75
243.298	71.75
243.531	79.75
243.765	87.75
243.998	77.75
244.232	80.75
244.465	88.75
244.699	83.75
244.932	66.75
245.166	74.75
245.399	80.75
245.633	75.75
245.866	76.75
246.099	76.75
246.333	65.75
246.566	71.75
246.8	76.75
247.033	78.75
247.266	82.75
247.5	95.75
247.733	71.75
247.966	85.75
248.2	69.75
248.433	77.75
248.666	80.75
248.899	66.75
249.133	68.75
249.366	69.75
249.599	77.75
249.832	87.75
250.066	62.75
250.299	74.75
250.532	64.75
250.765	76.75
250.998	75.75
251.231	85.75
251.465	91.75
251.698	85.75
251.931	78.75
252.164	87.75
252.397	76.75
252.63	79.75
252.863	76.75
253.096	75.75
253.329	77.75
253.562	67.75
253.795	88.75
254.028	84.75
254.261	74.75
254.494	89.75
254.727	78.75
254.96	77.75
255.193	80.75
255.426	77.75
255.659	69.75
255.892	73.75
256.124	90.75
256.357	90.75
256.59	72.75
256.823	77.75
257.056	84.75
257.289	77.75
257.521	84.75
257.754	85.75
257.987	89.75
258.22	84.75
258.452	77.75
258.685	88.75
258.918	78.75
259.151	88.75
259.383	99.75
259.616	86.75
259.849	84.75
260.081	82.75
260.314	75.75
260.547	71.75
260.779	79.75
261.012	81.75
261.244	97.75
261.477	85.75
261.71	82.75
261.942	93.75
262.175	89.75
262.407	85.75
262.64	66.75
262.872	82.75
263.105	76.75
263.337	75.75
263.57	74.75
263.802	87.75
264.035	91.75
264.267	83.75
264.499	90.75
264.732	84.75
264.964	70.75
265.197	67.75
265.429	84.75
265.661	71.75
265.894	86.75
266.126	89.75
266.358	74.75
266.591	69.75
266.823	80.75
267.055	78.75
267.287	91.75
267.52	73.75
267.752	74.75
267.984	80.75
268.216	91.75
268.448	90.75
268.681	79.75
268.913	90.75
269.145	83.75
269.377	78.75
269.609	90.75
269.841	78.75
270.073	87.75
270.306	86.75
270.538	75.75
270.77	80.75
271.002	76.75
271.234	79.75
271.466	89.75
271.698	89.75
271.93	85.75
272.162	89.75
272.394	92.75
272.626	91.75
272.858	88.75
273.09	81.75
273.322	89.75
273.553	81.75
273.785	87.75
274.017	74.75
274.249	67.75
274.481	75.75
274.713	84.75
274.945	75.75
275.176	74.75
275.408	86.75
275.64	77.75
275.872	83.75
276.104	89.75
276.335	85.75
276.567	79.75
276.799	85.75
277.031	82.75
277.262	81.75
277.494	86.75
277.726	79.75
277.957	75.75
278.189	77.75
278.421	91.75
278.652	82.75
278.884	93.75
279.115	87.75
279.347	74.75
279.579	83.75
279.81	94.75
280.042	89.75
280.273	77.75
280.505	87.75
280.736	72.75
280.968	82.75
281.199	74.75
281.431	75.75
281.662	93.75
281.894	96.75
282.125	78.75
282.356	65.75
282.588	82.75
282.819	85.75
283.051	91.75
283.282	89.75
283.513	80.75
283.745	98.75
283.976	86.75
284.207	91.75
284.439	88.75
284.67	71.75
284.901	84.75
285.132	93.75
285.364	75.75
285.595	75.75
285.826	85.75
286.057	78.75
286.288	76.75
286.52	96.75
286.751	89.75
286.982	91.75
287.213	81.75
287.444	95.75
287.675	77.75
287.906	87.75
288.138	77.75
288.369	91.75
288.6	78.75
288.831	86.75
289.062	81.75
289.293	82.75
289.524	75.75
289.755	93.75
289.986	76.75
290.217	66.75
290.448	90.75
290.679	67.75
290.91	82.75
291.141	85.75
291.371	79.75
291.602	96.75
291.833	96.75
292.064	82.75
292.295	90.75
292.526	81.75
292.757	80.75
292.987	66.75
293.218	92.75
293.449	85.75
293.68	93.75
293.91	80.75
294.141	65.75
294.372	95.75
294.603	76.75
294.833	92.75
295.064	74.75
295.295	80.75
295.525	82.75
295.756	77.75
295.987	89.75
296.217	96.75
296.448	75.75
296.679	73.75
296.909	68.75
297.14	79.75
297.37	94.75
297.601	79.75
297.831	77.75
298.062	86.75
298.292	75.75
298.523	91.75
298.753	74.75
298.984	63.75
299.214	78.75
299.445	84.75
299.675	73.75
299.905	88.75
300.136	94.75
300.366	84.75
300.597	82.75
300.827	77.75
301.057	80.75
301.288	79.75
301.518	85.75
301.748	80.75
301.979	91.75
302.209	81.75
302.439	91.75
302.669	66.75
302.9	81.75
303.13	84.75
303.36	88.75
303.59	91.75
303.82	82.75
304.051	92.75
304.281	75.75
304.511	90.75
304.741	99.75
304.971	81.75
305.201	90.75
305.431	91.75
305.661	88.75
305.891	85.75
306.121	86.75
306.352	70.75
306.582	77.75
306.812	86.75
307.042	98.75
307.272	71.75
307.502	88.75
307.731	92.75
307.961	76.75
308.191	89.75
308.421	89.75
308.651	64.75
308.881	92.75
309.111	99.75
309.341	85.75
309.571	75.75
309.8	78.75
310.03	81.75
310.26	85.75
310.49	87.75
310.72	82.75
310.949	74.75
311.179	77.75
311.409	81.75
311.639	80.75
311.868	78.75
312.098	79.75
312.328	81.75
312.557	90.75
312.787	85.75
313.017	80.75
313.246	95.75
313.476	102.75
313.706	88.75
313.935	79.75
314.165	91.75
314.394	76.75
314.624	80.75
314.853	95.75
315.083	83.75
315.312	66.75
315.542	86.75
315.771	71.75
316.001	83.75
316.23	84.75
316.46	74.75
316.689	77.75
316.919	85.75
317.148	84.75
317.377	83.75
317.607	88.75
317.836	80.75
318.065	83.75
318.295	86.75
318.524	89.75
318.753	96.75
318.983	78.75
319.212	88.75
319.441	79.75
319.67	78.75
319.9	95.75
320.129	91.75
320.358	91.75
320.587	93.75
320.816	83.75
321.046	79.75
321.275	88.75
321.504	80.75
321.733	86.75
321.962	84.75
322.191	74.75
322.42	81.75
322.649	83.75
322.878	94.75
323.108	82.75
323.337	84.75
323.566	79.75
323.795	92.75
324.024	98.75
324.253	84.75
324.482	75.75
324.71	82.75
324.939	81.75
325.168	82.75
325.397	84.75
325.626	86.75
325.855	78.75
326.084	86.75
326.313	93.75
326.542	89.75
326.77	79.75
326.999	73.75
327.228	78.75
327.457	81.75
327.686	94.75
327.914	96.75
328.143	70.75
328.372	79.75
328.6	94.75
328.829	80.75
329.058	99.75
329.287	87.75
329.515	81.75
329.744	78.75
329.972	77.75
330.201	89.75
330.43	85.75
330.658	82.75
330.887	76.75
331.115	98.75
331.344	75.75
331.572	95.75
331.801	109.75
332.03	89.75
332.258	76.75
332.486	82.75
332.715	92.75
332.943	98.75
333.172	74.75
333.4	76.75
333.629	89.75
333.857	93.75
334.085	87.75
334.314	82.75
334.542	98.75
334.771	81.75
334.999	79.75
335.227	76.75
335.455	86.75
335.684	96.75
335.912	85.75
336.14	92.75
336.369	72.75
336.597	97.75
336.825	84.75
337.053	90.75
337.281	90.75
337.51	85.75
337.738	100.75
337.966	74.75
338.194	86.75
338.422	89.75
338.65	89.75
338.878	88.75
339.106	84.75
339.334	89.75
339.562	94.75
339.79	98.75
340.018	82.75
340.246	84.75
340.474	79.75
340.702	74.75
340.93	86.75
341.158	83.75
341.386	78.75
341.614	87.75
341.842	79.75
342.07	83.75
342.298	79.75
342.526	82.75
342.754	72.75
342.981	83.75
343.209	90.75
343.437	99.75
343.665	89.75
343.893	83.75
344.12	98.75
344.348	91.75
344.576	88.75
344.804	94.75
345.031	87.75
345.259	85.75
345.487	94.75
345.714	87.75
345.942	93.75
346.17	77.75
346.397	74.75
346.625	76.75
346.853	89.75
347.08	77.75
347.308	82.75
347.535	71.75
347.763	78.75
347.99	71.75
348.218	95.75
348.445	80.75
348.673	78.75
348.9	93.75
349.128	87.75
349.355	75.75
349.583	87.75
349.81	87.75
350.037	100.75
350.265	104.75
350.492	85.75
350.72	84.75
350.947	92.75
351.174	85.75
351.402	92.75
351.629	84.75
351.856	73.75
352.083	94.75
352.311	83.75
352.538	75.75
352.765	95.75
352.992	74.75
353.22	73.75
353.447	92.75
353.674	90.75
353.901	86.75
354.128	67.75
354.355	82.75
354.583	83.75
354.81	79.75
355.037	96.75
355.264	85.75
355.491	83.75
355.718	78.75
355.945	82.75
356.172	90.75
356.399	89.75
356.626	93.75
356.853	79.75
357.08	84.75
357.307	78.75
357.534	82.75
357.761	86.75
357.988	79.75
358.215	87.75
358.441	69.75
358.668	87.75
358.895	88.75
359.122	87.75
359.349	86.75
359.576	83.75
359.802	85.75
360.029	80.75
360.256	87.75
360.483	73.75
360.709	85.75
360.936	89.75
361.163	87.75
361.39	79.75
361.616	79.75
361.843	87.75
362.07	78.75
362.296	93.75
362.523	80.75
362.749	84.75
362.976	71.75
363.203	86.75
363.429	77.75
363.656	91.75
363.882	88.75
364.109	101.75
364.335	86.75
364.562	89.75
364.788	79.75
365.015	80.75
365.241	87.75
365.468	94.75
365.694	79.75
365.92	90.75
366.147	73.75
366.373	67.75
366.599	77.75
366.826	86.75
367.052	81.75
367.278	90.75
367.505	81.75
367.731	92.75
367.957	87.75
368.184	80.75
368.41	97.75
368.636	95.75
368.862	80.75
369.089	84.75
369.315	92.75
369.541	82.75
369.767	89.75
369.993	90.75
370.219	96.75
370.445	98.75
370.672	102.75
370.898	95.75
371.124	100.75
371.35	90.75
371.576	76.75
371.802	92.75
372.028	83.75
372.254	97.75
372.48	96.75
372.706	69.75
372.932	96.75
373.158	98.75
373.384	94.75
373.61	96.75
373.835	93.75
374.061	74.75
374.287	108.75
374.513	79.75
374.739	95.75
374.965	91.75
375.191	95.75
375.416	83.75
375.642	93.75
375.868	98.75
376.094	96.75
376.319	95.75
376.545	86.75
376.771	93.75
376.997	90.75
377.222	90.75
377.448	88.75
377.674	85.75
377.899	96.75
378.125	84.75
378.35	107.75
378.576	103.75
378.802	82.75
379.027	105.75
379.253	91.75
379.478	93.75
379.704	94.75
379.929	98.75
380.155	96.75
380.38	80.75
380.606	103.75
380.831	110.75
381.057	100.75
381.282	102.75
381.507	102.75
381.733	102.75
381.958	94.75
382.184	87.75
382.409	104.75
382.634	98.75
382.86	103.75
383.085	78.75
383.31	96.75
383.535	103.75
383.761	107.75
383.986	106.75
384.211	95.75
384.436	93.75
384.662	98.75
384.887	97.75
385.112	85.75
385.337	101.75
385.562	101.75
385.787	101.75
386.013	103.75
386.238	104.75
386.463	88.75
386.688	96.75
386.913	102.75
387.138	100.75
387.363	99.75
387.588	105.75
387.813	107.75
388.038	101.75
388.263	101.75
388.488	90.75
388.713	103.75
388.938	106.75
389.163	91.75
389.387	95.75
389.612	85.75
389.837	104.75
390.062	105.75
390.287	118.75
390.512	109.75
390.736	101.75
390.961	102.75
391.186	97.75
391.411	104.75
391.636	105.75
391.86	100.75
392.085	107.75
392.31	100.75
392.534	104.75
392.759	90.75
392.984	106.75
393.208	104.75
393.433	104.75
393.658	117.75
393.882	86.75
394.107	101.75
394.331	108.75
394.556	111.75
394.78	104.75
395.005	106.75
395.229	113.75
395.454	109.75
395.678	104.75
395.903	101.75
396.127	106.75
396.352	94.75
396.576	109.75
396.801	105.75
397.025	117.75
397.249	101.75
397.474	97.75
397.698	113.75
397.922	120.75
398.147	104.75
398.371	116.75
398.595	107.75
398.82	112.75
399.044	116.75
399.268	108.75
399.492	111.75
399.717	108.75
399.941	112.75
400.165	107.75
400.389	105.75
400.613	111.75
400.837	119.75
401.062	93.75
401.286	111.75
401.51	105.75
401.734	99.75
401.958	111.75
402.182	120.75
402.406	101.75
402.63	93.75
402.854	98.75
403.078	112.75
403.302	123.75
403.526	118.75
403.75	115.75
403.974	103.75
404.198	118.75
404.422	116.75
404.645	126.75
404.869	124.75
405.093	95.75
405.317	120.75
405.541	123.75
405.765	111.75
405.988	112.75
406.212	120.75
406.436	111.75
406.66	122.75
406.883	125.75
407.107	114.75
407.331	120.75
407.555	117.75
407.778	125.75
408.002	120.75
408.226	119.75
408.449	117.75
408.673	118.75
408.896	123.75
409.12	126.75
409.344	129.75
409.567	109.75
409.791	121.75
410.014	111.75
410.238	129.75
410.461	124.75
410.685	118.75
410.908	111.75
411.132	115.75
411.355	117.75
411.578	105.75
411.802	104.75
412.025	108.75
412.249	108.75
412.472	117.75
412.695	121.75
412.919	130.75
413.142	116.75
413.365	112.75
413.589	118.75
413.812	121.75
414.035	114.75
414.258	137.75
414.482	119.75
414.705	116.75
414.928	120.75
415.151	124.75
415.374	117.75
415.597	129.75
415.821	126.75
416.044	127.75
416.267	132.75
416.49	130.75
416.713	116.75
416.936	127.75
417.159	135.75
417.382	132.75
417.605	115.75
417.828	130.75
418.051	121.75
418.274	125.75
418.497	135.75
418.72	129.75
418.943	141.75
419.166	133.75
419.389	141.75
419.611	131.75
419.834	138.75
420.057	138.75
420.28	127.75
420.503	138.75
420.726	131.75
420.948	115.75
421.171	134.75
421.394	156.75
421.617	145.75
421.839	147.75
422.062	129.75
422.285	137.75
422.507	130.75
422.73	123.75
422.953	118.75
423.175	132.75
423.398	119.75
423.621	126.75
423.843	116.75
424.066	137.75
424.288	143.75
424.511	134.75
424.733	130.75
424.956	130.75
425.178	147.75
425.401	137.75
425.623	119.75
425.846	132.75
426.068	134.75
426.291	117.75
426.513	130.75
426.735	128.75
426.958	125.75
427.18	126.75
427.402	127.75
427.625	144.75
427.847	123.75
428.069	120.75
428.292	124.75
428.514	140.75
428.736	135.75
428.958	140.75
429.181	143.75
429.403	130.75
429.625	118.75
429.847	120.75
430.069	119.75
430.292	119.75
430.514	124.75
430.736	119.75
430.958	130.75
431.18	140.75
431.402	127.75
431.624	115.75
431.846	94.75
432.068	94.75
432.29	115.75
432.512	122.75
432.734	106.75
432.956	132.75
433.178	133.75
433.4	131.75
433.622	124.75
433.844	143.75
434.066	122.75
434.287	119.75
434.509	93.75
434.731	101.75
434.953	90.75
435.175	124.75
435.397	129.75
435.618	110.75
435.84	122.75
436.062	98.75
436.284	126.75
436.505	127.75
436.727	119.75
436.949	139.75
437.17	150.75
437.392	125.75
437.614	120.75
437.835	112.75
438.057	101.75
438.278	92.75
438.5	112.75
438.721	128.75
438.943	135.75
439.165	133.75
439.386	150.75
439.608	142.75
439.829	134.75
440.05	142.75
440.272	141.75
440.493	152.75
440.715	132.75
440.936	141.75
441.158	148.75
441.379	144.75
441.6	130.75
441.822	141.75
442.043	151.75
442.264	132.75
442.486	149.75
442.707	133.75
442.928	135.75
443.149	142.75
443.371	152.75
443.592	155.75
443.813	136.75
444.034	154.75
444.255	160.75
444.476	144.75
444.698	137.75
444.919	142.75
445.14	256.75
445.361	202.75
445.582	155.75
445.803	162.75
446.024	146.75
446.245	156.75
446.466	143.75
446.687	145.75
446.908	143.75
447.129	139.75
447.35	140.75
447.571	146.75
447.792	146.75
448.013	141.75
448.234	132.75
448.455	148.75
448.675	153.75
448.896	142.75
449.117	135.75
449.338	145.75
449.559	140.75
449.779	140.75
450	140.75
450.221	150.75
450.442	127.75
450.662	136.75
450.883	143.75
451.104	127.75
451.324	138.75
451.545	118.75
451.766	144.75
451.986	130.75
452.207	135.75
452.428	139.75
452.648	122.75
452.869	121.75
453.089	115.75
453.31	108.75
453.53	108.75
453.751	97.75
453.971	93.75
454.192	98.75
454.412	120.75
454.633	115.75
454.853	106.75
455.073	116.75
455.294	120.75
455.514	115.75
455.734	108.75
455.955	115.75
456.175	118.75
456.395	111.75
456.616	115.75
456.836	99.75
457.056	100.75
457.276	106.75
457.497	98.75
457.717	107.75
457.937	109.75
458.157	110.75
458.377	125.75
458.598	104.75
458.818	96.75
459.038	90.75
459.258	87.75
459.478	102.75
459.698	102.75
459.918	86.75
460.138	92.75
460.358	103.75
460.578	98.75
460.798	126.75
461.018	118.75
461.238	127.75
461.458	109.75
461.678	107.75
461.898	108.75
462.118	112.75
462.338	111.75
462.558	102.75
462.777	114.75
462.997	96.75
463.217	104.75
463.437	100.75
463.657	104.75
463.876	123.75
464.096	110.75
464.316	107.75
464.536	98.75
464.755	110.75
464.975	130.75
465.195	104.75
465.414	117.75
465.634	111.75
465.854	98.75
466.073	103.75
466.293	115.75
466.512	120.75
466.732	130.75
466.951	128.75
467.171	149.75
467.391	143.75
467.61	132.75
467.829	125.75
468.049	132.75
468.268	128.75
468.488	136.75
468.707	127.75
468.927	132.75
469.146	120.75
469.365	130.75
469.585	139.75
469.804	130.75
470.023	129.75
470.243	139.75
470.462	153.75
470.681	134.75
470.901	124.75
471.12	123.75
471.339	133.75
471.558	128.75
471.777	127.75
471.997	133.75
472.216	125.75
472.435	120.75
472.654	101.75
472.873	124.75
473.092	103.75
473.311	122.75
473.53	126.75
473.749	110.75
473.968	121.75
474.187	112.75
474.406	118.75
474.625	120.75
474.844	125.75
475.063	126.75
475.282	120.75
475.501	111.75
475.72	118.75
475.939	112.75
476.158	127.75
476.377	142.75
476.596	114.75
476.814	100.75
477.033	111.75
477.252	115.75
477.471	126.75
477.69	126.75
477.908	147.75
478.127	127.75
478.346	127.75
478.564	122.75
478.783	134.75
479.002	146.75
479.22	136.75
479.439	130.75
479.658	119.75
479.876	118.75
480.095	107.75
480.313	100.75
480.532	110.75
480.751	104.75
480.969	92.75
481.188	89.75
481.406	88.75
481.624	99.75
481.843	99.75
482.061	103.75
482.28	114.75
482.498	138.75
482.717	99.75
482.935	123.75
483.153	141.75
483.372	148.75
483.59	148.75
483.808	137.75
484.027	130.75
484.245	129.75
484.463	143.75
484.681	161.75
484.9	131.75
485.118	141.75
485.336	142.75
485.554	118.75
485.772	109.75
485.99	101.75
486.209	109.75
486.427	103.75
486.645	122.75
486.863	120.75
487.081	145.75
487.299	132.75
487.517	139.75
487.735	175.75
487.953	178.75
488.171	167.75
488.389	175.75
488.607	159.75
488.825	137.75
489.043	125.75
489.261	138.75
489.479	126.75
489.696	136.75
489.914	122.75
490.132	143.75
490.35	132.75
490.568	146.75
490.786	164.75
491.003	181.75
491.221	182.75
491.439	175.75
491.657	195.75
491.874	208.75
492.092	216.75
492.31	242.75
492.527	204.75
492.745	211.75
492.963	183.75
493.18	179.75
493.398	194.75
493.615	168.75
493.833	188.75
494.05	179.75
494.268	161.75
494.485	166.75
494.703	182.75
494.92	161.75
495.138	166.75
495.355	156.75
495.573	165.75
495.79	160.75
496.008	163.75
496.225	161.75
496.442	154.75
496.66	164.75
496.877	164.75
497.094	154.75
497.312	157.75
497.529	162.75
497.746	150.75
497.963	148.75
498.181	141.75
498.398	132.75
498.615	122.75
498.832	119.75
499.049	110.75
499.267	123.75
499.484	102.75
499.701	139.75
499.918	126.75
500.135	135.75
500.352	124.75
500.569	130.75
500.786	151.75
501.003	143.75
501.22	121.75
501.437	142.75
501.654	141.75
501.871	136.75
502.088	142.75
502.305	126.75
502.522	109.75
502.739	121.75
502.956	127.75
503.172	132.75
503.389	118.75
503.606	103.75
503.823	113.75
504.04	118.75
504.256	119.75
504.473	121.75
504.69	121.75
504.907	120.75
505.123	121.75
505.34	120.75
505.557	111.75
505.773	114.75
505.99	125.75
506.207	132.75
506.423	107.75
506.64	113.75
506.856	132.75
507.073	111.75
507.289	118.75
507.506	122.75
507.722	113.75
507.939	117.75
508.155	116.75
508.372	108.75
508.588	109.75
508.805	110.75
509.021	101.75
509.238	107.75
509.454	110.75
509.67	101.75
509.887	94.75
510.103	101.75
510.319	99.75
510.536	96.75
510.752	85.75
510.968	82.75
511.184	88.75
511.401	92.75
511.617	96.75
