Data from Location1.07152019.Energy5.Lamp.07192019.3%Agarose_HRD10591_14-30-47-015.txt Node
Date: Fri Jul 19 14:30:47 EDT 2019
User: cochatt
Spectrometer: HR+D1059
Trigger mode: 1
Integration Time (sec): 1.000000E-1
Scans to average: 1
Electric dark correction enabled: true
Nonlinearity correction enabled: false
Boxcar width: 0
XAxis mode: Wavelengths
Number of Pixels in Spectrum: 2048
>>>>>Begin Spectral Data<<<<<
223.165	-17.06
223.4	-17.06
223.635	-17.06
223.869	-28.06
224.104	-25.06
224.338	-18.06
224.573	-14.06
224.808	-8.06
225.042	-12.06
225.277	0.94
225.511	0.94
225.746	-0.06
225.98	19.94
226.215	12.94
226.449	11.94
226.683	21.94
226.918	27.94
227.152	25.94
227.387	32.94
227.621	28.94
227.856	45.94
228.09	49.94
228.324	50.94
228.559	58.94
228.793	40.94
229.027	61.94
229.262	60.94
229.496	75.94
229.73	69.94
229.964	72.94
230.199	73.94
230.433	70.94
230.667	77.94
230.901	56.94
231.136	71.94
231.37	81.94
231.604	82.94
231.838	92.94
232.072	78.94
232.306	90.94
232.541	84.94
232.775	82.94
233.009	69.94
233.243	80.94
233.477	86.94
233.711	84.94
233.945	81.94
234.179	81.94
234.413	93.94
234.647	83.94
234.881	79.94
235.115	78.94
235.349	89.94
235.583	83.94
235.817	84.94
236.051	81.94
236.285	86.94
236.519	71.94
236.753	69.94
236.987	72.94
237.221	82.94
237.455	74.94
237.689	69.94
237.922	66.94
238.156	90.94
238.39	76.94
238.624	70.94
238.858	73.94
239.091	73.94
239.325	73.94
239.559	72.94
239.793	75.94
240.027	75.94
240.26	66.94
240.494	84.94
240.728	85.94
240.961	83.94
241.195	62.94
241.429	70.94
241.662	78.94
241.896	65.94
242.13	63.94
242.363	90.94
242.597	65.94
242.83	75.94
243.064	90.94
243.298	79.94
243.531	82.94
243.765	73.94
243.998	68.94
244.232	74.94
244.465	86.94
244.699	78.94
244.932	77.94
245.166	74.94
245.399	77.94
245.633	72.94
245.866	62.94
246.099	86.94
246.333	72.94
246.566	85.94
246.8	82.94
247.033	72.94
247.266	84.94
247.5	68.94
247.733	69.94
247.966	75.94
248.2	78.94
248.433	74.94
248.666	77.94
248.899	72.94
249.133	84.94
249.366	78.94
249.599	75.94
249.832	74.94
250.066	75.94
250.299	58.94
250.532	94.94
250.765	82.94
250.998	81.94
251.231	77.94
251.465	61.94
251.698	89.94
251.931	71.94
252.164	71.94
252.397	81.94
252.63	87.94
252.863	73.94
253.096	85.94
253.329	78.94
253.562	75.94
253.795	87.94
254.028	81.94
254.261	68.94
254.494	76.94
254.727	77.94
254.96	83.94
255.193	84.94
255.426	82.94
255.659	67.94
255.892	92.94
256.124	84.94
256.357	84.94
256.59	71.94
256.823	69.94
257.056	72.94
257.289	84.94
257.521	68.94
257.754	70.94
257.987	76.94
258.22	75.94
258.452	75.94
258.685	78.94
258.918	82.94
259.151	83.94
259.383	84.94
259.616	80.94
259.849	78.94
260.081	93.94
260.314	85.94
260.547	89.94
260.779	82.94
261.012	76.94
261.244	68.94
261.477	86.94
261.71	83.94
261.942	77.94
262.175	68.94
262.407	72.94
262.64	69.94
262.872	67.94
263.105	87.94
263.337	96.94
263.57	80.94
263.802	68.94
264.035	77.94
264.267	75.94
264.499	82.94
264.732	79.94
264.964	80.94
265.197	80.94
265.429	78.94
265.661	78.94
265.894	76.94
266.126	88.94
266.358	81.94
266.591	73.94
266.823	82.94
267.055	83.94
267.287	85.94
267.52	93.94
267.752	87.94
267.984	74.94
268.216	79.94
268.448	85.94
268.681	78.94
268.913	87.94
269.145	73.94
269.377	80.94
269.609	77.94
269.841	100.94
270.073	92.94
270.306	90.94
270.538	73.94
270.77	67.94
271.002	76.94
271.234	94.94
271.466	82.94
271.698	88.94
271.93	82.94
272.162	89.94
272.394	85.94
272.626	86.94
272.858	84.94
273.09	73.94
273.322	83.94
273.553	71.94
273.785	81.94
274.017	63.94
274.249	94.94
274.481	73.94
274.713	97.94
274.945	87.94
275.176	87.94
275.408	81.94
275.64	69.94
275.872	81.94
276.104	79.94
276.335	83.94
276.567	81.94
276.799	79.94
277.031	72.94
277.262	77.94
277.494	77.94
277.726	84.94
277.957	80.94
278.189	70.94
278.421	68.94
278.652	71.94
278.884	92.94
279.115	72.94
279.347	82.94
279.579	87.94
279.81	86.94
280.042	66.94
280.273	92.94
280.505	86.94
280.736	74.94
280.968	85.94
281.199	81.94
281.431	77.94
281.662	77.94
281.894	108.94
282.125	80.94
282.356	83.94
282.588	85.94
282.819	71.94
283.051	66.94
283.282	75.94
283.513	91.94
283.745	83.94
283.976	74.94
284.207	77.94
284.439	73.94
284.67	75.94
284.901	97.94
285.132	81.94
285.364	77.94
285.595	80.94
285.826	82.94
286.057	88.94
286.288	77.94
286.52	90.94
286.751	78.94
286.982	77.94
287.213	62.94
287.444	70.94
287.675	86.94
287.906	79.94
288.138	83.94
288.369	77.94
288.6	83.94
288.831	74.94
289.062	80.94
289.293	72.94
289.524	80.94
289.755	81.94
289.986	70.94
290.217	75.94
290.448	76.94
290.679	80.94
290.91	64.94
291.141	71.94
291.371	73.94
291.602	75.94
291.833	85.94
292.064	74.94
292.295	85.94
292.526	71.94
292.757	77.94
292.987	74.94
293.218	83.94
293.449	90.94
293.68	81.94
293.91	89.94
294.141	72.94
294.372	83.94
294.603	92.94
294.833	84.94
295.064	86.94
295.295	91.94
295.525	88.94
295.756	82.94
295.987	77.94
296.217	71.94
296.448	66.94
296.679	90.94
296.909	86.94
297.14	84.94
297.37	84.94
297.601	76.94
297.831	82.94
298.062	98.94
298.292	97.94
298.523	78.94
298.753	84.94
298.984	72.94
299.214	81.94
299.445	87.94
299.675	89.94
299.905	87.94
300.136	91.94
300.366	77.94
300.597	89.94
300.827	84.94
301.057	76.94
301.288	80.94
301.518	76.94
301.748	76.94
301.979	97.94
302.209	82.94
302.439	82.94
302.669	83.94
302.9	94.94
303.13	82.94
303.36	73.94
303.59	98.94
303.82	91.94
304.051	90.94
304.281	89.94
304.511	77.94
304.741	78.94
304.971	80.94
305.201	93.94
305.431	83.94
305.661	78.94
305.891	84.94
306.121	72.94
306.352	74.94
306.582	72.94
306.812	90.94
307.042	98.94
307.272	86.94
307.502	88.94
307.731	86.94
307.961	91.94
308.191	72.94
308.421	88.94
308.651	85.94
308.881	82.94
309.111	89.94
309.341	76.94
309.571	77.94
309.8	81.94
310.03	85.94
310.26	89.94
310.49	83.94
310.72	88.94
310.949	90.94
311.179	94.94
311.409	90.94
311.639	80.94
311.868	70.94
312.098	73.94
312.328	81.94
312.557	90.94
312.787	88.94
313.017	70.94
313.246	91.94
313.476	81.94
313.706	66.94
313.935	78.94
314.165	100.94
314.394	86.94
314.624	78.94
314.853	91.94
315.083	78.94
315.312	82.94
315.542	93.94
315.771	81.94
316.001	86.94
316.23	75.94
316.46	81.94
316.689	74.94
316.919	77.94
317.148	80.94
317.377	74.94
317.607	75.94
317.836	83.94
318.065	91.94
318.295	85.94
318.524	74.94
318.753	83.94
318.983	75.94
319.212	77.94
319.441	61.94
319.67	93.94
319.9	77.94
320.129	97.94
320.358	86.94
320.587	79.94
320.816	88.94
321.046	90.94
321.275	76.94
321.504	84.94
321.733	88.94
321.962	76.94
322.191	84.94
322.42	85.94
322.649	84.94
322.878	92.94
323.108	78.94
323.337	88.94
323.566	84.94
323.795	82.94
324.024	91.94
324.253	82.94
324.482	99.94
324.71	82.94
324.939	89.94
325.168	95.94
325.397	79.94
325.626	82.94
325.855	80.94
326.084	80.94
326.313	85.94
326.542	82.94
326.77	88.94
326.999	68.94
327.228	64.94
327.457	78.94
327.686	86.94
327.914	77.94
328.143	86.94
328.372	82.94
328.6	79.94
328.829	83.94
329.058	77.94
329.287	76.94
329.515	81.94
329.744	91.94
329.972	88.94
330.201	89.94
330.43	74.94
330.658	80.94
330.887	79.94
331.115	85.94
331.344	62.94
331.572	76.94
331.801	69.94
332.03	77.94
332.258	80.94
332.486	78.94
332.715	72.94
332.943	81.94
333.172	74.94
333.4	76.94
333.629	82.94
333.857	84.94
334.085	84.94
334.314	90.94
334.542	84.94
334.771	67.94
334.999	78.94
335.227	85.94
335.455	85.94
335.684	81.94
335.912	87.94
336.14	101.94
336.369	84.94
336.597	76.94
336.825	99.94
337.053	100.94
337.281	81.94
337.51	75.94
337.738	94.94
337.966	78.94
338.194	79.94
338.422	79.94
338.65	84.94
338.878	84.94
339.106	86.94
339.334	79.94
339.562	71.94
339.79	75.94
340.018	81.94
340.246	85.94
340.474	86.94
340.702	86.94
340.93	82.94
341.158	85.94
341.386	88.94
341.614	70.94
341.842	80.94
342.07	85.94
342.298	81.94
342.526	73.94
342.754	90.94
342.981	85.94
343.209	68.94
343.437	68.94
343.665	82.94
343.893	81.94
344.12	85.94
344.348	88.94
344.576	83.94
344.804	78.94
345.031	77.94
345.259	90.94
345.487	74.94
345.714	85.94
345.942	74.94
346.17	77.94
346.397	79.94
346.625	78.94
346.853	85.94
347.08	77.94
347.308	81.94
347.535	72.94
347.763	78.94
347.99	66.94
348.218	75.94
348.445	72.94
348.673	74.94
348.9	78.94
349.128	89.94
349.355	93.94
349.583	89.94
349.81	80.94
350.037	97.94
350.265	77.94
350.492	81.94
350.72	84.94
350.947	70.94
351.174	96.94
351.402	77.94
351.629	84.94
351.856	81.94
352.083	81.94
352.311	84.94
352.538	72.94
352.765	75.94
352.992	81.94
353.22	94.94
353.447	84.94
353.674	76.94
353.901	81.94
354.128	76.94
354.355	80.94
354.583	78.94
354.81	77.94
355.037	79.94
355.264	83.94
355.491	74.94
355.718	83.94
355.945	72.94
356.172	74.94
356.399	78.94
356.626	67.94
356.853	69.94
357.08	86.94
357.307	76.94
357.534	84.94
357.761	72.94
357.988	79.94
358.215	90.94
358.441	77.94
358.668	71.94
358.895	79.94
359.122	73.94
359.349	88.94
359.576	88.94
359.802	71.94
360.029	81.94
360.256	76.94
360.483	70.94
360.709	97.94
360.936	72.94
361.163	68.94
361.39	82.94
361.616	81.94
361.843	73.94
362.07	86.94
362.296	80.94
362.523	85.94
362.749	90.94
362.976	64.94
363.203	74.94
363.429	86.94
363.656	78.94
363.882	89.94
364.109	85.94
364.335	72.94
364.562	68.94
364.788	82.94
365.015	79.94
365.241	90.94
365.468	88.94
365.694	85.94
365.92	96.94
366.147	87.94
366.373	80.94
366.599	93.94
366.826	81.94
367.052	92.94
367.278	74.94
367.505	89.94
367.731	94.94
367.957	78.94
368.184	84.94
368.41	88.94
368.636	90.94
368.862	74.94
369.089	89.94
369.315	92.94
369.541	88.94
369.767	91.94
369.993	74.94
370.219	97.94
370.445	80.94
370.672	103.94
370.898	79.94
371.124	76.94
371.35	89.94
371.576	80.94
371.802	101.94
372.028	68.94
372.254	93.94
372.48	92.94
372.706	89.94
372.932	98.94
373.158	87.94
373.384	106.94
373.61	76.94
373.835	85.94
374.061	82.94
374.287	97.94
374.513	96.94
374.739	93.94
374.965	88.94
375.191	94.94
375.416	92.94
375.642	98.94
375.868	84.94
376.094	97.94
376.319	102.94
376.545	97.94
376.771	79.94
376.997	94.94
377.222	86.94
377.448	75.94
377.674	98.94
377.899	98.94
378.125	83.94
378.35	100.94
378.576	89.94
378.802	98.94
379.027	94.94
379.253	102.94
379.478	99.94
379.704	88.94
379.929	82.94
380.155	102.94
380.38	87.94
380.606	87.94
380.831	89.94
381.057	93.94
381.282	85.94
381.507	87.94
381.733	94.94
381.958	82.94
382.184	91.94
382.409	101.94
382.634	89.94
382.86	82.94
383.085	91.94
383.31	90.94
383.535	101.94
383.761	87.94
383.986	101.94
384.211	97.94
384.436	93.94
384.662	97.94
384.887	81.94
385.112	89.94
385.337	84.94
385.562	100.94
385.787	89.94
386.013	108.94
386.238	96.94
386.463	93.94
386.688	104.94
386.913	93.94
387.138	93.94
387.363	98.94
387.588	90.94
387.813	86.94
388.038	102.94
388.263	96.94
388.488	84.94
388.713	88.94
388.938	82.94
389.163	84.94
389.387	91.94
389.612	98.94
389.837	85.94
390.062	108.94
390.287	86.94
390.512	93.94
390.736	97.94
390.961	98.94
391.186	108.94
391.411	109.94
391.636	95.94
391.86	100.94
392.085	108.94
392.31	106.94
392.534	92.94
392.759	103.94
392.984	100.94
393.208	114.94
393.433	101.94
393.658	101.94
393.882	101.94
394.107	108.94
394.331	98.94
394.556	92.94
394.78	109.94
395.005	108.94
395.229	96.94
395.454	117.94
395.678	104.94
395.903	92.94
396.127	112.94
396.352	94.94
396.576	106.94
396.801	105.94
397.025	112.94
397.249	102.94
397.474	102.94
397.698	101.94
397.922	107.94
398.147	91.94
398.371	96.94
398.595	110.94
398.82	102.94
399.044	93.94
399.268	101.94
399.492	104.94
399.717	114.94
399.941	103.94
400.165	119.94
400.389	118.94
400.613	82.94
400.837	109.94
401.062	106.94
401.286	97.94
401.51	112.94
401.734	121.94
401.958	106.94
402.182	94.94
402.406	99.94
402.63	99.94
402.854	101.94
403.078	117.94
403.302	106.94
403.526	113.94
403.75	121.94
403.974	110.94
404.198	101.94
404.422	89.94
404.645	114.94
404.869	102.94
405.093	91.94
405.317	112.94
405.541	112.94
405.765	113.94
405.988	118.94
406.212	121.94
406.436	103.94
406.66	120.94
406.883	121.94
407.107	103.94
407.331	118.94
407.555	122.94
407.778	121.94
408.002	117.94
408.226	108.94
408.449	130.94
408.673	113.94
408.896	116.94
409.12	120.94
409.344	102.94
409.567	114.94
409.791	118.94
410.014	122.94
410.238	104.94
410.461	128.94
410.685	114.94
410.908	109.94
411.132	128.94
411.355	112.94
411.578	127.94
411.802	125.94
412.025	124.94
412.249	120.94
412.472	118.94
412.695	130.94
412.919	107.94
413.142	124.94
413.365	112.94
413.589	122.94
413.812	115.94
414.035	107.94
414.258	116.94
414.482	118.94
414.705	114.94
414.928	110.94
415.151	124.94
415.374	113.94
415.597	130.94
415.821	125.94
416.044	128.94
416.267	128.94
416.49	131.94
416.713	112.94
416.936	129.94
417.159	117.94
417.382	123.94
417.605	131.94
417.828	106.94
418.051	126.94
418.274	124.94
418.497	128.94
418.72	113.94
418.943	133.94
419.166	150.94
419.389	135.94
419.611	124.94
419.834	126.94
420.057	126.94
420.28	125.94
420.503	117.94
420.726	139.94
420.948	143.94
421.171	128.94
421.394	133.94
421.617	138.94
421.839	134.94
422.062	142.94
422.285	120.94
422.507	136.94
422.73	115.94
422.953	126.94
423.175	128.94
423.398	128.94
423.621	124.94
423.843	126.94
424.066	132.94
424.288	141.94
424.511	132.94
424.733	152.94
424.956	147.94
425.178	136.94
425.401	128.94
425.623	123.94
425.846	122.94
426.068	133.94
426.291	119.94
426.513	135.94
426.735	120.94
426.958	117.94
427.18	119.94
427.402	121.94
427.625	115.94
427.847	122.94
428.069	138.94
428.292	124.94
428.514	117.94
428.736	134.94
428.958	140.94
429.181	120.94
429.403	126.94
429.625	123.94
429.847	124.94
430.069	117.94
430.292	130.94
430.514	111.94
430.736	124.94
430.958	109.94
431.18	128.94
431.402	123.94
431.624	128.94
431.846	101.94
432.068	94.94
432.29	103.94
432.512	103.94
432.734	116.94
432.956	132.94
433.178	132.94
433.4	134.94
433.622	139.94
433.844	126.94
434.066	113.94
434.287	106.94
434.509	100.94
434.731	90.94
434.953	116.94
435.175	109.94
435.397	128.94
435.618	115.94
435.84	97.94
436.062	117.94
436.284	110.94
436.505	113.94
436.727	130.94
436.949	130.94
437.17	128.94
437.392	127.94
437.614	115.94
437.835	109.94
438.057	102.94
438.278	107.94
438.5	106.94
438.721	134.94
438.943	133.94
439.165	126.94
439.386	156.94
439.608	136.94
439.829	147.94
440.05	150.94
440.272	130.94
440.493	135.94
440.715	148.94
440.936	138.94
441.158	139.94
441.379	145.94
441.6	141.94
441.822	139.94
442.043	141.94
442.264	132.94
442.486	134.94
442.707	150.94
442.928	133.94
443.149	139.94
443.371	133.94
443.592	136.94
443.813	128.94
444.034	140.94
444.255	155.94
444.476	135.94
444.698	150.94
444.919	137.94
445.14	254.94
445.361	184.94
445.582	154.94
445.803	143.94
446.024	146.94
446.245	143.94
446.466	146.94
446.687	145.94
446.908	155.94
447.129	149.94
447.35	150.94
447.571	155.94
447.792	135.94
448.013	158.94
448.234	148.94
448.455	118.94
448.675	143.94
448.896	128.94
449.117	132.94
449.338	138.94
449.559	127.94
449.779	135.94
450	136.94
450.221	145.94
450.442	128.94
450.662	145.94
450.883	133.94
451.104	132.94
451.324	125.94
451.545	132.94
451.766	116.94
451.986	125.94
452.207	127.94
452.428	118.94
452.648	118.94
452.869	105.94
453.089	107.94
453.31	112.94
453.53	97.94
453.751	98.94
453.971	90.94
454.192	86.94
454.412	102.94
454.633	115.94
454.853	125.94
455.073	117.94
455.294	104.94
455.514	124.94
455.734	120.94
455.955	117.94
456.175	109.94
456.395	116.94
456.616	119.94
456.836	106.94
457.056	98.94
457.276	113.94
457.497	95.94
457.717	116.94
457.937	114.94
458.157	102.94
458.377	106.94
458.598	103.94
458.818	78.94
459.038	72.94
459.258	81.94
459.478	96.94
459.698	82.94
459.918	97.94
460.138	97.94
460.358	106.94
460.578	121.94
460.798	119.94
461.018	112.94
461.238	124.94
461.458	113.94
461.678	104.94
461.898	92.94
462.118	106.94
462.338	118.94
462.558	119.94
462.777	94.94
462.997	100.94
463.217	105.94
463.437	117.94
463.657	102.94
463.876	104.94
464.096	102.94
464.316	104.94
464.536	99.94
464.755	107.94
464.975	107.94
465.195	111.94
465.414	112.94
465.634	113.94
465.854	116.94
466.073	107.94
466.293	101.94
466.512	122.94
466.732	132.94
466.951	123.94
467.171	125.94
467.391	138.94
467.61	120.94
467.829	129.94
468.049	147.94
468.268	137.94
468.488	140.94
468.707	124.94
468.927	135.94
469.146	128.94
469.365	120.94
469.585	132.94
469.804	164.94
470.023	126.94
470.243	129.94
470.462	127.94
470.681	135.94
470.901	133.94
471.12	141.94
471.339	137.94
471.558	132.94
471.777	144.94
471.997	129.94
472.216	120.94
472.435	115.94
472.654	102.94
472.873	107.94
473.092	126.94
473.311	122.94
473.53	127.94
473.749	129.94
473.968	127.94
474.187	119.94
474.406	100.94
474.625	110.94
474.844	135.94
475.063	124.94
475.282	120.94
475.501	107.94
475.72	122.94
475.939	120.94
476.158	120.94
476.377	120.94
476.596	132.94
476.814	118.94
477.033	105.94
477.252	112.94
477.471	120.94
477.69	130.94
477.908	132.94
478.127	140.94
478.346	141.94
478.564	123.94
478.783	134.94
479.002	132.94
479.22	143.94
479.439	155.94
479.658	116.94
479.876	98.94
480.095	103.94
480.313	113.94
480.532	132.94
480.751	120.94
480.969	101.94
481.188	96.94
481.406	85.94
481.624	91.94
481.843	85.94
482.061	96.94
482.28	110.94
482.498	112.94
482.717	117.94
482.935	107.94
483.153	120.94
483.372	140.94
483.59	137.94
483.808	123.94
484.027	139.94
484.245	137.94
484.463	150.94
484.681	162.94
484.9	134.94
485.118	137.94
485.336	124.94
485.554	116.94
485.772	91.94
485.99	94.94
486.209	112.94
486.427	105.94
486.645	130.94
486.863	128.94
487.081	133.94
487.299	122.94
487.517	141.94
487.735	168.94
487.953	187.94
488.171	180.94
488.389	196.94
488.607	181.94
488.825	130.94
489.043	145.94
489.261	140.94
489.479	126.94
489.696	140.94
489.914	131.94
490.132	135.94
490.35	156.94
490.568	146.94
490.786	159.94
491.003	176.94
491.221	171.94
491.439	162.94
491.657	180.94
491.874	192.94
492.092	220.94
492.31	233.94
492.527	214.94
492.745	217.94
492.963	193.94
493.18	185.94
493.398	168.94
493.615	178.94
493.833	186.94
494.05	163.94
494.268	158.94
494.485	183.94
494.703	178.94
494.92	189.94
495.138	164.94
495.355	162.94
495.573	160.94
495.79	156.94
496.008	176.94
496.225	163.94
496.442	160.94
496.66	172.94
496.877	151.94
497.094	165.94
497.312	160.94
497.529	158.94
497.746	145.94
497.963	146.94
498.181	121.94
498.398	116.94
498.615	115.94
498.832	104.94
499.049	122.94
499.267	113.94
499.484	125.94
499.701	141.94
499.918	131.94
500.135	118.94
500.352	125.94
500.569	123.94
500.786	136.94
501.003	134.94
501.22	142.94
501.437	139.94
501.654	139.94
501.871	133.94
502.088	129.94
502.305	129.94
502.522	122.94
502.739	121.94
502.956	132.94
503.172	116.94
503.389	125.94
503.606	120.94
503.823	126.94
504.04	107.94
504.256	115.94
504.473	117.94
504.69	122.94
504.907	121.94
505.123	115.94
505.34	117.94
505.557	121.94
505.773	115.94
505.99	111.94
506.207	119.94
506.423	117.94
506.64	121.94
506.856	105.94
507.073	119.94
507.289	108.94
507.506	108.94
507.722	103.94
507.939	107.94
508.155	122.94
508.372	119.94
508.588	126.94
508.805	115.94
509.021	106.94
509.238	101.94
509.454	97.94
509.67	98.94
509.887	89.94
510.103	109.94
510.319	86.94
510.536	92.94
510.752	81.94
510.968	70.94
511.184	86.94
511.401	89.94
511.617	77.94
511.833	89.94
512.049	89.94
