Data from Location1.07152019.Energy5.Lamp.07192019.3%Agarose_HRD10591_14-32-18-016.txt Node
Date: Fri Jul 19 14:32:18 EDT 2019
User: cochatt
Spectrometer: HR+D1059
Trigger mode: 1
Integration Time (sec): 1.000000E-1
Scans to average: 1
Electric dark correction enabled: true
Nonlinearity correction enabled: false
Boxcar width: 0
XAxis mode: Wavelengths
Number of Pixels in Spectrum: 2048
>>>>>Begin Spectral Data<<<<<
223.165	-19.75
223.4	-19.75
223.635	-19.75
223.869	-15.75
224.104	-23.75
224.338	-20.75
224.573	1.25
224.808	-21.75
225.042	-7.75
225.277	-6.75
225.511	-14.75
225.746	-3.75
225.98	3.25
226.215	30.25
226.449	7.25
226.683	30.25
226.918	36.25
227.152	26.25
227.387	31.25
227.621	39.25
227.856	46.25
228.09	46.25
228.324	51.25
228.559	66.25
228.793	59.25
229.027	70.25
229.262	44.25
229.496	63.25
229.73	54.25
229.964	75.25
230.199	58.25
230.433	82.25
230.667	70.25
230.901	74.25
231.136	83.25
231.37	69.25
231.604	90.25
231.838	85.25
232.072	75.25
232.306	80.25
232.541	77.25
232.775	76.25
233.009	77.25
233.243	75.25
233.477	67.25
233.711	78.25
233.945	80.25
234.179	100.25
234.413	96.25
234.647	80.25
234.881	100.25
235.115	75.25
235.349	85.25
235.583	86.25
235.817	90.25
236.051	76.25
236.285	64.25
236.519	86.25
236.753	78.25
236.987	68.25
237.221	76.25
237.455	75.25
237.689	87.25
237.922	79.25
238.156	92.25
238.39	88.25
238.624	74.25
238.858	78.25
239.091	77.25
239.325	82.25
239.559	74.25
239.793	85.25
240.027	82.25
240.26	80.25
240.494	78.25
240.728	86.25
240.961	80.25
241.195	74.25
241.429	69.25
241.662	87.25
241.896	72.25
242.13	71.25
242.363	72.25
242.597	69.25
242.83	79.25
243.064	74.25
243.298	67.25
243.531	75.25
243.765	65.25
243.998	75.25
244.232	87.25
244.465	78.25
244.699	79.25
244.932	80.25
245.166	85.25
245.399	68.25
245.633	74.25
245.866	77.25
246.099	77.25
246.333	81.25
246.566	74.25
246.8	75.25
247.033	78.25
247.266	83.25
247.5	74.25
247.733	68.25
247.966	74.25
248.2	75.25
248.433	76.25
248.666	85.25
248.899	76.25
249.133	81.25
249.366	63.25
249.599	79.25
249.832	89.25
250.066	73.25
250.299	73.25
250.532	81.25
250.765	63.25
250.998	66.25
251.231	68.25
251.465	77.25
251.698	80.25
251.931	87.25
252.164	90.25
252.397	90.25
252.63	86.25
252.863	84.25
253.096	74.25
253.329	81.25
253.562	77.25
253.795	68.25
254.028	72.25
254.261	81.25
254.494	84.25
254.727	85.25
254.96	94.25
255.193	87.25
255.426	70.25
255.659	82.25
255.892	85.25
256.124	68.25
256.357	82.25
256.59	94.25
256.823	97.25
257.056	85.25
257.289	85.25
257.521	78.25
257.754	82.25
257.987	97.25
258.22	75.25
258.452	72.25
258.685	87.25
258.918	86.25
259.151	90.25
259.383	74.25
259.616	78.25
259.849	82.25
260.081	76.25
260.314	85.25
260.547	82.25
260.779	87.25
261.012	81.25
261.244	82.25
261.477	91.25
261.71	85.25
261.942	82.25
262.175	85.25
262.407	75.25
262.64	76.25
262.872	85.25
263.105	88.25
263.337	87.25
263.57	83.25
263.802	68.25
264.035	82.25
264.267	95.25
264.499	86.25
264.732	82.25
264.964	87.25
265.197	81.25
265.429	81.25
265.661	75.25
265.894	94.25
266.126	86.25
266.358	79.25
266.591	76.25
266.823	68.25
267.055	78.25
267.287	88.25
267.52	87.25
267.752	89.25
267.984	80.25
268.216	85.25
268.448	85.25
268.681	77.25
268.913	70.25
269.145	89.25
269.377	79.25
269.609	90.25
269.841	85.25
270.073	65.25
270.306	85.25
270.538	80.25
270.77	79.25
271.002	79.25
271.234	89.25
271.466	83.25
271.698	71.25
271.93	68.25
272.162	96.25
272.394	83.25
272.626	90.25
272.858	86.25
273.09	81.25
273.322	84.25
273.553	84.25
273.785	92.25
274.017	88.25
274.249	82.25
274.481	76.25
274.713	69.25
274.945	79.25
275.176	85.25
275.408	76.25
275.64	76.25
275.872	76.25
276.104	76.25
276.335	72.25
276.567	84.25
276.799	88.25
277.031	73.25
277.262	88.25
277.494	86.25
277.726	96.25
277.957	83.25
278.189	84.25
278.421	89.25
278.652	81.25
278.884	93.25
279.115	82.25
279.347	76.25
279.579	87.25
279.81	86.25
280.042	78.25
280.273	80.25
280.505	83.25
280.736	94.25
280.968	89.25
281.199	86.25
281.431	75.25
281.662	98.25
281.894	87.25
282.125	86.25
282.356	82.25
282.588	87.25
282.819	83.25
283.051	73.25
283.282	94.25
283.513	88.25
283.745	80.25
283.976	83.25
284.207	91.25
284.439	81.25
284.67	75.25
284.901	79.25
285.132	72.25
285.364	70.25
285.595	68.25
285.826	72.25
286.057	85.25
286.288	96.25
286.52	96.25
286.751	83.25
286.982	78.25
287.213	83.25
287.444	89.25
287.675	73.25
287.906	87.25
288.138	85.25
288.369	96.25
288.6	90.25
288.831	90.25
289.062	102.25
289.293	88.25
289.524	68.25
289.755	88.25
289.986	86.25
290.217	83.25
290.448	84.25
290.679	78.25
290.91	97.25
291.141	89.25
291.371	74.25
291.602	78.25
291.833	74.25
292.064	90.25
292.295	73.25
292.526	80.25
292.757	78.25
292.987	83.25
293.218	79.25
293.449	81.25
293.68	79.25
293.91	87.25
294.141	87.25
294.372	80.25
294.603	77.25
294.833	91.25
295.064	83.25
295.295	84.25
295.525	84.25
295.756	80.25
295.987	78.25
296.217	79.25
296.448	82.25
296.679	89.25
296.909	87.25
297.14	85.25
297.37	84.25
297.601	84.25
297.831	70.25
298.062	78.25
298.292	91.25
298.523	71.25
298.753	73.25
298.984	88.25
299.214	81.25
299.445	79.25
299.675	80.25
299.905	71.25
300.136	84.25
300.366	79.25
300.597	95.25
300.827	80.25
301.057	80.25
301.288	80.25
301.518	69.25
301.748	76.25
301.979	94.25
302.209	82.25
302.439	104.25
302.669	87.25
302.9	79.25
303.13	85.25
303.36	78.25
303.59	78.25
303.82	101.25
304.051	98.25
304.281	94.25
304.511	78.25
304.741	88.25
304.971	74.25
305.201	91.25
305.431	86.25
305.661	82.25
305.891	84.25
306.121	77.25
306.352	74.25
306.582	85.25
306.812	86.25
307.042	94.25
307.272	78.25
307.502	93.25
307.731	80.25
307.961	96.25
308.191	79.25
308.421	86.25
308.651	91.25
308.881	101.25
309.111	79.25
309.341	73.25
309.571	83.25
309.8	84.25
310.03	85.25
310.26	85.25
310.49	65.25
310.72	78.25
310.949	92.25
311.179	82.25
311.409	86.25
311.639	87.25
311.868	88.25
312.098	78.25
312.328	89.25
312.557	85.25
312.787	82.25
313.017	95.25
313.246	87.25
313.476	83.25
313.706	95.25
313.935	94.25
314.165	78.25
314.394	77.25
314.624	85.25
314.853	77.25
315.083	76.25
315.312	79.25
315.542	96.25
315.771	93.25
316.001	86.25
316.23	88.25
316.46	94.25
316.689	82.25
316.919	94.25
317.148	86.25
317.377	78.25
317.607	75.25
317.836	92.25
318.065	78.25
318.295	90.25
318.524	96.25
318.753	86.25
318.983	89.25
319.212	96.25
319.441	78.25
319.67	84.25
319.9	94.25
320.129	81.25
320.358	79.25
320.587	77.25
320.816	83.25
321.046	77.25
321.275	86.25
321.504	91.25
321.733	71.25
321.962	80.25
322.191	101.25
322.42	72.25
322.649	93.25
322.878	92.25
323.108	77.25
323.337	79.25
323.566	87.25
323.795	87.25
324.024	80.25
324.253	86.25
324.482	83.25
324.71	77.25
324.939	95.25
325.168	87.25
325.397	83.25
325.626	92.25
325.855	81.25
326.084	93.25
326.313	77.25
326.542	91.25
326.77	91.25
326.999	75.25
327.228	82.25
327.457	83.25
327.686	91.25
327.914	91.25
328.143	93.25
328.372	80.25
328.6	73.25
328.829	86.25
329.058	81.25
329.287	95.25
329.515	86.25
329.744	89.25
329.972	78.25
330.201	81.25
330.43	92.25
330.658	83.25
330.887	74.25
331.115	84.25
331.344	83.25
331.572	94.25
331.801	85.25
332.03	82.25
332.258	93.25
332.486	73.25
332.715	75.25
332.943	69.25
333.172	88.25
333.4	87.25
333.629	84.25
333.857	91.25
334.085	87.25
334.314	79.25
334.542	84.25
334.771	84.25
334.999	79.25
335.227	92.25
335.455	65.25
335.684	90.25
335.912	85.25
336.14	73.25
336.369	77.25
336.597	86.25
336.825	84.25
337.053	90.25
337.281	82.25
337.51	91.25
337.738	77.25
337.966	97.25
338.194	84.25
338.422	94.25
338.65	92.25
338.878	85.25
339.106	90.25
339.334	82.25
339.562	89.25
339.79	83.25
340.018	79.25
340.246	83.25
340.474	87.25
340.702	89.25
340.93	88.25
341.158	88.25
341.386	79.25
341.614	79.25
341.842	69.25
342.07	81.25
342.298	72.25
342.526	89.25
342.754	81.25
342.981	100.25
343.209	77.25
343.437	91.25
343.665	77.25
343.893	76.25
344.12	65.25
344.348	83.25
344.576	86.25
344.804	84.25
345.031	95.25
345.259	83.25
345.487	94.25
345.714	94.25
345.942	80.25
346.17	85.25
346.397	82.25
346.625	91.25
346.853	90.25
347.08	80.25
347.308	96.25
347.535	93.25
347.763	83.25
347.99	79.25
348.218	90.25
348.445	86.25
348.673	79.25
348.9	90.25
349.128	80.25
349.355	93.25
349.583	85.25
349.81	82.25
350.037	84.25
350.265	87.25
350.492	92.25
350.72	83.25
350.947	73.25
351.174	56.25
351.402	79.25
351.629	69.25
351.856	84.25
352.083	95.25
352.311	81.25
352.538	91.25
352.765	84.25
352.992	77.25
353.22	68.25
353.447	78.25
353.674	75.25
353.901	93.25
354.128	76.25
354.355	78.25
354.583	66.25
354.81	74.25
355.037	89.25
355.264	85.25
355.491	87.25
355.718	88.25
355.945	87.25
356.172	84.25
356.399	89.25
356.626	86.25
356.853	82.25
357.08	80.25
357.307	89.25
357.534	78.25
357.761	64.25
357.988	74.25
358.215	71.25
358.441	79.25
358.668	74.25
358.895	92.25
359.122	83.25
359.349	86.25
359.576	80.25
359.802	85.25
360.029	80.25
360.256	80.25
360.483	83.25
360.709	75.25
360.936	83.25
361.163	91.25
361.39	75.25
361.616	84.25
361.843	87.25
362.07	79.25
362.296	79.25
362.523	88.25
362.749	82.25
362.976	77.25
363.203	89.25
363.429	87.25
363.656	77.25
363.882	94.25
364.109	80.25
364.335	94.25
364.562	84.25
364.788	83.25
365.015	88.25
365.241	85.25
365.468	88.25
365.694	73.25
365.92	84.25
366.147	92.25
366.373	84.25
366.599	73.25
366.826	84.25
367.052	87.25
367.278	79.25
367.505	82.25
367.731	93.25
367.957	101.25
368.184	86.25
368.41	83.25
368.636	94.25
368.862	93.25
369.089	89.25
369.315	78.25
369.541	80.25
369.767	92.25
369.993	90.25
370.219	105.25
370.445	104.25
370.672	90.25
370.898	84.25
371.124	88.25
371.35	66.25
371.576	76.25
371.802	75.25
372.028	92.25
372.254	81.25
372.48	93.25
372.706	95.25
372.932	95.25
373.158	97.25
373.384	90.25
373.61	94.25
373.835	86.25
374.061	87.25
374.287	101.25
374.513	87.25
374.739	84.25
374.965	84.25
375.191	88.25
375.416	88.25
375.642	84.25
375.868	85.25
376.094	84.25
376.319	93.25
376.545	74.25
376.771	94.25
376.997	90.25
377.222	102.25
377.448	91.25
377.674	81.25
377.899	86.25
378.125	90.25
378.35	106.25
378.576	97.25
378.802	104.25
379.027	94.25
379.253	103.25
379.478	105.25
379.704	90.25
379.929	94.25
380.155	95.25
380.38	95.25
380.606	96.25
380.831	100.25
381.057	103.25
381.282	98.25
381.507	89.25
381.733	90.25
381.958	88.25
382.184	83.25
382.409	91.25
382.634	110.25
382.86	94.25
383.085	103.25
383.31	104.25
383.535	96.25
383.761	95.25
383.986	95.25
384.211	86.25
384.436	87.25
384.662	87.25
384.887	96.25
385.112	94.25
385.337	88.25
385.562	97.25
385.787	100.25
386.013	111.25
386.238	89.25
386.463	94.25
386.688	109.25
386.913	101.25
387.138	123.25
387.363	105.25
387.588	106.25
387.813	103.25
388.038	103.25
388.263	104.25
388.488	92.25
388.713	86.25
388.938	100.25
389.163	94.25
389.387	118.25
389.612	104.25
389.837	101.25
390.062	98.25
390.287	102.25
390.512	98.25
390.736	104.25
390.961	101.25
391.186	103.25
391.411	82.25
391.636	107.25
391.86	110.25
392.085	76.25
392.31	114.25
392.534	114.25
392.759	100.25
392.984	96.25
393.208	110.25
393.433	113.25
393.658	109.25
393.882	109.25
394.107	94.25
394.331	104.25
394.556	116.25
394.78	106.25
395.005	99.25
395.229	104.25
395.454	113.25
395.678	106.25
395.903	102.25
396.127	111.25
396.352	110.25
396.576	107.25
396.801	114.25
397.025	97.25
397.249	104.25
397.474	95.25
397.698	115.25
397.922	97.25
398.147	106.25
398.371	111.25
398.595	112.25
398.82	120.25
399.044	121.25
399.268	117.25
399.492	109.25
399.717	112.25
399.941	94.25
400.165	104.25
400.389	108.25
400.613	113.25
400.837	114.25
401.062	91.25
401.286	108.25
401.51	109.25
401.734	111.25
401.958	116.25
402.182	105.25
402.406	116.25
402.63	122.25
402.854	97.25
403.078	103.25
403.302	101.25
403.526	100.25
403.75	117.25
403.974	116.25
404.198	111.25
404.422	118.25
404.645	113.25
404.869	125.25
405.093	125.25
405.317	106.25
405.541	120.25
405.765	113.25
405.988	95.25
406.212	110.25
406.436	111.25
406.66	103.25
406.883	115.25
407.107	111.25
407.331	105.25
407.555	130.25
407.778	115.25
408.002	127.25
408.226	111.25
408.449	106.25
408.673	116.25
408.896	100.25
409.12	120.25
409.344	122.25
409.567	119.25
409.791	126.25
410.014	111.25
410.238	109.25
410.461	119.25
410.685	117.25
410.908	120.25
411.132	114.25
411.355	121.25
411.578	116.25
411.802	130.25
412.025	120.25
412.249	120.25
412.472	123.25
412.695	121.25
412.919	127.25
413.142	119.25
413.365	111.25
413.589	124.25
413.812	114.25
414.035	119.25
414.258	126.25
414.482	105.25
414.705	111.25
414.928	128.25
415.151	107.25
415.374	118.25
415.597	128.25
415.821	114.25
416.044	131.25
416.267	132.25
416.49	129.25
416.713	120.25
416.936	126.25
417.159	118.25
417.382	113.25
417.605	121.25
417.828	141.25
418.051	116.25
418.274	126.25
418.497	138.25
418.72	126.25
418.943	123.25
419.166	123.25
419.389	152.25
419.611	138.25
419.834	129.25
420.057	138.25
420.28	143.25
420.503	118.25
420.726	130.25
420.948	135.25
421.171	135.25
421.394	131.25
421.617	133.25
421.839	141.25
422.062	150.25
422.285	120.25
422.507	120.25
422.73	119.25
422.953	124.25
423.175	138.25
423.398	123.25
423.621	120.25
423.843	120.25
424.066	118.25
424.288	127.25
424.511	138.25
424.733	142.25
424.956	144.25
425.178	124.25
425.401	130.25
425.623	144.25
425.846	123.25
426.068	126.25
426.291	126.25
426.513	122.25
426.735	121.25
426.958	135.25
427.18	130.25
427.402	130.25
427.625	112.25
427.847	111.25
428.069	120.25
428.292	118.25
428.514	122.25
428.736	128.25
428.958	124.25
429.181	126.25
429.403	125.25
429.625	127.25
429.847	122.25
430.069	126.25
430.292	138.25
430.514	130.25
430.736	113.25
430.958	127.25
431.18	117.25
431.402	116.25
431.624	123.25
431.846	103.25
432.068	95.25
432.29	102.25
432.512	110.25
432.734	129.25
432.956	125.25
433.178	131.25
433.4	136.25
433.622	124.25
433.844	139.25
434.066	124.25
434.287	93.25
434.509	96.25
434.731	103.25
434.953	105.25
435.175	130.25
435.397	107.25
435.618	124.25
435.84	110.25
436.062	108.25
436.284	110.25
436.505	126.25
436.727	124.25
436.949	133.25
437.17	134.25
437.392	119.25
437.614	124.25
437.835	112.25
438.057	90.25
438.278	119.25
438.5	112.25
438.721	123.25
438.943	138.25
439.165	124.25
439.386	152.25
439.608	139.25
439.829	143.25
440.05	139.25
440.272	136.25
440.493	138.25
440.715	135.25
440.936	128.25
441.158	141.25
441.379	136.25
441.6	145.25
441.822	141.25
442.043	129.25
442.264	122.25
442.486	136.25
442.707	151.25
442.928	141.25
443.149	140.25
443.371	139.25
443.592	128.25
443.813	127.25
444.034	144.25
444.255	138.25
444.476	147.25
444.698	138.25
444.919	140.25
445.14	231.25
445.361	183.25
445.582	153.25
445.803	143.25
446.024	158.25
446.245	162.25
446.466	140.25
446.687	150.25
446.908	146.25
447.129	156.25
447.35	146.25
447.571	152.25
447.792	156.25
448.013	142.25
448.234	150.25
448.455	132.25
448.675	144.25
448.896	139.25
449.117	139.25
449.338	132.25
449.559	126.25
449.779	128.25
450	131.25
450.221	137.25
450.442	138.25
450.662	130.25
450.883	129.25
451.104	131.25
451.324	122.25
451.545	128.25
451.766	128.25
451.986	124.25
452.207	128.25
452.428	105.25
452.648	110.25
452.869	123.25
453.089	112.25
453.31	115.25
453.53	90.25
453.751	114.25
453.971	95.25
454.192	120.25
454.412	112.25
454.633	109.25
454.853	102.25
455.073	124.25
455.294	119.25
455.514	129.25
455.734	131.25
455.955	114.25
456.175	112.25
456.395	125.25
456.616	103.25
456.836	94.25
457.056	107.25
457.276	100.25
457.497	104.25
457.717	103.25
457.937	94.25
458.157	106.25
458.377	114.25
458.598	103.25
458.818	104.25
459.038	82.25
459.258	85.25
459.478	71.25
459.698	95.25
459.918	102.25
460.138	102.25
460.358	116.25
460.578	114.25
460.798	108.25
461.018	111.25
461.238	121.25
461.458	126.25
461.678	119.25
461.898	103.25
462.118	104.25
462.338	114.25
462.558	104.25
462.777	97.25
462.997	102.25
463.217	92.25
463.437	111.25
463.657	111.25
463.876	113.25
464.096	114.25
464.316	115.25
464.536	104.25
464.755	120.25
464.975	118.25
465.195	121.25
465.414	110.25
465.634	118.25
465.854	120.25
466.073	115.25
466.293	128.25
466.512	121.25
466.732	117.25
466.951	121.25
467.171	127.25
467.391	128.25
467.61	133.25
467.829	125.25
468.049	127.25
468.268	119.25
468.488	141.25
468.707	132.25
468.927	141.25
469.146	128.25
469.365	129.25
469.585	133.25
469.804	145.25
470.023	130.25
470.243	147.25
470.462	152.25
470.681	138.25
470.901	137.25
471.12	128.25
471.339	126.25
471.558	121.25
471.777	140.25
471.997	138.25
472.216	132.25
472.435	96.25
472.654	99.25
472.873	110.25
473.092	111.25
473.311	118.25
473.53	140.25
473.749	134.25
473.968	136.25
474.187	109.25
474.406	117.25
474.625	130.25
474.844	126.25
475.063	136.25
475.282	125.25
475.501	132.25
475.72	115.25
475.939	129.25
476.158	133.25
476.377	119.25
476.596	113.25
476.814	100.25
477.033	102.25
477.252	118.25
477.471	118.25
477.69	126.25
477.908	123.25
478.127	135.25
478.346	143.25
478.564	134.25
478.783	136.25
479.002	139.25
479.22	129.25
479.439	134.25
479.658	130.25
479.876	121.25
480.095	122.25
480.313	120.25
480.532	99.25
480.751	103.25
480.969	86.25
481.188	105.25
481.406	78.25
481.624	88.25
481.843	75.25
482.061	93.25
482.28	118.25
482.498	135.25
482.717	113.25
482.935	103.25
483.153	146.25
483.372	155.25
483.59	146.25
483.808	140.25
484.027	114.25
484.245	126.25
484.463	133.25
484.681	140.25
484.9	131.25
485.118	144.25
485.336	130.25
485.554	114.25
485.772	101.25
485.99	86.25
486.209	98.25
486.427	107.25
486.645	130.25
486.863	141.25
487.081	129.25
487.299	142.25
487.517	135.25
487.735	167.25
487.953	191.25
488.171	192.25
488.389	173.25
488.607	142.25
488.825	154.25
489.043	134.25
489.261	139.25
489.479	152.25
489.696	147.25
489.914	150.25
490.132	135.25
490.35	141.25
490.568	155.25
490.786	155.25
491.003	174.25
491.221	168.25
491.439	187.25
491.657	190.25
491.874	202.25
492.092	218.25
492.31	252.25
492.527	222.25
492.745	212.25
492.963	188.25
493.18	195.25
493.398	175.25
493.615	190.25
493.833	174.25
494.05	160.25
494.268	174.25
494.485	182.25
494.703	185.25
494.92	169.25
495.138	158.25
495.355	181.25
495.573	162.25
495.79	174.25
496.008	186.25
496.225	165.25
496.442	153.25
496.66	161.25
496.877	145.25
497.094	168.25
497.312	156.25
497.529	135.25
497.746	142.25
497.963	135.25
498.181	126.25
498.398	124.25
498.615	119.25
498.832	132.25
499.049	107.25
499.267	124.25
499.484	115.25
499.701	135.25
499.918	132.25
500.135	145.25
500.352	140.25
500.569	145.25
500.786	150.25
501.003	141.25
501.22	148.25
501.437	130.25
501.654	133.25
501.871	136.25
502.088	138.25
502.305	143.25
502.522	124.25
502.739	116.25
502.956	136.25
503.172	110.25
503.389	117.25
503.606	124.25
503.823	126.25
504.04	118.25
504.256	112.25
504.473	108.25
504.69	108.25
504.907	127.25
505.123	115.25
505.34	121.25
505.557	132.25
505.773	124.25
505.99	107.25
506.207	132.25
506.423	112.25
506.64	105.25
506.856	110.25
507.073	122.25
507.289	127.25
507.506	118.25
507.722	115.25
507.939	125.25
508.155	114.25
508.372	122.25
508.588	114.25
508.805	117.25
509.021	116.25
509.238	107.25
509.454	105.25
509.67	107.25
509.887	107.25
510.103	94.25
510.319	104.25
510.536	89.25
510.752	83.25
510.968	80.25
511.184	78.25
511.401	90.25
511.617	78.25
