Data from Location1.07152019.Energy5.Lamp.07192019.3%Agarose_HRD10591_14-31-39-018.txt Node
Date: Fri Jul 19 14:31:39 EDT 2019
User: cochatt
Spectrometer: HR+D1059
Trigger mode: 1
Integration Time (sec): 1.000000E-1
Scans to average: 1
Electric dark correction enabled: true
Nonlinearity correction enabled: false
Boxcar width: 0
XAxis mode: Wavelengths
Number of Pixels in Spectrum: 2048
>>>>>Begin Spectral Data<<<<<
223.165	-0.75
223.4	-0.75
223.635	-0.75
223.869	-22.75
224.104	-13.75
224.338	-12.75
224.573	-12.75
224.808	-17.75
225.042	-7.75
225.277	-22.75
225.511	-2.75
225.746	4.25
225.98	16.25
226.215	16.25
226.449	28.25
226.683	12.25
226.918	17.25
227.152	19.25
227.387	32.25
227.621	33.25
227.856	36.25
228.09	35.25
228.324	48.25
228.559	52.25
228.793	51.25
229.027	69.25
229.262	44.25
229.496	47.25
229.73	62.25
229.964	72.25
230.199	75.25
230.433	73.25
230.667	68.25
230.901	69.25
231.136	62.25
231.37	78.25
231.604	74.25
231.838	76.25
232.072	91.25
232.306	72.25
232.541	67.25
232.775	90.25
233.009	72.25
233.243	84.25
233.477	74.25
233.711	74.25
233.945	74.25
234.179	58.25
234.413	68.25
234.647	80.25
234.881	62.25
235.115	88.25
235.349	65.25
235.583	71.25
235.817	82.25
236.051	80.25
236.285	81.25
236.519	80.25
236.753	74.25
236.987	72.25
237.221	79.25
237.455	85.25
237.689	68.25
237.922	83.25
238.156	66.25
238.39	77.25
238.624	71.25
238.858	76.25
239.091	76.25
239.325	82.25
239.559	66.25
239.793	93.25
240.027	90.25
240.26	78.25
240.494	77.25
240.728	75.25
240.961	63.25
241.195	85.25
241.429	72.25
241.662	76.25
241.896	80.25
242.13	64.25
242.363	73.25
242.597	87.25
242.83	74.25
243.064	82.25
243.298	67.25
243.531	60.25
243.765	84.25
243.998	66.25
244.232	82.25
244.465	86.25
244.699	67.25
244.932	80.25
245.166	79.25
245.399	71.25
245.633	55.25
245.866	75.25
246.099	74.25
246.333	65.25
246.566	79.25
246.8	67.25
247.033	83.25
247.266	77.25
247.5	77.25
247.733	68.25
247.966	80.25
248.2	77.25
248.433	66.25
248.666	73.25
248.899	74.25
249.133	61.25
249.366	76.25
249.599	77.25
249.832	84.25
250.066	74.25
250.299	82.25
250.532	80.25
250.765	81.25
250.998	71.25
251.231	78.25
251.465	71.25
251.698	86.25
251.931	74.25
252.164	86.25
252.397	67.25
252.63	72.25
252.863	64.25
253.096	64.25
253.329	81.25
253.562	69.25
253.795	71.25
254.028	85.25
254.261	85.25
254.494	82.25
254.727	75.25
254.96	73.25
255.193	77.25
255.426	84.25
255.659	77.25
255.892	76.25
256.124	72.25
256.357	85.25
256.59	85.25
256.823	77.25
257.056	80.25
257.289	70.25
257.521	85.25
257.754	79.25
257.987	73.25
258.22	78.25
258.452	72.25
258.685	86.25
258.918	78.25
259.151	75.25
259.383	85.25
259.616	69.25
259.849	74.25
260.081	77.25
260.314	84.25
260.547	72.25
260.779	85.25
261.012	68.25
261.244	87.25
261.477	80.25
261.71	72.25
261.942	90.25
262.175	70.25
262.407	75.25
262.64	77.25
262.872	75.25
263.105	79.25
263.337	79.25
263.57	78.25
263.802	80.25
264.035	73.25
264.267	70.25
264.499	80.25
264.732	81.25
264.964	81.25
265.197	85.25
265.429	68.25
265.661	80.25
265.894	74.25
266.126	84.25
266.358	71.25
266.591	77.25
266.823	83.25
267.055	87.25
267.287	87.25
267.52	74.25
267.752	87.25
267.984	83.25
268.216	91.25
268.448	80.25
268.681	89.25
268.913	67.25
269.145	78.25
269.377	88.25
269.609	82.25
269.841	89.25
270.073	87.25
270.306	83.25
270.538	92.25
270.77	81.25
271.002	92.25
271.234	84.25
271.466	83.25
271.698	93.25
271.93	88.25
272.162	81.25
272.394	82.25
272.626	84.25
272.858	83.25
273.09	76.25
273.322	68.25
273.553	77.25
273.785	66.25
274.017	79.25
274.249	76.25
274.481	59.25
274.713	95.25
274.945	66.25
275.176	84.25
275.408	67.25
275.64	79.25
275.872	83.25
276.104	83.25
276.335	82.25
276.567	76.25
276.799	78.25
277.031	92.25
277.262	82.25
277.494	98.25
277.726	83.25
277.957	66.25
278.189	75.25
278.421	84.25
278.652	87.25
278.884	79.25
279.115	90.25
279.347	73.25
279.579	83.25
279.81	77.25
280.042	83.25
280.273	80.25
280.505	70.25
280.736	78.25
280.968	83.25
281.199	82.25
281.431	86.25
281.662	93.25
281.894	83.25
282.125	83.25
282.356	83.25
282.588	82.25
282.819	82.25
283.051	88.25
283.282	90.25
283.513	73.25
283.745	73.25
283.976	80.25
284.207	78.25
284.439	84.25
284.67	98.25
284.901	69.25
285.132	102.25
285.364	87.25
285.595	70.25
285.826	74.25
286.057	84.25
286.288	72.25
286.52	87.25
286.751	73.25
286.982	81.25
287.213	82.25
287.444	78.25
287.675	67.25
287.906	91.25
288.138	85.25
288.369	85.25
288.6	90.25
288.831	79.25
289.062	80.25
289.293	77.25
289.524	81.25
289.755	76.25
289.986	73.25
290.217	80.25
290.448	70.25
290.679	76.25
290.91	82.25
291.141	77.25
291.371	89.25
291.602	77.25
291.833	79.25
292.064	87.25
292.295	69.25
292.526	82.25
292.757	84.25
292.987	81.25
293.218	84.25
293.449	83.25
293.68	75.25
293.91	77.25
294.141	78.25
294.372	89.25
294.603	90.25
294.833	93.25
295.064	90.25
295.295	64.25
295.525	68.25
295.756	72.25
295.987	73.25
296.217	85.25
296.448	82.25
296.679	76.25
296.909	87.25
297.14	78.25
297.37	94.25
297.601	80.25
297.831	87.25
298.062	84.25
298.292	81.25
298.523	73.25
298.753	65.25
298.984	84.25
299.214	77.25
299.445	78.25
299.675	81.25
299.905	65.25
300.136	87.25
300.366	76.25
300.597	89.25
300.827	75.25
301.057	75.25
301.288	61.25
301.518	87.25
301.748	80.25
301.979	68.25
302.209	81.25
302.439	76.25
302.669	83.25
302.9	79.25
303.13	89.25
303.36	67.25
303.59	71.25
303.82	75.25
304.051	81.25
304.281	89.25
304.511	82.25
304.741	78.25
304.971	98.25
305.201	76.25
305.431	71.25
305.661	89.25
305.891	76.25
306.121	84.25
306.352	80.25
306.582	77.25
306.812	78.25
307.042	71.25
307.272	85.25
307.502	76.25
307.731	94.25
307.961	77.25
308.191	77.25
308.421	98.25
308.651	91.25
308.881	82.25
309.111	88.25
309.341	93.25
309.571	66.25
309.8	92.25
310.03	72.25
310.26	81.25
310.49	78.25
310.72	85.25
310.949	86.25
311.179	88.25
311.409	72.25
311.639	69.25
311.868	82.25
312.098	76.25
312.328	84.25
312.557	79.25
312.787	85.25
313.017	86.25
313.246	69.25
313.476	84.25
313.706	79.25
313.935	74.25
314.165	90.25
314.394	81.25
314.624	74.25
314.853	96.25
315.083	99.25
315.312	75.25
315.542	87.25
315.771	92.25
316.001	76.25
316.23	68.25
316.46	85.25
316.689	80.25
316.919	76.25
317.148	85.25
317.377	77.25
317.607	100.25
317.836	85.25
318.065	81.25
318.295	82.25
318.524	89.25
318.753	77.25
318.983	76.25
319.212	68.25
319.441	90.25
319.67	82.25
319.9	71.25
320.129	92.25
320.358	90.25
320.587	83.25
320.816	85.25
321.046	84.25
321.275	68.25
321.504	79.25
321.733	87.25
321.962	96.25
322.191	70.25
322.42	77.25
322.649	87.25
322.878	93.25
323.108	89.25
323.337	85.25
323.566	79.25
323.795	81.25
324.024	100.25
324.253	79.25
324.482	63.25
324.71	81.25
324.939	82.25
325.168	84.25
325.397	98.25
325.626	90.25
325.855	82.25
326.084	88.25
326.313	88.25
326.542	77.25
326.77	85.25
326.999	75.25
327.228	71.25
327.457	83.25
327.686	67.25
327.914	82.25
328.143	82.25
328.372	74.25
328.6	86.25
328.829	70.25
329.058	83.25
329.287	88.25
329.515	74.25
329.744	81.25
329.972	75.25
330.201	88.25
330.43	84.25
330.658	76.25
330.887	83.25
331.115	87.25
331.344	83.25
331.572	90.25
331.801	80.25
332.03	65.25
332.258	75.25
332.486	81.25
332.715	94.25
332.943	78.25
333.172	86.25
333.4	81.25
333.629	81.25
333.857	84.25
334.085	77.25
334.314	83.25
334.542	86.25
334.771	82.25
334.999	81.25
335.227	82.25
335.455	78.25
335.684	97.25
335.912	81.25
336.14	82.25
336.369	87.25
336.597	71.25
336.825	75.25
337.053	78.25
337.281	81.25
337.51	93.25
337.738	86.25
337.966	73.25
338.194	77.25
338.422	90.25
338.65	77.25
338.878	81.25
339.106	93.25
339.334	79.25
339.562	85.25
339.79	80.25
340.018	76.25
340.246	82.25
340.474	87.25
340.702	84.25
340.93	90.25
341.158	82.25
341.386	87.25
341.614	78.25
341.842	73.25
342.07	71.25
342.298	83.25
342.526	72.25
342.754	79.25
342.981	82.25
343.209	82.25
343.437	98.25
343.665	79.25
343.893	72.25
344.12	69.25
344.348	76.25
344.576	91.25
344.804	72.25
345.031	88.25
345.259	80.25
345.487	88.25
345.714	100.25
345.942	76.25
346.17	83.25
346.397	82.25
346.625	76.25
346.853	83.25
347.08	72.25
347.308	80.25
347.535	82.25
347.763	85.25
347.99	74.25
348.218	92.25
348.445	86.25
348.673	80.25
348.9	90.25
349.128	95.25
349.355	83.25
349.583	87.25
349.81	83.25
350.037	89.25
350.265	103.25
350.492	87.25
350.72	83.25
350.947	76.25
351.174	76.25
351.402	77.25
351.629	93.25
351.856	78.25
352.083	80.25
352.311	90.25
352.538	80.25
352.765	98.25
352.992	90.25
353.22	76.25
353.447	84.25
353.674	79.25
353.901	87.25
354.128	81.25
354.355	87.25
354.583	86.25
354.81	76.25
355.037	76.25
355.264	68.25
355.491	79.25
355.718	72.25
355.945	64.25
356.172	88.25
356.399	74.25
356.626	75.25
356.853	74.25
357.08	79.25
357.307	73.25
357.534	75.25
357.761	80.25
357.988	92.25
358.215	84.25
358.441	74.25
358.668	91.25
358.895	96.25
359.122	82.25
359.349	74.25
359.576	79.25
359.802	69.25
360.029	77.25
360.256	81.25
360.483	81.25
360.709	93.25
360.936	88.25
361.163	76.25
361.39	79.25
361.616	69.25
361.843	98.25
362.07	79.25
362.296	92.25
362.523	92.25
362.749	87.25
362.976	78.25
363.203	84.25
363.429	79.25
363.656	83.25
363.882	86.25
364.109	78.25
364.335	78.25
364.562	82.25
364.788	78.25
365.015	80.25
365.241	89.25
365.468	84.25
365.694	96.25
365.92	91.25
366.147	89.25
366.373	77.25
366.599	71.25
366.826	88.25
367.052	72.25
367.278	84.25
367.505	91.25
367.731	80.25
367.957	79.25
368.184	78.25
368.41	93.25
368.636	87.25
368.862	70.25
369.089	87.25
369.315	79.25
369.541	91.25
369.767	92.25
369.993	93.25
370.219	84.25
370.445	99.25
370.672	96.25
370.898	84.25
371.124	91.25
371.35	64.25
371.576	88.25
371.802	86.25
372.028	92.25
372.254	103.25
372.48	99.25
372.706	81.25
372.932	78.25
373.158	92.25
373.384	83.25
373.61	94.25
373.835	83.25
374.061	75.25
374.287	96.25
374.513	99.25
374.739	83.25
374.965	93.25
375.191	75.25
375.416	89.25
375.642	100.25
375.868	96.25
376.094	90.25
376.319	100.25
376.545	76.25
376.771	87.25
376.997	95.25
377.222	97.25
377.448	84.25
377.674	96.25
377.899	91.25
378.125	81.25
378.35	76.25
378.576	88.25
378.802	91.25
379.027	100.25
379.253	91.25
379.478	102.25
379.704	93.25
379.929	100.25
380.155	86.25
380.38	97.25
380.606	88.25
380.831	109.25
381.057	101.25
381.282	101.25
381.507	93.25
381.733	85.25
381.958	91.25
382.184	91.25
382.409	91.25
382.634	85.25
382.86	100.25
383.085	87.25
383.31	91.25
383.535	100.25
383.761	107.25
383.986	109.25
384.211	77.25
384.436	95.25
384.662	88.25
384.887	95.25
385.112	86.25
385.337	92.25
385.562	76.25
385.787	104.25
386.013	105.25
386.238	76.25
386.463	86.25
386.688	113.25
386.913	87.25
387.138	89.25
387.363	96.25
387.588	98.25
387.813	111.25
388.038	118.25
388.263	108.25
388.488	95.25
388.713	108.25
388.938	92.25
389.163	95.25
389.387	91.25
389.612	100.25
389.837	95.25
390.062	77.25
390.287	88.25
390.512	97.25
390.736	100.25
390.961	81.25
391.186	106.25
391.411	92.25
391.636	107.25
391.86	109.25
392.085	101.25
392.31	99.25
392.534	111.25
392.759	107.25
392.984	99.25
393.208	102.25
393.433	107.25
393.658	100.25
393.882	115.25
394.107	108.25
394.331	97.25
394.556	101.25
394.78	116.25
395.005	93.25
395.229	103.25
395.454	107.25
395.678	101.25
395.903	105.25
396.127	94.25
396.352	108.25
396.576	97.25
396.801	106.25
397.025	91.25
397.249	96.25
397.474	112.25
397.698	107.25
397.922	99.25
398.147	92.25
398.371	100.25
398.595	97.25
398.82	104.25
399.044	99.25
399.268	103.25
399.492	92.25
399.717	100.25
399.941	108.25
400.165	109.25
400.389	116.25
400.613	107.25
400.837	87.25
401.062	106.25
401.286	107.25
401.51	118.25
401.734	104.25
401.958	104.25
402.182	97.25
402.406	110.25
402.63	117.25
402.854	103.25
403.078	102.25
403.302	106.25
403.526	101.25
403.75	111.25
403.974	113.25
404.198	117.25
404.422	114.25
404.645	121.25
404.869	118.25
405.093	109.25
405.317	111.25
405.541	99.25
405.765	116.25
405.988	119.25
406.212	117.25
406.436	116.25
406.66	113.25
406.883	115.25
407.107	120.25
407.331	123.25
407.555	119.25
407.778	102.25
408.002	121.25
408.226	105.25
408.449	121.25
408.673	117.25
408.896	128.25
409.12	99.25
409.344	113.25
409.567	117.25
409.791	126.25
410.014	120.25
410.238	103.25
410.461	92.25
410.685	124.25
410.908	107.25
411.132	120.25
411.355	102.25
411.578	127.25
411.802	122.25
412.025	134.25
412.249	120.25
412.472	135.25
412.695	125.25
412.919	113.25
413.142	114.25
413.365	108.25
413.589	122.25
413.812	109.25
414.035	119.25
414.258	127.25
414.482	112.25
414.705	127.25
414.928	128.25
415.151	117.25
415.374	132.25
415.597	122.25
415.821	119.25
416.044	124.25
416.267	134.25
416.49	123.25
416.713	129.25
416.936	140.25
417.159	120.25
417.382	116.25
417.605	134.25
417.828	122.25
418.051	129.25
418.274	121.25
418.497	123.25
418.72	131.25
418.943	145.25
419.166	128.25
419.389	124.25
419.611	124.25
419.834	128.25
420.057	137.25
420.28	142.25
420.503	137.25
420.726	122.25
420.948	121.25
421.171	142.25
421.394	126.25
421.617	140.25
421.839	132.25
422.062	131.25
422.285	118.25
422.507	130.25
422.73	129.25
422.953	117.25
423.175	134.25
423.398	139.25
423.621	135.25
423.843	132.25
424.066	121.25
424.288	133.25
424.511	137.25
424.733	145.25
424.956	145.25
425.178	140.25
425.401	116.25
425.623	124.25
425.846	118.25
426.068	126.25
426.291	138.25
426.513	123.25
426.735	116.25
426.958	119.25
427.18	115.25
427.402	130.25
427.625	140.25
427.847	128.25
428.069	119.25
428.292	124.25
428.514	134.25
428.736	129.25
428.958	114.25
429.181	145.25
429.403	127.25
429.625	131.25
429.847	138.25
430.069	131.25
430.292	119.25
430.514	119.25
430.736	126.25
430.958	127.25
431.18	133.25
431.402	125.25
431.624	128.25
431.846	111.25
432.068	96.25
432.29	100.25
432.512	110.25
432.734	115.25
432.956	127.25
433.178	135.25
433.4	134.25
433.622	130.25
433.844	121.25
434.066	124.25
434.287	107.25
434.509	93.25
434.731	97.25
434.953	116.25
435.175	107.25
435.397	121.25
435.618	103.25
435.84	102.25
436.062	101.25
436.284	114.25
436.505	119.25
436.727	116.25
436.949	131.25
437.17	119.25
437.392	134.25
437.614	126.25
437.835	104.25
438.057	95.25
438.278	89.25
438.5	131.25
438.721	141.25
438.943	119.25
439.165	137.25
439.386	122.25
439.608	148.25
439.829	141.25
440.05	161.25
440.272	142.25
440.493	139.25
440.715	139.25
440.936	153.25
441.158	146.25
441.379	140.25
441.6	144.25
441.822	124.25
442.043	138.25
442.264	146.25
442.486	141.25
442.707	134.25
442.928	137.25
443.149	132.25
443.371	124.25
443.592	138.25
443.813	129.25
444.034	131.25
444.255	148.25
444.476	140.25
444.698	127.25
444.919	125.25
445.14	281.25
445.361	209.25
445.582	149.25
445.803	153.25
446.024	136.25
446.245	150.25
446.466	145.25
446.687	151.25
446.908	155.25
447.129	151.25
447.35	134.25
447.571	138.25
447.792	140.25
448.013	139.25
448.234	137.25
448.455	139.25
448.675	144.25
448.896	129.25
449.117	127.25
449.338	133.25
449.559	132.25
449.779	124.25
450	138.25
450.221	131.25
450.442	131.25
450.662	118.25
450.883	130.25
451.104	122.25
451.324	134.25
451.545	121.25
451.766	125.25
451.986	129.25
452.207	120.25
452.428	106.25
452.648	139.25
452.869	130.25
453.089	116.25
453.31	109.25
453.53	107.25
453.751	99.25
453.971	99.25
454.192	103.25
454.412	98.25
454.633	106.25
454.853	93.25
455.073	119.25
455.294	126.25
455.514	129.25
455.734	126.25
455.955	115.25
456.175	100.25
456.395	121.25
456.616	98.25
456.836	106.25
457.056	115.25
457.276	99.25
457.497	106.25
457.717	99.25
457.937	109.25
458.157	108.25
458.377	100.25
458.598	96.25
458.818	100.25
459.038	87.25
459.258	89.25
459.478	84.25
459.698	82.25
459.918	88.25
460.138	103.25
460.358	114.25
460.578	120.25
460.798	104.25
461.018	115.25
461.238	122.25
461.458	115.25
461.678	116.25
461.898	88.25
462.118	119.25
462.338	101.25
462.558	102.25
462.777	127.25
462.997	112.25
463.217	107.25
463.437	110.25
463.657	107.25
463.876	111.25
464.096	111.25
464.316	93.25
464.536	104.25
464.755	117.25
464.975	112.25
465.195	112.25
465.414	124.25
465.634	108.25
465.854	115.25
466.073	120.25
466.293	117.25
466.512	111.25
466.732	107.25
466.951	125.25
467.171	129.25
467.391	123.25
467.61	128.25
467.829	133.25
468.049	135.25
468.268	123.25
468.488	116.25
468.707	115.25
468.927	149.25
469.146	133.25
469.365	138.25
469.585	139.25
469.804	135.25
470.023	139.25
470.243	139.25
470.462	142.25
470.681	158.25
470.901	131.25
471.12	121.25
471.339	137.25
471.558	134.25
471.777	135.25
471.997	135.25
472.216	119.25
472.435	98.25
472.654	99.25
472.873	100.25
473.092	112.25
473.311	131.25
473.53	116.25
473.749	121.25
473.968	130.25
474.187	115.25
474.406	122.25
474.625	109.25
474.844	125.25
475.063	119.25
475.282	124.25
475.501	113.25
475.72	118.25
475.939	125.25
476.158	127.25
476.377	110.25
476.596	132.25
476.814	106.25
477.033	108.25
477.252	117.25
477.471	114.25
477.69	115.25
477.908	129.25
478.127	119.25
478.346	130.25
478.564	135.25
478.783	128.25
479.002	128.25
479.22	136.25
479.439	123.25
479.658	120.25
479.876	122.25
480.095	101.25
480.313	113.25
480.532	120.25
480.751	123.25
480.969	83.25
481.188	80.25
481.406	95.25
481.624	81.25
481.843	77.25
482.061	101.25
482.28	118.25
482.498	108.25
482.717	105.25
482.935	127.25
483.153	129.25
483.372	153.25
483.59	133.25
483.808	138.25
484.027	131.25
484.245	130.25
484.463	147.25
484.681	168.25
484.9	138.25
485.118	137.25
485.336	118.25
485.554	116.25
485.772	100.25
485.99	100.25
486.209	115.25
486.427	106.25
486.645	108.25
486.863	151.25
487.081	133.25
487.299	144.25
487.517	130.25
487.735	161.25
487.953	185.25
488.171	169.25
488.389	166.25
488.607	152.25
488.825	138.25
489.043	130.25
489.261	136.25
489.479	135.25
489.696	141.25
489.914	139.25
490.132	146.25
490.35	167.25
490.568	175.25
490.786	175.25
491.003	176.25
491.221	167.25
491.439	183.25
491.657	179.25
491.874	198.25
492.092	209.25
492.31	243.25
492.527	206.25
492.745	191.25
492.963	187.25
493.18	183.25
493.398	169.25
493.615	189.25
493.833	166.25
494.05	159.25
494.268	157.25
494.485	170.25
494.703	171.25
494.92	150.25
495.138	157.25
495.355	173.25
495.573	158.25
495.79	161.25
496.008	184.25
496.225	148.25
496.442	156.25
496.66	153.25
496.877	160.25
497.094	153.25
497.312	161.25
497.529	152.25
497.746	136.25
497.963	128.25
498.181	133.25
498.398	109.25
498.615	121.25
498.832	114.25
499.049	98.25
499.267	124.25
499.484	125.25
499.701	129.25
499.918	133.25
500.135	141.25
500.352	138.25
500.569	139.25
500.786	156.25
501.003	144.25
501.22	143.25
501.437	135.25
501.654	139.25
501.871	128.25
502.088	129.25
502.305	124.25
502.522	111.25
502.739	126.25
502.956	136.25
503.172	112.25
503.389	116.25
503.606	109.25
503.823	100.25
504.04	125.25
504.256	118.25
504.473	122.25
504.69	132.25
504.907	121.25
505.123	119.25
505.34	114.25
505.557	124.25
505.773	111.25
505.99	117.25
506.207	117.25
506.423	111.25
506.64	119.25
506.856	120.25
507.073	107.25
507.289	118.25
507.506	127.25
507.722	115.25
507.939	108.25
508.155	98.25
508.372	114.25
508.588	105.25
508.805	109.25
509.021	107.25
509.238	89.25
509.454	95.25
509.67	107.25
509.887	92.25
510.103	87.25
510.319	90.25
510.536	85.25
510.752	90.25
510.968	92.25
511.184	67.25
511.401	84.25
511.617	87.25
511.833	78.25
512.049	83.25
