Data from Location1.07152019.Energy5.Lamp.07192019.3%Agarose_HRD10591_14-32-25-016.txt Node
Date: Fri Jul 19 14:32:25 EDT 2019
User: cochatt
Spectrometer: HR+D1059
Trigger mode: 1
Integration Time (sec): 1.000000E-1
Scans to average: 1
Electric dark correction enabled: true
Nonlinearity correction enabled: false
Boxcar width: 0
XAxis mode: Wavelengths
Number of Pixels in Spectrum: 2048
>>>>>Begin Spectral Data<<<<<
223.165	-22.38
223.4	-22.38
223.635	-22.38
223.869	-7.38
224.104	-18.38
224.338	-18.38
224.573	-18.38
224.808	-6.38
225.042	-6.38
225.277	-1.38
225.511	-3.38
225.746	8.62
225.98	-3.38
226.215	-6.38
226.449	19.62
226.683	12.62
226.918	30.62
227.152	40.62
227.387	40.62
227.621	43.62
227.856	46.62
228.09	44.62
228.324	35.62
228.559	66.62
228.793	58.62
229.027	69.62
229.262	65.62
229.496	74.62
229.73	54.62
229.964	73.62
230.199	62.62
230.433	79.62
230.667	86.62
230.901	81.62
231.136	84.62
231.37	77.62
231.604	80.62
231.838	85.62
232.072	75.62
232.306	82.62
232.541	74.62
232.775	99.62
233.009	65.62
233.243	81.62
233.477	88.62
233.711	94.62
233.945	88.62
234.179	75.62
234.413	86.62
234.647	85.62
234.881	76.62
235.115	79.62
235.349	74.62
235.583	89.62
235.817	84.62
236.051	72.62
236.285	74.62
236.519	91.62
236.753	79.62
236.987	99.62
237.221	85.62
237.455	83.62
237.689	88.62
237.922	79.62
238.156	84.62
238.39	77.62
238.624	69.62
238.858	75.62
239.091	84.62
239.325	74.62
239.559	85.62
239.793	74.62
240.027	70.62
240.26	63.62
240.494	93.62
240.728	74.62
240.961	71.62
241.195	77.62
241.429	82.62
241.662	66.62
241.896	70.62
242.13	91.62
242.363	81.62
242.597	70.62
242.83	87.62
243.064	85.62
243.298	85.62
243.531	80.62
243.765	79.62
243.998	82.62
244.232	65.62
244.465	71.62
244.699	78.62
244.932	72.62
245.166	73.62
245.399	75.62
245.633	72.62
245.866	79.62
246.099	75.62
246.333	83.62
246.566	80.62
246.8	84.62
247.033	62.62
247.266	81.62
247.5	80.62
247.733	85.62
247.966	89.62
248.2	83.62
248.433	74.62
248.666	80.62
248.899	85.62
249.133	70.62
249.366	78.62
249.599	65.62
249.832	96.62
250.066	79.62
250.299	80.62
250.532	82.62
250.765	94.62
250.998	88.62
251.231	89.62
251.465	74.62
251.698	69.62
251.931	75.62
252.164	79.62
252.397	101.62
252.63	94.62
252.863	80.62
253.096	66.62
253.329	91.62
253.562	78.62
253.795	85.62
254.028	83.62
254.261	76.62
254.494	79.62
254.727	74.62
254.96	82.62
255.193	76.62
255.426	89.62
255.659	70.62
255.892	77.62
256.124	87.62
256.357	84.62
256.59	91.62
256.823	64.62
257.056	76.62
257.289	77.62
257.521	78.62
257.754	68.62
257.987	71.62
258.22	95.62
258.452	81.62
258.685	85.62
258.918	87.62
259.151	78.62
259.383	75.62
259.616	79.62
259.849	87.62
260.081	96.62
260.314	99.62
260.547	85.62
260.779	84.62
261.012	68.62
261.244	89.62
261.477	91.62
261.71	76.62
261.942	77.62
262.175	74.62
262.407	77.62
262.64	75.62
262.872	95.62
263.105	90.62
263.337	72.62
263.57	97.62
263.802	96.62
264.035	75.62
264.267	89.62
264.499	75.62
264.732	94.62
264.964	95.62
265.197	80.62
265.429	88.62
265.661	73.62
265.894	67.62
266.126	87.62
266.358	83.62
266.591	78.62
266.823	89.62
267.055	88.62
267.287	85.62
267.52	95.62
267.752	75.62
267.984	85.62
268.216	90.62
268.448	79.62
268.681	92.62
268.913	81.62
269.145	71.62
269.377	66.62
269.609	85.62
269.841	97.62
270.073	87.62
270.306	80.62
270.538	79.62
270.77	85.62
271.002	83.62
271.234	92.62
271.466	80.62
271.698	72.62
271.93	99.62
272.162	89.62
272.394	85.62
272.626	85.62
272.858	85.62
273.09	74.62
273.322	76.62
273.553	95.62
273.785	93.62
274.017	83.62
274.249	91.62
274.481	82.62
274.713	72.62
274.945	71.62
275.176	89.62
275.408	95.62
275.64	78.62
275.872	85.62
276.104	89.62
276.335	88.62
276.567	87.62
276.799	67.62
277.031	78.62
277.262	98.62
277.494	98.62
277.726	89.62
277.957	82.62
278.189	78.62
278.421	90.62
278.652	89.62
278.884	77.62
279.115	84.62
279.347	98.62
279.579	96.62
279.81	95.62
280.042	89.62
280.273	89.62
280.505	87.62
280.736	80.62
280.968	82.62
281.199	65.62
281.431	90.62
281.662	84.62
281.894	87.62
282.125	85.62
282.356	85.62
282.588	84.62
282.819	77.62
283.051	77.62
283.282	82.62
283.513	72.62
283.745	66.62
283.976	85.62
284.207	89.62
284.439	78.62
284.67	88.62
284.901	84.62
285.132	73.62
285.364	89.62
285.595	88.62
285.826	90.62
286.057	78.62
286.288	74.62
286.52	80.62
286.751	83.62
286.982	91.62
287.213	78.62
287.444	99.62
287.675	78.62
287.906	71.62
288.138	90.62
288.369	80.62
288.6	83.62
288.831	105.62
289.062	87.62
289.293	88.62
289.524	81.62
289.755	88.62
289.986	86.62
290.217	88.62
290.448	76.62
290.679	89.62
290.91	95.62
291.141	83.62
291.371	86.62
291.602	100.62
291.833	88.62
292.064	86.62
292.295	82.62
292.526	91.62
292.757	86.62
292.987	81.62
293.218	87.62
293.449	90.62
293.68	85.62
293.91	83.62
294.141	89.62
294.372	84.62
294.603	94.62
294.833	96.62
295.064	83.62
295.295	88.62
295.525	88.62
295.756	94.62
295.987	78.62
296.217	82.62
296.448	96.62
296.679	81.62
296.909	83.62
297.14	92.62
297.37	101.62
297.601	74.62
297.831	95.62
298.062	92.62
298.292	89.62
298.523	85.62
298.753	76.62
298.984	77.62
299.214	98.62
299.445	78.62
299.675	83.62
299.905	85.62
300.136	79.62
300.366	85.62
300.597	90.62
300.827	73.62
301.057	85.62
301.288	78.62
301.518	84.62
301.748	84.62
301.979	79.62
302.209	75.62
302.439	73.62
302.669	103.62
302.9	88.62
303.13	75.62
303.36	88.62
303.59	63.62
303.82	92.62
304.051	79.62
304.281	83.62
304.511	80.62
304.741	80.62
304.971	83.62
305.201	96.62
305.431	88.62
305.661	91.62
305.891	84.62
306.121	89.62
306.352	86.62
306.582	78.62
306.812	81.62
307.042	75.62
307.272	88.62
307.502	70.62
307.731	75.62
307.961	92.62
308.191	101.62
308.421	79.62
308.651	99.62
308.881	89.62
309.111	82.62
309.341	84.62
309.571	84.62
309.8	85.62
310.03	78.62
310.26	95.62
310.49	101.62
310.72	87.62
310.949	74.62
311.179	101.62
311.409	80.62
311.639	90.62
311.868	79.62
312.098	82.62
312.328	90.62
312.557	77.62
312.787	83.62
313.017	94.62
313.246	88.62
313.476	92.62
313.706	86.62
313.935	82.62
314.165	74.62
314.394	81.62
314.624	84.62
314.853	89.62
315.083	89.62
315.312	88.62
315.542	85.62
315.771	74.62
316.001	101.62
316.23	94.62
316.46	92.62
316.689	80.62
316.919	80.62
317.148	93.62
317.377	96.62
317.607	90.62
317.836	79.62
318.065	86.62
318.295	82.62
318.524	84.62
318.753	83.62
318.983	90.62
319.212	75.62
319.441	87.62
319.67	68.62
319.9	77.62
320.129	83.62
320.358	83.62
320.587	86.62
320.816	87.62
321.046	84.62
321.275	92.62
321.504	80.62
321.733	87.62
321.962	77.62
322.191	83.62
322.42	91.62
322.649	84.62
322.878	79.62
323.108	89.62
323.337	83.62
323.566	85.62
323.795	86.62
324.024	76.62
324.253	91.62
324.482	76.62
324.71	103.62
324.939	90.62
325.168	85.62
325.397	77.62
325.626	98.62
325.855	76.62
326.084	87.62
326.313	73.62
326.542	79.62
326.77	86.62
326.999	101.62
327.228	100.62
327.457	91.62
327.686	99.62
327.914	72.62
328.143	88.62
328.372	86.62
328.6	103.62
328.829	91.62
329.058	88.62
329.287	81.62
329.515	88.62
329.744	96.62
329.972	90.62
330.201	75.62
330.43	84.62
330.658	90.62
330.887	89.62
331.115	85.62
331.344	88.62
331.572	79.62
331.801	84.62
332.03	89.62
332.258	100.62
332.486	92.62
332.715	81.62
332.943	90.62
333.172	101.62
333.4	78.62
333.629	87.62
333.857	79.62
334.085	88.62
334.314	90.62
334.542	78.62
334.771	76.62
334.999	72.62
335.227	84.62
335.455	96.62
335.684	77.62
335.912	75.62
336.14	89.62
336.369	78.62
336.597	83.62
336.825	79.62
337.053	83.62
337.281	79.62
337.51	79.62
337.738	101.62
337.966	84.62
338.194	74.62
338.422	78.62
338.65	93.62
338.878	84.62
339.106	77.62
339.334	93.62
339.562	95.62
339.79	98.62
340.018	94.62
340.246	94.62
340.474	90.62
340.702	79.62
340.93	79.62
341.158	70.62
341.386	88.62
341.614	93.62
341.842	89.62
342.07	74.62
342.298	87.62
342.526	91.62
342.754	85.62
342.981	81.62
343.209	73.62
343.437	102.62
343.665	76.62
343.893	81.62
344.12	91.62
344.348	90.62
344.576	82.62
344.804	88.62
345.031	81.62
345.259	93.62
345.487	74.62
345.714	91.62
345.942	92.62
346.17	93.62
346.397	99.62
346.625	90.62
346.853	90.62
347.08	79.62
347.308	75.62
347.535	85.62
347.763	95.62
347.99	94.62
348.218	85.62
348.445	83.62
348.673	89.62
348.9	82.62
349.128	88.62
349.355	74.62
349.583	71.62
349.81	88.62
350.037	94.62
350.265	84.62
350.492	91.62
350.72	74.62
350.947	88.62
351.174	79.62
351.402	85.62
351.629	100.62
351.856	80.62
352.083	74.62
352.311	75.62
352.538	78.62
352.765	88.62
352.992	83.62
353.22	76.62
353.447	90.62
353.674	86.62
353.901	75.62
354.128	77.62
354.355	81.62
354.583	71.62
354.81	85.62
355.037	92.62
355.264	87.62
355.491	78.62
355.718	94.62
355.945	69.62
356.172	87.62
356.399	77.62
356.626	87.62
356.853	73.62
357.08	80.62
357.307	79.62
357.534	85.62
357.761	87.62
357.988	100.62
358.215	91.62
358.441	75.62
358.668	84.62
358.895	78.62
359.122	83.62
359.349	89.62
359.576	85.62
359.802	80.62
360.029	78.62
360.256	86.62
360.483	85.62
360.709	79.62
360.936	87.62
361.163	89.62
361.39	79.62
361.616	88.62
361.843	98.62
362.07	80.62
362.296	94.62
362.523	85.62
362.749	75.62
362.976	81.62
363.203	101.62
363.429	78.62
363.656	97.62
363.882	89.62
364.109	90.62
364.335	82.62
364.562	78.62
364.788	92.62
365.015	71.62
365.241	85.62
365.468	86.62
365.694	78.62
365.92	84.62
366.147	83.62
366.373	85.62
366.599	82.62
366.826	90.62
367.052	87.62
367.278	76.62
367.505	70.62
367.731	88.62
367.957	105.62
368.184	84.62
368.41	88.62
368.636	80.62
368.862	78.62
369.089	97.62
369.315	101.62
369.541	92.62
369.767	96.62
369.993	97.62
370.219	76.62
370.445	85.62
370.672	90.62
370.898	85.62
371.124	97.62
371.35	95.62
371.576	102.62
371.802	93.62
372.028	98.62
372.254	106.62
372.48	93.62
372.706	87.62
372.932	87.62
373.158	99.62
373.384	105.62
373.61	86.62
373.835	88.62
374.061	80.62
374.287	84.62
374.513	108.62
374.739	98.62
374.965	101.62
375.191	84.62
375.416	97.62
375.642	90.62
375.868	92.62
376.094	109.62
376.319	87.62
376.545	97.62
376.771	83.62
376.997	90.62
377.222	94.62
377.448	99.62
377.674	105.62
377.899	90.62
378.125	89.62
378.35	98.62
378.576	100.62
378.802	95.62
379.027	78.62
379.253	92.62
379.478	87.62
379.704	94.62
379.929	95.62
380.155	92.62
380.38	106.62
380.606	104.62
380.831	102.62
381.057	96.62
381.282	76.62
381.507	103.62
381.733	89.62
381.958	97.62
382.184	97.62
382.409	86.62
382.634	110.62
382.86	91.62
383.085	93.62
383.31	98.62
383.535	104.62
383.761	91.62
383.986	103.62
384.211	99.62
384.436	93.62
384.662	96.62
384.887	93.62
385.112	109.62
385.337	101.62
385.562	101.62
385.787	91.62
386.013	113.62
386.238	105.62
386.463	96.62
386.688	98.62
386.913	96.62
387.138	95.62
387.363	94.62
387.588	96.62
387.813	109.62
388.038	111.62
388.263	105.62
388.488	87.62
388.713	100.62
388.938	95.62
389.163	93.62
389.387	100.62
389.612	104.62
389.837	93.62
390.062	111.62
390.287	107.62
390.512	105.62
390.736	109.62
390.961	109.62
391.186	97.62
391.411	109.62
391.636	102.62
391.86	92.62
392.085	115.62
392.31	102.62
392.534	115.62
392.759	106.62
392.984	107.62
393.208	103.62
393.433	117.62
393.658	111.62
393.882	102.62
394.107	102.62
394.331	98.62
394.556	114.62
394.78	101.62
395.005	106.62
395.229	103.62
395.454	108.62
395.678	105.62
395.903	116.62
396.127	105.62
396.352	101.62
396.576	98.62
396.801	91.62
397.025	97.62
397.249	106.62
397.474	108.62
397.698	112.62
397.922	121.62
398.147	99.62
398.371	97.62
398.595	117.62
398.82	98.62
399.044	115.62
399.268	115.62
399.492	118.62
399.717	104.62
399.941	101.62
400.165	101.62
400.389	108.62
400.613	103.62
400.837	103.62
401.062	109.62
401.286	107.62
401.51	111.62
401.734	105.62
401.958	102.62
402.182	106.62
402.406	111.62
402.63	116.62
402.854	121.62
403.078	102.62
403.302	113.62
403.526	119.62
403.75	114.62
403.974	104.62
404.198	106.62
404.422	98.62
404.645	116.62
404.869	120.62
405.093	114.62
405.317	108.62
405.541	117.62
405.765	116.62
405.988	124.62
406.212	122.62
406.436	131.62
406.66	125.62
406.883	129.62
407.107	123.62
407.331	107.62
407.555	109.62
407.778	121.62
408.002	128.62
408.226	113.62
408.449	117.62
408.673	114.62
408.896	118.62
409.12	106.62
409.344	116.62
409.567	107.62
409.791	120.62
410.014	126.62
410.238	123.62
410.461	115.62
410.685	131.62
410.908	115.62
411.132	118.62
411.355	111.62
411.578	109.62
411.802	119.62
412.025	130.62
412.249	115.62
412.472	122.62
412.695	107.62
412.919	105.62
413.142	119.62
413.365	113.62
413.589	120.62
413.812	126.62
414.035	125.62
414.258	120.62
414.482	125.62
414.705	106.62
414.928	117.62
415.151	124.62
415.374	135.62
415.597	131.62
415.821	128.62
416.044	132.62
416.267	124.62
416.49	129.62
416.713	108.62
416.936	128.62
417.159	127.62
417.382	126.62
417.605	119.62
417.828	113.62
418.051	124.62
418.274	139.62
418.497	135.62
418.72	127.62
418.943	133.62
419.166	137.62
419.389	133.62
419.611	138.62
419.834	147.62
420.057	135.62
420.28	129.62
420.503	126.62
420.726	128.62
420.948	131.62
421.171	135.62
421.394	143.62
421.617	133.62
421.839	159.62
422.062	155.62
422.285	124.62
422.507	140.62
422.73	123.62
422.953	126.62
423.175	130.62
423.398	129.62
423.621	123.62
423.843	143.62
424.066	135.62
424.288	131.62
424.511	139.62
424.733	136.62
424.956	129.62
425.178	138.62
425.401	139.62
425.623	121.62
425.846	135.62
426.068	133.62
426.291	127.62
426.513	134.62
426.735	133.62
426.958	123.62
427.18	141.62
427.402	123.62
427.625	134.62
427.847	141.62
428.069	133.62
428.292	125.62
428.514	135.62
428.736	129.62
428.958	137.62
429.181	125.62
429.403	119.62
429.625	142.62
429.847	129.62
430.069	122.62
430.292	125.62
430.514	116.62
430.736	129.62
430.958	141.62
431.18	123.62
431.402	116.62
431.624	125.62
431.846	102.62
432.068	95.62
432.29	90.62
432.512	121.62
432.734	123.62
432.956	122.62
433.178	136.62
433.4	135.62
433.622	133.62
433.844	129.62
434.066	113.62
434.287	98.62
434.509	87.62
434.731	110.62
434.953	113.62
435.175	117.62
435.397	131.62
435.618	110.62
435.84	123.62
436.062	116.62
436.284	126.62
436.505	136.62
436.727	123.62
436.949	128.62
437.17	138.62
437.392	111.62
437.614	109.62
437.835	115.62
438.057	113.62
438.278	110.62
438.5	106.62
438.721	133.62
438.943	139.62
439.165	147.62
439.386	140.62
439.608	134.62
439.829	146.62
440.05	132.62
440.272	125.62
440.493	146.62
440.715	150.62
440.936	136.62
441.158	143.62
441.379	133.62
441.6	130.62
441.822	125.62
442.043	125.62
442.264	151.62
442.486	141.62
442.707	139.62
442.928	144.62
443.149	124.62
443.371	125.62
443.592	134.62
443.813	149.62
444.034	147.62
444.255	133.62
444.476	129.62
444.698	133.62
444.919	146.62
445.14	233.62
445.361	178.62
445.582	151.62
445.803	140.62
446.024	140.62
446.245	128.62
446.466	159.62
446.687	160.62
446.908	155.62
447.129	137.62
447.35	152.62
447.571	133.62
447.792	134.62
448.013	150.62
448.234	137.62
448.455	149.62
448.675	138.62
448.896	135.62
449.117	129.62
449.338	139.62
449.559	137.62
449.779	134.62
450	141.62
450.221	137.62
450.442	134.62
450.662	137.62
450.883	136.62
451.104	121.62
451.324	120.62
451.545	121.62
451.766	133.62
451.986	120.62
452.207	128.62
452.428	113.62
452.648	111.62
452.869	125.62
453.089	121.62
453.31	105.62
453.53	101.62
453.751	91.62
453.971	93.62
454.192	99.62
454.412	112.62
454.633	109.62
454.853	124.62
455.073	121.62
455.294	123.62
455.514	139.62
455.734	108.62
455.955	122.62
456.175	118.62
456.395	113.62
456.616	94.62
456.836	102.62
457.056	105.62
457.276	114.62
457.497	113.62
457.717	107.62
457.937	113.62
458.157	106.62
458.377	99.62
458.598	94.62
458.818	95.62
459.038	92.62
459.258	93.62
459.478	98.62
459.698	94.62
459.918	99.62
460.138	113.62
460.358	105.62
460.578	120.62
460.798	97.62
461.018	110.62
461.238	103.62
461.458	123.62
461.678	118.62
461.898	110.62
462.118	108.62
462.338	101.62
462.558	123.62
462.777	103.62
462.997	122.62
463.217	100.62
463.437	105.62
463.657	107.62
463.876	102.62
464.096	109.62
464.316	117.62
464.536	121.62
464.755	125.62
464.975	115.62
465.195	107.62
465.414	114.62
465.634	129.62
465.854	107.62
466.073	101.62
466.293	115.62
466.512	135.62
466.732	125.62
466.951	115.62
467.171	131.62
467.391	120.62
467.61	129.62
467.829	150.62
468.049	141.62
468.268	144.62
468.488	135.62
468.707	131.62
468.927	151.62
469.146	136.62
469.365	138.62
469.585	133.62
469.804	132.62
470.023	131.62
470.243	158.62
470.462	142.62
470.681	152.62
470.901	140.62
471.12	144.62
471.339	137.62
471.558	147.62
471.777	131.62
471.997	119.62
472.216	125.62
472.435	125.62
472.654	115.62
472.873	121.62
473.092	116.62
473.311	110.62
473.53	121.62
473.749	124.62
473.968	127.62
474.187	119.62
474.406	125.62
474.625	126.62
474.844	122.62
475.063	138.62
475.282	110.62
475.501	111.62
475.72	121.62
475.939	121.62
476.158	123.62
476.377	122.62
476.596	103.62
476.814	109.62
477.033	130.62
477.252	117.62
477.471	127.62
477.69	129.62
477.908	130.62
478.127	122.62
478.346	129.62
478.564	129.62
478.783	136.62
479.002	144.62
479.22	124.62
479.439	141.62
479.658	106.62
479.876	108.62
480.095	107.62
480.313	122.62
480.532	110.62
480.751	105.62
480.969	105.62
481.188	90.62
481.406	109.62
481.624	90.62
481.843	96.62
482.061	100.62
482.28	108.62
482.498	100.62
482.717	105.62
482.935	124.62
483.153	145.62
483.372	148.62
483.59	141.62
483.808	136.62
484.027	133.62
484.245	129.62
484.463	143.62
484.681	173.62
484.9	130.62
485.118	128.62
485.336	95.62
485.554	112.62
485.772	108.62
485.99	102.62
486.209	102.62
486.427	144.62
486.645	126.62
486.863	127.62
487.081	128.62
487.299	136.62
487.517	136.62
487.735	175.62
487.953	183.62
488.171	171.62
488.389	161.62
488.607	154.62
488.825	129.62
489.043	137.62
489.261	132.62
489.479	123.62
489.696	138.62
489.914	130.62
490.132	147.62
490.35	140.62
490.568	159.62
490.786	163.62
491.003	175.62
491.221	157.62
491.439	197.62
491.657	190.62
491.874	215.62
492.092	224.62
492.31	225.62
492.527	219.62
492.745	200.62
492.963	188.62
493.18	193.62
493.398	199.62
493.615	173.62
493.833	185.62
494.05	178.62
494.268	165.62
494.485	170.62
494.703	171.62
494.92	164.62
495.138	169.62
495.355	157.62
495.573	146.62
495.79	152.62
496.008	170.62
496.225	157.62
496.442	178.62
496.66	161.62
496.877	156.62
497.094	161.62
497.312	164.62
497.529	156.62
497.746	133.62
497.963	125.62
498.181	132.62
498.398	114.62
498.615	115.62
498.832	105.62
499.049	121.62
499.267	113.62
499.484	125.62
499.701	127.62
499.918	126.62
500.135	134.62
500.352	148.62
500.569	129.62
500.786	143.62
501.003	129.62
501.22	133.62
501.437	134.62
501.654	131.62
501.871	127.62
502.088	115.62
502.305	125.62
502.522	115.62
502.739	122.62
502.956	113.62
503.172	122.62
503.389	121.62
503.606	125.62
503.823	117.62
504.04	135.62
504.256	116.62
504.473	113.62
504.69	125.62
504.907	127.62
505.123	122.62
505.34	123.62
505.557	117.62
505.773	128.62
505.99	105.62
506.207	113.62
506.423	119.62
506.64	124.62
506.856	113.62
507.073	114.62
507.289	105.62
507.506	107.62
507.722	119.62
507.939	117.62
508.155	107.62
508.372	113.62
508.588	113.62
508.805	126.62
509.021	106.62
509.238	110.62
509.454	104.62
509.67	93.62
509.887	94.62
510.103	99.62
510.319	95.62
510.536	94.62
510.752	77.62
510.968	88.62
511.184	85.62
511.401	82.62
