Data from Location1.07152019.Energy5.Lamp.07192019.3%Agarose_HRD10591_14-32-39-016.txt Node
Date: Fri Jul 19 14:32:39 EDT 2019
User: cochatt
Spectrometer: HR+D1059
Trigger mode: 1
Integration Time (sec): 1.000000E-1
Scans to average: 1
Electric dark correction enabled: true
Nonlinearity correction enabled: false
Boxcar width: 0
XAxis mode: Wavelengths
Number of Pixels in Spectrum: 2048
>>>>>Begin Spectral Data<<<<<
223.165	-1.75
223.4	-1.75
223.635	-1.75
223.869	-9.75
224.104	-17.75
224.338	-19.75
224.573	-9.75
224.808	-21.75
225.042	-3.75
225.277	8.25
225.511	-2.75
225.746	0.25
225.98	-11.75
226.215	18.25
226.449	0.25
226.683	29.25
226.918	20.25
227.152	22.25
227.387	31.25
227.621	41.25
227.856	42.25
228.09	66.25
228.324	47.25
228.559	64.25
228.793	69.25
229.027	50.25
229.262	53.25
229.496	76.25
229.73	74.25
229.964	65.25
230.199	67.25
230.433	72.25
230.667	69.25
230.901	78.25
231.136	74.25
231.37	76.25
231.604	82.25
231.838	72.25
232.072	77.25
232.306	85.25
232.541	80.25
232.775	69.25
233.009	96.25
233.243	88.25
233.477	90.25
233.711	82.25
233.945	86.25
234.179	82.25
234.413	71.25
234.647	71.25
234.881	90.25
235.115	88.25
235.349	73.25
235.583	83.25
235.817	77.25
236.051	72.25
236.285	81.25
236.519	76.25
236.753	72.25
236.987	89.25
237.221	73.25
237.455	73.25
237.689	77.25
237.922	83.25
238.156	97.25
238.39	78.25
238.624	81.25
238.858	70.25
239.091	76.25
239.325	70.25
239.559	68.25
239.793	67.25
240.027	86.25
240.26	81.25
240.494	77.25
240.728	84.25
240.961	89.25
241.195	78.25
241.429	78.25
241.662	72.25
241.896	85.25
242.13	81.25
242.363	78.25
242.597	78.25
242.83	85.25
243.064	83.25
243.298	69.25
243.531	76.25
243.765	87.25
243.998	76.25
244.232	71.25
244.465	76.25
244.699	84.25
244.932	78.25
245.166	80.25
245.399	77.25
245.633	79.25
245.866	81.25
246.099	72.25
246.333	82.25
246.566	76.25
246.8	67.25
247.033	85.25
247.266	76.25
247.5	86.25
247.733	81.25
247.966	70.25
248.2	68.25
248.433	68.25
248.666	82.25
248.899	85.25
249.133	83.25
249.366	75.25
249.599	84.25
249.832	74.25
250.066	86.25
250.299	87.25
250.532	79.25
250.765	76.25
250.998	80.25
251.231	96.25
251.465	84.25
251.698	71.25
251.931	81.25
252.164	76.25
252.397	87.25
252.63	78.25
252.863	76.25
253.096	85.25
253.329	88.25
253.562	76.25
253.795	92.25
254.028	82.25
254.261	74.25
254.494	90.25
254.727	83.25
254.96	83.25
255.193	79.25
255.426	80.25
255.659	67.25
255.892	77.25
256.124	100.25
256.357	82.25
256.59	81.25
256.823	84.25
257.056	78.25
257.289	78.25
257.521	88.25
257.754	74.25
257.987	83.25
258.22	78.25
258.452	81.25
258.685	84.25
258.918	79.25
259.151	69.25
259.383	79.25
259.616	76.25
259.849	70.25
260.081	74.25
260.314	80.25
260.547	78.25
260.779	76.25
261.012	82.25
261.244	94.25
261.477	85.25
261.71	85.25
261.942	65.25
262.175	83.25
262.407	73.25
262.64	69.25
262.872	94.25
263.105	83.25
263.337	74.25
263.57	79.25
263.802	76.25
264.035	80.25
264.267	74.25
264.499	84.25
264.732	78.25
264.964	88.25
265.197	84.25
265.429	73.25
265.661	77.25
265.894	87.25
266.126	86.25
266.358	84.25
266.591	81.25
266.823	76.25
267.055	72.25
267.287	71.25
267.52	72.25
267.752	73.25
267.984	78.25
268.216	93.25
268.448	84.25
268.681	80.25
268.913	78.25
269.145	86.25
269.377	86.25
269.609	88.25
269.841	84.25
270.073	87.25
270.306	77.25
270.538	88.25
270.77	83.25
271.002	73.25
271.234	75.25
271.466	71.25
271.698	71.25
271.93	88.25
272.162	89.25
272.394	84.25
272.626	79.25
272.858	88.25
273.09	87.25
273.322	86.25
273.553	78.25
273.785	83.25
274.017	93.25
274.249	90.25
274.481	85.25
274.713	81.25
274.945	84.25
275.176	78.25
275.408	96.25
275.64	79.25
275.872	74.25
276.104	83.25
276.335	84.25
276.567	85.25
276.799	89.25
277.031	103.25
277.262	93.25
277.494	91.25
277.726	89.25
277.957	88.25
278.189	81.25
278.421	77.25
278.652	78.25
278.884	87.25
279.115	91.25
279.347	87.25
279.579	84.25
279.81	78.25
280.042	84.25
280.273	78.25
280.505	79.25
280.736	73.25
280.968	82.25
281.199	78.25
281.431	89.25
281.662	84.25
281.894	94.25
282.125	94.25
282.356	89.25
282.588	80.25
282.819	81.25
283.051	79.25
283.282	81.25
283.513	80.25
283.745	90.25
283.976	82.25
284.207	91.25
284.439	77.25
284.67	97.25
284.901	76.25
285.132	83.25
285.364	85.25
285.595	80.25
285.826	86.25
286.057	96.25
286.288	83.25
286.52	85.25
286.751	87.25
286.982	81.25
287.213	77.25
287.444	80.25
287.675	88.25
287.906	92.25
288.138	97.25
288.369	90.25
288.6	79.25
288.831	86.25
289.062	87.25
289.293	85.25
289.524	75.25
289.755	85.25
289.986	76.25
290.217	86.25
290.448	83.25
290.679	81.25
290.91	77.25
291.141	88.25
291.371	84.25
291.602	72.25
291.833	85.25
292.064	87.25
292.295	78.25
292.526	87.25
292.757	85.25
292.987	81.25
293.218	86.25
293.449	75.25
293.68	76.25
293.91	94.25
294.141	86.25
294.372	78.25
294.603	82.25
294.833	83.25
295.064	80.25
295.295	92.25
295.525	89.25
295.756	86.25
295.987	81.25
296.217	87.25
296.448	78.25
296.679	99.25
296.909	90.25
297.14	81.25
297.37	78.25
297.601	88.25
297.831	62.25
298.062	83.25
298.292	104.25
298.523	78.25
298.753	75.25
298.984	97.25
299.214	91.25
299.445	85.25
299.675	78.25
299.905	75.25
300.136	82.25
300.366	79.25
300.597	86.25
300.827	86.25
301.057	90.25
301.288	86.25
301.518	83.25
301.748	72.25
301.979	83.25
302.209	76.25
302.439	78.25
302.669	97.25
302.9	94.25
303.13	85.25
303.36	85.25
303.59	84.25
303.82	94.25
304.051	93.25
304.281	92.25
304.511	89.25
304.741	72.25
304.971	82.25
305.201	86.25
305.431	74.25
305.661	99.25
305.891	80.25
306.121	79.25
306.352	83.25
306.582	83.25
306.812	88.25
307.042	81.25
307.272	82.25
307.502	89.25
307.731	90.25
307.961	69.25
308.191	81.25
308.421	74.25
308.651	81.25
308.881	83.25
309.111	82.25
309.341	79.25
309.571	94.25
309.8	88.25
310.03	76.25
310.26	75.25
310.49	82.25
310.72	74.25
310.949	90.25
311.179	91.25
311.409	81.25
311.639	83.25
311.868	84.25
312.098	78.25
312.328	91.25
312.557	84.25
312.787	92.25
313.017	84.25
313.246	97.25
313.476	89.25
313.706	78.25
313.935	85.25
314.165	93.25
314.394	76.25
314.624	83.25
314.853	82.25
315.083	81.25
315.312	94.25
315.542	87.25
315.771	80.25
316.001	83.25
316.23	84.25
316.46	87.25
316.689	93.25
316.919	73.25
317.148	81.25
317.377	96.25
317.607	97.25
317.836	82.25
318.065	75.25
318.295	73.25
318.524	85.25
318.753	72.25
318.983	71.25
319.212	71.25
319.441	70.25
319.67	92.25
319.9	75.25
320.129	74.25
320.358	93.25
320.587	67.25
320.816	76.25
321.046	69.25
321.275	85.25
321.504	82.25
321.733	77.25
321.962	108.25
322.191	84.25
322.42	67.25
322.649	78.25
322.878	85.25
323.108	82.25
323.337	74.25
323.566	95.25
323.795	81.25
324.024	82.25
324.253	75.25
324.482	94.25
324.71	82.25
324.939	68.25
325.168	87.25
325.397	89.25
325.626	85.25
325.855	85.25
326.084	71.25
326.313	67.25
326.542	70.25
326.77	91.25
326.999	77.25
327.228	89.25
327.457	83.25
327.686	77.25
327.914	90.25
328.143	88.25
328.372	77.25
328.6	88.25
328.829	82.25
329.058	90.25
329.287	88.25
329.515	70.25
329.744	88.25
329.972	92.25
330.201	90.25
330.43	75.25
330.658	88.25
330.887	79.25
331.115	82.25
331.344	82.25
331.572	74.25
331.801	96.25
332.03	82.25
332.258	78.25
332.486	82.25
332.715	83.25
332.943	86.25
333.172	84.25
333.4	75.25
333.629	76.25
333.857	80.25
334.085	95.25
334.314	69.25
334.542	75.25
334.771	70.25
334.999	83.25
335.227	69.25
335.455	84.25
335.684	72.25
335.912	79.25
336.14	81.25
336.369	83.25
336.597	85.25
336.825	98.25
337.053	90.25
337.281	76.25
337.51	74.25
337.738	71.25
337.966	82.25
338.194	79.25
338.422	83.25
338.65	78.25
338.878	97.25
339.106	81.25
339.334	83.25
339.562	89.25
339.79	92.25
340.018	90.25
340.246	69.25
340.474	89.25
340.702	89.25
340.93	67.25
341.158	80.25
341.386	75.25
341.614	90.25
341.842	82.25
342.07	77.25
342.298	83.25
342.526	91.25
342.754	73.25
342.981	64.25
343.209	90.25
343.437	88.25
343.665	93.25
343.893	83.25
344.12	93.25
344.348	83.25
344.576	68.25
344.804	75.25
345.031	89.25
345.259	79.25
345.487	73.25
345.714	75.25
345.942	85.25
346.17	73.25
346.397	92.25
346.625	75.25
346.853	80.25
347.08	90.25
347.308	82.25
347.535	77.25
347.763	80.25
347.99	82.25
348.218	93.25
348.445	82.25
348.673	81.25
348.9	79.25
349.128	78.25
349.355	91.25
349.583	89.25
349.81	75.25
350.037	79.25
350.265	90.25
350.492	92.25
350.72	72.25
350.947	90.25
351.174	78.25
351.402	90.25
351.629	88.25
351.856	89.25
352.083	78.25
352.311	89.25
352.538	82.25
352.765	88.25
352.992	88.25
353.22	86.25
353.447	72.25
353.674	106.25
353.901	82.25
354.128	91.25
354.355	85.25
354.583	72.25
354.81	90.25
355.037	84.25
355.264	88.25
355.491	74.25
355.718	66.25
355.945	68.25
356.172	67.25
356.399	79.25
356.626	75.25
356.853	82.25
357.08	86.25
357.307	84.25
357.534	79.25
357.761	87.25
357.988	87.25
358.215	81.25
358.441	87.25
358.668	85.25
358.895	80.25
359.122	88.25
359.349	89.25
359.576	80.25
359.802	70.25
360.029	75.25
360.256	79.25
360.483	79.25
360.709	71.25
360.936	78.25
361.163	85.25
361.39	77.25
361.616	75.25
361.843	84.25
362.07	83.25
362.296	62.25
362.523	85.25
362.749	84.25
362.976	83.25
363.203	90.25
363.429	88.25
363.656	70.25
363.882	76.25
364.109	99.25
364.335	86.25
364.562	101.25
364.788	76.25
365.015	88.25
365.241	84.25
365.468	87.25
365.694	93.25
365.92	66.25
366.147	80.25
366.373	92.25
366.599	87.25
366.826	92.25
367.052	84.25
367.278	91.25
367.505	88.25
367.731	90.25
367.957	78.25
368.184	91.25
368.41	88.25
368.636	88.25
368.862	85.25
369.089	88.25
369.315	90.25
369.541	96.25
369.767	89.25
369.993	90.25
370.219	89.25
370.445	91.25
370.672	89.25
370.898	85.25
371.124	86.25
371.35	98.25
371.576	81.25
371.802	88.25
372.028	82.25
372.254	102.25
372.48	91.25
372.706	81.25
372.932	88.25
373.158	90.25
373.384	98.25
373.61	99.25
373.835	86.25
374.061	83.25
374.287	96.25
374.513	87.25
374.739	90.25
374.965	86.25
375.191	90.25
375.416	77.25
375.642	85.25
375.868	96.25
376.094	75.25
376.319	74.25
376.545	88.25
376.771	101.25
376.997	89.25
377.222	78.25
377.448	92.25
377.674	85.25
377.899	77.25
378.125	84.25
378.35	87.25
378.576	98.25
378.802	100.25
379.027	105.25
379.253	86.25
379.478	86.25
379.704	81.25
379.929	88.25
380.155	98.25
380.38	116.25
380.606	75.25
380.831	95.25
381.057	91.25
381.282	85.25
381.507	101.25
381.733	96.25
381.958	85.25
382.184	101.25
382.409	94.25
382.634	95.25
382.86	108.25
383.085	91.25
383.31	99.25
383.535	81.25
383.761	98.25
383.986	97.25
384.211	96.25
384.436	73.25
384.662	92.25
384.887	89.25
385.112	85.25
385.337	95.25
385.562	113.25
385.787	94.25
386.013	92.25
386.238	98.25
386.463	99.25
386.688	90.25
386.913	101.25
387.138	87.25
387.363	90.25
387.588	106.25
387.813	101.25
388.038	101.25
388.263	99.25
388.488	106.25
388.713	88.25
388.938	92.25
389.163	93.25
389.387	105.25
389.612	98.25
389.837	87.25
390.062	90.25
390.287	102.25
390.512	109.25
390.736	89.25
390.961	94.25
391.186	97.25
391.411	98.25
391.636	99.25
391.86	88.25
392.085	103.25
392.31	100.25
392.534	107.25
392.759	90.25
392.984	99.25
393.208	100.25
393.433	109.25
393.658	113.25
393.882	100.25
394.107	105.25
394.331	105.25
394.556	106.25
394.78	97.25
395.005	118.25
395.229	98.25
395.454	116.25
395.678	119.25
395.903	97.25
396.127	112.25
396.352	98.25
396.576	105.25
396.801	100.25
397.025	114.25
397.249	104.25
397.474	105.25
397.698	124.25
397.922	122.25
398.147	105.25
398.371	102.25
398.595	94.25
398.82	96.25
399.044	88.25
399.268	104.25
399.492	107.25
399.717	104.25
399.941	116.25
400.165	108.25
400.389	120.25
400.613	104.25
400.837	111.25
401.062	90.25
401.286	108.25
401.51	98.25
401.734	108.25
401.958	107.25
402.182	122.25
402.406	102.25
402.63	111.25
402.854	107.25
403.078	120.25
403.302	106.25
403.526	112.25
403.75	115.25
403.974	119.25
404.198	116.25
404.422	115.25
404.645	111.25
404.869	98.25
405.093	100.25
405.317	100.25
405.541	119.25
405.765	109.25
405.988	116.25
406.212	119.25
406.436	102.25
406.66	123.25
406.883	120.25
407.107	109.25
407.331	116.25
407.555	117.25
407.778	118.25
408.002	126.25
408.226	128.25
408.449	128.25
408.673	124.25
408.896	123.25
409.12	114.25
409.344	117.25
409.567	112.25
409.791	114.25
410.014	105.25
410.238	118.25
410.461	124.25
410.685	128.25
410.908	114.25
411.132	118.25
411.355	113.25
411.578	112.25
411.802	113.25
412.025	124.25
412.249	118.25
412.472	109.25
412.695	113.25
412.919	113.25
413.142	109.25
413.365	127.25
413.589	120.25
413.812	126.25
414.035	123.25
414.258	126.25
414.482	119.25
414.705	112.25
414.928	116.25
415.151	127.25
415.374	98.25
415.597	105.25
415.821	107.25
416.044	131.25
416.267	125.25
416.49	121.25
416.713	130.25
416.936	122.25
417.159	124.25
417.382	124.25
417.605	118.25
417.828	128.25
418.051	122.25
418.274	136.25
418.497	135.25
418.72	108.25
418.943	129.25
419.166	130.25
419.389	156.25
419.611	128.25
419.834	122.25
420.057	142.25
420.28	123.25
420.503	120.25
420.726	122.25
420.948	117.25
421.171	127.25
421.394	131.25
421.617	137.25
421.839	149.25
422.062	148.25
422.285	126.25
422.507	133.25
422.73	110.25
422.953	113.25
423.175	114.25
423.398	121.25
423.621	128.25
423.843	132.25
424.066	126.25
424.288	145.25
424.511	141.25
424.733	142.25
424.956	137.25
425.178	126.25
425.401	130.25
425.623	143.25
425.846	142.25
426.068	122.25
426.291	126.25
426.513	135.25
426.735	131.25
426.958	131.25
427.18	128.25
427.402	127.25
427.625	143.25
427.847	146.25
428.069	119.25
428.292	128.25
428.514	127.25
428.736	110.25
428.958	134.25
429.181	115.25
429.403	120.25
429.625	115.25
429.847	124.25
430.069	121.25
430.292	123.25
430.514	121.25
430.736	117.25
430.958	118.25
431.18	124.25
431.402	130.25
431.624	130.25
431.846	107.25
432.068	94.25
432.29	97.25
432.512	105.25
432.734	109.25
432.956	132.25
433.178	123.25
433.4	138.25
433.622	134.25
433.844	117.25
434.066	100.25
434.287	112.25
434.509	90.25
434.731	92.25
434.953	105.25
435.175	128.25
435.397	114.25
435.618	114.25
435.84	123.25
436.062	107.25
436.284	115.25
436.505	126.25
436.727	132.25
436.949	137.25
437.17	129.25
437.392	114.25
437.614	114.25
437.835	113.25
438.057	99.25
438.278	113.25
438.5	128.25
438.721	124.25
438.943	124.25
439.165	138.25
439.386	139.25
439.608	128.25
439.829	140.25
440.05	143.25
440.272	134.25
440.493	138.25
440.715	142.25
440.936	132.25
441.158	145.25
441.379	144.25
441.6	142.25
441.822	134.25
442.043	130.25
442.264	146.25
442.486	116.25
442.707	132.25
442.928	126.25
443.149	140.25
443.371	118.25
443.592	139.25
443.813	128.25
444.034	139.25
444.255	136.25
444.476	117.25
444.698	139.25
444.919	124.25
445.14	236.25
445.361	194.25
445.582	166.25
445.803	148.25
446.024	143.25
446.245	149.25
446.466	160.25
446.687	148.25
446.908	147.25
447.129	135.25
447.35	140.25
447.571	147.25
447.792	132.25
448.013	146.25
448.234	144.25
448.455	146.25
448.675	157.25
448.896	144.25
449.117	128.25
449.338	142.25
449.559	141.25
449.779	135.25
450	140.25
450.221	148.25
450.442	140.25
450.662	134.25
450.883	132.25
451.104	121.25
451.324	135.25
451.545	138.25
451.766	114.25
451.986	135.25
452.207	126.25
452.428	125.25
452.648	122.25
452.869	122.25
453.089	119.25
453.31	112.25
453.53	118.25
453.751	105.25
453.971	116.25
454.192	102.25
454.412	107.25
454.633	115.25
454.853	110.25
455.073	112.25
455.294	122.25
455.514	129.25
455.734	117.25
455.955	110.25
456.175	130.25
456.395	123.25
456.616	107.25
456.836	113.25
457.056	95.25
457.276	115.25
457.497	100.25
457.717	104.25
457.937	93.25
458.157	108.25
458.377	98.25
458.598	104.25
458.818	98.25
459.038	102.25
459.258	97.25
459.478	86.25
459.698	96.25
459.918	100.25
460.138	105.25
460.358	122.25
460.578	119.25
460.798	100.25
461.018	94.25
461.238	116.25
461.458	119.25
461.678	106.25
461.898	111.25
462.118	112.25
462.338	103.25
462.558	122.25
462.777	106.25
462.997	117.25
463.217	99.25
463.437	96.25
463.657	91.25
463.876	104.25
464.096	100.25
464.316	109.25
464.536	101.25
464.755	110.25
464.975	113.25
465.195	122.25
465.414	109.25
465.634	127.25
465.854	124.25
466.073	121.25
466.293	110.25
466.512	122.25
466.732	120.25
466.951	133.25
467.171	140.25
467.391	130.25
467.61	122.25
467.829	128.25
468.049	138.25
468.268	128.25
468.488	134.25
468.707	123.25
468.927	140.25
469.146	128.25
469.365	127.25
469.585	152.25
469.804	137.25
470.023	137.25
470.243	150.25
470.462	135.25
470.681	138.25
470.901	125.25
471.12	123.25
471.339	128.25
471.558	144.25
471.777	135.25
471.997	130.25
472.216	124.25
472.435	105.25
472.654	106.25
472.873	109.25
473.092	123.25
473.311	133.25
473.53	125.25
473.749	127.25
473.968	141.25
474.187	125.25
474.406	119.25
474.625	116.25
474.844	113.25
475.063	132.25
475.282	121.25
475.501	118.25
475.72	120.25
475.939	121.25
476.158	118.25
476.377	123.25
476.596	116.25
476.814	114.25
477.033	116.25
477.252	100.25
477.471	119.25
477.69	136.25
477.908	123.25
478.127	129.25
478.346	135.25
478.564	141.25
478.783	140.25
479.002	130.25
479.22	123.25
479.439	120.25
479.658	99.25
479.876	112.25
480.095	105.25
480.313	116.25
480.532	113.25
480.751	108.25
480.969	95.25
481.188	85.25
481.406	94.25
481.624	80.25
481.843	98.25
482.061	92.25
482.28	110.25
482.498	111.25
482.717	109.25
482.935	121.25
483.153	152.25
483.372	148.25
483.59	124.25
483.808	136.25
484.027	125.25
484.245	140.25
484.463	149.25
484.681	169.25
484.9	142.25
485.118	135.25
485.336	130.25
485.554	119.25
485.772	94.25
485.99	101.25
486.209	114.25
486.427	101.25
486.645	119.25
486.863	142.25
487.081	135.25
487.299	143.25
487.517	140.25
487.735	163.25
487.953	182.25
488.171	194.25
488.389	165.25
488.607	157.25
488.825	144.25
489.043	129.25
489.261	128.25
489.479	135.25
489.696	142.25
489.914	133.25
490.132	144.25
490.35	146.25
490.568	164.25
490.786	174.25
491.003	172.25
491.221	175.25
491.439	180.25
491.657	182.25
491.874	202.25
492.092	214.25
492.31	238.25
492.527	223.25
492.745	192.25
492.963	194.25
493.18	189.25
493.398	187.25
493.615	178.25
493.833	171.25
494.05	168.25
494.268	181.25
494.485	163.25
494.703	162.25
494.92	162.25
495.138	170.25
495.355	176.25
495.573	174.25
495.79	168.25
496.008	166.25
496.225	168.25
496.442	156.25
496.66	168.25
496.877	157.25
497.094	152.25
497.312	152.25
497.529	158.25
497.746	153.25
497.963	133.25
498.181	128.25
498.398	121.25
498.615	109.25
498.832	115.25
499.049	116.25
499.267	109.25
499.484	121.25
499.701	127.25
499.918	121.25
500.135	136.25
500.352	147.25
500.569	148.25
500.786	131.25
501.003	146.25
501.22	138.25
501.437	144.25
501.654	132.25
501.871	119.25
502.088	125.25
502.305	141.25
502.522	133.25
502.739	128.25
502.956	122.25
503.172	120.25
503.389	113.25
503.606	121.25
503.823	123.25
504.04	118.25
504.256	120.25
504.473	120.25
504.69	116.25
504.907	122.25
505.123	113.25
505.34	128.25
505.557	121.25
505.773	117.25
505.99	124.25
506.207	119.25
506.423	126.25
506.64	124.25
506.856	130.25
507.073	124.25
507.289	124.25
507.506	124.25
507.722	122.25
507.939	114.25
508.155	123.25
508.372	115.25
508.588	110.25
508.805	105.25
509.021	104.25
509.238	112.25
509.454	100.25
509.67	81.25
509.887	107.25
510.103	80.25
510.319	95.25
510.536	93.25
510.752	88.25
510.968	81.25
511.184	94.25
511.401	88.25
511.617	93.25
511.833	104.25
512.049	86.25
