Data from Location1.07152019.Energy5.Lamp.07192019.3%Agarose_HRD10591_14-33-20-017.txt Node
Date: Fri Jul 19 14:33:20 EDT 2019
User: cochatt
Spectrometer: HR+D1059
Trigger mode: 1
Integration Time (sec): 1.000000E-1
Scans to average: 1
Electric dark correction enabled: true
Nonlinearity correction enabled: false
Boxcar width: 0
XAxis mode: Wavelengths
Number of Pixels in Spectrum: 2048
>>>>>Begin Spectral Data<<<<<
223.165	1.25
223.4	1.25
223.635	1.25
223.869	-10.75
224.104	-3.75
224.338	-3.75
224.573	-13.75
224.808	-15.75
225.042	-6.75
225.277	-20.75
225.511	-9.75
225.746	5.25
225.98	9.25
226.215	4.25
226.449	7.25
226.683	11.25
226.918	21.25
227.152	25.25
227.387	31.25
227.621	36.25
227.856	56.25
228.09	52.25
228.324	56.25
228.559	60.25
228.793	59.25
229.027	61.25
229.262	68.25
229.496	57.25
229.73	71.25
229.964	82.25
230.199	68.25
230.433	75.25
230.667	89.25
230.901	75.25
231.136	71.25
231.37	88.25
231.604	74.25
231.838	84.25
232.072	102.25
232.306	80.25
232.541	82.25
232.775	85.25
233.009	86.25
233.243	85.25
233.477	78.25
233.711	86.25
233.945	85.25
234.179	80.25
234.413	94.25
234.647	87.25
234.881	86.25
235.115	92.25
235.349	80.25
235.583	81.25
235.817	80.25
236.051	89.25
236.285	77.25
236.519	81.25
236.753	76.25
236.987	82.25
237.221	85.25
237.455	85.25
237.689	76.25
237.922	86.25
238.156	90.25
238.39	89.25
238.624	91.25
238.858	82.25
239.091	84.25
239.325	80.25
239.559	76.25
239.793	83.25
240.027	73.25
240.26	62.25
240.494	74.25
240.728	79.25
240.961	72.25
241.195	85.25
241.429	85.25
241.662	88.25
241.896	80.25
242.13	86.25
242.363	86.25
242.597	68.25
242.83	83.25
243.064	77.25
243.298	87.25
243.531	85.25
243.765	91.25
243.998	86.25
244.232	89.25
244.465	80.25
244.699	73.25
244.932	72.25
245.166	85.25
245.399	85.25
245.633	65.25
245.866	76.25
246.099	79.25
246.333	93.25
246.566	75.25
246.8	90.25
247.033	86.25
247.266	76.25
247.5	75.25
247.733	72.25
247.966	83.25
248.2	83.25
248.433	80.25
248.666	78.25
248.899	69.25
249.133	82.25
249.366	76.25
249.599	81.25
249.832	90.25
250.066	98.25
250.299	78.25
250.532	79.25
250.765	76.25
250.998	78.25
251.231	86.25
251.465	72.25
251.698	86.25
251.931	80.25
252.164	75.25
252.397	75.25
252.63	81.25
252.863	75.25
253.096	90.25
253.329	73.25
253.562	92.25
253.795	68.25
254.028	83.25
254.261	88.25
254.494	86.25
254.727	84.25
254.96	86.25
255.193	86.25
255.426	82.25
255.659	82.25
255.892	94.25
256.124	91.25
256.357	80.25
256.59	81.25
256.823	70.25
257.056	77.25
257.289	93.25
257.521	71.25
257.754	80.25
257.987	79.25
258.22	91.25
258.452	94.25
258.685	82.25
258.918	76.25
259.151	87.25
259.383	85.25
259.616	72.25
259.849	82.25
260.081	87.25
260.314	73.25
260.547	84.25
260.779	88.25
261.012	95.25
261.244	78.25
261.477	84.25
261.71	84.25
261.942	75.25
262.175	88.25
262.407	91.25
262.64	88.25
262.872	89.25
263.105	81.25
263.337	88.25
263.57	76.25
263.802	83.25
264.035	83.25
264.267	89.25
264.499	80.25
264.732	96.25
264.964	85.25
265.197	89.25
265.429	80.25
265.661	93.25
265.894	82.25
266.126	87.25
266.358	79.25
266.591	85.25
266.823	103.25
267.055	89.25
267.287	85.25
267.52	89.25
267.752	111.25
267.984	84.25
268.216	78.25
268.448	83.25
268.681	84.25
268.913	84.25
269.145	89.25
269.377	92.25
269.609	88.25
269.841	85.25
270.073	85.25
270.306	87.25
270.538	91.25
270.77	69.25
271.002	71.25
271.234	75.25
271.466	91.25
271.698	71.25
271.93	81.25
272.162	84.25
272.394	85.25
272.626	75.25
272.858	94.25
273.09	97.25
273.322	97.25
273.553	93.25
273.785	75.25
274.017	87.25
274.249	77.25
274.481	79.25
274.713	86.25
274.945	88.25
275.176	87.25
275.408	83.25
275.64	84.25
275.872	90.25
276.104	87.25
276.335	88.25
276.567	89.25
276.799	91.25
277.031	95.25
277.262	83.25
277.494	80.25
277.726	83.25
277.957	62.25
278.189	80.25
278.421	90.25
278.652	91.25
278.884	85.25
279.115	84.25
279.347	90.25
279.579	75.25
279.81	85.25
280.042	89.25
280.273	76.25
280.505	94.25
280.736	72.25
280.968	91.25
281.199	90.25
281.431	89.25
281.662	92.25
281.894	69.25
282.125	92.25
282.356	86.25
282.588	92.25
282.819	88.25
283.051	83.25
283.282	84.25
283.513	86.25
283.745	87.25
283.976	100.25
284.207	82.25
284.439	91.25
284.67	76.25
284.901	83.25
285.132	86.25
285.364	75.25
285.595	92.25
285.826	94.25
286.057	88.25
286.288	90.25
286.52	93.25
286.751	91.25
286.982	90.25
287.213	81.25
287.444	79.25
287.675	91.25
287.906	86.25
288.138	77.25
288.369	88.25
288.6	90.25
288.831	76.25
289.062	79.25
289.293	92.25
289.524	87.25
289.755	81.25
289.986	92.25
290.217	92.25
290.448	77.25
290.679	84.25
290.91	85.25
291.141	88.25
291.371	97.25
291.602	88.25
291.833	84.25
292.064	93.25
292.295	91.25
292.526	92.25
292.757	100.25
292.987	94.25
293.218	94.25
293.449	87.25
293.68	92.25
293.91	80.25
294.141	83.25
294.372	69.25
294.603	78.25
294.833	78.25
295.064	72.25
295.295	87.25
295.525	88.25
295.756	91.25
295.987	82.25
296.217	82.25
296.448	86.25
296.679	93.25
296.909	89.25
297.14	94.25
297.37	77.25
297.601	81.25
297.831	87.25
298.062	82.25
298.292	88.25
298.523	96.25
298.753	85.25
298.984	90.25
299.214	90.25
299.445	100.25
299.675	85.25
299.905	96.25
300.136	89.25
300.366	85.25
300.597	95.25
300.827	85.25
301.057	87.25
301.288	88.25
301.518	89.25
301.748	87.25
301.979	79.25
302.209	69.25
302.439	76.25
302.669	86.25
302.9	94.25
303.13	95.25
303.36	74.25
303.59	77.25
303.82	78.25
304.051	91.25
304.281	73.25
304.511	100.25
304.741	96.25
304.971	79.25
305.201	93.25
305.431	86.25
305.661	79.25
305.891	94.25
306.121	98.25
306.352	82.25
306.582	63.25
306.812	76.25
307.042	78.25
307.272	77.25
307.502	94.25
307.731	77.25
307.961	92.25
308.191	76.25
308.421	85.25
308.651	88.25
308.881	94.25
309.111	104.25
309.341	81.25
309.571	85.25
309.8	78.25
310.03	94.25
310.26	73.25
310.49	87.25
310.72	78.25
310.949	81.25
311.179	89.25
311.409	86.25
311.639	88.25
311.868	90.25
312.098	68.25
312.328	87.25
312.557	89.25
312.787	87.25
313.017	85.25
313.246	82.25
313.476	85.25
313.706	75.25
313.935	84.25
314.165	88.25
314.394	94.25
314.624	73.25
314.853	74.25
315.083	85.25
315.312	98.25
315.542	102.25
315.771	91.25
316.001	83.25
316.23	100.25
316.46	79.25
316.689	97.25
316.919	87.25
317.148	77.25
317.377	80.25
317.607	76.25
317.836	93.25
318.065	70.25
318.295	86.25
318.524	79.25
318.753	98.25
318.983	85.25
319.212	91.25
319.441	89.25
319.67	86.25
319.9	80.25
320.129	75.25
320.358	86.25
320.587	94.25
320.816	97.25
321.046	95.25
321.275	81.25
321.504	95.25
321.733	92.25
321.962	95.25
322.191	85.25
322.42	93.25
322.649	83.25
322.878	93.25
323.108	80.25
323.337	73.25
323.566	92.25
323.795	89.25
324.024	80.25
324.253	95.25
324.482	82.25
324.71	89.25
324.939	82.25
325.168	84.25
325.397	75.25
325.626	88.25
325.855	87.25
326.084	103.25
326.313	91.25
326.542	97.25
326.77	88.25
326.999	87.25
327.228	82.25
327.457	93.25
327.686	95.25
327.914	94.25
328.143	95.25
328.372	92.25
328.6	83.25
328.829	77.25
329.058	78.25
329.287	85.25
329.515	74.25
329.744	99.25
329.972	85.25
330.201	92.25
330.43	76.25
330.658	71.25
330.887	85.25
331.115	89.25
331.344	94.25
331.572	92.25
331.801	82.25
332.03	96.25
332.258	85.25
332.486	86.25
332.715	93.25
332.943	81.25
333.172	70.25
333.4	101.25
333.629	85.25
333.857	91.25
334.085	99.25
334.314	93.25
334.542	104.25
334.771	105.25
334.999	86.25
335.227	91.25
335.455	75.25
335.684	82.25
335.912	97.25
336.14	91.25
336.369	86.25
336.597	79.25
336.825	87.25
337.053	92.25
337.281	86.25
337.51	87.25
337.738	83.25
337.966	87.25
338.194	90.25
338.422	97.25
338.65	86.25
338.878	65.25
339.106	82.25
339.334	84.25
339.562	90.25
339.79	95.25
340.018	94.25
340.246	83.25
340.474	87.25
340.702	85.25
340.93	82.25
341.158	98.25
341.386	90.25
341.614	101.25
341.842	94.25
342.07	77.25
342.298	88.25
342.526	90.25
342.754	95.25
342.981	85.25
343.209	94.25
343.437	94.25
343.665	86.25
343.893	91.25
344.12	82.25
344.348	85.25
344.576	78.25
344.804	78.25
345.031	84.25
345.259	71.25
345.487	84.25
345.714	91.25
345.942	85.25
346.17	72.25
346.397	86.25
346.625	82.25
346.853	96.25
347.08	87.25
347.308	99.25
347.535	90.25
347.763	97.25
347.99	101.25
348.218	84.25
348.445	77.25
348.673	80.25
348.9	77.25
349.128	100.25
349.355	105.25
349.583	85.25
349.81	71.25
350.037	97.25
350.265	79.25
350.492	73.25
350.72	85.25
350.947	95.25
351.174	82.25
351.402	75.25
351.629	85.25
351.856	94.25
352.083	88.25
352.311	94.25
352.538	85.25
352.765	95.25
352.992	91.25
353.22	76.25
353.447	90.25
353.674	93.25
353.901	80.25
354.128	82.25
354.355	87.25
354.583	93.25
354.81	97.25
355.037	93.25
355.264	73.25
355.491	74.25
355.718	93.25
355.945	81.25
356.172	82.25
356.399	86.25
356.626	80.25
356.853	81.25
357.08	98.25
357.307	93.25
357.534	82.25
357.761	90.25
357.988	86.25
358.215	93.25
358.441	86.25
358.668	86.25
358.895	104.25
359.122	89.25
359.349	92.25
359.576	84.25
359.802	89.25
360.029	83.25
360.256	92.25
360.483	85.25
360.709	87.25
360.936	86.25
361.163	80.25
361.39	83.25
361.616	87.25
361.843	77.25
362.07	87.25
362.296	79.25
362.523	78.25
362.749	81.25
362.976	89.25
363.203	85.25
363.429	77.25
363.656	70.25
363.882	80.25
364.109	102.25
364.335	90.25
364.562	72.25
364.788	93.25
365.015	97.25
365.241	77.25
365.468	81.25
365.694	88.25
365.92	81.25
366.147	92.25
366.373	98.25
366.599	81.25
366.826	94.25
367.052	89.25
367.278	91.25
367.505	84.25
367.731	108.25
367.957	89.25
368.184	86.25
368.41	93.25
368.636	86.25
368.862	92.25
369.089	86.25
369.315	95.25
369.541	97.25
369.767	87.25
369.993	109.25
370.219	82.25
370.445	84.25
370.672	100.25
370.898	83.25
371.124	80.25
371.35	88.25
371.576	95.25
371.802	100.25
372.028	89.25
372.254	75.25
372.48	103.25
372.706	96.25
372.932	111.25
373.158	95.25
373.384	95.25
373.61	86.25
373.835	97.25
374.061	92.25
374.287	90.25
374.513	111.25
374.739	97.25
374.965	85.25
375.191	92.25
375.416	94.25
375.642	98.25
375.868	94.25
376.094	101.25
376.319	96.25
376.545	95.25
376.771	87.25
376.997	93.25
377.222	101.25
377.448	98.25
377.674	90.25
377.899	94.25
378.125	104.25
378.35	91.25
378.576	101.25
378.802	95.25
379.027	97.25
379.253	101.25
379.478	102.25
379.704	96.25
379.929	98.25
380.155	112.25
380.38	86.25
380.606	93.25
380.831	97.25
381.057	89.25
381.282	106.25
381.507	85.25
381.733	100.25
381.958	102.25
382.184	103.25
382.409	102.25
382.634	94.25
382.86	102.25
383.085	97.25
383.31	101.25
383.535	101.25
383.761	103.25
383.986	95.25
384.211	104.25
384.436	101.25
384.662	88.25
384.887	96.25
385.112	95.25
385.337	98.25
385.562	98.25
385.787	97.25
386.013	111.25
386.238	86.25
386.463	97.25
386.688	96.25
386.913	96.25
387.138	102.25
387.363	100.25
387.588	100.25
387.813	93.25
388.038	95.25
388.263	105.25
388.488	92.25
388.713	109.25
388.938	92.25
389.163	90.25
389.387	113.25
389.612	105.25
389.837	113.25
390.062	114.25
390.287	104.25
390.512	108.25
390.736	103.25
390.961	102.25
391.186	113.25
391.411	94.25
391.636	111.25
391.86	120.25
392.085	106.25
392.31	116.25
392.534	99.25
392.759	95.25
392.984	97.25
393.208	102.25
393.433	100.25
393.658	103.25
393.882	107.25
394.107	106.25
394.331	102.25
394.556	113.25
394.78	102.25
395.005	109.25
395.229	116.25
395.454	109.25
395.678	108.25
395.903	96.25
396.127	98.25
396.352	106.25
396.576	106.25
396.801	112.25
397.025	104.25
397.249	107.25
397.474	94.25
397.698	113.25
397.922	103.25
398.147	110.25
398.371	128.25
398.595	114.25
398.82	118.25
399.044	104.25
399.268	119.25
399.492	116.25
399.717	121.25
399.941	110.25
400.165	109.25
400.389	105.25
400.613	119.25
400.837	106.25
401.062	111.25
401.286	124.25
401.51	103.25
401.734	118.25
401.958	113.25
402.182	128.25
402.406	120.25
402.63	114.25
402.854	111.25
403.078	112.25
403.302	108.25
403.526	116.25
403.75	118.25
403.974	105.25
404.198	125.25
404.422	104.25
404.645	111.25
404.869	117.25
405.093	117.25
405.317	122.25
405.541	116.25
405.765	118.25
405.988	110.25
406.212	124.25
406.436	113.25
406.66	127.25
406.883	129.25
407.107	97.25
407.331	121.25
407.555	124.25
407.778	116.25
408.002	120.25
408.226	111.25
408.449	112.25
408.673	127.25
408.896	106.25
409.12	117.25
409.344	117.25
409.567	128.25
409.791	113.25
410.014	123.25
410.238	116.25
410.461	134.25
410.685	140.25
410.908	105.25
411.132	122.25
411.355	121.25
411.578	121.25
411.802	132.25
412.025	133.25
412.249	128.25
412.472	124.25
412.695	118.25
412.919	122.25
413.142	130.25
413.365	127.25
413.589	133.25
413.812	124.25
414.035	117.25
414.258	118.25
414.482	118.25
414.705	121.25
414.928	122.25
415.151	129.25
415.374	119.25
415.597	129.25
415.821	126.25
416.044	124.25
416.267	136.25
416.49	129.25
416.713	138.25
416.936	140.25
417.159	125.25
417.382	125.25
417.605	119.25
417.828	136.25
418.051	126.25
418.274	129.25
418.497	142.25
418.72	132.25
418.943	140.25
419.166	137.25
419.389	140.25
419.611	128.25
419.834	133.25
420.057	131.25
420.28	136.25
420.503	137.25
420.726	134.25
420.948	134.25
421.171	136.25
421.394	135.25
421.617	138.25
421.839	129.25
422.062	150.25
422.285	125.25
422.507	138.25
422.73	127.25
422.953	125.25
423.175	136.25
423.398	131.25
423.621	120.25
423.843	106.25
424.066	125.25
424.288	134.25
424.511	149.25
424.733	136.25
424.956	148.25
425.178	150.25
425.401	139.25
425.623	141.25
425.846	159.25
426.068	160.25
426.291	133.25
426.513	128.25
426.735	130.25
426.958	141.25
427.18	121.25
427.402	134.25
427.625	133.25
427.847	126.25
428.069	130.25
428.292	131.25
428.514	119.25
428.736	131.25
428.958	111.25
429.181	133.25
429.403	136.25
429.625	126.25
429.847	134.25
430.069	129.25
430.292	142.25
430.514	129.25
430.736	141.25
430.958	128.25
431.18	124.25
431.402	118.25
431.624	129.25
431.846	108.25
432.068	94.25
432.29	96.25
432.512	113.25
432.734	116.25
432.956	140.25
433.178	140.25
433.4	135.25
433.622	134.25
433.844	151.25
434.066	125.25
434.287	116.25
434.509	121.25
434.731	116.25
434.953	123.25
435.175	121.25
435.397	117.25
435.618	109.25
435.84	107.25
436.062	130.25
436.284	125.25
436.505	113.25
436.727	124.25
436.949	144.25
437.17	138.25
437.392	141.25
437.614	121.25
437.835	102.25
438.057	102.25
438.278	109.25
438.5	137.25
438.721	142.25
438.943	125.25
439.165	141.25
439.386	136.25
439.608	140.25
439.829	134.25
440.05	146.25
440.272	134.25
440.493	148.25
440.715	139.25
440.936	156.25
441.158	146.25
441.379	131.25
441.6	142.25
441.822	164.25
442.043	137.25
442.264	138.25
442.486	135.25
442.707	130.25
442.928	141.25
443.149	129.25
443.371	156.25
443.592	162.25
443.813	141.25
444.034	139.25
444.255	146.25
444.476	159.25
444.698	144.25
444.919	143.25
445.14	215.25
445.361	173.25
445.582	160.25
445.803	150.25
446.024	155.25
446.245	164.25
446.466	161.25
446.687	166.25
446.908	171.25
447.129	169.25
447.35	149.25
447.571	149.25
447.792	141.25
448.013	142.25
448.234	140.25
448.455	139.25
448.675	140.25
448.896	137.25
449.117	142.25
449.338	140.25
449.559	154.25
449.779	139.25
450	146.25
450.221	132.25
450.442	141.25
450.662	152.25
450.883	156.25
451.104	132.25
451.324	140.25
451.545	138.25
451.766	132.25
451.986	125.25
452.207	140.25
452.428	134.25
452.648	126.25
452.869	117.25
453.089	112.25
453.31	120.25
453.53	108.25
453.751	98.25
453.971	107.25
454.192	117.25
454.412	114.25
454.633	113.25
454.853	132.25
455.073	116.25
455.294	144.25
455.514	124.25
455.734	126.25
455.955	126.25
456.175	123.25
456.395	102.25
456.616	124.25
456.836	116.25
457.056	125.25
457.276	109.25
457.497	125.25
457.717	106.25
457.937	105.25
458.157	122.25
458.377	118.25
458.598	101.25
458.818	102.25
459.038	113.25
459.258	80.25
459.478	102.25
459.698	93.25
459.918	103.25
460.138	102.25
460.358	104.25
460.578	124.25
460.798	132.25
461.018	119.25
461.238	113.25
461.458	102.25
461.678	118.25
461.898	122.25
462.118	109.25
462.338	132.25
462.558	129.25
462.777	132.25
462.997	120.25
463.217	104.25
463.437	128.25
463.657	111.25
463.876	114.25
464.096	113.25
464.316	111.25
464.536	125.25
464.755	110.25
464.975	118.25
465.195	126.25
465.414	128.25
465.634	117.25
465.854	110.25
466.073	116.25
466.293	116.25
466.512	125.25
466.732	127.25
466.951	138.25
467.171	139.25
467.391	138.25
467.61	125.25
467.829	127.25
468.049	122.25
468.268	135.25
468.488	126.25
468.707	140.25
468.927	130.25
469.146	141.25
469.365	141.25
469.585	141.25
469.804	132.25
470.023	149.25
470.243	145.25
470.462	144.25
470.681	152.25
470.901	142.25
471.12	133.25
471.339	147.25
471.558	155.25
471.777	140.25
471.997	150.25
472.216	150.25
472.435	106.25
472.654	108.25
472.873	106.25
473.092	117.25
473.311	125.25
473.53	127.25
473.749	139.25
473.968	134.25
474.187	131.25
474.406	108.25
474.625	120.25
474.844	125.25
475.063	125.25
475.282	137.25
475.501	124.25
475.72	120.25
475.939	126.25
476.158	110.25
476.377	126.25
476.596	118.25
476.814	111.25
477.033	113.25
477.252	101.25
477.471	130.25
477.69	148.25
477.908	143.25
478.127	133.25
478.346	142.25
478.564	145.25
478.783	153.25
479.002	143.25
479.22	138.25
479.439	135.25
479.658	132.25
479.876	112.25
480.095	101.25
480.313	126.25
480.532	128.25
480.751	113.25
480.969	103.25
481.188	94.25
481.406	96.25
481.624	83.25
481.843	92.25
482.061	117.25
482.28	103.25
482.498	125.25
482.717	116.25
482.935	129.25
483.153	114.25
483.372	156.25
483.59	153.25
483.808	140.25
484.027	135.25
484.245	129.25
484.463	135.25
484.681	169.25
484.9	136.25
485.118	152.25
485.336	136.25
485.554	110.25
485.772	99.25
485.99	110.25
486.209	112.25
486.427	109.25
486.645	132.25
486.863	150.25
487.081	151.25
487.299	134.25
487.517	132.25
487.735	152.25
487.953	205.25
488.171	176.25
488.389	178.25
488.607	169.25
488.825	145.25
489.043	135.25
489.261	128.25
489.479	135.25
489.696	148.25
489.914	146.25
490.132	136.25
490.35	156.25
490.568	161.25
490.786	170.25
491.003	174.25
491.221	175.25
491.439	181.25
491.657	190.25
491.874	195.25
492.092	209.25
492.31	232.25
492.527	228.25
492.745	204.25
492.963	190.25
493.18	160.25
493.398	204.25
493.615	192.25
493.833	176.25
494.05	171.25
494.268	167.25
494.485	185.25
494.703	180.25
494.92	188.25
495.138	176.25
495.355	166.25
495.573	158.25
495.79	159.25
496.008	165.25
496.225	169.25
496.442	182.25
496.66	179.25
496.877	170.25
497.094	167.25
497.312	162.25
497.529	151.25
497.746	154.25
497.963	151.25
498.181	128.25
498.398	129.25
498.615	109.25
498.832	120.25
499.049	117.25
499.267	128.25
499.484	105.25
499.701	130.25
499.918	135.25
500.135	128.25
500.352	147.25
500.569	152.25
500.786	154.25
501.003	158.25
501.22	149.25
501.437	122.25
501.654	141.25
501.871	128.25
502.088	140.25
502.305	134.25
502.522	138.25
502.739	130.25
502.956	123.25
503.172	123.25
503.389	130.25
503.606	124.25
503.823	119.25
504.04	132.25
504.256	115.25
504.473	114.25
504.69	125.25
504.907	130.25
505.123	129.25
505.34	120.25
505.557	122.25
505.773	126.25
505.99	125.25
506.207	116.25
506.423	124.25
506.64	133.25
506.856	108.25
507.073	113.25
507.289	127.25
507.506	128.25
507.722	126.25
507.939	110.25
508.155	119.25
508.372	112.25
508.588	122.25
508.805	112.25
509.021	124.25
509.238	93.25
509.454	92.25
509.67	98.25
509.887	102.25
510.103	92.25
510.319	96.25
510.536	102.25
510.752	85.25
510.968	88.25
511.184	94.25
511.401	92.25
