Data from Location1.07152019.Energy5.Lamp.07192019.3%Agarose_HRD10591_14-30-24-016.txt Node
Date: Fri Jul 19 14:30:24 EDT 2019
User: cochatt
Spectrometer: HR+D1059
Trigger mode: 1
Integration Time (sec): 1.000000E-1
Scans to average: 1
Electric dark correction enabled: true
Nonlinearity correction enabled: false
Boxcar width: 0
XAxis mode: Wavelengths
Number of Pixels in Spectrum: 2048
>>>>>Begin Spectral Data<<<<<
223.165	-18.94
223.4	-18.94
223.635	-18.94
223.869	-21.94
224.104	-18.94
224.338	-6.94
224.573	-21.94
224.808	-16.94
225.042	-2.94
225.277	2.06
225.511	6.06
225.746	2.06
225.98	16.06
226.215	3.06
226.449	10.06
226.683	16.06
226.918	30.06
227.152	23.06
227.387	32.06
227.621	40.06
227.856	39.06
228.09	48.06
228.324	47.06
228.559	59.06
228.793	61.06
229.027	37.06
229.262	55.06
229.496	71.06
229.73	73.06
229.964	74.06
230.199	63.06
230.433	80.06
230.667	79.06
230.901	71.06
231.136	82.06
231.37	84.06
231.604	76.06
231.838	77.06
232.072	87.06
232.306	88.06
232.541	92.06
232.775	83.06
233.009	76.06
233.243	79.06
233.477	68.06
233.711	81.06
233.945	76.06
234.179	78.06
234.413	99.06
234.647	85.06
234.881	84.06
235.115	86.06
235.349	73.06
235.583	87.06
235.817	77.06
236.051	76.06
236.285	59.06
236.519	75.06
236.753	91.06
236.987	90.06
237.221	72.06
237.455	76.06
237.689	77.06
237.922	72.06
238.156	66.06
238.39	66.06
238.624	69.06
238.858	61.06
239.091	74.06
239.325	74.06
239.559	77.06
239.793	75.06
240.027	83.06
240.26	96.06
240.494	79.06
240.728	62.06
240.961	64.06
241.195	71.06
241.429	81.06
241.662	71.06
241.896	74.06
242.13	77.06
242.363	75.06
242.597	67.06
242.83	77.06
243.064	72.06
243.298	62.06
243.531	77.06
243.765	88.06
243.998	76.06
244.232	80.06
244.465	83.06
244.699	88.06
244.932	69.06
245.166	71.06
245.399	74.06
245.633	58.06
245.866	88.06
246.099	72.06
246.333	84.06
246.566	70.06
246.8	78.06
247.033	74.06
247.266	80.06
247.5	73.06
247.733	76.06
247.966	83.06
248.2	90.06
248.433	78.06
248.666	87.06
248.899	80.06
249.133	66.06
249.366	74.06
249.599	82.06
249.832	75.06
250.066	76.06
250.299	65.06
250.532	73.06
250.765	81.06
250.998	76.06
251.231	73.06
251.465	88.06
251.698	80.06
251.931	81.06
252.164	67.06
252.397	85.06
252.63	83.06
252.863	93.06
253.096	74.06
253.329	70.06
253.562	77.06
253.795	86.06
254.028	89.06
254.261	78.06
254.494	83.06
254.727	79.06
254.96	72.06
255.193	77.06
255.426	76.06
255.659	78.06
255.892	84.06
256.124	87.06
256.357	87.06
256.59	83.06
256.823	75.06
257.056	73.06
257.289	90.06
257.521	84.06
257.754	78.06
257.987	82.06
258.22	74.06
258.452	52.06
258.685	76.06
258.918	79.06
259.151	66.06
259.383	79.06
259.616	69.06
259.849	96.06
260.081	91.06
260.314	83.06
260.547	74.06
260.779	71.06
261.012	69.06
261.244	72.06
261.477	71.06
261.71	83.06
261.942	81.06
262.175	85.06
262.407	88.06
262.64	83.06
262.872	84.06
263.105	83.06
263.337	77.06
263.57	75.06
263.802	86.06
264.035	85.06
264.267	80.06
264.499	81.06
264.732	83.06
264.964	92.06
265.197	69.06
265.429	72.06
265.661	80.06
265.894	83.06
266.126	77.06
266.358	76.06
266.591	88.06
266.823	85.06
267.055	80.06
267.287	78.06
267.52	67.06
267.752	80.06
267.984	90.06
268.216	82.06
268.448	72.06
268.681	74.06
268.913	72.06
269.145	74.06
269.377	94.06
269.609	83.06
269.841	84.06
270.073	84.06
270.306	64.06
270.538	87.06
270.77	73.06
271.002	78.06
271.234	75.06
271.466	87.06
271.698	84.06
271.93	68.06
272.162	75.06
272.394	81.06
272.626	80.06
272.858	73.06
273.09	79.06
273.322	76.06
273.553	86.06
273.785	73.06
274.017	85.06
274.249	74.06
274.481	95.06
274.713	79.06
274.945	83.06
275.176	90.06
275.408	79.06
275.64	80.06
275.872	73.06
276.104	78.06
276.335	91.06
276.567	85.06
276.799	80.06
277.031	81.06
277.262	75.06
277.494	86.06
277.726	92.06
277.957	73.06
278.189	83.06
278.421	81.06
278.652	89.06
278.884	76.06
279.115	92.06
279.347	90.06
279.579	75.06
279.81	67.06
280.042	71.06
280.273	76.06
280.505	73.06
280.736	84.06
280.968	95.06
281.199	88.06
281.431	88.06
281.662	78.06
281.894	83.06
282.125	90.06
282.356	74.06
282.588	72.06
282.819	93.06
283.051	86.06
283.282	76.06
283.513	76.06
283.745	86.06
283.976	79.06
284.207	81.06
284.439	81.06
284.67	83.06
284.901	89.06
285.132	82.06
285.364	73.06
285.595	91.06
285.826	94.06
286.057	96.06
286.288	81.06
286.52	76.06
286.751	79.06
286.982	92.06
287.213	83.06
287.444	81.06
287.675	94.06
287.906	73.06
288.138	77.06
288.369	76.06
288.6	84.06
288.831	76.06
289.062	86.06
289.293	93.06
289.524	84.06
289.755	99.06
289.986	81.06
290.217	86.06
290.448	73.06
290.679	81.06
290.91	86.06
291.141	68.06
291.371	93.06
291.602	80.06
291.833	90.06
292.064	100.06
292.295	82.06
292.526	85.06
292.757	76.06
292.987	83.06
293.218	94.06
293.449	79.06
293.68	72.06
293.91	82.06
294.141	72.06
294.372	71.06
294.603	72.06
294.833	83.06
295.064	77.06
295.295	77.06
295.525	80.06
295.756	73.06
295.987	88.06
296.217	77.06
296.448	85.06
296.679	68.06
296.909	86.06
297.14	81.06
297.37	97.06
297.601	77.06
297.831	82.06
298.062	89.06
298.292	82.06
298.523	92.06
298.753	69.06
298.984	81.06
299.214	94.06
299.445	92.06
299.675	74.06
299.905	78.06
300.136	100.06
300.366	70.06
300.597	80.06
300.827	84.06
301.057	79.06
301.288	82.06
301.518	74.06
301.748	80.06
301.979	79.06
302.209	88.06
302.439	87.06
302.669	88.06
302.9	71.06
303.13	87.06
303.36	81.06
303.59	87.06
303.82	85.06
304.051	84.06
304.281	81.06
304.511	90.06
304.741	75.06
304.971	89.06
305.201	81.06
305.431	82.06
305.661	85.06
305.891	77.06
306.121	92.06
306.352	76.06
306.582	85.06
306.812	94.06
307.042	83.06
307.272	82.06
307.502	76.06
307.731	86.06
307.961	66.06
308.191	90.06
308.421	93.06
308.651	91.06
308.881	87.06
309.111	77.06
309.341	80.06
309.571	83.06
309.8	83.06
310.03	88.06
310.26	80.06
310.49	78.06
310.72	81.06
310.949	78.06
311.179	96.06
311.409	79.06
311.639	68.06
311.868	81.06
312.098	78.06
312.328	103.06
312.557	86.06
312.787	77.06
313.017	91.06
313.246	80.06
313.476	83.06
313.706	93.06
313.935	75.06
314.165	74.06
314.394	85.06
314.624	79.06
314.853	98.06
315.083	100.06
315.312	76.06
315.542	59.06
315.771	88.06
316.001	77.06
316.23	82.06
316.46	94.06
316.689	80.06
316.919	100.06
317.148	80.06
317.377	84.06
317.607	85.06
317.836	90.06
318.065	69.06
318.295	83.06
318.524	84.06
318.753	87.06
318.983	90.06
319.212	84.06
319.441	69.06
319.67	74.06
319.9	73.06
320.129	69.06
320.358	80.06
320.587	84.06
320.816	83.06
321.046	100.06
321.275	93.06
321.504	65.06
321.733	87.06
321.962	92.06
322.191	84.06
322.42	85.06
322.649	78.06
322.878	88.06
323.108	79.06
323.337	85.06
323.566	81.06
323.795	89.06
324.024	83.06
324.253	90.06
324.482	68.06
324.71	80.06
324.939	67.06
325.168	87.06
325.397	79.06
325.626	78.06
325.855	75.06
326.084	67.06
326.313	83.06
326.542	75.06
326.77	83.06
326.999	71.06
327.228	75.06
327.457	80.06
327.686	95.06
327.914	62.06
328.143	87.06
328.372	72.06
328.6	90.06
328.829	91.06
329.058	84.06
329.287	82.06
329.515	79.06
329.744	61.06
329.972	72.06
330.201	76.06
330.43	70.06
330.658	73.06
330.887	84.06
331.115	90.06
331.344	77.06
331.572	85.06
331.801	91.06
332.03	95.06
332.258	81.06
332.486	80.06
332.715	87.06
332.943	78.06
333.172	81.06
333.4	85.06
333.629	79.06
333.857	82.06
334.085	70.06
334.314	86.06
334.542	77.06
334.771	77.06
334.999	83.06
335.227	86.06
335.455	75.06
335.684	86.06
335.912	79.06
336.14	88.06
336.369	79.06
336.597	84.06
336.825	74.06
337.053	91.06
337.281	93.06
337.51	82.06
337.738	76.06
337.966	81.06
338.194	75.06
338.422	83.06
338.65	80.06
338.878	76.06
339.106	81.06
339.334	85.06
339.562	86.06
339.79	85.06
340.018	83.06
340.246	83.06
340.474	60.06
340.702	82.06
340.93	93.06
341.158	87.06
341.386	92.06
341.614	87.06
341.842	69.06
342.07	94.06
342.298	83.06
342.526	89.06
342.754	93.06
342.981	72.06
343.209	77.06
343.437	77.06
343.665	74.06
343.893	71.06
344.12	80.06
344.348	79.06
344.576	67.06
344.804	77.06
345.031	79.06
345.259	84.06
345.487	83.06
345.714	90.06
345.942	83.06
346.17	74.06
346.397	76.06
346.625	74.06
346.853	77.06
347.08	88.06
347.308	89.06
347.535	74.06
347.763	86.06
347.99	82.06
348.218	74.06
348.445	77.06
348.673	68.06
348.9	83.06
349.128	95.06
349.355	68.06
349.583	98.06
349.81	89.06
350.037	86.06
350.265	88.06
350.492	95.06
350.72	77.06
350.947	83.06
351.174	85.06
351.402	90.06
351.629	91.06
351.856	79.06
352.083	85.06
352.311	76.06
352.538	77.06
352.765	86.06
352.992	92.06
353.22	85.06
353.447	84.06
353.674	85.06
353.901	93.06
354.128	73.06
354.355	81.06
354.583	58.06
354.81	76.06
355.037	76.06
355.264	84.06
355.491	77.06
355.718	81.06
355.945	75.06
356.172	72.06
356.399	70.06
356.626	91.06
356.853	74.06
357.08	76.06
357.307	69.06
357.534	86.06
357.761	87.06
357.988	95.06
358.215	81.06
358.441	77.06
358.668	91.06
358.895	84.06
359.122	74.06
359.349	70.06
359.576	74.06
359.802	79.06
360.029	69.06
360.256	84.06
360.483	93.06
360.709	79.06
360.936	77.06
361.163	82.06
361.39	84.06
361.616	79.06
361.843	69.06
362.07	77.06
362.296	77.06
362.523	76.06
362.749	78.06
362.976	83.06
363.203	94.06
363.429	84.06
363.656	98.06
363.882	82.06
364.109	77.06
364.335	74.06
364.562	95.06
364.788	90.06
365.015	75.06
365.241	87.06
365.468	78.06
365.694	59.06
365.92	83.06
366.147	92.06
366.373	74.06
366.599	81.06
366.826	83.06
367.052	83.06
367.278	74.06
367.505	85.06
367.731	81.06
367.957	83.06
368.184	93.06
368.41	87.06
368.636	73.06
368.862	81.06
369.089	98.06
369.315	92.06
369.541	80.06
369.767	90.06
369.993	88.06
370.219	81.06
370.445	69.06
370.672	83.06
370.898	89.06
371.124	78.06
371.35	77.06
371.576	92.06
371.802	91.06
372.028	93.06
372.254	85.06
372.48	93.06
372.706	92.06
372.932	90.06
373.158	83.06
373.384	92.06
373.61	96.06
373.835	87.06
374.061	86.06
374.287	88.06
374.513	80.06
374.739	104.06
374.965	92.06
375.191	95.06
375.416	86.06
375.642	85.06
375.868	85.06
376.094	75.06
376.319	86.06
376.545	87.06
376.771	88.06
376.997	91.06
377.222	88.06
377.448	84.06
377.674	92.06
377.899	88.06
378.125	85.06
378.35	88.06
378.576	96.06
378.802	93.06
379.027	92.06
379.253	90.06
379.478	75.06
379.704	90.06
379.929	77.06
380.155	96.06
380.38	97.06
380.606	85.06
380.831	104.06
381.057	92.06
381.282	93.06
381.507	98.06
381.733	94.06
381.958	94.06
382.184	84.06
382.409	84.06
382.634	92.06
382.86	96.06
383.085	93.06
383.31	92.06
383.535	98.06
383.761	89.06
383.986	88.06
384.211	98.06
384.436	88.06
384.662	97.06
384.887	104.06
385.112	83.06
385.337	91.06
385.562	91.06
385.787	82.06
386.013	97.06
386.238	101.06
386.463	96.06
386.688	87.06
386.913	101.06
387.138	93.06
387.363	99.06
387.588	102.06
387.813	116.06
388.038	102.06
388.263	111.06
388.488	95.06
388.713	93.06
388.938	96.06
389.163	103.06
389.387	83.06
389.612	105.06
389.837	101.06
390.062	109.06
390.287	94.06
390.512	99.06
390.736	90.06
390.961	105.06
391.186	104.06
391.411	102.06
391.636	103.06
391.86	71.06
392.085	100.06
392.31	96.06
392.534	87.06
392.759	103.06
392.984	112.06
393.208	101.06
393.433	95.06
393.658	95.06
393.882	96.06
394.107	100.06
394.331	113.06
394.556	99.06
394.78	95.06
395.005	91.06
395.229	105.06
395.454	99.06
395.678	103.06
395.903	102.06
396.127	93.06
396.352	104.06
396.576	97.06
396.801	93.06
397.025	91.06
397.249	102.06
397.474	95.06
397.698	112.06
397.922	115.06
398.147	107.06
398.371	103.06
398.595	111.06
398.82	115.06
399.044	98.06
399.268	113.06
399.492	113.06
399.717	117.06
399.941	125.06
400.165	114.06
400.389	99.06
400.613	113.06
400.837	92.06
401.062	115.06
401.286	99.06
401.51	93.06
401.734	102.06
401.958	93.06
402.182	109.06
402.406	117.06
402.63	113.06
402.854	91.06
403.078	117.06
403.302	108.06
403.526	116.06
403.75	108.06
403.974	119.06
404.198	112.06
404.422	119.06
404.645	114.06
404.869	116.06
405.093	121.06
405.317	113.06
405.541	111.06
405.765	122.06
405.988	115.06
406.212	112.06
406.436	114.06
406.66	109.06
406.883	123.06
407.107	113.06
407.331	112.06
407.555	110.06
407.778	113.06
408.002	119.06
408.226	106.06
408.449	113.06
408.673	118.06
408.896	98.06
409.12	113.06
409.344	105.06
409.567	119.06
409.791	101.06
410.014	123.06
410.238	104.06
410.461	102.06
410.685	105.06
410.908	112.06
411.132	129.06
411.355	108.06
411.578	119.06
411.802	115.06
412.025	127.06
412.249	116.06
412.472	121.06
412.695	128.06
412.919	115.06
413.142	107.06
413.365	115.06
413.589	120.06
413.812	119.06
414.035	121.06
414.258	119.06
414.482	100.06
414.705	122.06
414.928	125.06
415.151	115.06
415.374	117.06
415.597	120.06
415.821	125.06
416.044	117.06
416.267	127.06
416.49	123.06
416.713	123.06
416.936	121.06
417.159	137.06
417.382	130.06
417.605	123.06
417.828	132.06
418.051	127.06
418.274	111.06
418.497	118.06
418.72	143.06
418.943	120.06
419.166	129.06
419.389	119.06
419.611	139.06
419.834	124.06
420.057	129.06
420.28	125.06
420.503	118.06
420.726	127.06
420.948	127.06
421.171	119.06
421.394	123.06
421.617	131.06
421.839	130.06
422.062	132.06
422.285	128.06
422.507	128.06
422.73	130.06
422.953	126.06
423.175	121.06
423.398	125.06
423.621	132.06
423.843	141.06
424.066	125.06
424.288	123.06
424.511	126.06
424.733	142.06
424.956	151.06
425.178	134.06
425.401	129.06
425.623	117.06
425.846	131.06
426.068	123.06
426.291	119.06
426.513	109.06
426.735	143.06
426.958	126.06
427.18	119.06
427.402	122.06
427.625	140.06
427.847	120.06
428.069	135.06
428.292	101.06
428.514	114.06
428.736	121.06
428.958	129.06
429.181	127.06
429.403	124.06
429.625	119.06
429.847	120.06
430.069	125.06
430.292	122.06
430.514	132.06
430.736	128.06
430.958	123.06
431.18	123.06
431.402	131.06
431.624	108.06
431.846	105.06
432.068	91.06
432.29	95.06
432.512	107.06
432.734	108.06
432.956	130.06
433.178	137.06
433.4	133.06
433.622	128.06
433.844	128.06
434.066	126.06
434.287	109.06
434.509	96.06
434.731	92.06
434.953	111.06
435.175	116.06
435.397	129.06
435.618	114.06
435.84	94.06
436.062	121.06
436.284	117.06
436.505	111.06
436.727	120.06
436.949	115.06
437.17	113.06
437.392	120.06
437.614	104.06
437.835	98.06
438.057	115.06
438.278	115.06
438.5	124.06
438.721	127.06
438.943	147.06
439.165	143.06
439.386	123.06
439.608	129.06
439.829	131.06
440.05	137.06
440.272	129.06
440.493	148.06
440.715	150.06
440.936	141.06
441.158	147.06
441.379	139.06
441.6	133.06
441.822	141.06
442.043	124.06
442.264	125.06
442.486	125.06
442.707	121.06
442.928	135.06
443.149	135.06
443.371	137.06
443.592	139.06
443.813	130.06
444.034	131.06
444.255	133.06
444.476	133.06
444.698	140.06
444.919	133.06
445.14	281.06
445.361	230.06
445.582	140.06
445.803	139.06
446.024	143.06
446.245	148.06
446.466	148.06
446.687	138.06
446.908	139.06
447.129	157.06
447.35	133.06
447.571	137.06
447.792	153.06
448.013	135.06
448.234	134.06
448.455	153.06
448.675	137.06
448.896	141.06
449.117	142.06
449.338	131.06
449.559	137.06
449.779	127.06
450	133.06
450.221	143.06
450.442	140.06
450.662	137.06
450.883	128.06
451.104	134.06
451.324	129.06
451.545	132.06
451.766	130.06
451.986	134.06
452.207	130.06
452.428	116.06
452.648	125.06
452.869	126.06
453.089	109.06
453.31	114.06
453.53	96.06
453.751	107.06
453.971	117.06
454.192	86.06
454.412	112.06
454.633	115.06
454.853	109.06
455.073	123.06
455.294	109.06
455.514	116.06
455.734	123.06
455.955	137.06
456.175	110.06
456.395	113.06
456.616	99.06
456.836	104.06
457.056	113.06
457.276	95.06
457.497	92.06
457.717	106.06
457.937	103.06
458.157	103.06
458.377	101.06
458.598	88.06
458.818	98.06
459.038	91.06
459.258	82.06
459.478	67.06
459.698	90.06
459.918	95.06
460.138	99.06
460.358	123.06
460.578	109.06
460.798	121.06
461.018	111.06
461.238	105.06
461.458	111.06
461.678	99.06
461.898	119.06
462.118	100.06
462.338	104.06
462.558	117.06
462.777	110.06
462.997	100.06
463.217	102.06
463.437	112.06
463.657	104.06
463.876	99.06
464.096	123.06
464.316	94.06
464.536	112.06
464.755	99.06
464.975	119.06
465.195	113.06
465.414	113.06
465.634	115.06
465.854	122.06
466.073	125.06
466.293	123.06
466.512	117.06
466.732	124.06
466.951	127.06
467.171	127.06
467.391	113.06
467.61	132.06
467.829	123.06
468.049	133.06
468.268	125.06
468.488	134.06
468.707	139.06
468.927	127.06
469.146	131.06
469.365	147.06
469.585	136.06
469.804	147.06
470.023	141.06
470.243	125.06
470.462	131.06
470.681	121.06
470.901	137.06
471.12	131.06
471.339	137.06
471.558	127.06
471.777	121.06
471.997	124.06
472.216	111.06
472.435	112.06
472.654	104.06
472.873	108.06
473.092	108.06
473.311	113.06
473.53	133.06
473.749	128.06
473.968	115.06
474.187	142.06
474.406	117.06
474.625	103.06
474.844	129.06
475.063	123.06
475.282	109.06
475.501	125.06
475.72	129.06
475.939	133.06
476.158	134.06
476.377	121.06
476.596	115.06
476.814	114.06
477.033	108.06
477.252	118.06
477.471	123.06
477.69	119.06
477.908	140.06
478.127	134.06
478.346	137.06
478.564	117.06
478.783	125.06
479.002	138.06
479.22	126.06
479.439	122.06
479.658	124.06
479.876	106.06
480.095	107.06
480.313	97.06
480.532	120.06
480.751	104.06
480.969	90.06
481.188	91.06
481.406	77.06
481.624	76.06
481.843	100.06
482.061	95.06
482.28	113.06
482.498	113.06
482.717	107.06
482.935	110.06
483.153	142.06
483.372	131.06
483.59	142.06
483.808	145.06
484.027	137.06
484.245	125.06
484.463	137.06
484.681	157.06
484.9	131.06
485.118	135.06
485.336	123.06
485.554	117.06
485.772	92.06
485.99	95.06
486.209	117.06
486.427	107.06
486.645	117.06
486.863	119.06
487.081	129.06
487.299	136.06
487.517	128.06
487.735	175.06
487.953	194.06
488.171	176.06
488.389	182.06
488.607	157.06
488.825	124.06
489.043	134.06
489.261	142.06
489.479	125.06
489.696	135.06
489.914	136.06
490.132	127.06
490.35	160.06
490.568	161.06
490.786	169.06
491.003	183.06
491.221	181.06
491.439	163.06
491.657	193.06
491.874	191.06
492.092	208.06
492.31	239.06
492.527	218.06
492.745	186.06
492.963	181.06
493.18	167.06
493.398	195.06
493.615	183.06
493.833	169.06
494.05	183.06
494.268	170.06
494.485	163.06
494.703	161.06
494.92	172.06
495.138	187.06
495.355	164.06
495.573	163.06
495.79	167.06
496.008	168.06
496.225	161.06
496.442	169.06
496.66	169.06
496.877	159.06
497.094	161.06
497.312	150.06
497.529	148.06
497.746	147.06
497.963	134.06
498.181	113.06
498.398	104.06
498.615	103.06
498.832	115.06
499.049	126.06
499.267	127.06
499.484	132.06
499.701	136.06
499.918	125.06
500.135	120.06
500.352	137.06
500.569	117.06
500.786	135.06
501.003	135.06
501.22	122.06
501.437	127.06
501.654	132.06
501.871	121.06
502.088	124.06
502.305	118.06
502.522	126.06
502.739	123.06
502.956	130.06
503.172	114.06
503.389	118.06
503.606	127.06
503.823	109.06
504.04	123.06
504.256	117.06
504.473	107.06
504.69	111.06
504.907	119.06
505.123	121.06
505.34	106.06
505.557	115.06
505.773	108.06
505.99	135.06
506.207	115.06
506.423	116.06
506.64	127.06
506.856	115.06
507.073	114.06
507.289	132.06
507.506	123.06
507.722	129.06
507.939	119.06
508.155	111.06
508.372	105.06
508.588	122.06
508.805	108.06
509.021	102.06
509.238	111.06
509.454	94.06
509.67	97.06
509.887	105.06
510.103	92.06
510.319	95.06
510.536	90.06
510.752	78.06
510.968	86.06
511.184	82.06
511.401	98.06
511.617	101.06
511.833	91.06
512.049	87.06
512.265	87.06
