Data from Location1.07152019.Energy5.Lamp.07192019.3%Agarose_HRD10591_14-32-08-016.txt Node
Date: Fri Jul 19 14:32:08 EDT 2019
User: cochatt
Spectrometer: HR+D1059
Trigger mode: 1
Integration Time (sec): 1.000000E-1
Scans to average: 1
Electric dark correction enabled: true
Nonlinearity correction enabled: false
Boxcar width: 0
XAxis mode: Wavelengths
Number of Pixels in Spectrum: 2048
>>>>>Begin Spectral Data<<<<<
223.165	-16.12
223.4	-16.12
223.635	-16.12
223.869	-6.12
224.104	-13.12
224.338	-6.12
224.573	-18.12
224.808	-24.12
225.042	-15.12
225.277	-9.12
225.511	-7.12
225.746	8.88
225.98	0.88
226.215	5.88
226.449	10.88
226.683	24.88
226.918	32.88
227.152	30.88
227.387	42.88
227.621	33.88
227.856	49.88
228.09	45.88
228.324	57.88
228.559	43.88
228.793	58.88
229.027	67.88
229.262	64.88
229.496	78.88
229.73	74.88
229.964	84.88
230.199	54.88
230.433	79.88
230.667	64.88
230.901	73.88
231.136	72.88
231.37	85.88
231.604	72.88
231.838	79.88
232.072	68.88
232.306	82.88
232.541	82.88
232.775	80.88
233.009	86.88
233.243	80.88
233.477	84.88
233.711	78.88
233.945	75.88
234.179	85.88
234.413	88.88
234.647	96.88
234.881	78.88
235.115	84.88
235.349	64.88
235.583	82.88
235.817	73.88
236.051	82.88
236.285	84.88
236.519	74.88
236.753	76.88
236.987	74.88
237.221	72.88
237.455	76.88
237.689	72.88
237.922	85.88
238.156	68.88
238.39	74.88
238.624	75.88
238.858	84.88
239.091	79.88
239.325	83.88
239.559	77.88
239.793	72.88
240.027	83.88
240.26	77.88
240.494	83.88
240.728	75.88
240.961	86.88
241.195	73.88
241.429	91.88
241.662	72.88
241.896	80.88
242.13	78.88
242.363	74.88
242.597	86.88
242.83	84.88
243.064	81.88
243.298	69.88
243.531	74.88
243.765	71.88
243.998	83.88
244.232	72.88
244.465	76.88
244.699	85.88
244.932	85.88
245.166	75.88
245.399	75.88
245.633	73.88
245.866	76.88
246.099	70.88
246.333	84.88
246.566	61.88
246.8	84.88
247.033	86.88
247.266	64.88
247.5	68.88
247.733	72.88
247.966	63.88
248.2	79.88
248.433	88.88
248.666	73.88
248.899	79.88
249.133	90.88
249.366	103.88
249.599	79.88
249.832	74.88
250.066	63.88
250.299	82.88
250.532	86.88
250.765	86.88
250.998	86.88
251.231	77.88
251.465	76.88
251.698	71.88
251.931	74.88
252.164	69.88
252.397	80.88
252.63	70.88
252.863	73.88
253.096	71.88
253.329	89.88
253.562	84.88
253.795	83.88
254.028	90.88
254.261	94.88
254.494	85.88
254.727	86.88
254.96	89.88
255.193	94.88
255.426	80.88
255.659	79.88
255.892	92.88
256.124	84.88
256.357	73.88
256.59	70.88
256.823	74.88
257.056	83.88
257.289	80.88
257.521	85.88
257.754	79.88
257.987	74.88
258.22	75.88
258.452	76.88
258.685	78.88
258.918	58.88
259.151	75.88
259.383	80.88
259.616	92.88
259.849	80.88
260.081	85.88
260.314	87.88
260.547	84.88
260.779	78.88
261.012	75.88
261.244	79.88
261.477	72.88
261.71	82.88
261.942	87.88
262.175	80.88
262.407	82.88
262.64	80.88
262.872	86.88
263.105	85.88
263.337	94.88
263.57	67.88
263.802	75.88
264.035	82.88
264.267	83.88
264.499	72.88
264.732	62.88
264.964	74.88
265.197	93.88
265.429	71.88
265.661	74.88
265.894	82.88
266.126	71.88
266.358	91.88
266.591	90.88
266.823	85.88
267.055	93.88
267.287	84.88
267.52	84.88
267.752	79.88
267.984	92.88
268.216	83.88
268.448	85.88
268.681	82.88
268.913	89.88
269.145	89.88
269.377	78.88
269.609	82.88
269.841	87.88
270.073	94.88
270.306	83.88
270.538	78.88
270.77	78.88
271.002	74.88
271.234	80.88
271.466	79.88
271.698	93.88
271.93	75.88
272.162	89.88
272.394	90.88
272.626	80.88
272.858	70.88
273.09	89.88
273.322	79.88
273.553	72.88
273.785	77.88
274.017	77.88
274.249	90.88
274.481	93.88
274.713	96.88
274.945	92.88
275.176	86.88
275.408	85.88
275.64	83.88
275.872	87.88
276.104	88.88
276.335	92.88
276.567	77.88
276.799	82.88
277.031	83.88
277.262	81.88
277.494	85.88
277.726	76.88
277.957	78.88
278.189	80.88
278.421	70.88
278.652	71.88
278.884	72.88
279.115	83.88
279.347	85.88
279.579	93.88
279.81	84.88
280.042	80.88
280.273	77.88
280.505	86.88
280.736	86.88
280.968	71.88
281.199	93.88
281.431	92.88
281.662	79.88
281.894	79.88
282.125	92.88
282.356	82.88
282.588	76.88
282.819	82.88
283.051	81.88
283.282	82.88
283.513	85.88
283.745	85.88
283.976	84.88
284.207	70.88
284.439	85.88
284.67	86.88
284.901	78.88
285.132	94.88
285.364	74.88
285.595	96.88
285.826	95.88
286.057	86.88
286.288	82.88
286.52	87.88
286.751	81.88
286.982	85.88
287.213	76.88
287.444	88.88
287.675	81.88
287.906	86.88
288.138	76.88
288.369	99.88
288.6	93.88
288.831	82.88
289.062	92.88
289.293	83.88
289.524	81.88
289.755	79.88
289.986	82.88
290.217	66.88
290.448	87.88
290.679	71.88
290.91	73.88
291.141	75.88
291.371	75.88
291.602	95.88
291.833	84.88
292.064	87.88
292.295	69.88
292.526	90.88
292.757	77.88
292.987	92.88
293.218	98.88
293.449	96.88
293.68	86.88
293.91	79.88
294.141	75.88
294.372	80.88
294.603	79.88
294.833	91.88
295.064	77.88
295.295	86.88
295.525	99.88
295.756	89.88
295.987	80.88
296.217	81.88
296.448	72.88
296.679	77.88
296.909	91.88
297.14	84.88
297.37	86.88
297.601	96.88
297.831	67.88
298.062	77.88
298.292	79.88
298.523	68.88
298.753	97.88
298.984	93.88
299.214	93.88
299.445	76.88
299.675	85.88
299.905	106.88
300.136	80.88
300.366	105.88
300.597	82.88
300.827	92.88
301.057	69.88
301.288	94.88
301.518	79.88
301.748	86.88
301.979	80.88
302.209	88.88
302.439	78.88
302.669	79.88
302.9	89.88
303.13	88.88
303.36	90.88
303.59	85.88
303.82	69.88
304.051	88.88
304.281	87.88
304.511	72.88
304.741	75.88
304.971	90.88
305.201	90.88
305.431	79.88
305.661	76.88
305.891	90.88
306.121	77.88
306.352	90.88
306.582	83.88
306.812	94.88
307.042	79.88
307.272	74.88
307.502	91.88
307.731	93.88
307.961	85.88
308.191	98.88
308.421	93.88
308.651	104.88
308.881	88.88
309.111	80.88
309.341	101.88
309.571	75.88
309.8	77.88
310.03	88.88
310.26	78.88
310.49	83.88
310.72	93.88
310.949	90.88
311.179	81.88
311.409	85.88
311.639	73.88
311.868	75.88
312.098	94.88
312.328	106.88
312.557	76.88
312.787	93.88
313.017	97.88
313.246	100.88
313.476	98.88
313.706	90.88
313.935	91.88
314.165	89.88
314.394	80.88
314.624	92.88
314.853	88.88
315.083	88.88
315.312	83.88
315.542	83.88
315.771	79.88
316.001	72.88
316.23	76.88
316.46	76.88
316.689	83.88
316.919	77.88
317.148	79.88
317.377	82.88
317.607	85.88
317.836	92.88
318.065	78.88
318.295	70.88
318.524	83.88
318.753	82.88
318.983	62.88
319.212	76.88
319.441	78.88
319.67	83.88
319.9	84.88
320.129	86.88
320.358	70.88
320.587	94.88
320.816	100.88
321.046	82.88
321.275	83.88
321.504	81.88
321.733	84.88
321.962	85.88
322.191	76.88
322.42	72.88
322.649	90.88
322.878	87.88
323.108	90.88
323.337	88.88
323.566	84.88
323.795	83.88
324.024	82.88
324.253	86.88
324.482	96.88
324.71	93.88
324.939	74.88
325.168	87.88
325.397	102.88
325.626	96.88
325.855	87.88
326.084	84.88
326.313	74.88
326.542	87.88
326.77	78.88
326.999	82.88
327.228	81.88
327.457	89.88
327.686	79.88
327.914	88.88
328.143	72.88
328.372	86.88
328.6	91.88
328.829	91.88
329.058	91.88
329.287	71.88
329.515	86.88
329.744	91.88
329.972	84.88
330.201	83.88
330.43	95.88
330.658	91.88
330.887	79.88
331.115	79.88
331.344	88.88
331.572	88.88
331.801	89.88
332.03	87.88
332.258	96.88
332.486	86.88
332.715	80.88
332.943	85.88
333.172	92.88
333.4	86.88
333.629	90.88
333.857	76.88
334.085	76.88
334.314	75.88
334.542	82.88
334.771	73.88
334.999	66.88
335.227	84.88
335.455	85.88
335.684	87.88
335.912	88.88
336.14	80.88
336.369	85.88
336.597	78.88
336.825	76.88
337.053	99.88
337.281	87.88
337.51	83.88
337.738	84.88
337.966	71.88
338.194	80.88
338.422	90.88
338.65	84.88
338.878	78.88
339.106	83.88
339.334	83.88
339.562	88.88
339.79	76.88
340.018	88.88
340.246	86.88
340.474	86.88
340.702	85.88
340.93	76.88
341.158	85.88
341.386	75.88
341.614	90.88
341.842	90.88
342.07	73.88
342.298	76.88
342.526	94.88
342.754	77.88
342.981	85.88
343.209	79.88
343.437	96.88
343.665	91.88
343.893	87.88
344.12	81.88
344.348	82.88
344.576	84.88
344.804	82.88
345.031	66.88
345.259	88.88
345.487	95.88
345.714	97.88
345.942	87.88
346.17	99.88
346.397	83.88
346.625	90.88
346.853	84.88
347.08	80.88
347.308	81.88
347.535	79.88
347.763	92.88
347.99	80.88
348.218	96.88
348.445	84.88
348.673	87.88
348.9	74.88
349.128	93.88
349.355	79.88
349.583	80.88
349.81	88.88
350.037	79.88
350.265	94.88
350.492	77.88
350.72	75.88
350.947	78.88
351.174	89.88
351.402	99.88
351.629	71.88
351.856	84.88
352.083	91.88
352.311	94.88
352.538	77.88
352.765	105.88
352.992	80.88
353.22	85.88
353.447	81.88
353.674	80.88
353.901	82.88
354.128	83.88
354.355	79.88
354.583	77.88
354.81	91.88
355.037	92.88
355.264	84.88
355.491	68.88
355.718	83.88
355.945	78.88
356.172	82.88
356.399	78.88
356.626	75.88
356.853	82.88
357.08	84.88
357.307	82.88
357.534	91.88
357.761	83.88
357.988	88.88
358.215	85.88
358.441	83.88
358.668	89.88
358.895	91.88
359.122	89.88
359.349	72.88
359.576	90.88
359.802	90.88
360.029	83.88
360.256	83.88
360.483	97.88
360.709	78.88
360.936	88.88
361.163	87.88
361.39	75.88
361.616	87.88
361.843	79.88
362.07	93.88
362.296	88.88
362.523	87.88
362.749	79.88
362.976	86.88
363.203	89.88
363.429	71.88
363.656	84.88
363.882	75.88
364.109	86.88
364.335	72.88
364.562	76.88
364.788	77.88
365.015	84.88
365.241	94.88
365.468	98.88
365.694	73.88
365.92	79.88
366.147	68.88
366.373	78.88
366.599	90.88
366.826	97.88
367.052	90.88
367.278	89.88
367.505	95.88
367.731	99.88
367.957	93.88
368.184	83.88
368.41	89.88
368.636	86.88
368.862	79.88
369.089	99.88
369.315	81.88
369.541	88.88
369.767	72.88
369.993	86.88
370.219	96.88
370.445	81.88
370.672	84.88
370.898	82.88
371.124	91.88
371.35	102.88
371.576	74.88
371.802	93.88
372.028	96.88
372.254	96.88
372.48	87.88
372.706	95.88
372.932	87.88
373.158	86.88
373.384	93.88
373.61	104.88
373.835	94.88
374.061	77.88
374.287	95.88
374.513	98.88
374.739	107.88
374.965	102.88
375.191	83.88
375.416	79.88
375.642	90.88
375.868	107.88
376.094	83.88
376.319	92.88
376.545	106.88
376.771	102.88
376.997	100.88
377.222	93.88
377.448	93.88
377.674	88.88
377.899	83.88
378.125	96.88
378.35	91.88
378.576	82.88
378.802	95.88
379.027	94.88
379.253	92.88
379.478	91.88
379.704	94.88
379.929	88.88
380.155	85.88
380.38	84.88
380.606	91.88
380.831	99.88
381.057	122.88
381.282	95.88
381.507	87.88
381.733	84.88
381.958	92.88
382.184	91.88
382.409	79.88
382.634	92.88
382.86	101.88
383.085	99.88
383.31	109.88
383.535	97.88
383.761	96.88
383.986	79.88
384.211	100.88
384.436	92.88
384.662	92.88
384.887	86.88
385.112	102.88
385.337	87.88
385.562	80.88
385.787	83.88
386.013	89.88
386.238	102.88
386.463	111.88
386.688	92.88
386.913	95.88
387.138	98.88
387.363	110.88
387.588	104.88
387.813	105.88
388.038	89.88
388.263	103.88
388.488	96.88
388.713	87.88
388.938	84.88
389.163	104.88
389.387	91.88
389.612	99.88
389.837	103.88
390.062	103.88
390.287	104.88
390.512	120.88
390.736	105.88
390.961	88.88
391.186	102.88
391.411	95.88
391.636	105.88
391.86	101.88
392.085	103.88
392.31	106.88
392.534	106.88
392.759	102.88
392.984	94.88
393.208	107.88
393.433	104.88
393.658	105.88
393.882	98.88
394.107	116.88
394.331	115.88
394.556	89.88
394.78	105.88
395.005	113.88
395.229	106.88
395.454	105.88
395.678	120.88
395.903	111.88
396.127	106.88
396.352	95.88
396.576	113.88
396.801	116.88
397.025	105.88
397.249	94.88
397.474	97.88
397.698	114.88
397.922	117.88
398.147	110.88
398.371	107.88
398.595	109.88
398.82	114.88
399.044	110.88
399.268	108.88
399.492	112.88
399.717	101.88
399.941	106.88
400.165	98.88
400.389	108.88
400.613	117.88
400.837	100.88
401.062	109.88
401.286	111.88
401.51	110.88
401.734	96.88
401.958	115.88
402.182	107.88
402.406	104.88
402.63	104.88
402.854	120.88
403.078	112.88
403.302	104.88
403.526	101.88
403.75	109.88
403.974	109.88
404.198	109.88
404.422	109.88
404.645	91.88
404.869	114.88
405.093	115.88
405.317	111.88
405.541	138.88
405.765	136.88
405.988	120.88
406.212	114.88
406.436	110.88
406.66	122.88
406.883	107.88
407.107	112.88
407.331	115.88
407.555	101.88
407.778	122.88
408.002	116.88
408.226	128.88
408.449	100.88
408.673	114.88
408.896	118.88
409.12	111.88
409.344	126.88
409.567	120.88
409.791	123.88
410.014	122.88
410.238	129.88
410.461	121.88
410.685	122.88
410.908	132.88
411.132	133.88
411.355	134.88
411.578	129.88
411.802	124.88
412.025	128.88
412.249	116.88
412.472	116.88
412.695	120.88
412.919	123.88
413.142	126.88
413.365	125.88
413.589	122.88
413.812	127.88
414.035	132.88
414.258	121.88
414.482	122.88
414.705	118.88
414.928	116.88
415.151	99.88
415.374	109.88
415.597	112.88
415.821	113.88
416.044	131.88
416.267	119.88
416.49	125.88
416.713	104.88
416.936	114.88
417.159	118.88
417.382	117.88
417.605	115.88
417.828	130.88
418.051	126.88
418.274	130.88
418.497	139.88
418.72	142.88
418.943	134.88
419.166	122.88
419.389	139.88
419.611	130.88
419.834	120.88
420.057	128.88
420.28	124.88
420.503	140.88
420.726	125.88
420.948	125.88
421.171	149.88
421.394	132.88
421.617	140.88
421.839	135.88
422.062	138.88
422.285	122.88
422.507	137.88
422.73	143.88
422.953	121.88
423.175	134.88
423.398	127.88
423.621	135.88
423.843	136.88
424.066	133.88
424.288	126.88
424.511	115.88
424.733	144.88
424.956	140.88
425.178	137.88
425.401	141.88
425.623	132.88
425.846	134.88
426.068	134.88
426.291	132.88
426.513	122.88
426.735	132.88
426.958	132.88
427.18	121.88
427.402	128.88
427.625	128.88
427.847	118.88
428.069	119.88
428.292	124.88
428.514	121.88
428.736	138.88
428.958	116.88
429.181	117.88
429.403	114.88
429.625	130.88
429.847	123.88
430.069	130.88
430.292	125.88
430.514	120.88
430.736	125.88
430.958	126.88
431.18	122.88
431.402	122.88
431.624	111.88
431.846	105.88
432.068	110.88
432.29	96.88
432.512	117.88
432.734	116.88
432.956	108.88
433.178	127.88
433.4	131.88
433.622	150.88
433.844	126.88
434.066	125.88
434.287	103.88
434.509	92.88
434.731	90.88
434.953	113.88
435.175	114.88
435.397	114.88
435.618	115.88
435.84	106.88
436.062	111.88
436.284	122.88
436.505	128.88
436.727	118.88
436.949	140.88
437.17	137.88
437.392	121.88
437.614	127.88
437.835	113.88
438.057	100.88
438.278	118.88
438.5	118.88
438.721	141.88
438.943	148.88
439.165	142.88
439.386	126.88
439.608	144.88
439.829	150.88
440.05	142.88
440.272	131.88
440.493	130.88
440.715	130.88
440.936	135.88
441.158	144.88
441.379	141.88
441.6	138.88
441.822	133.88
442.043	141.88
442.264	143.88
442.486	134.88
442.707	120.88
442.928	140.88
443.149	138.88
443.371	129.88
443.592	120.88
443.813	139.88
444.034	143.88
444.255	133.88
444.476	150.88
444.698	148.88
444.919	142.88
445.14	282.88
445.361	196.88
445.582	139.88
445.803	143.88
446.024	146.88
446.245	157.88
446.466	156.88
446.687	157.88
446.908	158.88
447.129	158.88
447.35	151.88
447.571	139.88
447.792	140.88
448.013	140.88
448.234	127.88
448.455	130.88
448.675	139.88
448.896	144.88
449.117	130.88
449.338	126.88
449.559	127.88
449.779	130.88
450	133.88
450.221	121.88
450.442	125.88
450.662	146.88
450.883	139.88
451.104	139.88
451.324	139.88
451.545	125.88
451.766	125.88
451.986	125.88
452.207	126.88
452.428	126.88
452.648	126.88
452.869	104.88
453.089	111.88
453.31	105.88
453.53	115.88
453.751	106.88
453.971	104.88
454.192	114.88
454.412	109.88
454.633	111.88
454.853	114.88
455.073	109.88
455.294	113.88
455.514	119.88
455.734	114.88
455.955	104.88
456.175	126.88
456.395	119.88
456.616	103.88
456.836	107.88
457.056	93.88
457.276	99.88
457.497	119.88
457.717	103.88
457.937	101.88
458.157	108.88
458.377	105.88
458.598	102.88
458.818	115.88
459.038	85.88
459.258	91.88
459.478	77.88
459.698	86.88
459.918	93.88
460.138	105.88
460.358	127.88
460.578	103.88
460.798	110.88
461.018	108.88
461.238	120.88
461.458	118.88
461.678	113.88
461.898	121.88
462.118	100.88
462.338	112.88
462.558	114.88
462.777	97.88
462.997	115.88
463.217	104.88
463.437	98.88
463.657	99.88
463.876	93.88
464.096	103.88
464.316	108.88
464.536	102.88
464.755	117.88
464.975	119.88
465.195	131.88
465.414	131.88
465.634	124.88
465.854	104.88
466.073	117.88
466.293	102.88
466.512	112.88
466.732	132.88
466.951	123.88
467.171	121.88
467.391	131.88
467.61	134.88
467.829	125.88
468.049	124.88
468.268	148.88
468.488	142.88
468.707	146.88
468.927	142.88
469.146	152.88
469.365	140.88
469.585	137.88
469.804	140.88
470.023	135.88
470.243	143.88
470.462	128.88
470.681	152.88
470.901	146.88
471.12	132.88
471.339	144.88
471.558	160.88
471.777	142.88
471.997	126.88
472.216	125.88
472.435	111.88
472.654	106.88
472.873	112.88
473.092	112.88
473.311	127.88
473.53	108.88
473.749	140.88
473.968	137.88
474.187	111.88
474.406	127.88
474.625	130.88
474.844	128.88
475.063	119.88
475.282	131.88
475.501	122.88
475.72	107.88
475.939	121.88
476.158	128.88
476.377	121.88
476.596	106.88
476.814	112.88
477.033	114.88
477.252	108.88
477.471	118.88
477.69	135.88
477.908	130.88
478.127	128.88
478.346	123.88
478.564	145.88
478.783	130.88
479.002	133.88
479.22	145.88
479.439	126.88
479.658	124.88
479.876	125.88
480.095	124.88
480.313	119.88
480.532	127.88
480.751	103.88
480.969	97.88
481.188	96.88
481.406	98.88
481.624	98.88
481.843	85.88
482.061	81.88
482.28	105.88
482.498	114.88
482.717	105.88
482.935	130.88
483.153	140.88
483.372	152.88
483.59	136.88
483.808	156.88
484.027	128.88
484.245	143.88
484.463	147.88
484.681	172.88
484.9	157.88
485.118	138.88
485.336	137.88
485.554	121.88
485.772	90.88
485.99	110.88
486.209	103.88
486.427	96.88
486.645	111.88
486.863	117.88
487.081	136.88
487.299	131.88
487.517	136.88
487.735	162.88
487.953	164.88
488.171	187.88
488.389	173.88
488.607	151.88
488.825	136.88
489.043	140.88
489.261	111.88
489.479	130.88
489.696	128.88
489.914	124.88
490.132	159.88
490.35	147.88
490.568	166.88
490.786	180.88
491.003	182.88
491.221	191.88
491.439	195.88
491.657	196.88
491.874	191.88
492.092	218.88
492.31	239.88
492.527	237.88
492.745	192.88
492.963	187.88
493.18	184.88
493.398	177.88
493.615	174.88
493.833	182.88
494.05	188.88
494.268	174.88
494.485	168.88
494.703	175.88
494.92	170.88
495.138	175.88
495.355	178.88
495.573	174.88
495.79	174.88
496.008	156.88
496.225	149.88
496.442	167.88
496.66	166.88
496.877	162.88
497.094	148.88
497.312	154.88
497.529	154.88
497.746	150.88
497.963	129.88
498.181	122.88
498.398	123.88
498.615	113.88
498.832	122.88
499.049	128.88
499.267	131.88
499.484	126.88
499.701	128.88
499.918	132.88
500.135	143.88
500.352	136.88
500.569	139.88
500.786	159.88
501.003	144.88
501.22	141.88
501.437	147.88
501.654	145.88
501.871	144.88
502.088	126.88
502.305	118.88
502.522	115.88
502.739	115.88
502.956	124.88
503.172	123.88
503.389	120.88
503.606	122.88
503.823	130.88
504.04	130.88
504.256	122.88
504.473	123.88
504.69	107.88
504.907	125.88
505.123	117.88
505.34	109.88
505.557	126.88
505.773	134.88
505.99	134.88
506.207	122.88
506.423	101.88
506.64	102.88
506.856	123.88
507.073	120.88
507.289	116.88
507.506	104.88
507.722	118.88
507.939	113.88
508.155	114.88
508.372	111.88
508.588	116.88
508.805	116.88
509.021	104.88
509.238	110.88
509.454	107.88
509.67	90.88
509.887	107.88
510.103	106.88
510.319	94.88
510.536	102.88
510.752	99.88
510.968	86.88
511.184	80.88
511.401	98.88
511.617	84.88
