Data from Location1.07152019.Energy5.Lamp.07192019.3%Agarose_HRD10591_14-32-59-015.txt Node
Date: Fri Jul 19 14:32:59 EDT 2019
User: cochatt
Spectrometer: HR+D1059
Trigger mode: 1
Integration Time (sec): 1.000000E-1
Scans to average: 1
Electric dark correction enabled: true
Nonlinearity correction enabled: false
Boxcar width: 0
XAxis mode: Wavelengths
Number of Pixels in Spectrum: 2048
>>>>>Begin Spectral Data<<<<<
223.165	-18.44
223.4	-18.44
223.635	-18.44
223.869	-15.44
224.104	-7.44
224.338	-16.44
224.573	-15.44
224.808	-11.44
225.042	-10.44
225.277	3.56
225.511	-14.44
225.746	5.56
225.98	7.56
226.215	15.56
226.449	17.56
226.683	7.56
226.918	22.56
227.152	29.56
227.387	42.56
227.621	39.56
227.856	52.56
228.09	48.56
228.324	57.56
228.559	69.56
228.793	56.56
229.027	54.56
229.262	52.56
229.496	66.56
229.73	83.56
229.964	73.56
230.199	75.56
230.433	87.56
230.667	74.56
230.901	70.56
231.136	84.56
231.37	80.56
231.604	91.56
231.838	82.56
232.072	81.56
232.306	93.56
232.541	77.56
232.775	78.56
233.009	78.56
233.243	70.56
233.477	83.56
233.711	86.56
233.945	92.56
234.179	66.56
234.413	93.56
234.647	82.56
234.881	101.56
235.115	86.56
235.349	72.56
235.583	84.56
235.817	90.56
236.051	88.56
236.285	84.56
236.519	70.56
236.753	78.56
236.987	89.56
237.221	71.56
237.455	79.56
237.689	73.56
237.922	72.56
238.156	77.56
238.39	76.56
238.624	85.56
238.858	73.56
239.091	87.56
239.325	81.56
239.559	82.56
239.793	79.56
240.027	66.56
240.26	74.56
240.494	80.56
240.728	86.56
240.961	84.56
241.195	89.56
241.429	80.56
241.662	82.56
241.896	72.56
242.13	67.56
242.363	82.56
242.597	71.56
242.83	70.56
243.064	86.56
243.298	84.56
243.531	84.56
243.765	89.56
243.998	84.56
244.232	80.56
244.465	67.56
244.699	58.56
244.932	75.56
245.166	75.56
245.399	80.56
245.633	71.56
245.866	87.56
246.099	72.56
246.333	66.56
246.566	77.56
246.8	98.56
247.033	84.56
247.266	75.56
247.5	91.56
247.733	83.56
247.966	78.56
248.2	79.56
248.433	77.56
248.666	73.56
248.899	69.56
249.133	75.56
249.366	70.56
249.599	86.56
249.832	71.56
250.066	91.56
250.299	77.56
250.532	75.56
250.765	84.56
250.998	96.56
251.231	77.56
251.465	81.56
251.698	74.56
251.931	91.56
252.164	84.56
252.397	77.56
252.63	71.56
252.863	80.56
253.096	70.56
253.329	85.56
253.562	85.56
253.795	91.56
254.028	75.56
254.261	95.56
254.494	80.56
254.727	83.56
254.96	102.56
255.193	81.56
255.426	70.56
255.659	83.56
255.892	69.56
256.124	73.56
256.357	80.56
256.59	88.56
256.823	84.56
257.056	86.56
257.289	70.56
257.521	85.56
257.754	69.56
257.987	71.56
258.22	93.56
258.452	77.56
258.685	93.56
258.918	81.56
259.151	81.56
259.383	83.56
259.616	81.56
259.849	89.56
260.081	78.56
260.314	76.56
260.547	77.56
260.779	76.56
261.012	70.56
261.244	64.56
261.477	80.56
261.71	84.56
261.942	90.56
262.175	67.56
262.407	75.56
262.64	76.56
262.872	75.56
263.105	85.56
263.337	74.56
263.57	75.56
263.802	85.56
264.035	82.56
264.267	82.56
264.499	72.56
264.732	69.56
264.964	82.56
265.197	74.56
265.429	88.56
265.661	98.56
265.894	79.56
266.126	74.56
266.358	84.56
266.591	62.56
266.823	92.56
267.055	88.56
267.287	76.56
267.52	81.56
267.752	72.56
267.984	82.56
268.216	71.56
268.448	77.56
268.681	71.56
268.913	99.56
269.145	82.56
269.377	96.56
269.609	102.56
269.841	87.56
270.073	61.56
270.306	73.56
270.538	85.56
270.77	100.56
271.002	76.56
271.234	81.56
271.466	96.56
271.698	81.56
271.93	85.56
272.162	88.56
272.394	86.56
272.626	80.56
272.858	89.56
273.09	87.56
273.322	94.56
273.553	91.56
273.785	91.56
274.017	78.56
274.249	92.56
274.481	92.56
274.713	79.56
274.945	87.56
275.176	74.56
275.408	83.56
275.64	101.56
275.872	80.56
276.104	86.56
276.335	80.56
276.567	86.56
276.799	67.56
277.031	94.56
277.262	78.56
277.494	81.56
277.726	91.56
277.957	76.56
278.189	80.56
278.421	98.56
278.652	78.56
278.884	78.56
279.115	90.56
279.347	90.56
279.579	76.56
279.81	97.56
280.042	87.56
280.273	87.56
280.505	83.56
280.736	88.56
280.968	85.56
281.199	75.56
281.431	94.56
281.662	88.56
281.894	82.56
282.125	80.56
282.356	90.56
282.588	81.56
282.819	99.56
283.051	102.56
283.282	68.56
283.513	79.56
283.745	94.56
283.976	92.56
284.207	89.56
284.439	74.56
284.67	93.56
284.901	93.56
285.132	87.56
285.364	87.56
285.595	92.56
285.826	84.56
286.057	71.56
286.288	92.56
286.52	85.56
286.751	94.56
286.982	72.56
287.213	87.56
287.444	95.56
287.675	100.56
287.906	99.56
288.138	91.56
288.369	85.56
288.6	95.56
288.831	83.56
289.062	90.56
289.293	85.56
289.524	87.56
289.755	95.56
289.986	89.56
290.217	86.56
290.448	98.56
290.679	81.56
290.91	91.56
291.141	98.56
291.371	99.56
291.602	79.56
291.833	80.56
292.064	77.56
292.295	70.56
292.526	91.56
292.757	86.56
292.987	88.56
293.218	70.56
293.449	88.56
293.68	96.56
293.91	78.56
294.141	91.56
294.372	81.56
294.603	86.56
294.833	95.56
295.064	92.56
295.295	79.56
295.525	79.56
295.756	74.56
295.987	82.56
296.217	95.56
296.448	87.56
296.679	90.56
296.909	79.56
297.14	101.56
297.37	72.56
297.601	90.56
297.831	86.56
298.062	91.56
298.292	92.56
298.523	87.56
298.753	89.56
298.984	87.56
299.214	82.56
299.445	78.56
299.675	94.56
299.905	80.56
300.136	83.56
300.366	86.56
300.597	80.56
300.827	78.56
301.057	88.56
301.288	95.56
301.518	94.56
301.748	89.56
301.979	79.56
302.209	86.56
302.439	89.56
302.669	98.56
302.9	87.56
303.13	77.56
303.36	80.56
303.59	90.56
303.82	90.56
304.051	86.56
304.281	76.56
304.511	77.56
304.741	81.56
304.971	90.56
305.201	84.56
305.431	88.56
305.661	86.56
305.891	84.56
306.121	84.56
306.352	103.56
306.582	86.56
306.812	88.56
307.042	92.56
307.272	93.56
307.502	87.56
307.731	81.56
307.961	87.56
308.191	71.56
308.421	76.56
308.651	77.56
308.881	85.56
309.111	92.56
309.341	92.56
309.571	89.56
309.8	86.56
310.03	80.56
310.26	82.56
310.49	79.56
310.72	90.56
310.949	76.56
311.179	78.56
311.409	95.56
311.639	90.56
311.868	77.56
312.098	92.56
312.328	99.56
312.557	92.56
312.787	85.56
313.017	101.56
313.246	91.56
313.476	72.56
313.706	80.56
313.935	90.56
314.165	86.56
314.394	81.56
314.624	87.56
314.853	90.56
315.083	84.56
315.312	86.56
315.542	81.56
315.771	97.56
316.001	81.56
316.23	90.56
316.46	82.56
316.689	89.56
316.919	86.56
317.148	83.56
317.377	77.56
317.607	86.56
317.836	82.56
318.065	88.56
318.295	75.56
318.524	93.56
318.753	76.56
318.983	98.56
319.212	87.56
319.441	76.56
319.67	89.56
319.9	82.56
320.129	83.56
320.358	68.56
320.587	95.56
320.816	71.56
321.046	91.56
321.275	92.56
321.504	77.56
321.733	85.56
321.962	75.56
322.191	85.56
322.42	90.56
322.649	88.56
322.878	73.56
323.108	80.56
323.337	79.56
323.566	87.56
323.795	98.56
324.024	93.56
324.253	86.56
324.482	101.56
324.71	91.56
324.939	84.56
325.168	86.56
325.397	86.56
325.626	75.56
325.855	87.56
326.084	98.56
326.313	88.56
326.542	76.56
326.77	72.56
326.999	77.56
327.228	87.56
327.457	92.56
327.686	88.56
327.914	97.56
328.143	83.56
328.372	76.56
328.6	93.56
328.829	93.56
329.058	94.56
329.287	79.56
329.515	76.56
329.744	67.56
329.972	88.56
330.201	77.56
330.43	83.56
330.658	92.56
330.887	86.56
331.115	92.56
331.344	81.56
331.572	90.56
331.801	93.56
332.03	92.56
332.258	91.56
332.486	88.56
332.715	96.56
332.943	79.56
333.172	97.56
333.4	95.56
333.629	87.56
333.857	81.56
334.085	77.56
334.314	83.56
334.542	73.56
334.771	89.56
334.999	89.56
335.227	81.56
335.455	94.56
335.684	91.56
335.912	93.56
336.14	82.56
336.369	89.56
336.597	96.56
336.825	100.56
337.053	94.56
337.281	84.56
337.51	74.56
337.738	91.56
337.966	95.56
338.194	100.56
338.422	82.56
338.65	90.56
338.878	58.56
339.106	79.56
339.334	87.56
339.562	88.56
339.79	84.56
340.018	83.56
340.246	79.56
340.474	98.56
340.702	87.56
340.93	76.56
341.158	85.56
341.386	85.56
341.614	105.56
341.842	79.56
342.07	81.56
342.298	93.56
342.526	80.56
342.754	79.56
342.981	78.56
343.209	91.56
343.437	86.56
343.665	83.56
343.893	99.56
344.12	103.56
344.348	94.56
344.576	88.56
344.804	83.56
345.031	85.56
345.259	79.56
345.487	81.56
345.714	86.56
345.942	86.56
346.17	84.56
346.397	87.56
346.625	72.56
346.853	91.56
347.08	72.56
347.308	76.56
347.535	86.56
347.763	100.56
347.99	89.56
348.218	71.56
348.445	90.56
348.673	79.56
348.9	81.56
349.128	89.56
349.355	88.56
349.583	70.56
349.81	86.56
350.037	81.56
350.265	86.56
350.492	74.56
350.72	75.56
350.947	88.56
351.174	90.56
351.402	93.56
351.629	91.56
351.856	86.56
352.083	98.56
352.311	72.56
352.538	77.56
352.765	67.56
352.992	87.56
353.22	93.56
353.447	74.56
353.674	84.56
353.901	89.56
354.128	80.56
354.355	70.56
354.583	74.56
354.81	87.56
355.037	94.56
355.264	91.56
355.491	86.56
355.718	76.56
355.945	87.56
356.172	79.56
356.399	94.56
356.626	99.56
356.853	87.56
357.08	80.56
357.307	91.56
357.534	82.56
357.761	98.56
357.988	109.56
358.215	77.56
358.441	95.56
358.668	88.56
358.895	81.56
359.122	89.56
359.349	86.56
359.576	89.56
359.802	86.56
360.029	78.56
360.256	95.56
360.483	95.56
360.709	91.56
360.936	88.56
361.163	81.56
361.39	72.56
361.616	83.56
361.843	82.56
362.07	75.56
362.296	86.56
362.523	100.56
362.749	86.56
362.976	79.56
363.203	85.56
363.429	78.56
363.656	91.56
363.882	82.56
364.109	77.56
364.335	82.56
364.562	76.56
364.788	77.56
365.015	80.56
365.241	78.56
365.468	78.56
365.694	83.56
365.92	95.56
366.147	83.56
366.373	84.56
366.599	83.56
366.826	93.56
367.052	91.56
367.278	91.56
367.505	75.56
367.731	86.56
367.957	78.56
368.184	91.56
368.41	87.56
368.636	99.56
368.862	104.56
369.089	100.56
369.315	87.56
369.541	103.56
369.767	99.56
369.993	76.56
370.219	83.56
370.445	96.56
370.672	93.56
370.898	84.56
371.124	78.56
371.35	77.56
371.576	101.56
371.802	104.56
372.028	85.56
372.254	101.56
372.48	80.56
372.706	87.56
372.932	94.56
373.158	78.56
373.384	101.56
373.61	83.56
373.835	84.56
374.061	87.56
374.287	92.56
374.513	87.56
374.739	93.56
374.965	99.56
375.191	87.56
375.416	95.56
375.642	96.56
375.868	94.56
376.094	101.56
376.319	87.56
376.545	89.56
376.771	94.56
376.997	92.56
377.222	92.56
377.448	93.56
377.674	101.56
377.899	111.56
378.125	94.56
378.35	99.56
378.576	93.56
378.802	85.56
379.027	98.56
379.253	79.56
379.478	102.56
379.704	95.56
379.929	105.56
380.155	90.56
380.38	109.56
380.606	95.56
380.831	91.56
381.057	92.56
381.282	98.56
381.507	84.56
381.733	82.56
381.958	98.56
382.184	103.56
382.409	106.56
382.634	97.56
382.86	92.56
383.085	88.56
383.31	91.56
383.535	101.56
383.761	104.56
383.986	86.56
384.211	95.56
384.436	97.56
384.662	94.56
384.887	98.56
385.112	92.56
385.337	110.56
385.562	92.56
385.787	86.56
386.013	98.56
386.238	92.56
386.463	102.56
386.688	95.56
386.913	97.56
387.138	96.56
387.363	110.56
387.588	109.56
387.813	97.56
388.038	103.56
388.263	96.56
388.488	87.56
388.713	106.56
388.938	112.56
389.163	97.56
389.387	116.56
389.612	108.56
389.837	103.56
390.062	93.56
390.287	107.56
390.512	106.56
390.736	103.56
390.961	99.56
391.186	110.56
391.411	93.56
391.636	102.56
391.86	98.56
392.085	100.56
392.31	102.56
392.534	92.56
392.759	105.56
392.984	110.56
393.208	99.56
393.433	109.56
393.658	120.56
393.882	111.56
394.107	108.56
394.331	103.56
394.556	112.56
394.78	110.56
395.005	106.56
395.229	105.56
395.454	127.56
395.678	105.56
395.903	94.56
396.127	109.56
396.352	107.56
396.576	118.56
396.801	119.56
397.025	104.56
397.249	94.56
397.474	116.56
397.698	105.56
397.922	98.56
398.147	106.56
398.371	93.56
398.595	106.56
398.82	95.56
399.044	112.56
399.268	110.56
399.492	114.56
399.717	116.56
399.941	114.56
400.165	111.56
400.389	112.56
400.613	111.56
400.837	116.56
401.062	124.56
401.286	103.56
401.51	106.56
401.734	116.56
401.958	111.56
402.182	116.56
402.406	101.56
402.63	112.56
402.854	104.56
403.078	97.56
403.302	115.56
403.526	101.56
403.75	107.56
403.974	103.56
404.198	106.56
404.422	111.56
404.645	118.56
404.869	119.56
405.093	106.56
405.317	110.56
405.541	129.56
405.765	110.56
405.988	115.56
406.212	100.56
406.436	121.56
406.66	118.56
406.883	120.56
407.107	119.56
407.331	121.56
407.555	115.56
407.778	120.56
408.002	117.56
408.226	118.56
408.449	136.56
408.673	123.56
408.896	114.56
409.12	107.56
409.344	120.56
409.567	131.56
409.791	134.56
410.014	111.56
410.238	111.56
410.461	121.56
410.685	118.56
410.908	122.56
411.132	123.56
411.355	123.56
411.578	137.56
411.802	117.56
412.025	123.56
412.249	116.56
412.472	126.56
412.695	103.56
412.919	116.56
413.142	123.56
413.365	128.56
413.589	122.56
413.812	138.56
414.035	119.56
414.258	126.56
414.482	124.56
414.705	131.56
414.928	134.56
415.151	126.56
415.374	140.56
415.597	126.56
415.821	131.56
416.044	126.56
416.267	120.56
416.49	126.56
416.713	130.56
416.936	128.56
417.159	138.56
417.382	120.56
417.605	138.56
417.828	115.56
418.051	127.56
418.274	134.56
418.497	122.56
418.72	124.56
418.943	118.56
419.166	134.56
419.389	111.56
419.611	118.56
419.834	130.56
420.057	130.56
420.28	134.56
420.503	125.56
420.726	126.56
420.948	132.56
421.171	126.56
421.394	127.56
421.617	117.56
421.839	131.56
422.062	138.56
422.285	130.56
422.507	119.56
422.73	122.56
422.953	132.56
423.175	118.56
423.398	123.56
423.621	130.56
423.843	130.56
424.066	133.56
424.288	154.56
424.511	152.56
424.733	145.56
424.956	132.56
425.178	150.56
425.401	118.56
425.623	125.56
425.846	142.56
426.068	152.56
426.291	136.56
426.513	131.56
426.735	125.56
426.958	127.56
427.18	123.56
427.402	128.56
427.625	129.56
427.847	123.56
428.069	137.56
428.292	121.56
428.514	134.56
428.736	136.56
428.958	127.56
429.181	141.56
429.403	128.56
429.625	136.56
429.847	125.56
430.069	122.56
430.292	123.56
430.514	116.56
430.736	141.56
430.958	130.56
431.18	124.56
431.402	130.56
431.624	114.56
431.846	99.56
432.068	95.56
432.29	93.56
432.512	119.56
432.734	116.56
432.956	121.56
433.178	134.56
433.4	126.56
433.622	140.56
433.844	128.56
434.066	124.56
434.287	116.56
434.509	106.56
434.731	104.56
434.953	116.56
435.175	117.56
435.397	130.56
435.618	118.56
435.84	114.56
436.062	104.56
436.284	130.56
436.505	132.56
436.727	130.56
436.949	119.56
437.17	134.56
437.392	115.56
437.614	108.56
437.835	114.56
438.057	107.56
438.278	122.56
438.5	124.56
438.721	130.56
438.943	129.56
439.165	146.56
439.386	143.56
439.608	154.56
439.829	155.56
440.05	140.56
440.272	146.56
440.493	140.56
440.715	127.56
440.936	143.56
441.158	127.56
441.379	120.56
441.6	140.56
441.822	142.56
442.043	145.56
442.264	136.56
442.486	135.56
442.707	138.56
442.928	142.56
443.149	126.56
443.371	126.56
443.592	132.56
443.813	140.56
444.034	137.56
444.255	140.56
444.476	135.56
444.698	136.56
444.919	149.56
445.14	235.56
445.361	186.56
445.582	146.56
445.803	131.56
446.024	158.56
446.245	162.56
446.466	151.56
446.687	151.56
446.908	162.56
447.129	150.56
447.35	147.56
447.571	144.56
447.792	151.56
448.013	140.56
448.234	152.56
448.455	152.56
448.675	134.56
448.896	146.56
449.117	131.56
449.338	147.56
449.559	142.56
449.779	135.56
450	131.56
450.221	144.56
450.442	142.56
450.662	140.56
450.883	133.56
451.104	133.56
451.324	132.56
451.545	127.56
451.766	133.56
451.986	139.56
452.207	129.56
452.428	114.56
452.648	122.56
452.869	122.56
453.089	110.56
453.31	100.56
453.53	124.56
453.751	108.56
453.971	97.56
454.192	111.56
454.412	124.56
454.633	108.56
454.853	122.56
455.073	103.56
455.294	128.56
455.514	127.56
455.734	119.56
455.955	127.56
456.175	117.56
456.395	117.56
456.616	117.56
456.836	101.56
457.056	116.56
457.276	109.56
457.497	107.56
457.717	115.56
457.937	111.56
458.157	116.56
458.377	102.56
458.598	92.56
458.818	93.56
459.038	94.56
459.258	93.56
459.478	83.56
459.698	92.56
459.918	87.56
460.138	109.56
460.358	103.56
460.578	111.56
460.798	127.56
461.018	120.56
461.238	114.56
461.458	119.56
461.678	126.56
461.898	121.56
462.118	130.56
462.338	131.56
462.558	115.56
462.777	94.56
462.997	107.56
463.217	108.56
463.437	108.56
463.657	130.56
463.876	112.56
464.096	92.56
464.316	100.56
464.536	116.56
464.755	122.56
464.975	114.56
465.195	114.56
465.414	108.56
465.634	106.56
465.854	124.56
466.073	106.56
466.293	131.56
466.512	118.56
466.732	119.56
466.951	124.56
467.171	130.56
467.391	136.56
467.61	127.56
467.829	134.56
468.049	137.56
468.268	133.56
468.488	144.56
468.707	139.56
468.927	132.56
469.146	125.56
469.365	153.56
469.585	139.56
469.804	133.56
470.023	133.56
470.243	139.56
470.462	154.56
470.681	158.56
470.901	131.56
471.12	133.56
471.339	143.56
471.558	127.56
471.777	133.56
471.997	130.56
472.216	132.56
472.435	119.56
472.654	109.56
472.873	118.56
473.092	122.56
473.311	117.56
473.53	124.56
473.749	127.56
473.968	128.56
474.187	111.56
474.406	111.56
474.625	131.56
474.844	134.56
475.063	120.56
475.282	116.56
475.501	106.56
475.72	108.56
475.939	122.56
476.158	127.56
476.377	137.56
476.596	125.56
476.814	108.56
477.033	107.56
477.252	111.56
477.471	131.56
477.69	130.56
477.908	147.56
478.127	142.56
478.346	136.56
478.564	126.56
478.783	120.56
479.002	128.56
479.22	140.56
479.439	148.56
479.658	126.56
479.876	123.56
480.095	113.56
480.313	126.56
480.532	110.56
480.751	107.56
480.969	116.56
481.188	105.56
481.406	103.56
481.624	88.56
481.843	90.56
482.061	98.56
482.28	115.56
482.498	105.56
482.717	96.56
482.935	114.56
483.153	132.56
483.372	153.56
483.59	166.56
483.808	144.56
484.027	126.56
484.245	132.56
484.463	150.56
484.681	145.56
484.9	160.56
485.118	123.56
485.336	127.56
485.554	116.56
485.772	104.56
485.99	95.56
486.209	103.56
486.427	100.56
486.645	116.56
486.863	132.56
487.081	145.56
487.299	128.56
487.517	135.56
487.735	164.56
487.953	199.56
488.171	168.56
488.389	178.56
488.607	152.56
488.825	138.56
489.043	130.56
489.261	139.56
489.479	155.56
489.696	134.56
489.914	143.56
490.132	147.56
490.35	147.56
490.568	143.56
490.786	175.56
491.003	163.56
491.221	190.56
491.439	173.56
491.657	168.56
491.874	200.56
492.092	212.56
492.31	230.56
492.527	235.56
492.745	205.56
492.963	200.56
493.18	182.56
493.398	163.56
493.615	168.56
493.833	175.56
494.05	185.56
494.268	181.56
494.485	161.56
494.703	158.56
494.92	173.56
495.138	163.56
495.355	165.56
495.573	174.56
495.79	170.56
496.008	174.56
496.225	163.56
496.442	157.56
496.66	184.56
496.877	160.56
497.094	177.56
497.312	168.56
497.529	165.56
497.746	153.56
497.963	124.56
498.181	128.56
498.398	123.56
498.615	126.56
498.832	113.56
499.049	123.56
499.267	129.56
499.484	130.56
499.701	123.56
499.918	135.56
500.135	146.56
500.352	150.56
500.569	146.56
500.786	135.56
501.003	147.56
501.22	141.56
501.437	145.56
501.654	131.56
501.871	133.56
502.088	129.56
502.305	123.56
502.522	133.56
502.739	142.56
502.956	133.56
503.172	121.56
503.389	133.56
503.606	119.56
503.823	118.56
504.04	117.56
504.256	121.56
504.473	117.56
504.69	115.56
504.907	133.56
505.123	119.56
505.34	119.56
505.557	121.56
505.773	127.56
505.99	111.56
506.207	118.56
506.423	108.56
506.64	119.56
506.856	107.56
507.073	117.56
507.289	105.56
507.506	122.56
507.722	124.56
507.939	120.56
508.155	124.56
508.372	106.56
508.588	112.56
508.805	112.56
509.021	115.56
509.238	106.56
509.454	97.56
509.67	97.56
509.887	119.56
510.103	94.56
510.319	109.56
510.536	103.56
510.752	101.56
510.968	84.56
511.184	75.56
511.401	85.56
