Data from Location1.07152019.Energy5.Lamp.07192019.3%Agarose_HRD10591_14-31-41-015.txt Node
Date: Fri Jul 19 14:31:41 EDT 2019
User: cochatt
Spectrometer: HR+D1059
Trigger mode: 1
Integration Time (sec): 1.000000E-1
Scans to average: 1
Electric dark correction enabled: true
Nonlinearity correction enabled: false
Boxcar width: 0
XAxis mode: Wavelengths
Number of Pixels in Spectrum: 2048
>>>>>Begin Spectral Data<<<<<
223.165	-21.06
223.4	-21.06
223.635	-21.06
223.869	-15.06
224.104	-8.06
224.338	-1.06
224.573	-12.06
224.808	-11.06
225.042	-10.06
225.277	-1.06
225.511	0.94
225.746	-2.06
225.98	-12.06
226.215	5.94
226.449	22.94
226.683	14.94
226.918	34.94
227.152	13.94
227.387	30.94
227.621	39.94
227.856	33.94
228.09	59.94
228.324	47.94
228.559	60.94
228.793	51.94
229.027	68.94
229.262	66.94
229.496	70.94
229.73	73.94
229.964	70.94
230.199	80.94
230.433	69.94
230.667	80.94
230.901	76.94
231.136	80.94
231.37	71.94
231.604	84.94
231.838	90.94
232.072	76.94
232.306	69.94
232.541	74.94
232.775	75.94
233.009	76.94
233.243	84.94
233.477	77.94
233.711	77.94
233.945	71.94
234.179	68.94
234.413	84.94
234.647	71.94
234.881	81.94
235.115	88.94
235.349	78.94
235.583	90.94
235.817	86.94
236.051	70.94
236.285	87.94
236.519	81.94
236.753	82.94
236.987	70.94
237.221	62.94
237.455	68.94
237.689	77.94
237.922	69.94
238.156	72.94
238.39	86.94
238.624	74.94
238.858	88.94
239.091	80.94
239.325	74.94
239.559	59.94
239.793	80.94
240.027	72.94
240.26	83.94
240.494	79.94
240.728	83.94
240.961	72.94
241.195	65.94
241.429	73.94
241.662	69.94
241.896	69.94
242.13	74.94
242.363	77.94
242.597	71.94
242.83	74.94
243.064	90.94
243.298	67.94
243.531	83.94
243.765	63.94
243.998	82.94
244.232	70.94
244.465	75.94
244.699	72.94
244.932	77.94
245.166	93.94
245.399	83.94
245.633	74.94
245.866	92.94
246.099	77.94
246.333	68.94
246.566	99.94
246.8	77.94
247.033	77.94
247.266	68.94
247.5	70.94
247.733	86.94
247.966	73.94
248.2	99.94
248.433	85.94
248.666	80.94
248.899	84.94
249.133	84.94
249.366	96.94
249.599	75.94
249.832	75.94
250.066	64.94
250.299	98.94
250.532	84.94
250.765	71.94
250.998	76.94
251.231	73.94
251.465	66.94
251.698	89.94
251.931	79.94
252.164	90.94
252.397	86.94
252.63	92.94
252.863	93.94
253.096	78.94
253.329	76.94
253.562	78.94
253.795	86.94
254.028	80.94
254.261	82.94
254.494	78.94
254.727	77.94
254.96	78.94
255.193	73.94
255.426	84.94
255.659	74.94
255.892	81.94
256.124	71.94
256.357	85.94
256.59	79.94
256.823	76.94
257.056	91.94
257.289	75.94
257.521	92.94
257.754	61.94
257.987	84.94
258.22	77.94
258.452	90.94
258.685	76.94
258.918	90.94
259.151	87.94
259.383	76.94
259.616	74.94
259.849	80.94
260.081	73.94
260.314	80.94
260.547	77.94
260.779	80.94
261.012	86.94
261.244	82.94
261.477	78.94
261.71	88.94
261.942	66.94
262.175	85.94
262.407	99.94
262.64	87.94
262.872	89.94
263.105	86.94
263.337	95.94
263.57	79.94
263.802	81.94
264.035	79.94
264.267	72.94
264.499	95.94
264.732	90.94
264.964	87.94
265.197	82.94
265.429	87.94
265.661	94.94
265.894	85.94
266.126	76.94
266.358	77.94
266.591	92.94
266.823	75.94
267.055	79.94
267.287	70.94
267.52	76.94
267.752	91.94
267.984	90.94
268.216	74.94
268.448	86.94
268.681	82.94
268.913	94.94
269.145	88.94
269.377	75.94
269.609	73.94
269.841	84.94
270.073	81.94
270.306	69.94
270.538	82.94
270.77	88.94
271.002	80.94
271.234	81.94
271.466	91.94
271.698	91.94
271.93	93.94
272.162	87.94
272.394	87.94
272.626	79.94
272.858	73.94
273.09	94.94
273.322	76.94
273.553	85.94
273.785	91.94
274.017	87.94
274.249	75.94
274.481	84.94
274.713	78.94
274.945	90.94
275.176	76.94
275.408	79.94
275.64	86.94
275.872	77.94
276.104	90.94
276.335	88.94
276.567	85.94
276.799	74.94
277.031	78.94
277.262	93.94
277.494	79.94
277.726	86.94
277.957	79.94
278.189	80.94
278.421	92.94
278.652	91.94
278.884	74.94
279.115	76.94
279.347	90.94
279.579	87.94
279.81	77.94
280.042	82.94
280.273	90.94
280.505	87.94
280.736	86.94
280.968	92.94
281.199	84.94
281.431	82.94
281.662	74.94
281.894	91.94
282.125	72.94
282.356	98.94
282.588	81.94
282.819	91.94
283.051	83.94
283.282	83.94
283.513	100.94
283.745	90.94
283.976	86.94
284.207	90.94
284.439	75.94
284.67	82.94
284.901	70.94
285.132	91.94
285.364	86.94
285.595	92.94
285.826	69.94
286.057	90.94
286.288	85.94
286.52	81.94
286.751	89.94
286.982	87.94
287.213	80.94
287.444	76.94
287.675	65.94
287.906	84.94
288.138	76.94
288.369	80.94
288.6	85.94
288.831	88.94
289.062	79.94
289.293	91.94
289.524	79.94
289.755	95.94
289.986	80.94
290.217	82.94
290.448	76.94
290.679	85.94
290.91	91.94
291.141	88.94
291.371	72.94
291.602	83.94
291.833	88.94
292.064	87.94
292.295	76.94
292.526	87.94
292.757	74.94
292.987	88.94
293.218	92.94
293.449	83.94
293.68	81.94
293.91	77.94
294.141	71.94
294.372	81.94
294.603	84.94
294.833	86.94
295.064	88.94
295.295	77.94
295.525	74.94
295.756	93.94
295.987	98.94
296.217	94.94
296.448	75.94
296.679	63.94
296.909	65.94
297.14	89.94
297.37	81.94
297.601	92.94
297.831	94.94
298.062	78.94
298.292	104.94
298.523	75.94
298.753	85.94
298.984	65.94
299.214	79.94
299.445	81.94
299.675	88.94
299.905	95.94
300.136	82.94
300.366	92.94
300.597	83.94
300.827	84.94
301.057	79.94
301.288	67.94
301.518	82.94
301.748	80.94
301.979	70.94
302.209	62.94
302.439	85.94
302.669	93.94
302.9	98.94
303.13	87.94
303.36	86.94
303.59	94.94
303.82	78.94
304.051	86.94
304.281	89.94
304.511	80.94
304.741	74.94
304.971	73.94
305.201	88.94
305.431	106.94
305.661	91.94
305.891	79.94
306.121	81.94
306.352	84.94
306.582	78.94
306.812	78.94
307.042	98.94
307.272	79.94
307.502	73.94
307.731	84.94
307.961	91.94
308.191	92.94
308.421	101.94
308.651	86.94
308.881	85.94
309.111	78.94
309.341	75.94
309.571	84.94
309.8	76.94
310.03	90.94
310.26	87.94
310.49	91.94
310.72	79.94
310.949	93.94
311.179	93.94
311.409	73.94
311.639	85.94
311.868	94.94
312.098	81.94
312.328	81.94
312.557	92.94
312.787	103.94
313.017	83.94
313.246	99.94
313.476	94.94
313.706	91.94
313.935	95.94
314.165	83.94
314.394	87.94
314.624	90.94
314.853	87.94
315.083	87.94
315.312	87.94
315.542	84.94
315.771	70.94
316.001	94.94
316.23	98.94
316.46	105.94
316.689	77.94
316.919	87.94
317.148	75.94
317.377	76.94
317.607	85.94
317.836	70.94
318.065	79.94
318.295	86.94
318.524	81.94
318.753	79.94
318.983	94.94
319.212	81.94
319.441	92.94
319.67	82.94
319.9	89.94
320.129	85.94
320.358	90.94
320.587	86.94
320.816	88.94
321.046	88.94
321.275	88.94
321.504	92.94
321.733	80.94
321.962	90.94
322.191	81.94
322.42	84.94
322.649	95.94
322.878	84.94
323.108	87.94
323.337	96.94
323.566	98.94
323.795	88.94
324.024	72.94
324.253	80.94
324.482	81.94
324.71	88.94
324.939	87.94
325.168	85.94
325.397	83.94
325.626	75.94
325.855	99.94
326.084	104.94
326.313	93.94
326.542	94.94
326.77	83.94
326.999	74.94
327.228	84.94
327.457	76.94
327.686	69.94
327.914	95.94
328.143	80.94
328.372	81.94
328.6	92.94
328.829	86.94
329.058	87.94
329.287	80.94
329.515	79.94
329.744	88.94
329.972	90.94
330.201	81.94
330.43	83.94
330.658	76.94
330.887	86.94
331.115	78.94
331.344	79.94
331.572	72.94
331.801	82.94
332.03	94.94
332.258	74.94
332.486	70.94
332.715	84.94
332.943	77.94
333.172	82.94
333.4	71.94
333.629	86.94
333.857	86.94
334.085	87.94
334.314	85.94
334.542	96.94
334.771	84.94
334.999	85.94
335.227	89.94
335.455	110.94
335.684	83.94
335.912	93.94
336.14	93.94
336.369	78.94
336.597	87.94
336.825	81.94
337.053	95.94
337.281	78.94
337.51	78.94
337.738	89.94
337.966	96.94
338.194	85.94
338.422	76.94
338.65	85.94
338.878	85.94
339.106	85.94
339.334	86.94
339.562	86.94
339.79	93.94
340.018	91.94
340.246	75.94
340.474	91.94
340.702	78.94
340.93	85.94
341.158	89.94
341.386	79.94
341.614	77.94
341.842	77.94
342.07	85.94
342.298	78.94
342.526	84.94
342.754	77.94
342.981	92.94
343.209	88.94
343.437	93.94
343.665	87.94
343.893	90.94
344.12	83.94
344.348	94.94
344.576	84.94
344.804	87.94
345.031	72.94
345.259	91.94
345.487	92.94
345.714	79.94
345.942	92.94
346.17	77.94
346.397	77.94
346.625	88.94
346.853	76.94
347.08	80.94
347.308	89.94
347.535	82.94
347.763	95.94
347.99	96.94
348.218	93.94
348.445	96.94
348.673	86.94
348.9	89.94
349.128	83.94
349.355	86.94
349.583	84.94
349.81	71.94
350.037	75.94
350.265	81.94
350.492	93.94
350.72	89.94
350.947	80.94
351.174	92.94
351.402	78.94
351.629	78.94
351.856	72.94
352.083	95.94
352.311	93.94
352.538	77.94
352.765	84.94
352.992	91.94
353.22	78.94
353.447	86.94
353.674	86.94
353.901	87.94
354.128	92.94
354.355	93.94
354.583	78.94
354.81	88.94
355.037	71.94
355.264	95.94
355.491	81.94
355.718	64.94
355.945	85.94
356.172	77.94
356.399	84.94
356.626	103.94
356.853	77.94
357.08	90.94
357.307	86.94
357.534	95.94
357.761	98.94
357.988	75.94
358.215	75.94
358.441	87.94
358.668	77.94
358.895	77.94
359.122	100.94
359.349	88.94
359.576	84.94
359.802	58.94
360.029	90.94
360.256	78.94
360.483	72.94
360.709	89.94
360.936	88.94
361.163	83.94
361.39	83.94
361.616	93.94
361.843	80.94
362.07	71.94
362.296	71.94
362.523	93.94
362.749	78.94
362.976	90.94
363.203	100.94
363.429	78.94
363.656	74.94
363.882	80.94
364.109	97.94
364.335	98.94
364.562	86.94
364.788	80.94
365.015	83.94
365.241	93.94
365.468	72.94
365.694	74.94
365.92	81.94
366.147	86.94
366.373	72.94
366.599	99.94
366.826	75.94
367.052	86.94
367.278	86.94
367.505	78.94
367.731	93.94
367.957	96.94
368.184	94.94
368.41	98.94
368.636	83.94
368.862	85.94
369.089	94.94
369.315	85.94
369.541	85.94
369.767	102.94
369.993	94.94
370.219	87.94
370.445	103.94
370.672	100.94
370.898	92.94
371.124	98.94
371.35	87.94
371.576	89.94
371.802	92.94
372.028	86.94
372.254	86.94
372.48	96.94
372.706	89.94
372.932	78.94
373.158	83.94
373.384	90.94
373.61	93.94
373.835	100.94
374.061	93.94
374.287	94.94
374.513	95.94
374.739	84.94
374.965	94.94
375.191	82.94
375.416	90.94
375.642	94.94
375.868	94.94
376.094	80.94
376.319	89.94
376.545	86.94
376.771	91.94
376.997	96.94
377.222	90.94
377.448	91.94
377.674	104.94
377.899	90.94
378.125	71.94
378.35	99.94
378.576	99.94
378.802	103.94
379.027	94.94
379.253	80.94
379.478	98.94
379.704	104.94
379.929	102.94
380.155	105.94
380.38	83.94
380.606	99.94
380.831	96.94
381.057	102.94
381.282	104.94
381.507	96.94
381.733	92.94
381.958	91.94
382.184	89.94
382.409	83.94
382.634	97.94
382.86	93.94
383.085	92.94
383.31	117.94
383.535	92.94
383.761	90.94
383.986	90.94
384.211	93.94
384.436	99.94
384.662	100.94
384.887	91.94
385.112	100.94
385.337	114.94
385.562	84.94
385.787	99.94
386.013	86.94
386.238	108.94
386.463	83.94
386.688	109.94
386.913	91.94
387.138	90.94
387.363	98.94
387.588	95.94
387.813	110.94
388.038	100.94
388.263	102.94
388.488	91.94
388.713	84.94
388.938	104.94
389.163	98.94
389.387	109.94
389.612	111.94
389.837	98.94
390.062	103.94
390.287	84.94
390.512	96.94
390.736	104.94
390.961	103.94
391.186	111.94
391.411	101.94
391.636	95.94
391.86	90.94
392.085	103.94
392.31	96.94
392.534	94.94
392.759	114.94
392.984	118.94
393.208	112.94
393.433	117.94
393.658	109.94
393.882	107.94
394.107	104.94
394.331	107.94
394.556	87.94
394.78	91.94
395.005	99.94
395.229	112.94
395.454	100.94
395.678	97.94
395.903	113.94
396.127	99.94
396.352	95.94
396.576	114.94
396.801	111.94
397.025	94.94
397.249	110.94
397.474	115.94
397.698	106.94
397.922	110.94
398.147	114.94
398.371	99.94
398.595	107.94
398.82	103.94
399.044	105.94
399.268	93.94
399.492	108.94
399.717	99.94
399.941	116.94
400.165	124.94
400.389	125.94
400.613	102.94
400.837	118.94
401.062	122.94
401.286	112.94
401.51	103.94
401.734	111.94
401.958	103.94
402.182	107.94
402.406	75.94
402.63	107.94
402.854	105.94
403.078	115.94
403.302	111.94
403.526	118.94
403.75	122.94
403.974	108.94
404.198	109.94
404.422	122.94
404.645	117.94
404.869	114.94
405.093	106.94
405.317	117.94
405.541	102.94
405.765	111.94
405.988	114.94
406.212	120.94
406.436	120.94
406.66	120.94
406.883	125.94
407.107	126.94
407.331	118.94
407.555	117.94
407.778	119.94
408.002	108.94
408.226	123.94
408.449	111.94
408.673	118.94
408.896	129.94
409.12	113.94
409.344	107.94
409.567	121.94
409.791	127.94
410.014	117.94
410.238	134.94
410.461	103.94
410.685	118.94
410.908	115.94
411.132	114.94
411.355	111.94
411.578	127.94
411.802	118.94
412.025	110.94
412.249	124.94
412.472	124.94
412.695	122.94
412.919	135.94
413.142	109.94
413.365	103.94
413.589	114.94
413.812	118.94
414.035	136.94
414.258	119.94
414.482	116.94
414.705	110.94
414.928	120.94
415.151	121.94
415.374	109.94
415.597	123.94
415.821	112.94
416.044	117.94
416.267	124.94
416.49	122.94
416.713	111.94
416.936	126.94
417.159	130.94
417.382	127.94
417.605	109.94
417.828	126.94
418.051	131.94
418.274	130.94
418.497	122.94
418.72	126.94
418.943	123.94
419.166	129.94
419.389	120.94
419.611	140.94
419.834	124.94
420.057	124.94
420.28	123.94
420.503	117.94
420.726	133.94
420.948	153.94
421.171	144.94
421.394	139.94
421.617	137.94
421.839	143.94
422.062	133.94
422.285	132.94
422.507	127.94
422.73	132.94
422.953	104.94
423.175	132.94
423.398	119.94
423.621	137.94
423.843	118.94
424.066	138.94
424.288	129.94
424.511	131.94
424.733	141.94
424.956	143.94
425.178	136.94
425.401	118.94
425.623	124.94
425.846	109.94
426.068	138.94
426.291	130.94
426.513	134.94
426.735	127.94
426.958	116.94
427.18	132.94
427.402	150.94
427.625	145.94
427.847	142.94
428.069	124.94
428.292	140.94
428.514	138.94
428.736	130.94
428.958	118.94
429.181	130.94
429.403	123.94
429.625	132.94
429.847	136.94
430.069	126.94
430.292	130.94
430.514	129.94
430.736	138.94
430.958	121.94
431.18	132.94
431.402	126.94
431.624	128.94
431.846	108.94
432.068	91.94
432.29	79.94
432.512	109.94
432.734	127.94
432.956	136.94
433.178	133.94
433.4	137.94
433.622	131.94
433.844	130.94
434.066	122.94
434.287	115.94
434.509	103.94
434.731	100.94
434.953	118.94
435.175	132.94
435.397	123.94
435.618	111.94
435.84	114.94
436.062	111.94
436.284	104.94
436.505	129.94
436.727	146.94
436.949	130.94
437.17	132.94
437.392	117.94
437.614	122.94
437.835	115.94
438.057	114.94
438.278	110.94
438.5	102.94
438.721	130.94
438.943	127.94
439.165	133.94
439.386	134.94
439.608	140.94
439.829	150.94
440.05	160.94
440.272	139.94
440.493	129.94
440.715	140.94
440.936	136.94
441.158	150.94
441.379	154.94
441.6	149.94
441.822	160.94
442.043	139.94
442.264	146.94
442.486	136.94
442.707	126.94
442.928	137.94
443.149	150.94
443.371	134.94
443.592	131.94
443.813	132.94
444.034	139.94
444.255	142.94
444.476	118.94
444.698	141.94
444.919	140.94
445.14	274.94
445.361	183.94
445.582	144.94
445.803	148.94
446.024	150.94
446.245	144.94
446.466	157.94
446.687	137.94
446.908	148.94
447.129	163.94
447.35	152.94
447.571	139.94
447.792	141.94
448.013	144.94
448.234	155.94
448.455	146.94
448.675	147.94
448.896	138.94
449.117	122.94
449.338	133.94
449.559	128.94
449.779	142.94
450	135.94
450.221	136.94
450.442	142.94
450.662	122.94
450.883	116.94
451.104	123.94
451.324	134.94
451.545	132.94
451.766	125.94
451.986	127.94
452.207	126.94
452.428	126.94
452.648	123.94
452.869	109.94
453.089	108.94
453.31	112.94
453.53	110.94
453.751	117.94
453.971	111.94
454.192	106.94
454.412	119.94
454.633	105.94
454.853	111.94
455.073	103.94
455.294	129.94
455.514	120.94
455.734	112.94
455.955	115.94
456.175	111.94
456.395	106.94
456.616	118.94
456.836	122.94
457.056	109.94
457.276	113.94
457.497	111.94
457.717	112.94
457.937	103.94
458.157	109.94
458.377	94.94
458.598	105.94
458.818	106.94
459.038	90.94
459.258	87.94
459.478	85.94
459.698	99.94
459.918	105.94
460.138	94.94
460.358	103.94
460.578	118.94
460.798	100.94
461.018	108.94
461.238	121.94
461.458	117.94
461.678	129.94
461.898	111.94
462.118	111.94
462.338	98.94
462.558	125.94
462.777	108.94
462.997	102.94
463.217	108.94
463.437	108.94
463.657	98.94
463.876	94.94
464.096	115.94
464.316	108.94
464.536	112.94
464.755	110.94
464.975	108.94
465.195	120.94
465.414	121.94
465.634	121.94
465.854	116.94
466.073	119.94
466.293	126.94
466.512	128.94
466.732	120.94
466.951	131.94
467.171	126.94
467.391	127.94
467.61	123.94
467.829	136.94
468.049	136.94
468.268	121.94
468.488	133.94
468.707	130.94
468.927	115.94
469.146	127.94
469.365	133.94
469.585	134.94
469.804	132.94
470.023	147.94
470.243	144.94
470.462	144.94
470.681	140.94
470.901	131.94
471.12	123.94
471.339	149.94
471.558	149.94
471.777	139.94
471.997	133.94
472.216	129.94
472.435	106.94
472.654	107.94
472.873	109.94
473.092	125.94
473.311	132.94
473.53	97.94
473.749	134.94
473.968	110.94
474.187	122.94
474.406	118.94
474.625	135.94
474.844	118.94
475.063	124.94
475.282	119.94
475.501	99.94
475.72	123.94
475.939	118.94
476.158	132.94
476.377	130.94
476.596	123.94
476.814	110.94
477.033	104.94
477.252	118.94
477.471	114.94
477.69	132.94
477.908	134.94
478.127	132.94
478.346	135.94
478.564	135.94
478.783	138.94
479.002	140.94
479.22	126.94
479.439	129.94
479.658	130.94
479.876	118.94
480.095	106.94
480.313	125.94
480.532	109.94
480.751	104.94
480.969	107.94
481.188	75.94
481.406	85.94
481.624	79.94
481.843	96.94
482.061	101.94
482.28	110.94
482.498	123.94
482.717	114.94
482.935	122.94
483.153	151.94
483.372	158.94
483.59	150.94
483.808	137.94
484.027	119.94
484.245	135.94
484.463	154.94
484.681	152.94
484.9	150.94
485.118	148.94
485.336	139.94
485.554	109.94
485.772	108.94
485.99	101.94
486.209	116.94
486.427	114.94
486.645	126.94
486.863	136.94
487.081	135.94
487.299	133.94
487.517	152.94
487.735	155.94
487.953	185.94
488.171	176.94
488.389	172.94
488.607	166.94
488.825	140.94
489.043	134.94
489.261	120.94
489.479	118.94
489.696	125.94
489.914	139.94
490.132	138.94
490.35	161.94
490.568	151.94
490.786	168.94
491.003	160.94
491.221	182.94
491.439	189.94
491.657	203.94
491.874	203.94
492.092	218.94
492.31	227.94
492.527	233.94
492.745	215.94
492.963	187.94
493.18	182.94
493.398	171.94
493.615	171.94
493.833	168.94
494.05	181.94
494.268	167.94
494.485	173.94
494.703	164.94
494.92	161.94
495.138	168.94
495.355	173.94
495.573	163.94
495.79	151.94
496.008	151.94
496.225	157.94
496.442	167.94
496.66	162.94
496.877	163.94
497.094	162.94
497.312	165.94
497.529	158.94
497.746	147.94
497.963	140.94
498.181	119.94
498.398	117.94
498.615	124.94
498.832	119.94
499.049	120.94
499.267	118.94
499.484	125.94
499.701	127.94
499.918	118.94
500.135	142.94
500.352	138.94
500.569	153.94
500.786	143.94
501.003	150.94
501.22	127.94
501.437	147.94
501.654	132.94
501.871	128.94
502.088	129.94
502.305	129.94
502.522	132.94
502.739	134.94
502.956	136.94
503.172	109.94
503.389	118.94
503.606	116.94
503.823	114.94
504.04	109.94
504.256	115.94
504.473	125.94
504.69	118.94
504.907	142.94
505.123	103.94
505.34	123.94
505.557	117.94
505.773	120.94
505.99	132.94
506.207	108.94
506.423	106.94
506.64	127.94
506.856	122.94
507.073	108.94
507.289	120.94
507.506	126.94
507.722	124.94
507.939	114.94
508.155	120.94
508.372	109.94
508.588	119.94
508.805	94.94
509.021	106.94
509.238	102.94
509.454	111.94
509.67	89.94
509.887	102.94
510.103	91.94
510.319	85.94
510.536	98.94
510.752	84.94
510.968	93.94
511.184	80.94
511.401	80.94
511.617	85.94
