Data from Location1.07152019.Energy5.Lamp.07192019.3%Agarose_HRD10591_14-31-03-015.txt Node
Date: Fri Jul 19 14:31:03 EDT 2019
User: cochatt
Spectrometer: HR+D1059
Trigger mode: 1
Integration Time (sec): 1.000000E-1
Scans to average: 1
Electric dark correction enabled: true
Nonlinearity correction enabled: false
Boxcar width: 0
XAxis mode: Wavelengths
Number of Pixels in Spectrum: 2048
>>>>>Begin Spectral Data<<<<<
223.165	-7.5
223.4	-7.5
223.635	-7.5
223.869	-17.5
224.104	-23.5
224.338	-17.5
224.573	-13.5
224.808	-6.5
225.042	-1.5
225.277	-2.5
225.511	0.5
225.746	0.5
225.98	4.5
226.215	1.5
226.449	14.5
226.683	20.5
226.918	32.5
227.152	15.5
227.387	46.5
227.621	42.5
227.856	44.5
228.09	49.5
228.324	54.5
228.559	61.5
228.793	64.5
229.027	70.5
229.262	68.5
229.496	72.5
229.73	63.5
229.964	45.5
230.199	58.5
230.433	67.5
230.667	74.5
230.901	89.5
231.136	88.5
231.37	69.5
231.604	76.5
231.838	86.5
232.072	68.5
232.306	90.5
232.541	78.5
232.775	83.5
233.009	75.5
233.243	89.5
233.477	78.5
233.711	97.5
233.945	74.5
234.179	78.5
234.413	79.5
234.647	79.5
234.881	82.5
235.115	81.5
235.349	84.5
235.583	95.5
235.817	60.5
236.051	78.5
236.285	78.5
236.519	76.5
236.753	72.5
236.987	81.5
237.221	78.5
237.455	71.5
237.689	85.5
237.922	68.5
238.156	84.5
238.39	71.5
238.624	84.5
238.858	80.5
239.091	80.5
239.325	72.5
239.559	85.5
239.793	66.5
240.027	67.5
240.26	78.5
240.494	91.5
240.728	73.5
240.961	76.5
241.195	80.5
241.429	73.5
241.662	85.5
241.896	81.5
242.13	92.5
242.363	64.5
242.597	86.5
242.83	82.5
243.064	69.5
243.298	84.5
243.531	70.5
243.765	87.5
243.998	72.5
244.232	78.5
244.465	79.5
244.699	87.5
244.932	76.5
245.166	78.5
245.399	82.5
245.633	78.5
245.866	91.5
246.099	70.5
246.333	75.5
246.566	76.5
246.8	70.5
247.033	84.5
247.266	84.5
247.5	67.5
247.733	71.5
247.966	61.5
248.2	71.5
248.433	71.5
248.666	56.5
248.899	90.5
249.133	75.5
249.366	68.5
249.599	78.5
249.832	74.5
250.066	72.5
250.299	83.5
250.532	76.5
250.765	85.5
250.998	79.5
251.231	75.5
251.465	61.5
251.698	93.5
251.931	85.5
252.164	78.5
252.397	75.5
252.63	77.5
252.863	79.5
253.096	75.5
253.329	73.5
253.562	82.5
253.795	76.5
254.028	82.5
254.261	85.5
254.494	77.5
254.727	81.5
254.96	91.5
255.193	78.5
255.426	93.5
255.659	81.5
255.892	89.5
256.124	74.5
256.357	93.5
256.59	90.5
256.823	93.5
257.056	83.5
257.289	87.5
257.521	90.5
257.754	68.5
257.987	77.5
258.22	80.5
258.452	77.5
258.685	84.5
258.918	77.5
259.151	82.5
259.383	85.5
259.616	75.5
259.849	69.5
260.081	86.5
260.314	81.5
260.547	94.5
260.779	87.5
261.012	82.5
261.244	81.5
261.477	80.5
261.71	90.5
261.942	68.5
262.175	77.5
262.407	84.5
262.64	81.5
262.872	91.5
263.105	85.5
263.337	69.5
263.57	68.5
263.802	81.5
264.035	81.5
264.267	81.5
264.499	85.5
264.732	81.5
264.964	82.5
265.197	75.5
265.429	70.5
265.661	88.5
265.894	74.5
266.126	81.5
266.358	88.5
266.591	82.5
266.823	92.5
267.055	92.5
267.287	89.5
267.52	95.5
267.752	85.5
267.984	93.5
268.216	83.5
268.448	90.5
268.681	69.5
268.913	80.5
269.145	86.5
269.377	86.5
269.609	87.5
269.841	78.5
270.073	66.5
270.306	76.5
270.538	86.5
270.77	97.5
271.002	84.5
271.234	87.5
271.466	68.5
271.698	66.5
271.93	71.5
272.162	74.5
272.394	91.5
272.626	96.5
272.858	76.5
273.09	93.5
273.322	74.5
273.553	73.5
273.785	88.5
274.017	83.5
274.249	96.5
274.481	84.5
274.713	77.5
274.945	78.5
275.176	83.5
275.408	76.5
275.64	80.5
275.872	74.5
276.104	92.5
276.335	88.5
276.567	77.5
276.799	80.5
277.031	96.5
277.262	87.5
277.494	80.5
277.726	85.5
277.957	83.5
278.189	72.5
278.421	85.5
278.652	73.5
278.884	76.5
279.115	90.5
279.347	94.5
279.579	76.5
279.81	90.5
280.042	79.5
280.273	82.5
280.505	78.5
280.736	78.5
280.968	59.5
281.199	78.5
281.431	91.5
281.662	100.5
281.894	89.5
282.125	82.5
282.356	88.5
282.588	73.5
282.819	97.5
283.051	82.5
283.282	66.5
283.513	80.5
283.745	80.5
283.976	84.5
284.207	86.5
284.439	83.5
284.67	81.5
284.901	82.5
285.132	64.5
285.364	83.5
285.595	71.5
285.826	68.5
286.057	73.5
286.288	87.5
286.52	89.5
286.751	76.5
286.982	91.5
287.213	77.5
287.444	74.5
287.675	91.5
287.906	74.5
288.138	77.5
288.369	86.5
288.6	78.5
288.831	87.5
289.062	87.5
289.293	68.5
289.524	84.5
289.755	84.5
289.986	71.5
290.217	91.5
290.448	85.5
290.679	82.5
290.91	88.5
291.141	88.5
291.371	87.5
291.602	85.5
291.833	94.5
292.064	91.5
292.295	103.5
292.526	82.5
292.757	70.5
292.987	78.5
293.218	85.5
293.449	88.5
293.68	97.5
293.91	86.5
294.141	81.5
294.372	84.5
294.603	86.5
294.833	72.5
295.064	89.5
295.295	84.5
295.525	88.5
295.756	99.5
295.987	90.5
296.217	88.5
296.448	91.5
296.679	76.5
296.909	90.5
297.14	84.5
297.37	91.5
297.601	82.5
297.831	84.5
298.062	75.5
298.292	92.5
298.523	84.5
298.753	77.5
298.984	89.5
299.214	77.5
299.445	88.5
299.675	99.5
299.905	76.5
300.136	88.5
300.366	76.5
300.597	79.5
300.827	77.5
301.057	87.5
301.288	90.5
301.518	89.5
301.748	85.5
301.979	71.5
302.209	82.5
302.439	90.5
302.669	101.5
302.9	81.5
303.13	83.5
303.36	85.5
303.59	74.5
303.82	84.5
304.051	81.5
304.281	86.5
304.511	95.5
304.741	85.5
304.971	72.5
305.201	80.5
305.431	90.5
305.661	78.5
305.891	79.5
306.121	80.5
306.352	83.5
306.582	77.5
306.812	89.5
307.042	74.5
307.272	71.5
307.502	82.5
307.731	91.5
307.961	85.5
308.191	93.5
308.421	83.5
308.651	83.5
308.881	84.5
309.111	84.5
309.341	78.5
309.571	85.5
309.8	88.5
310.03	97.5
310.26	87.5
310.49	72.5
310.72	84.5
310.949	89.5
311.179	88.5
311.409	78.5
311.639	80.5
311.868	84.5
312.098	81.5
312.328	95.5
312.557	97.5
312.787	73.5
313.017	78.5
313.246	84.5
313.476	73.5
313.706	77.5
313.935	94.5
314.165	75.5
314.394	85.5
314.624	66.5
314.853	91.5
315.083	79.5
315.312	93.5
315.542	84.5
315.771	86.5
316.001	86.5
316.23	95.5
316.46	80.5
316.689	99.5
316.919	95.5
317.148	89.5
317.377	77.5
317.607	77.5
317.836	85.5
318.065	90.5
318.295	77.5
318.524	82.5
318.753	84.5
318.983	102.5
319.212	96.5
319.441	88.5
319.67	75.5
319.9	84.5
320.129	80.5
320.358	89.5
320.587	69.5
320.816	80.5
321.046	86.5
321.275	84.5
321.504	90.5
321.733	97.5
321.962	82.5
322.191	76.5
322.42	81.5
322.649	87.5
322.878	97.5
323.108	76.5
323.337	88.5
323.566	85.5
323.795	91.5
324.024	86.5
324.253	72.5
324.482	94.5
324.71	92.5
324.939	79.5
325.168	66.5
325.397	78.5
325.626	65.5
325.855	82.5
326.084	85.5
326.313	74.5
326.542	90.5
326.77	82.5
326.999	81.5
327.228	95.5
327.457	93.5
327.686	97.5
327.914	82.5
328.143	82.5
328.372	82.5
328.6	97.5
328.829	97.5
329.058	77.5
329.287	89.5
329.515	87.5
329.744	74.5
329.972	82.5
330.201	84.5
330.43	92.5
330.658	81.5
330.887	81.5
331.115	77.5
331.344	77.5
331.572	98.5
331.801	77.5
332.03	80.5
332.258	84.5
332.486	88.5
332.715	83.5
332.943	75.5
333.172	84.5
333.4	69.5
333.629	89.5
333.857	63.5
334.085	89.5
334.314	78.5
334.542	94.5
334.771	84.5
334.999	82.5
335.227	80.5
335.455	80.5
335.684	93.5
335.912	85.5
336.14	86.5
336.369	83.5
336.597	77.5
336.825	87.5
337.053	93.5
337.281	99.5
337.51	87.5
337.738	85.5
337.966	91.5
338.194	92.5
338.422	85.5
338.65	71.5
338.878	88.5
339.106	100.5
339.334	74.5
339.562	87.5
339.79	85.5
340.018	74.5
340.246	94.5
340.474	93.5
340.702	81.5
340.93	79.5
341.158	91.5
341.386	77.5
341.614	84.5
341.842	82.5
342.07	91.5
342.298	92.5
342.526	92.5
342.754	81.5
342.981	76.5
343.209	78.5
343.437	87.5
343.665	97.5
343.893	77.5
344.12	82.5
344.348	79.5
344.576	83.5
344.804	87.5
345.031	89.5
345.259	94.5
345.487	92.5
345.714	87.5
345.942	76.5
346.17	69.5
346.397	71.5
346.625	77.5
346.853	69.5
347.08	87.5
347.308	86.5
347.535	85.5
347.763	78.5
347.99	80.5
348.218	84.5
348.445	75.5
348.673	85.5
348.9	78.5
349.128	93.5
349.355	72.5
349.583	86.5
349.81	83.5
350.037	87.5
350.265	74.5
350.492	79.5
350.72	92.5
350.947	86.5
351.174	81.5
351.402	85.5
351.629	92.5
351.856	93.5
352.083	75.5
352.311	86.5
352.538	77.5
352.765	96.5
352.992	73.5
353.22	86.5
353.447	79.5
353.674	80.5
353.901	80.5
354.128	81.5
354.355	73.5
354.583	82.5
354.81	76.5
355.037	77.5
355.264	85.5
355.491	80.5
355.718	65.5
355.945	70.5
356.172	74.5
356.399	80.5
356.626	94.5
356.853	70.5
357.08	74.5
357.307	76.5
357.534	96.5
357.761	84.5
357.988	77.5
358.215	81.5
358.441	80.5
358.668	76.5
358.895	72.5
359.122	85.5
359.349	92.5
359.576	89.5
359.802	94.5
360.029	102.5
360.256	78.5
360.483	95.5
360.709	82.5
360.936	87.5
361.163	98.5
361.39	84.5
361.616	84.5
361.843	81.5
362.07	86.5
362.296	69.5
362.523	74.5
362.749	84.5
362.976	94.5
363.203	83.5
363.429	71.5
363.656	76.5
363.882	87.5
364.109	80.5
364.335	78.5
364.562	79.5
364.788	72.5
365.015	83.5
365.241	81.5
365.468	91.5
365.694	75.5
365.92	89.5
366.147	97.5
366.373	89.5
366.599	78.5
366.826	75.5
367.052	86.5
367.278	60.5
367.505	83.5
367.731	80.5
367.957	80.5
368.184	89.5
368.41	76.5
368.636	79.5
368.862	72.5
369.089	80.5
369.315	90.5
369.541	82.5
369.767	90.5
369.993	94.5
370.219	98.5
370.445	85.5
370.672	99.5
370.898	90.5
371.124	90.5
371.35	85.5
371.576	88.5
371.802	104.5
372.028	96.5
372.254	91.5
372.48	99.5
372.706	88.5
372.932	84.5
373.158	76.5
373.384	79.5
373.61	91.5
373.835	93.5
374.061	85.5
374.287	93.5
374.513	82.5
374.739	93.5
374.965	89.5
375.191	90.5
375.416	86.5
375.642	89.5
375.868	87.5
376.094	90.5
376.319	96.5
376.545	88.5
376.771	98.5
376.997	97.5
377.222	92.5
377.448	87.5
377.674	94.5
377.899	95.5
378.125	93.5
378.35	92.5
378.576	107.5
378.802	93.5
379.027	89.5
379.253	88.5
379.478	90.5
379.704	96.5
379.929	99.5
380.155	86.5
380.38	78.5
380.606	94.5
380.831	89.5
381.057	99.5
381.282	91.5
381.507	83.5
381.733	99.5
381.958	98.5
382.184	91.5
382.409	90.5
382.634	114.5
382.86	90.5
383.085	102.5
383.31	101.5
383.535	99.5
383.761	92.5
383.986	96.5
384.211	81.5
384.436	101.5
384.662	104.5
384.887	88.5
385.112	90.5
385.337	94.5
385.562	83.5
385.787	100.5
386.013	88.5
386.238	93.5
386.463	105.5
386.688	93.5
386.913	84.5
387.138	89.5
387.363	99.5
387.588	96.5
387.813	99.5
388.038	103.5
388.263	100.5
388.488	109.5
388.713	102.5
388.938	101.5
389.163	107.5
389.387	90.5
389.612	97.5
389.837	86.5
390.062	104.5
390.287	109.5
390.512	110.5
390.736	107.5
390.961	115.5
391.186	98.5
391.411	114.5
391.636	106.5
391.86	96.5
392.085	113.5
392.31	111.5
392.534	113.5
392.759	95.5
392.984	101.5
393.208	97.5
393.433	103.5
393.658	106.5
393.882	92.5
394.107	100.5
394.331	103.5
394.556	97.5
394.78	108.5
395.005	100.5
395.229	94.5
395.454	108.5
395.678	118.5
395.903	114.5
396.127	105.5
396.352	108.5
396.576	93.5
396.801	96.5
397.025	110.5
397.249	101.5
397.474	106.5
397.698	105.5
397.922	104.5
398.147	105.5
398.371	102.5
398.595	114.5
398.82	113.5
399.044	113.5
399.268	119.5
399.492	119.5
399.717	104.5
399.941	105.5
400.165	117.5
400.389	94.5
400.613	112.5
400.837	100.5
401.062	110.5
401.286	125.5
401.51	116.5
401.734	101.5
401.958	101.5
402.182	122.5
402.406	119.5
402.63	120.5
402.854	108.5
403.078	112.5
403.302	106.5
403.526	114.5
403.75	116.5
403.974	106.5
404.198	104.5
404.422	97.5
404.645	119.5
404.869	109.5
405.093	126.5
405.317	114.5
405.541	124.5
405.765	123.5
405.988	124.5
406.212	118.5
406.436	116.5
406.66	113.5
406.883	107.5
407.107	114.5
407.331	112.5
407.555	113.5
407.778	125.5
408.002	110.5
408.226	115.5
408.449	120.5
408.673	116.5
408.896	121.5
409.12	112.5
409.344	114.5
409.567	120.5
409.791	123.5
410.014	116.5
410.238	118.5
410.461	115.5
410.685	119.5
410.908	121.5
411.132	118.5
411.355	113.5
411.578	115.5
411.802	130.5
412.025	132.5
412.249	126.5
412.472	129.5
412.695	100.5
412.919	128.5
413.142	114.5
413.365	116.5
413.589	125.5
413.812	100.5
414.035	120.5
414.258	124.5
414.482	128.5
414.705	130.5
414.928	122.5
415.151	114.5
415.374	123.5
415.597	122.5
415.821	129.5
416.044	128.5
416.267	114.5
416.49	129.5
416.713	119.5
416.936	124.5
417.159	131.5
417.382	110.5
417.605	122.5
417.828	135.5
418.051	117.5
418.274	124.5
418.497	138.5
418.72	131.5
418.943	124.5
419.166	112.5
419.389	146.5
419.611	117.5
419.834	129.5
420.057	144.5
420.28	134.5
420.503	129.5
420.726	114.5
420.948	132.5
421.171	132.5
421.394	127.5
421.617	138.5
421.839	148.5
422.062	140.5
422.285	119.5
422.507	134.5
422.73	124.5
422.953	123.5
423.175	124.5
423.398	133.5
423.621	129.5
423.843	132.5
424.066	131.5
424.288	129.5
424.511	132.5
424.733	135.5
424.956	154.5
425.178	140.5
425.401	131.5
425.623	142.5
425.846	141.5
426.068	137.5
426.291	107.5
426.513	126.5
426.735	138.5
426.958	122.5
427.18	126.5
427.402	124.5
427.625	133.5
427.847	132.5
428.069	127.5
428.292	127.5
428.514	130.5
428.736	134.5
428.958	121.5
429.181	128.5
429.403	132.5
429.625	137.5
429.847	125.5
430.069	142.5
430.292	133.5
430.514	126.5
430.736	120.5
430.958	132.5
431.18	130.5
431.402	122.5
431.624	118.5
431.846	107.5
432.068	95.5
432.29	94.5
432.512	105.5
432.734	128.5
432.956	125.5
433.178	123.5
433.4	145.5
433.622	137.5
433.844	137.5
434.066	138.5
434.287	115.5
434.509	97.5
434.731	105.5
434.953	124.5
435.175	131.5
435.397	122.5
435.618	113.5
435.84	110.5
436.062	116.5
436.284	114.5
436.505	131.5
436.727	123.5
436.949	138.5
437.17	121.5
437.392	125.5
437.614	126.5
437.835	113.5
438.057	98.5
438.278	124.5
438.5	120.5
438.721	132.5
438.943	132.5
439.165	135.5
439.386	131.5
439.608	145.5
439.829	144.5
440.05	140.5
440.272	128.5
440.493	139.5
440.715	129.5
440.936	148.5
441.158	130.5
441.379	157.5
441.6	159.5
441.822	142.5
442.043	140.5
442.264	145.5
442.486	134.5
442.707	138.5
442.928	142.5
443.149	124.5
443.371	123.5
443.592	129.5
443.813	142.5
444.034	138.5
444.255	142.5
444.476	134.5
444.698	144.5
444.919	141.5
445.14	262.5
445.361	195.5
445.582	155.5
445.803	130.5
446.024	148.5
446.245	151.5
446.466	130.5
446.687	156.5
446.908	145.5
447.129	149.5
447.35	148.5
447.571	155.5
447.792	154.5
448.013	138.5
448.234	148.5
448.455	123.5
448.675	133.5
448.896	134.5
449.117	137.5
449.338	139.5
449.559	139.5
449.779	146.5
450	128.5
450.221	141.5
450.442	123.5
450.662	116.5
450.883	131.5
451.104	137.5
451.324	120.5
451.545	127.5
451.766	112.5
451.986	129.5
452.207	114.5
452.428	117.5
452.648	140.5
452.869	119.5
453.089	125.5
453.31	107.5
453.53	121.5
453.751	92.5
453.971	116.5
454.192	117.5
454.412	100.5
454.633	116.5
454.853	112.5
455.073	112.5
455.294	115.5
455.514	116.5
455.734	114.5
455.955	120.5
456.175	126.5
456.395	114.5
456.616	105.5
456.836	116.5
457.056	110.5
457.276	101.5
457.497	108.5
457.717	108.5
457.937	114.5
458.157	95.5
458.377	116.5
458.598	95.5
458.818	88.5
459.038	96.5
459.258	99.5
459.478	78.5
459.698	93.5
459.918	97.5
460.138	97.5
460.358	123.5
460.578	114.5
460.798	122.5
461.018	116.5
461.238	123.5
461.458	106.5
461.678	116.5
461.898	101.5
462.118	98.5
462.338	120.5
462.558	113.5
462.777	124.5
462.997	91.5
463.217	109.5
463.437	104.5
463.657	118.5
463.876	128.5
464.096	118.5
464.316	113.5
464.536	97.5
464.755	101.5
464.975	124.5
465.195	122.5
465.414	114.5
465.634	107.5
465.854	116.5
466.073	109.5
466.293	124.5
466.512	127.5
466.732	120.5
466.951	120.5
467.171	125.5
467.391	128.5
467.61	120.5
467.829	122.5
468.049	140.5
468.268	144.5
468.488	132.5
468.707	141.5
468.927	149.5
469.146	128.5
469.365	144.5
469.585	128.5
469.804	143.5
470.023	137.5
470.243	150.5
470.462	131.5
470.681	133.5
470.901	145.5
471.12	132.5
471.339	152.5
471.558	123.5
471.777	150.5
471.997	134.5
472.216	148.5
472.435	120.5
472.654	104.5
472.873	106.5
473.092	114.5
473.311	114.5
473.53	130.5
473.749	127.5
473.968	118.5
474.187	124.5
474.406	109.5
474.625	109.5
474.844	137.5
475.063	129.5
475.282	128.5
475.501	109.5
475.72	117.5
475.939	122.5
476.158	123.5
476.377	128.5
476.596	121.5
476.814	114.5
477.033	108.5
477.252	116.5
477.471	118.5
477.69	135.5
477.908	145.5
478.127	147.5
478.346	137.5
478.564	129.5
478.783	119.5
479.002	124.5
479.22	126.5
479.439	141.5
479.658	128.5
479.876	114.5
480.095	105.5
480.313	112.5
480.532	124.5
480.751	108.5
480.969	96.5
481.188	85.5
481.406	86.5
481.624	97.5
481.843	105.5
482.061	98.5
482.28	106.5
482.498	96.5
482.717	121.5
482.935	118.5
483.153	127.5
483.372	151.5
483.59	138.5
483.808	133.5
484.027	128.5
484.245	126.5
484.463	137.5
484.681	154.5
484.9	148.5
485.118	134.5
485.336	125.5
485.554	114.5
485.772	105.5
485.99	92.5
486.209	103.5
486.427	103.5
486.645	118.5
486.863	138.5
487.081	132.5
487.299	130.5
487.517	141.5
487.735	157.5
487.953	182.5
488.171	166.5
488.389	172.5
488.607	153.5
488.825	119.5
489.043	131.5
489.261	140.5
489.479	146.5
489.696	129.5
489.914	149.5
490.132	132.5
490.35	147.5
490.568	148.5
490.786	153.5
491.003	175.5
491.221	184.5
491.439	192.5
491.657	184.5
491.874	193.5
492.092	213.5
492.31	235.5
492.527	219.5
492.745	199.5
492.963	199.5
493.18	186.5
493.398	166.5
493.615	165.5
493.833	173.5
494.05	202.5
494.268	195.5
494.485	160.5
494.703	162.5
494.92	166.5
495.138	168.5
495.355	161.5
495.573	173.5
495.79	169.5
496.008	170.5
496.225	157.5
496.442	178.5
496.66	174.5
496.877	173.5
497.094	163.5
497.312	150.5
497.529	165.5
497.746	143.5
497.963	135.5
498.181	133.5
498.398	130.5
498.615	127.5
498.832	120.5
499.049	113.5
499.267	109.5
499.484	137.5
499.701	134.5
499.918	142.5
500.135	135.5
500.352	140.5
500.569	141.5
500.786	140.5
501.003	124.5
501.22	140.5
501.437	131.5
501.654	127.5
501.871	132.5
502.088	128.5
502.305	124.5
502.522	128.5
502.739	115.5
502.956	124.5
503.172	128.5
503.389	116.5
503.606	121.5
503.823	127.5
504.04	116.5
504.256	126.5
504.473	120.5
504.69	122.5
504.907	128.5
505.123	108.5
505.34	116.5
505.557	123.5
505.773	125.5
505.99	117.5
506.207	120.5
506.423	120.5
506.64	102.5
506.856	104.5
507.073	96.5
507.289	120.5
507.506	115.5
507.722	115.5
507.939	126.5
508.155	112.5
508.372	110.5
508.588	96.5
508.805	102.5
509.021	109.5
509.238	105.5
509.454	103.5
509.67	83.5
509.887	77.5
510.103	92.5
510.319	82.5
510.536	93.5
510.752	103.5
510.968	81.5
511.184	100.5
511.401	86.5
511.617	96.5
511.833	94.5
512.049	77.5
512.265	89.5
512.481	97.5
512.698	92.5
512.914	95.5
513.13	91.5
513.346	100.5
513.562	102.5
513.778	90.5
513.994	84.5
514.21	101.5
514.426	109.5
514.642	79.5
514.858	90.5
515.074	77.5
515.29	94.5
515.506	84.5
515.721	77.5
515.937	94.5
516.153	84.5
516.369	78.5
516.585	82.5
516.801	86.5
517.016	104.5
517.232	88.5
517.448	100.5
517.664	104.5
517.879	97.5
518.095	91.5
518.311	94.5
518.527	91.5
518.742	86.5
518.958	107.5
519.173	121.5
519.389	124.5
519.605	105.5
519.82	114.5
520.036	96.5
520.251	102.5
520.467	108.5
520.682	97.5
520.898	99.5
521.113	101.5
521.329	91.5
521.544	86.5
521.76	93.5
521.975	100.5
522.19	92.5
522.406	98.5
522.621	101.5
522.836	101.5
523.052	100.5
523.267	94.5
523.482	108.5
523.698	108.5
523.913	103.5
524.128	112.5
524.343	114.5
524.559	119.5
524.774	109.5
524.989	124.5
525.204	116.5
525.419	124.5
525.634	105.5
525.849	92.5
526.064	126.5
526.28	101.5
526.495	90.5
526.71	86.5
526.925	92.5
527.14	90.5
527.355	95.5
527.57	86.5
527.785	89.5
527.999	99.5
528.214	91.5
528.429	114.5
528.644	124.5
528.859	122.5
529.074	136.5
529.289	167.5
529.503	159.5
529.718	137.5
529.933	114.5
530.148	106.5
530.363	90.5
530.577	92.5
530.792	81.5
531.007	89.5
531.221	79.5
