Data from Location1.07152019.Energy5.Lamp.07192019.3%Agarose_HRD10591_14-31-08-015.txt Node
Date: Fri Jul 19 14:31:08 EDT 2019
User: cochatt
Spectrometer: HR+D1059
Trigger mode: 1
Integration Time (sec): 1.000000E-1
Scans to average: 1
Electric dark correction enabled: true
Nonlinearity correction enabled: false
Boxcar width: 0
XAxis mode: Wavelengths
Number of Pixels in Spectrum: 2048
>>>>>Begin Spectral Data<<<<<
223.165	-13.19
223.4	-13.19
223.635	-13.19
223.869	-24.19
224.104	-2.19
224.338	-23.19
224.573	-8.19
224.808	-20.19
225.042	-9.19
225.277	-14.19
225.511	-16.19
225.746	7.81
225.98	1.81
226.215	25.81
226.449	8.81
226.683	12.81
226.918	32.81
227.152	40.81
227.387	37.81
227.621	32.81
227.856	51.81
228.09	49.81
228.324	48.81
228.559	64.81
228.793	77.81
229.027	69.81
229.262	78.81
229.496	48.81
229.73	60.81
229.964	76.81
230.199	86.81
230.433	77.81
230.667	87.81
230.901	83.81
231.136	63.81
231.37	93.81
231.604	77.81
231.838	79.81
232.072	94.81
232.306	83.81
232.541	82.81
232.775	82.81
233.009	93.81
233.243	63.81
233.477	86.81
233.711	78.81
233.945	78.81
234.179	92.81
234.413	85.81
234.647	87.81
234.881	92.81
235.115	86.81
235.349	83.81
235.583	82.81
235.817	66.81
236.051	82.81
236.285	82.81
236.519	83.81
236.753	76.81
236.987	74.81
237.221	77.81
237.455	80.81
237.689	88.81
237.922	82.81
238.156	90.81
238.39	70.81
238.624	71.81
238.858	79.81
239.091	75.81
239.325	72.81
239.559	92.81
239.793	97.81
240.027	87.81
240.26	71.81
240.494	78.81
240.728	91.81
240.961	73.81
241.195	81.81
241.429	91.81
241.662	74.81
241.896	80.81
242.13	67.81
242.363	67.81
242.597	73.81
242.83	78.81
243.064	87.81
243.298	77.81
243.531	73.81
243.765	74.81
243.998	85.81
244.232	75.81
244.465	78.81
244.699	79.81
244.932	89.81
245.166	88.81
245.399	70.81
245.633	88.81
245.866	84.81
246.099	82.81
246.333	84.81
246.566	79.81
246.8	89.81
247.033	73.81
247.266	81.81
247.5	86.81
247.733	86.81
247.966	86.81
248.2	81.81
248.433	71.81
248.666	78.81
248.899	77.81
249.133	74.81
249.366	87.81
249.599	84.81
249.832	86.81
250.066	88.81
250.299	92.81
250.532	77.81
250.765	74.81
250.998	79.81
251.231	75.81
251.465	87.81
251.698	79.81
251.931	88.81
252.164	69.81
252.397	89.81
252.63	96.81
252.863	96.81
253.096	75.81
253.329	92.81
253.562	79.81
253.795	93.81
254.028	94.81
254.261	86.81
254.494	79.81
254.727	81.81
254.96	87.81
255.193	92.81
255.426	90.81
255.659	74.81
255.892	85.81
256.124	94.81
256.357	82.81
256.59	77.81
256.823	78.81
257.056	79.81
257.289	83.81
257.521	72.81
257.754	83.81
257.987	87.81
258.22	94.81
258.452	82.81
258.685	90.81
258.918	72.81
259.151	84.81
259.383	88.81
259.616	84.81
259.849	78.81
260.081	79.81
260.314	75.81
260.547	80.81
260.779	75.81
261.012	80.81
261.244	84.81
261.477	75.81
261.71	98.81
261.942	97.81
262.175	89.81
262.407	89.81
262.64	82.81
262.872	83.81
263.105	90.81
263.337	90.81
263.57	70.81
263.802	96.81
264.035	91.81
264.267	92.81
264.499	79.81
264.732	80.81
264.964	75.81
265.197	87.81
265.429	85.81
265.661	79.81
265.894	87.81
266.126	79.81
266.358	85.81
266.591	93.81
266.823	84.81
267.055	101.81
267.287	91.81
267.52	84.81
267.752	88.81
267.984	86.81
268.216	86.81
268.448	81.81
268.681	85.81
268.913	77.81
269.145	89.81
269.377	83.81
269.609	81.81
269.841	83.81
270.073	93.81
270.306	85.81
270.538	97.81
270.77	81.81
271.002	78.81
271.234	91.81
271.466	79.81
271.698	90.81
271.93	90.81
272.162	95.81
272.394	97.81
272.626	77.81
272.858	87.81
273.09	83.81
273.322	72.81
273.553	73.81
273.785	83.81
274.017	93.81
274.249	97.81
274.481	80.81
274.713	86.81
274.945	79.81
275.176	79.81
275.408	94.81
275.64	86.81
275.872	101.81
276.104	88.81
276.335	86.81
276.567	92.81
276.799	98.81
277.031	78.81
277.262	89.81
277.494	80.81
277.726	89.81
277.957	92.81
278.189	85.81
278.421	90.81
278.652	91.81
278.884	95.81
279.115	85.81
279.347	89.81
279.579	82.81
279.81	81.81
280.042	82.81
280.273	91.81
280.505	83.81
280.736	85.81
280.968	82.81
281.199	91.81
281.431	80.81
281.662	82.81
281.894	79.81
282.125	85.81
282.356	91.81
282.588	77.81
282.819	87.81
283.051	88.81
283.282	86.81
283.513	100.81
283.745	95.81
283.976	75.81
284.207	87.81
284.439	90.81
284.67	88.81
284.901	87.81
285.132	89.81
285.364	83.81
285.595	103.81
285.826	84.81
286.057	97.81
286.288	87.81
286.52	93.81
286.751	80.81
286.982	81.81
287.213	95.81
287.444	89.81
287.675	82.81
287.906	85.81
288.138	94.81
288.369	77.81
288.6	89.81
288.831	87.81
289.062	81.81
289.293	75.81
289.524	89.81
289.755	99.81
289.986	93.81
290.217	102.81
290.448	89.81
290.679	87.81
290.91	92.81
291.141	87.81
291.371	103.81
291.602	80.81
291.833	76.81
292.064	82.81
292.295	92.81
292.526	96.81
292.757	96.81
292.987	86.81
293.218	87.81
293.449	84.81
293.68	88.81
293.91	101.81
294.141	91.81
294.372	101.81
294.603	93.81
294.833	97.81
295.064	96.81
295.295	89.81
295.525	96.81
295.756	97.81
295.987	75.81
296.217	86.81
296.448	97.81
296.679	92.81
296.909	96.81
297.14	83.81
297.37	92.81
297.601	77.81
297.831	80.81
298.062	86.81
298.292	82.81
298.523	93.81
298.753	95.81
298.984	91.81
299.214	83.81
299.445	92.81
299.675	93.81
299.905	92.81
300.136	98.81
300.366	81.81
300.597	82.81
300.827	83.81
301.057	84.81
301.288	70.81
301.518	88.81
301.748	86.81
301.979	92.81
302.209	94.81
302.439	87.81
302.669	79.81
302.9	98.81
303.13	91.81
303.36	87.81
303.59	91.81
303.82	80.81
304.051	86.81
304.281	92.81
304.511	88.81
304.741	97.81
304.971	86.81
305.201	98.81
305.431	92.81
305.661	94.81
305.891	90.81
306.121	100.81
306.352	95.81
306.582	93.81
306.812	87.81
307.042	90.81
307.272	82.81
307.502	83.81
307.731	81.81
307.961	69.81
308.191	90.81
308.421	91.81
308.651	83.81
308.881	93.81
309.111	75.81
309.341	87.81
309.571	78.81
309.8	83.81
310.03	91.81
310.26	85.81
310.49	87.81
310.72	86.81
310.949	92.81
311.179	83.81
311.409	94.81
311.639	82.81
311.868	84.81
312.098	89.81
312.328	83.81
312.557	86.81
312.787	87.81
313.017	94.81
313.246	90.81
313.476	88.81
313.706	90.81
313.935	87.81
314.165	97.81
314.394	90.81
314.624	93.81
314.853	83.81
315.083	88.81
315.312	87.81
315.542	86.81
315.771	94.81
316.001	89.81
316.23	77.81
316.46	76.81
316.689	90.81
316.919	87.81
317.148	91.81
317.377	100.81
317.607	89.81
317.836	96.81
318.065	89.81
318.295	90.81
318.524	81.81
318.753	85.81
318.983	93.81
319.212	77.81
319.441	88.81
319.67	87.81
319.9	80.81
320.129	80.81
320.358	79.81
320.587	78.81
320.816	86.81
321.046	97.81
321.275	112.81
321.504	80.81
321.733	83.81
321.962	80.81
322.191	97.81
322.42	78.81
322.649	105.81
322.878	73.81
323.108	88.81
323.337	86.81
323.566	87.81
323.795	82.81
324.024	95.81
324.253	97.81
324.482	79.81
324.71	85.81
324.939	77.81
325.168	93.81
325.397	84.81
325.626	107.81
325.855	91.81
326.084	91.81
326.313	83.81
326.542	81.81
326.77	78.81
326.999	91.81
327.228	81.81
327.457	101.81
327.686	79.81
327.914	83.81
328.143	101.81
328.372	106.81
328.6	97.81
328.829	85.81
329.058	97.81
329.287	90.81
329.515	82.81
329.744	98.81
329.972	102.81
330.201	96.81
330.43	79.81
330.658	85.81
330.887	87.81
331.115	86.81
331.344	86.81
331.572	86.81
331.801	97.81
332.03	78.81
332.258	87.81
332.486	93.81
332.715	97.81
332.943	97.81
333.172	103.81
333.4	87.81
333.629	87.81
333.857	83.81
334.085	84.81
334.314	102.81
334.542	86.81
334.771	94.81
334.999	97.81
335.227	86.81
335.455	88.81
335.684	79.81
335.912	91.81
336.14	80.81
336.369	88.81
336.597	87.81
336.825	86.81
337.053	94.81
337.281	90.81
337.51	94.81
337.738	97.81
337.966	81.81
338.194	95.81
338.422	95.81
338.65	79.81
338.878	78.81
339.106	84.81
339.334	99.81
339.562	91.81
339.79	88.81
340.018	84.81
340.246	88.81
340.474	78.81
340.702	77.81
340.93	81.81
341.158	96.81
341.386	94.81
341.614	82.81
341.842	80.81
342.07	87.81
342.298	81.81
342.526	81.81
342.754	85.81
342.981	91.81
343.209	86.81
343.437	102.81
343.665	84.81
343.893	77.81
344.12	94.81
344.348	96.81
344.576	95.81
344.804	94.81
345.031	95.81
345.259	92.81
345.487	88.81
345.714	91.81
345.942	80.81
346.17	102.81
346.397	97.81
346.625	88.81
346.853	84.81
347.08	85.81
347.308	95.81
347.535	82.81
347.763	85.81
347.99	89.81
348.218	91.81
348.445	87.81
348.673	90.81
348.9	101.81
349.128	99.81
349.355	90.81
349.583	102.81
349.81	80.81
350.037	75.81
350.265	82.81
350.492	90.81
350.72	93.81
350.947	84.81
351.174	83.81
351.402	67.81
351.629	87.81
351.856	82.81
352.083	88.81
352.311	104.81
352.538	82.81
352.765	88.81
352.992	90.81
353.22	95.81
353.447	91.81
353.674	89.81
353.901	82.81
354.128	78.81
354.355	80.81
354.583	77.81
354.81	93.81
355.037	93.81
355.264	86.81
355.491	82.81
355.718	92.81
355.945	77.81
356.172	91.81
356.399	93.81
356.626	81.81
356.853	74.81
357.08	111.81
357.307	87.81
357.534	73.81
357.761	104.81
357.988	94.81
358.215	104.81
358.441	90.81
358.668	93.81
358.895	85.81
359.122	86.81
359.349	95.81
359.576	85.81
359.802	85.81
360.029	78.81
360.256	72.81
360.483	81.81
360.709	79.81
360.936	92.81
361.163	83.81
361.39	77.81
361.616	89.81
361.843	81.81
362.07	82.81
362.296	98.81
362.523	89.81
362.749	89.81
362.976	100.81
363.203	83.81
363.429	77.81
363.656	80.81
363.882	98.81
364.109	86.81
364.335	94.81
364.562	97.81
364.788	87.81
365.015	100.81
365.241	85.81
365.468	72.81
365.694	87.81
365.92	85.81
366.147	99.81
366.373	76.81
366.599	95.81
366.826	95.81
367.052	95.81
367.278	89.81
367.505	88.81
367.731	106.81
367.957	98.81
368.184	111.81
368.41	87.81
368.636	83.81
368.862	90.81
369.089	94.81
369.315	93.81
369.541	90.81
369.767	85.81
369.993	98.81
370.219	90.81
370.445	89.81
370.672	101.81
370.898	84.81
371.124	75.81
371.35	84.81
371.576	93.81
371.802	95.81
372.028	99.81
372.254	94.81
372.48	97.81
372.706	86.81
372.932	83.81
373.158	99.81
373.384	94.81
373.61	92.81
373.835	72.81
374.061	79.81
374.287	84.81
374.513	85.81
374.739	96.81
374.965	99.81
375.191	101.81
375.416	96.81
375.642	94.81
375.868	103.81
376.094	95.81
376.319	85.81
376.545	94.81
376.771	106.81
376.997	95.81
377.222	89.81
377.448	102.81
377.674	97.81
377.899	109.81
378.125	92.81
378.35	82.81
378.576	102.81
378.802	90.81
379.027	111.81
379.253	102.81
379.478	106.81
379.704	94.81
379.929	92.81
380.155	99.81
380.38	108.81
380.606	104.81
380.831	99.81
381.057	98.81
381.282	103.81
381.507	96.81
381.733	110.81
381.958	110.81
382.184	96.81
382.409	80.81
382.634	83.81
382.86	98.81
383.085	110.81
383.31	108.81
383.535	103.81
383.761	105.81
383.986	109.81
384.211	99.81
384.436	101.81
384.662	95.81
384.887	90.81
385.112	101.81
385.337	94.81
385.562	81.81
385.787	88.81
386.013	111.81
386.238	103.81
386.463	113.81
386.688	92.81
386.913	108.81
387.138	102.81
387.363	103.81
387.588	111.81
387.813	107.81
388.038	103.81
388.263	83.81
388.488	96.81
388.713	98.81
388.938	107.81
389.163	106.81
389.387	103.81
389.612	116.81
389.837	99.81
390.062	109.81
390.287	105.81
390.512	101.81
390.736	104.81
390.961	100.81
391.186	103.81
391.411	99.81
391.636	102.81
391.86	112.81
392.085	102.81
392.31	104.81
392.534	110.81
392.759	122.81
392.984	112.81
393.208	97.81
393.433	97.81
393.658	101.81
393.882	117.81
394.107	103.81
394.331	100.81
394.556	114.81
394.78	122.81
395.005	107.81
395.229	125.81
395.454	110.81
395.678	99.81
395.903	113.81
396.127	116.81
396.352	105.81
396.576	107.81
396.801	99.81
397.025	106.81
397.249	108.81
397.474	99.81
397.698	110.81
397.922	128.81
398.147	105.81
398.371	111.81
398.595	105.81
398.82	113.81
399.044	97.81
399.268	114.81
399.492	108.81
399.717	109.81
399.941	120.81
400.165	128.81
400.389	108.81
400.613	119.81
400.837	105.81
401.062	98.81
401.286	110.81
401.51	117.81
401.734	110.81
401.958	122.81
402.182	129.81
402.406	112.81
402.63	121.81
402.854	118.81
403.078	124.81
403.302	117.81
403.526	117.81
403.75	99.81
403.974	115.81
404.198	104.81
404.422	111.81
404.645	114.81
404.869	131.81
405.093	127.81
405.317	120.81
405.541	119.81
405.765	119.81
405.988	116.81
406.212	120.81
406.436	105.81
406.66	126.81
406.883	115.81
407.107	122.81
407.331	110.81
407.555	103.81
407.778	105.81
408.002	113.81
408.226	127.81
408.449	121.81
408.673	119.81
408.896	110.81
409.12	106.81
409.344	109.81
409.567	113.81
409.791	111.81
410.014	137.81
410.238	137.81
410.461	138.81
410.685	120.81
410.908	122.81
411.132	118.81
411.355	119.81
411.578	122.81
411.802	125.81
412.025	131.81
412.249	125.81
412.472	139.81
412.695	131.81
412.919	129.81
413.142	123.81
413.365	128.81
413.589	125.81
413.812	129.81
414.035	123.81
414.258	128.81
414.482	117.81
414.705	128.81
414.928	118.81
415.151	126.81
415.374	127.81
415.597	127.81
415.821	120.81
416.044	133.81
416.267	114.81
416.49	122.81
416.713	145.81
416.936	139.81
417.159	126.81
417.382	116.81
417.605	123.81
417.828	127.81
418.051	136.81
418.274	139.81
418.497	130.81
418.72	132.81
418.943	118.81
419.166	138.81
419.389	156.81
419.611	128.81
419.834	141.81
420.057	140.81
420.28	131.81
420.503	125.81
420.726	130.81
420.948	119.81
421.171	124.81
421.394	131.81
421.617	137.81
421.839	138.81
422.062	142.81
422.285	137.81
422.507	133.81
422.73	120.81
422.953	131.81
423.175	133.81
423.398	137.81
423.621	130.81
423.843	141.81
424.066	122.81
424.288	144.81
424.511	155.81
424.733	144.81
424.956	149.81
425.178	135.81
425.401	141.81
425.623	141.81
425.846	135.81
426.068	126.81
426.291	138.81
426.513	137.81
426.735	129.81
426.958	131.81
427.18	128.81
427.402	117.81
427.625	145.81
427.847	129.81
428.069	134.81
428.292	124.81
428.514	114.81
428.736	126.81
428.958	120.81
429.181	127.81
429.403	124.81
429.625	124.81
429.847	122.81
430.069	130.81
430.292	128.81
430.514	124.81
430.736	133.81
430.958	139.81
431.18	121.81
431.402	132.81
431.624	123.81
431.846	103.81
432.068	103.81
432.29	106.81
432.512	139.81
432.734	129.81
432.956	129.81
433.178	138.81
433.4	139.81
433.622	140.81
433.844	129.81
434.066	113.81
434.287	106.81
434.509	102.81
434.731	97.81
434.953	124.81
435.175	137.81
435.397	114.81
435.618	125.81
435.84	113.81
436.062	107.81
436.284	125.81
436.505	117.81
436.727	123.81
436.949	133.81
437.17	125.81
437.392	119.81
437.614	134.81
437.835	120.81
438.057	101.81
438.278	117.81
438.5	129.81
438.721	133.81
438.943	124.81
439.165	145.81
439.386	144.81
439.608	144.81
439.829	142.81
440.05	141.81
440.272	139.81
440.493	136.81
440.715	140.81
440.936	140.81
441.158	143.81
441.379	138.81
441.6	147.81
441.822	137.81
442.043	141.81
442.264	148.81
442.486	133.81
442.707	146.81
442.928	143.81
443.149	147.81
443.371	141.81
443.592	138.81
443.813	138.81
444.034	147.81
444.255	150.81
444.476	129.81
444.698	155.81
444.919	157.81
445.14	250.81
445.361	198.81
445.582	151.81
445.803	142.81
446.024	142.81
446.245	154.81
446.466	147.81
446.687	156.81
446.908	139.81
447.129	159.81
447.35	143.81
447.571	151.81
447.792	140.81
448.013	133.81
448.234	137.81
448.455	141.81
448.675	148.81
448.896	137.81
449.117	135.81
449.338	152.81
449.559	133.81
449.779	148.81
450	129.81
450.221	113.81
450.442	146.81
450.662	139.81
450.883	135.81
451.104	128.81
451.324	139.81
451.545	124.81
451.766	125.81
451.986	126.81
452.207	128.81
452.428	128.81
452.648	125.81
452.869	126.81
453.089	125.81
453.31	126.81
453.53	103.81
453.751	103.81
453.971	91.81
454.192	98.81
454.412	133.81
454.633	115.81
454.853	134.81
455.073	111.81
455.294	124.81
455.514	121.81
455.734	115.81
455.955	117.81
456.175	110.81
456.395	123.81
456.616	113.81
456.836	103.81
457.056	126.81
457.276	99.81
457.497	113.81
457.717	100.81
457.937	116.81
458.157	91.81
458.377	104.81
458.598	111.81
458.818	106.81
459.038	104.81
459.258	91.81
459.478	100.81
459.698	106.81
459.918	109.81
460.138	101.81
460.358	121.81
460.578	123.81
460.798	121.81
461.018	108.81
461.238	105.81
461.458	122.81
461.678	110.81
461.898	112.81
462.118	98.81
462.338	114.81
462.558	102.81
462.777	99.81
462.997	110.81
463.217	109.81
463.437	108.81
463.657	111.81
463.876	102.81
464.096	107.81
464.316	113.81
464.536	110.81
464.755	104.81
464.975	122.81
465.195	129.81
465.414	123.81
465.634	119.81
465.854	121.81
466.073	123.81
466.293	133.81
466.512	127.81
466.732	141.81
466.951	127.81
467.171	121.81
467.391	125.81
467.61	135.81
467.829	131.81
468.049	133.81
468.268	137.81
468.488	137.81
468.707	126.81
468.927	132.81
469.146	149.81
469.365	123.81
469.585	155.81
469.804	155.81
470.023	142.81
470.243	146.81
470.462	143.81
470.681	150.81
470.901	143.81
471.12	143.81
471.339	153.81
471.558	135.81
471.777	147.81
471.997	141.81
472.216	129.81
472.435	119.81
472.654	113.81
472.873	101.81
473.092	95.81
473.311	129.81
473.53	126.81
473.749	127.81
473.968	133.81
474.187	113.81
474.406	126.81
474.625	130.81
474.844	130.81
475.063	136.81
475.282	127.81
475.501	121.81
475.72	120.81
475.939	130.81
476.158	143.81
476.377	143.81
476.596	128.81
476.814	111.81
477.033	121.81
477.252	119.81
477.471	123.81
477.69	130.81
477.908	137.81
478.127	158.81
478.346	135.81
478.564	139.81
478.783	143.81
479.002	137.81
479.22	133.81
479.439	140.81
479.658	137.81
479.876	121.81
480.095	117.81
480.313	118.81
480.532	123.81
480.751	108.81
480.969	101.81
481.188	90.81
481.406	97.81
481.624	101.81
481.843	86.81
482.061	84.81
482.28	103.81
482.498	131.81
482.717	104.81
482.935	122.81
483.153	147.81
483.372	137.81
483.59	146.81
483.808	129.81
484.027	126.81
484.245	143.81
484.463	151.81
484.681	171.81
484.9	143.81
485.118	137.81
485.336	125.81
485.554	107.81
485.772	97.81
485.99	122.81
486.209	99.81
486.427	119.81
486.645	126.81
486.863	147.81
487.081	154.81
487.299	137.81
487.517	139.81
487.735	171.81
487.953	180.81
488.171	188.81
488.389	172.81
488.607	157.81
488.825	137.81
489.043	128.81
489.261	133.81
489.479	130.81
489.696	135.81
489.914	158.81
490.132	143.81
490.35	127.81
490.568	154.81
490.786	171.81
491.003	159.81
491.221	175.81
491.439	170.81
491.657	177.81
491.874	197.81
492.092	231.81
492.31	250.81
492.527	231.81
492.745	204.81
492.963	205.81
493.18	195.81
493.398	184.81
493.615	160.81
493.833	165.81
494.05	169.81
494.268	170.81
494.485	198.81
494.703	163.81
494.92	161.81
495.138	163.81
495.355	178.81
495.573	179.81
495.79	150.81
496.008	169.81
496.225	171.81
496.442	173.81
496.66	153.81
496.877	145.81
497.094	154.81
497.312	161.81
497.529	162.81
497.746	146.81
497.963	141.81
498.181	142.81
498.398	144.81
498.615	110.81
498.832	124.81
499.049	110.81
499.267	117.81
499.484	117.81
499.701	130.81
499.918	152.81
500.135	144.81
500.352	147.81
500.569	138.81
500.786	148.81
501.003	142.81
501.22	145.81
501.437	135.81
501.654	133.81
501.871	146.81
502.088	131.81
502.305	126.81
502.522	120.81
502.739	129.81
502.956	134.81
503.172	125.81
503.389	125.81
503.606	121.81
503.823	139.81
504.04	129.81
504.256	113.81
504.473	108.81
504.69	120.81
504.907	139.81
505.123	113.81
505.34	125.81
505.557	131.81
505.773	144.81
505.99	108.81
506.207	108.81
506.423	108.81
506.64	123.81
506.856	137.81
507.073	119.81
507.289	128.81
507.506	130.81
507.722	108.81
507.939	119.81
508.155	123.81
508.372	118.81
508.588	107.81
508.805	117.81
509.021	109.81
509.238	114.81
509.454	105.81
509.67	98.81
509.887	111.81
510.103	105.81
510.319	88.81
510.536	101.81
510.752	99.81
510.968	99.81
