Data from Location1.07152019.Energy5.Lamp.07192019.3%Agarose_HRD10591_14-31-14-022.txt Node
Date: Fri Jul 19 14:31:14 EDT 2019
User: cochatt
Spectrometer: HR+D1059
Trigger mode: 1
Integration Time (sec): 1.000000E-1
Scans to average: 1
Electric dark correction enabled: true
Nonlinearity correction enabled: false
Boxcar width: 0
XAxis mode: Wavelengths
Number of Pixels in Spectrum: 2048
>>>>>Begin Spectral Data<<<<<
223.165	-16.88
223.4	-16.88
223.635	-16.88
223.869	-14.88
224.104	-8.88
224.338	-12.88
224.573	-21.88
224.808	-5.88
225.042	-13.88
225.277	-20.88
225.511	5.12
225.746	-3.88
225.98	0.12
226.215	21.12
226.449	15.12
226.683	18.12
226.918	30.12
227.152	30.12
227.387	39.12
227.621	42.12
227.856	38.12
228.09	50.12
228.324	44.12
228.559	52.12
228.793	49.12
229.027	60.12
229.262	58.12
229.496	66.12
229.73	82.12
229.964	68.12
230.199	66.12
230.433	93.12
230.667	80.12
230.901	79.12
231.136	71.12
231.37	78.12
231.604	71.12
231.838	90.12
232.072	74.12
232.306	79.12
232.541	75.12
232.775	85.12
233.009	83.12
233.243	63.12
233.477	68.12
233.711	72.12
233.945	84.12
234.179	63.12
234.413	93.12
234.647	81.12
234.881	74.12
235.115	80.12
235.349	82.12
235.583	72.12
235.817	78.12
236.051	76.12
236.285	70.12
236.519	83.12
236.753	81.12
236.987	70.12
237.221	67.12
237.455	62.12
237.689	71.12
237.922	86.12
238.156	76.12
238.39	85.12
238.624	77.12
238.858	83.12
239.091	69.12
239.325	78.12
239.559	74.12
239.793	58.12
240.027	75.12
240.26	76.12
240.494	72.12
240.728	72.12
240.961	83.12
241.195	71.12
241.429	82.12
241.662	76.12
241.896	83.12
242.13	83.12
242.363	75.12
242.597	73.12
242.83	74.12
243.064	87.12
243.298	77.12
243.531	76.12
243.765	75.12
243.998	72.12
244.232	78.12
244.465	76.12
244.699	76.12
244.932	79.12
245.166	68.12
245.399	83.12
245.633	84.12
245.866	62.12
246.099	76.12
246.333	87.12
246.566	73.12
246.8	78.12
247.033	74.12
247.266	76.12
247.5	71.12
247.733	79.12
247.966	73.12
248.2	100.12
248.433	77.12
248.666	80.12
248.899	101.12
249.133	74.12
249.366	79.12
249.599	87.12
249.832	92.12
250.066	85.12
250.299	81.12
250.532	75.12
250.765	84.12
250.998	71.12
251.231	73.12
251.465	89.12
251.698	78.12
251.931	92.12
252.164	87.12
252.397	64.12
252.63	72.12
252.863	82.12
253.096	62.12
253.329	73.12
253.562	65.12
253.795	85.12
254.028	73.12
254.261	86.12
254.494	71.12
254.727	89.12
254.96	73.12
255.193	84.12
255.426	80.12
255.659	75.12
255.892	78.12
256.124	86.12
256.357	61.12
256.59	60.12
256.823	78.12
257.056	71.12
257.289	82.12
257.521	81.12
257.754	77.12
257.987	66.12
258.22	79.12
258.452	76.12
258.685	67.12
258.918	83.12
259.151	74.12
259.383	83.12
259.616	85.12
259.849	86.12
260.081	91.12
260.314	89.12
260.547	76.12
260.779	88.12
261.012	86.12
261.244	78.12
261.477	83.12
261.71	75.12
261.942	81.12
262.175	69.12
262.407	86.12
262.64	79.12
262.872	88.12
263.105	87.12
263.337	84.12
263.57	88.12
263.802	83.12
264.035	92.12
264.267	64.12
264.499	85.12
264.732	80.12
264.964	94.12
265.197	75.12
265.429	76.12
265.661	69.12
265.894	78.12
266.126	88.12
266.358	71.12
266.591	77.12
266.823	80.12
267.055	62.12
267.287	82.12
267.52	81.12
267.752	97.12
267.984	78.12
268.216	66.12
268.448	81.12
268.681	83.12
268.913	92.12
269.145	87.12
269.377	99.12
269.609	81.12
269.841	82.12
270.073	71.12
270.306	85.12
270.538	77.12
270.77	74.12
271.002	93.12
271.234	83.12
271.466	92.12
271.698	78.12
271.93	80.12
272.162	60.12
272.394	86.12
272.626	69.12
272.858	70.12
273.09	69.12
273.322	83.12
273.553	82.12
273.785	79.12
274.017	85.12
274.249	77.12
274.481	62.12
274.713	88.12
274.945	86.12
275.176	81.12
275.408	73.12
275.64	83.12
275.872	75.12
276.104	84.12
276.335	86.12
276.567	80.12
276.799	82.12
277.031	89.12
277.262	85.12
277.494	94.12
277.726	101.12
277.957	83.12
278.189	86.12
278.421	88.12
278.652	78.12
278.884	85.12
279.115	89.12
279.347	69.12
279.579	76.12
279.81	86.12
280.042	83.12
280.273	81.12
280.505	83.12
280.736	74.12
280.968	76.12
281.199	86.12
281.431	79.12
281.662	80.12
281.894	82.12
282.125	88.12
282.356	71.12
282.588	74.12
282.819	87.12
283.051	80.12
283.282	77.12
283.513	71.12
283.745	93.12
283.976	67.12
284.207	79.12
284.439	82.12
284.67	72.12
284.901	93.12
285.132	86.12
285.364	88.12
285.595	78.12
285.826	94.12
286.057	95.12
286.288	87.12
286.52	82.12
286.751	73.12
286.982	74.12
287.213	79.12
287.444	81.12
287.675	71.12
287.906	73.12
288.138	82.12
288.369	84.12
288.6	72.12
288.831	67.12
289.062	75.12
289.293	87.12
289.524	92.12
289.755	82.12
289.986	89.12
290.217	90.12
290.448	84.12
290.679	79.12
290.91	86.12
291.141	83.12
291.371	83.12
291.602	87.12
291.833	77.12
292.064	95.12
292.295	95.12
292.526	81.12
292.757	91.12
292.987	73.12
293.218	73.12
293.449	93.12
293.68	84.12
293.91	85.12
294.141	76.12
294.372	85.12
294.603	95.12
294.833	90.12
295.064	84.12
295.295	75.12
295.525	76.12
295.756	77.12
295.987	86.12
296.217	83.12
296.448	84.12
296.679	76.12
296.909	77.12
297.14	79.12
297.37	65.12
297.601	76.12
297.831	86.12
298.062	87.12
298.292	75.12
298.523	86.12
298.753	92.12
298.984	85.12
299.214	74.12
299.445	85.12
299.675	85.12
299.905	90.12
300.136	89.12
300.366	84.12
300.597	99.12
300.827	87.12
301.057	88.12
301.288	97.12
301.518	95.12
301.748	88.12
301.979	86.12
302.209	84.12
302.439	80.12
302.669	93.12
302.9	85.12
303.13	79.12
303.36	97.12
303.59	88.12
303.82	83.12
304.051	79.12
304.281	93.12
304.511	90.12
304.741	82.12
304.971	73.12
305.201	79.12
305.431	95.12
305.661	77.12
305.891	71.12
306.121	84.12
306.352	86.12
306.582	78.12
306.812	76.12
307.042	75.12
307.272	84.12
307.502	63.12
307.731	78.12
307.961	86.12
308.191	85.12
308.421	85.12
308.651	87.12
308.881	86.12
309.111	86.12
309.341	77.12
309.571	88.12
309.8	87.12
310.03	103.12
310.26	84.12
310.49	76.12
310.72	84.12
310.949	79.12
311.179	96.12
311.409	71.12
311.639	92.12
311.868	85.12
312.098	86.12
312.328	83.12
312.557	81.12
312.787	91.12
313.017	79.12
313.246	97.12
313.476	72.12
313.706	90.12
313.935	78.12
314.165	86.12
314.394	83.12
314.624	75.12
314.853	85.12
315.083	99.12
315.312	86.12
315.542	77.12
315.771	77.12
316.001	72.12
316.23	84.12
316.46	92.12
316.689	77.12
316.919	86.12
317.148	101.12
317.377	79.12
317.607	81.12
317.836	84.12
318.065	91.12
318.295	90.12
318.524	82.12
318.753	81.12
318.983	76.12
319.212	94.12
319.441	82.12
319.67	94.12
319.9	94.12
320.129	89.12
320.358	76.12
320.587	79.12
320.816	79.12
321.046	77.12
321.275	91.12
321.504	74.12
321.733	87.12
321.962	71.12
322.191	81.12
322.42	73.12
322.649	86.12
322.878	67.12
323.108	91.12
323.337	71.12
323.566	83.12
323.795	88.12
324.024	91.12
324.253	76.12
324.482	88.12
324.71	80.12
324.939	69.12
325.168	83.12
325.397	89.12
325.626	94.12
325.855	79.12
326.084	80.12
326.313	95.12
326.542	87.12
326.77	91.12
326.999	86.12
327.228	81.12
327.457	75.12
327.686	75.12
327.914	82.12
328.143	84.12
328.372	86.12
328.6	88.12
328.829	87.12
329.058	76.12
329.287	72.12
329.515	68.12
329.744	76.12
329.972	70.12
330.201	84.12
330.43	78.12
330.658	77.12
330.887	69.12
331.115	94.12
331.344	85.12
331.572	81.12
331.801	67.12
332.03	89.12
332.258	66.12
332.486	73.12
332.715	86.12
332.943	74.12
333.172	88.12
333.4	74.12
333.629	92.12
333.857	76.12
334.085	70.12
334.314	74.12
334.542	93.12
334.771	78.12
334.999	91.12
335.227	73.12
335.455	84.12
335.684	95.12
335.912	79.12
336.14	92.12
336.369	76.12
336.597	82.12
336.825	92.12
337.053	76.12
337.281	79.12
337.51	87.12
337.738	85.12
337.966	84.12
338.194	69.12
338.422	79.12
338.65	86.12
338.878	73.12
339.106	73.12
339.334	83.12
339.562	86.12
339.79	66.12
340.018	76.12
340.246	100.12
340.474	98.12
340.702	83.12
340.93	84.12
341.158	78.12
341.386	69.12
341.614	84.12
341.842	85.12
342.07	83.12
342.298	97.12
342.526	88.12
342.754	69.12
342.981	100.12
343.209	89.12
343.437	79.12
343.665	86.12
343.893	73.12
344.12	93.12
344.348	82.12
344.576	85.12
344.804	85.12
345.031	79.12
345.259	69.12
345.487	89.12
345.714	81.12
345.942	79.12
346.17	77.12
346.397	82.12
346.625	84.12
346.853	92.12
347.08	81.12
347.308	90.12
347.535	85.12
347.763	74.12
347.99	85.12
348.218	85.12
348.445	86.12
348.673	80.12
348.9	77.12
349.128	85.12
349.355	90.12
349.583	91.12
349.81	79.12
350.037	89.12
350.265	77.12
350.492	75.12
350.72	84.12
350.947	78.12
351.174	81.12
351.402	66.12
351.629	76.12
351.856	92.12
352.083	87.12
352.311	83.12
352.538	77.12
352.765	79.12
352.992	84.12
353.22	80.12
353.447	86.12
353.674	80.12
353.901	74.12
354.128	76.12
354.355	82.12
354.583	79.12
354.81	86.12
355.037	94.12
355.264	90.12
355.491	83.12
355.718	76.12
355.945	86.12
356.172	77.12
356.399	93.12
356.626	78.12
356.853	88.12
357.08	78.12
357.307	82.12
357.534	82.12
357.761	83.12
357.988	71.12
358.215	77.12
358.441	79.12
358.668	81.12
358.895	79.12
359.122	93.12
359.349	82.12
359.576	73.12
359.802	97.12
360.029	93.12
360.256	86.12
360.483	88.12
360.709	83.12
360.936	93.12
361.163	82.12
361.39	79.12
361.616	84.12
361.843	67.12
362.07	77.12
362.296	86.12
362.523	87.12
362.749	86.12
362.976	74.12
363.203	81.12
363.429	77.12
363.656	94.12
363.882	92.12
364.109	92.12
364.335	91.12
364.562	84.12
364.788	84.12
365.015	84.12
365.241	79.12
365.468	86.12
365.694	73.12
365.92	89.12
366.147	84.12
366.373	93.12
366.599	93.12
366.826	93.12
367.052	87.12
367.278	66.12
367.505	88.12
367.731	87.12
367.957	88.12
368.184	88.12
368.41	79.12
368.636	82.12
368.862	85.12
369.089	96.12
369.315	87.12
369.541	86.12
369.767	87.12
369.993	84.12
370.219	84.12
370.445	92.12
370.672	89.12
370.898	85.12
371.124	93.12
371.35	77.12
371.576	83.12
371.802	90.12
372.028	94.12
372.254	76.12
372.48	83.12
372.706	101.12
372.932	99.12
373.158	91.12
373.384	93.12
373.61	106.12
373.835	89.12
374.061	89.12
374.287	85.12
374.513	79.12
374.739	70.12
374.965	99.12
375.191	94.12
375.416	83.12
375.642	90.12
375.868	106.12
376.094	93.12
376.319	82.12
376.545	90.12
376.771	79.12
376.997	93.12
377.222	93.12
377.448	92.12
377.674	89.12
377.899	92.12
378.125	79.12
378.35	94.12
378.576	103.12
378.802	95.12
379.027	75.12
379.253	94.12
379.478	95.12
379.704	98.12
379.929	102.12
380.155	102.12
380.38	96.12
380.606	84.12
380.831	85.12
381.057	110.12
381.282	99.12
381.507	95.12
381.733	96.12
381.958	99.12
382.184	94.12
382.409	90.12
382.634	93.12
382.86	87.12
383.085	90.12
383.31	95.12
383.535	89.12
383.761	85.12
383.986	92.12
384.211	99.12
384.436	110.12
384.662	92.12
384.887	100.12
385.112	93.12
385.337	84.12
385.562	86.12
385.787	87.12
386.013	103.12
386.238	98.12
386.463	99.12
386.688	84.12
386.913	86.12
387.138	102.12
387.363	94.12
387.588	102.12
387.813	106.12
388.038	94.12
388.263	96.12
388.488	88.12
388.713	91.12
388.938	84.12
389.163	98.12
389.387	108.12
389.612	107.12
389.837	101.12
390.062	99.12
390.287	100.12
390.512	97.12
390.736	97.12
390.961	110.12
391.186	83.12
391.411	98.12
391.636	99.12
391.86	108.12
392.085	104.12
392.31	97.12
392.534	94.12
392.759	98.12
392.984	104.12
393.208	101.12
393.433	98.12
393.658	104.12
393.882	96.12
394.107	90.12
394.331	97.12
394.556	114.12
394.78	92.12
395.005	95.12
395.229	108.12
395.454	99.12
395.678	106.12
395.903	111.12
396.127	115.12
396.352	103.12
396.576	105.12
396.801	111.12
397.025	87.12
397.249	101.12
397.474	94.12
397.698	104.12
397.922	98.12
398.147	103.12
398.371	109.12
398.595	108.12
398.82	106.12
399.044	109.12
399.268	102.12
399.492	104.12
399.717	96.12
399.941	99.12
400.165	110.12
400.389	106.12
400.613	99.12
400.837	101.12
401.062	94.12
401.286	103.12
401.51	113.12
401.734	112.12
401.958	113.12
402.182	88.12
402.406	112.12
402.63	116.12
402.854	107.12
403.078	120.12
403.302	105.12
403.526	118.12
403.75	103.12
403.974	113.12
404.198	106.12
404.422	120.12
404.645	107.12
404.869	106.12
405.093	113.12
405.317	124.12
405.541	117.12
405.765	121.12
405.988	104.12
406.212	126.12
406.436	120.12
406.66	111.12
406.883	119.12
407.107	104.12
407.331	118.12
407.555	114.12
407.778	128.12
408.002	131.12
408.226	114.12
408.449	106.12
408.673	117.12
408.896	117.12
409.12	126.12
409.344	123.12
409.567	121.12
409.791	126.12
410.014	126.12
410.238	115.12
410.461	107.12
410.685	111.12
410.908	124.12
411.132	119.12
411.355	126.12
411.578	115.12
411.802	117.12
412.025	124.12
412.249	118.12
412.472	104.12
412.695	120.12
412.919	117.12
413.142	112.12
413.365	130.12
413.589	120.12
413.812	110.12
414.035	120.12
414.258	113.12
414.482	123.12
414.705	131.12
414.928	115.12
415.151	108.12
415.374	107.12
415.597	135.12
415.821	118.12
416.044	129.12
416.267	129.12
416.49	124.12
416.713	128.12
416.936	129.12
417.159	126.12
417.382	129.12
417.605	125.12
417.828	123.12
418.051	134.12
418.274	132.12
418.497	127.12
418.72	129.12
418.943	119.12
419.166	123.12
419.389	132.12
419.611	130.12
419.834	142.12
420.057	139.12
420.28	124.12
420.503	124.12
420.726	131.12
420.948	130.12
421.171	143.12
421.394	120.12
421.617	136.12
421.839	137.12
422.062	130.12
422.285	149.12
422.507	130.12
422.73	121.12
422.953	135.12
423.175	129.12
423.398	124.12
423.621	133.12
423.843	118.12
424.066	125.12
424.288	127.12
424.511	137.12
424.733	147.12
424.956	146.12
425.178	137.12
425.401	142.12
425.623	132.12
425.846	137.12
426.068	130.12
426.291	122.12
426.513	108.12
426.735	116.12
426.958	118.12
427.18	139.12
427.402	137.12
427.625	129.12
427.847	119.12
428.069	131.12
428.292	127.12
428.514	130.12
428.736	124.12
428.958	142.12
429.181	117.12
429.403	121.12
429.625	118.12
429.847	113.12
430.069	121.12
430.292	117.12
430.514	131.12
430.736	124.12
430.958	131.12
431.18	117.12
431.402	125.12
431.624	129.12
431.846	126.12
432.068	105.12
432.29	101.12
432.512	109.12
432.734	123.12
432.956	134.12
433.178	143.12
433.4	144.12
433.622	140.12
433.844	139.12
434.066	127.12
434.287	116.12
434.509	115.12
434.731	101.12
434.953	115.12
435.175	113.12
435.397	122.12
435.618	113.12
435.84	115.12
436.062	115.12
436.284	120.12
436.505	118.12
436.727	130.12
436.949	121.12
437.17	144.12
437.392	117.12
437.614	124.12
437.835	118.12
438.057	119.12
438.278	110.12
438.5	137.12
438.721	131.12
438.943	142.12
439.165	138.12
439.386	139.12
439.608	139.12
439.829	129.12
440.05	151.12
440.272	154.12
440.493	135.12
440.715	141.12
440.936	148.12
441.158	154.12
441.379	134.12
441.6	150.12
441.822	155.12
442.043	151.12
442.264	148.12
442.486	147.12
442.707	149.12
442.928	144.12
443.149	129.12
443.371	131.12
443.592	127.12
443.813	133.12
444.034	131.12
444.255	143.12
444.476	135.12
444.698	137.12
444.919	164.12
445.14	250.12
445.361	199.12
445.582	135.12
445.803	127.12
446.024	152.12
446.245	147.12
446.466	145.12
446.687	159.12
446.908	157.12
447.129	140.12
447.35	139.12
447.571	156.12
447.792	138.12
448.013	119.12
448.234	145.12
448.455	133.12
448.675	145.12
448.896	130.12
449.117	137.12
449.338	135.12
449.559	143.12
449.779	133.12
450	125.12
450.221	125.12
450.442	150.12
450.662	139.12
450.883	122.12
451.104	131.12
451.324	133.12
451.545	121.12
451.766	127.12
451.986	113.12
452.207	117.12
452.428	107.12
452.648	125.12
452.869	125.12
453.089	117.12
453.31	108.12
453.53	107.12
453.751	100.12
453.971	117.12
454.192	116.12
454.412	107.12
454.633	118.12
454.853	119.12
455.073	127.12
455.294	130.12
455.514	118.12
455.734	117.12
455.955	125.12
456.175	111.12
456.395	102.12
456.616	115.12
456.836	106.12
457.056	103.12
457.276	111.12
457.497	107.12
457.717	99.12
457.937	105.12
458.157	117.12
458.377	107.12
458.598	106.12
458.818	97.12
459.038	90.12
459.258	81.12
459.478	91.12
459.698	88.12
459.918	81.12
460.138	103.12
460.358	108.12
460.578	118.12
460.798	113.12
461.018	106.12
461.238	96.12
461.458	107.12
461.678	122.12
461.898	127.12
462.118	116.12
462.338	101.12
462.558	111.12
462.777	105.12
462.997	119.12
463.217	106.12
463.437	106.12
463.657	106.12
463.876	105.12
464.096	116.12
464.316	117.12
464.536	115.12
464.755	121.12
464.975	111.12
465.195	109.12
465.414	125.12
465.634	113.12
465.854	107.12
466.073	127.12
466.293	124.12
466.512	133.12
466.732	125.12
466.951	131.12
467.171	128.12
467.391	121.12
467.61	120.12
467.829	141.12
468.049	142.12
468.268	130.12
468.488	142.12
468.707	143.12
468.927	124.12
469.146	111.12
469.365	149.12
469.585	141.12
469.804	136.12
470.023	131.12
470.243	162.12
470.462	143.12
470.681	152.12
470.901	141.12
471.12	140.12
471.339	144.12
471.558	137.12
471.777	141.12
471.997	143.12
472.216	120.12
472.435	128.12
472.654	106.12
472.873	94.12
473.092	132.12
473.311	119.12
473.53	117.12
473.749	117.12
473.968	133.12
474.187	119.12
474.406	131.12
474.625	105.12
474.844	115.12
475.063	134.12
475.282	131.12
475.501	128.12
475.72	126.12
475.939	109.12
476.158	120.12
476.377	121.12
476.596	118.12
476.814	131.12
477.033	114.12
477.252	108.12
477.471	137.12
477.69	131.12
477.908	132.12
478.127	136.12
478.346	134.12
478.564	133.12
478.783	135.12
479.002	139.12
479.22	147.12
479.439	128.12
479.658	123.12
479.876	125.12
480.095	114.12
480.313	111.12
480.532	115.12
480.751	121.12
480.969	97.12
481.188	97.12
481.406	90.12
481.624	90.12
481.843	88.12
482.061	95.12
482.28	103.12
482.498	115.12
482.717	97.12
482.935	122.12
483.153	155.12
483.372	127.12
483.59	141.12
483.808	129.12
484.027	133.12
484.245	150.12
484.463	130.12
484.681	156.12
484.9	143.12
485.118	129.12
485.336	122.12
485.554	103.12
485.772	113.12
485.99	110.12
486.209	97.12
486.427	89.12
486.645	119.12
486.863	142.12
487.081	140.12
487.299	125.12
487.517	130.12
487.735	166.12
487.953	182.12
488.171	188.12
488.389	188.12
488.607	166.12
488.825	146.12
489.043	141.12
489.261	135.12
489.479	139.12
489.696	141.12
489.914	139.12
490.132	134.12
490.35	145.12
490.568	139.12
490.786	165.12
491.003	154.12
491.221	162.12
491.439	172.12
491.657	195.12
491.874	203.12
492.092	209.12
492.31	239.12
492.527	236.12
492.745	183.12
492.963	190.12
493.18	185.12
493.398	163.12
493.615	190.12
493.833	181.12
494.05	172.12
494.268	163.12
494.485	177.12
494.703	171.12
494.92	165.12
495.138	177.12
495.355	174.12
495.573	173.12
495.79	170.12
496.008	150.12
496.225	174.12
496.442	165.12
496.66	174.12
496.877	159.12
497.094	157.12
497.312	151.12
497.529	149.12
497.746	134.12
497.963	136.12
498.181	129.12
498.398	101.12
498.615	110.12
498.832	107.12
499.049	115.12
499.267	121.12
499.484	132.12
499.701	121.12
499.918	131.12
500.135	138.12
500.352	148.12
500.569	141.12
500.786	134.12
501.003	138.12
501.22	133.12
501.437	148.12
501.654	126.12
501.871	122.12
502.088	121.12
502.305	107.12
502.522	118.12
502.739	125.12
502.956	122.12
503.172	122.12
503.389	109.12
503.606	123.12
503.823	119.12
504.04	125.12
504.256	123.12
504.473	105.12
504.69	115.12
504.907	137.12
505.123	113.12
505.34	124.12
505.557	132.12
505.773	123.12
505.99	119.12
506.207	116.12
506.423	111.12
506.64	134.12
506.856	129.12
507.073	109.12
507.289	108.12
507.506	119.12
507.722	129.12
507.939	121.12
508.155	113.12
508.372	105.12
508.588	110.12
508.805	115.12
509.021	118.12
509.238	114.12
509.454	98.12
509.67	98.12
509.887	90.12
510.103	100.12
510.319	86.12
510.536	87.12
510.752	93.12
510.968	87.12
511.184	74.12
511.401	77.12
511.617	80.12
511.833	95.12
512.049	91.12
