Data from Location1.07152019.Energy5.Lamp.07192019.3%Agarose_HRD10591_14-32-35-015.txt Node
Date: Fri Jul 19 14:32:35 EDT 2019
User: cochatt
Spectrometer: HR+D1059
Trigger mode: 1
Integration Time (sec): 1.000000E-1
Scans to average: 1
Electric dark correction enabled: true
Nonlinearity correction enabled: false
Boxcar width: 0
XAxis mode: Wavelengths
Number of Pixels in Spectrum: 2048
>>>>>Begin Spectral Data<<<<<
223.165	-19.44
223.4	-19.44
223.635	-19.44
223.869	-9.44
224.104	-17.44
224.338	-9.44
224.573	-16.44
224.808	-26.44
225.042	-25.44
225.277	5.56
225.511	7.56
225.746	8.56
225.98	10.56
226.215	5.56
226.449	11.56
226.683	10.56
226.918	23.56
227.152	40.56
227.387	34.56
227.621	32.56
227.856	44.56
228.09	49.56
228.324	51.56
228.559	55.56
228.793	57.56
229.027	62.56
229.262	70.56
229.496	57.56
229.73	78.56
229.964	68.56
230.199	66.56
230.433	84.56
230.667	82.56
230.901	74.56
231.136	71.56
231.37	75.56
231.604	86.56
231.838	84.56
232.072	86.56
232.306	85.56
232.541	90.56
232.775	87.56
233.009	71.56
233.243	85.56
233.477	85.56
233.711	79.56
233.945	93.56
234.179	72.56
234.413	77.56
234.647	70.56
234.881	74.56
235.115	86.56
235.349	78.56
235.583	79.56
235.817	91.56
236.051	90.56
236.285	67.56
236.519	84.56
236.753	85.56
236.987	75.56
237.221	84.56
237.455	77.56
237.689	77.56
237.922	75.56
238.156	75.56
238.39	57.56
238.624	69.56
238.858	75.56
239.091	83.56
239.325	71.56
239.559	75.56
239.793	71.56
240.027	84.56
240.26	70.56
240.494	83.56
240.728	84.56
240.961	65.56
241.195	80.56
241.429	70.56
241.662	75.56
241.896	74.56
242.13	72.56
242.363	65.56
242.597	85.56
242.83	77.56
243.064	69.56
243.298	72.56
243.531	86.56
243.765	79.56
243.998	75.56
244.232	89.56
244.465	74.56
244.699	87.56
244.932	77.56
245.166	85.56
245.399	85.56
245.633	74.56
245.866	64.56
246.099	79.56
246.333	68.56
246.566	84.56
246.8	70.56
247.033	76.56
247.266	66.56
247.5	73.56
247.733	70.56
247.966	81.56
248.2	70.56
248.433	72.56
248.666	73.56
248.899	84.56
249.133	73.56
249.366	85.56
249.599	71.56
249.832	65.56
250.066	81.56
250.299	84.56
250.532	81.56
250.765	88.56
250.998	80.56
251.231	85.56
251.465	77.56
251.698	72.56
251.931	85.56
252.164	86.56
252.397	63.56
252.63	87.56
252.863	91.56
253.096	71.56
253.329	85.56
253.562	85.56
253.795	74.56
254.028	85.56
254.261	80.56
254.494	81.56
254.727	85.56
254.96	80.56
255.193	83.56
255.426	86.56
255.659	70.56
255.892	89.56
256.124	81.56
256.357	71.56
256.59	79.56
256.823	78.56
257.056	82.56
257.289	82.56
257.521	62.56
257.754	76.56
257.987	83.56
258.22	94.56
258.452	87.56
258.685	89.56
258.918	83.56
259.151	81.56
259.383	76.56
259.616	80.56
259.849	78.56
260.081	86.56
260.314	75.56
260.547	76.56
260.779	95.56
261.012	88.56
261.244	83.56
261.477	91.56
261.71	78.56
261.942	88.56
262.175	85.56
262.407	78.56
262.64	84.56
262.872	85.56
263.105	83.56
263.337	87.56
263.57	83.56
263.802	68.56
264.035	71.56
264.267	84.56
264.499	69.56
264.732	87.56
264.964	90.56
265.197	80.56
265.429	72.56
265.661	85.56
265.894	86.56
266.126	90.56
266.358	83.56
266.591	83.56
266.823	97.56
267.055	95.56
267.287	88.56
267.52	84.56
267.752	83.56
267.984	85.56
268.216	70.56
268.448	73.56
268.681	79.56
268.913	83.56
269.145	87.56
269.377	85.56
269.609	89.56
269.841	82.56
270.073	86.56
270.306	78.56
270.538	87.56
270.77	90.56
271.002	101.56
271.234	83.56
271.466	79.56
271.698	79.56
271.93	89.56
272.162	86.56
272.394	80.56
272.626	79.56
272.858	85.56
273.09	82.56
273.322	83.56
273.553	83.56
273.785	96.56
274.017	92.56
274.249	77.56
274.481	83.56
274.713	91.56
274.945	99.56
275.176	84.56
275.408	70.56
275.64	85.56
275.872	75.56
276.104	91.56
276.335	87.56
276.567	70.56
276.799	76.56
277.031	93.56
277.262	73.56
277.494	91.56
277.726	85.56
277.957	83.56
278.189	85.56
278.421	86.56
278.652	90.56
278.884	96.56
279.115	82.56
279.347	86.56
279.579	90.56
279.81	82.56
280.042	78.56
280.273	81.56
280.505	84.56
280.736	75.56
280.968	101.56
281.199	93.56
281.431	98.56
281.662	81.56
281.894	74.56
282.125	93.56
282.356	78.56
282.588	82.56
282.819	85.56
283.051	87.56
283.282	86.56
283.513	96.56
283.745	67.56
283.976	76.56
284.207	76.56
284.439	81.56
284.67	92.56
284.901	78.56
285.132	80.56
285.364	74.56
285.595	79.56
285.826	89.56
286.057	84.56
286.288	88.56
286.52	92.56
286.751	91.56
286.982	78.56
287.213	84.56
287.444	83.56
287.675	83.56
287.906	84.56
288.138	89.56
288.369	100.56
288.6	86.56
288.831	82.56
289.062	90.56
289.293	89.56
289.524	81.56
289.755	91.56
289.986	81.56
290.217	73.56
290.448	84.56
290.679	94.56
290.91	91.56
291.141	76.56
291.371	87.56
291.602	87.56
291.833	96.56
292.064	89.56
292.295	81.56
292.526	87.56
292.757	77.56
292.987	83.56
293.218	88.56
293.449	87.56
293.68	88.56
293.91	73.56
294.141	91.56
294.372	76.56
294.603	78.56
294.833	94.56
295.064	86.56
295.295	68.56
295.525	85.56
295.756	82.56
295.987	97.56
296.217	87.56
296.448	96.56
296.679	87.56
296.909	89.56
297.14	72.56
297.37	98.56
297.601	85.56
297.831	91.56
298.062	74.56
298.292	82.56
298.523	78.56
298.753	85.56
298.984	87.56
299.214	93.56
299.445	96.56
299.675	88.56
299.905	97.56
300.136	82.56
300.366	82.56
300.597	94.56
300.827	91.56
301.057	73.56
301.288	82.56
301.518	86.56
301.748	91.56
301.979	72.56
302.209	91.56
302.439	83.56
302.669	80.56
302.9	92.56
303.13	86.56
303.36	91.56
303.59	82.56
303.82	86.56
304.051	90.56
304.281	85.56
304.511	90.56
304.741	77.56
304.971	73.56
305.201	83.56
305.431	79.56
305.661	94.56
305.891	93.56
306.121	79.56
306.352	79.56
306.582	85.56
306.812	83.56
307.042	89.56
307.272	95.56
307.502	75.56
307.731	86.56
307.961	89.56
308.191	95.56
308.421	82.56
308.651	85.56
308.881	86.56
309.111	87.56
309.341	83.56
309.571	83.56
309.8	82.56
310.03	80.56
310.26	75.56
310.49	87.56
310.72	92.56
310.949	85.56
311.179	90.56
311.409	75.56
311.639	72.56
311.868	91.56
312.098	99.56
312.328	84.56
312.557	87.56
312.787	93.56
313.017	87.56
313.246	91.56
313.476	78.56
313.706	84.56
313.935	85.56
314.165	85.56
314.394	90.56
314.624	74.56
314.853	93.56
315.083	79.56
315.312	84.56
315.542	75.56
315.771	102.56
316.001	88.56
316.23	90.56
316.46	87.56
316.689	81.56
316.919	80.56
317.148	85.56
317.377	92.56
317.607	98.56
317.836	86.56
318.065	93.56
318.295	79.56
318.524	94.56
318.753	92.56
318.983	100.56
319.212	75.56
319.441	79.56
319.67	82.56
319.9	81.56
320.129	84.56
320.358	86.56
320.587	84.56
320.816	76.56
321.046	71.56
321.275	85.56
321.504	83.56
321.733	87.56
321.962	86.56
322.191	91.56
322.42	97.56
322.649	79.56
322.878	79.56
323.108	86.56
323.337	80.56
323.566	87.56
323.795	89.56
324.024	93.56
324.253	79.56
324.482	95.56
324.71	84.56
324.939	84.56
325.168	84.56
325.397	81.56
325.626	87.56
325.855	87.56
326.084	100.56
326.313	85.56
326.542	88.56
326.77	96.56
326.999	81.56
327.228	76.56
327.457	78.56
327.686	87.56
327.914	75.56
328.143	89.56
328.372	90.56
328.6	77.56
328.829	84.56
329.058	83.56
329.287	80.56
329.515	86.56
329.744	79.56
329.972	91.56
330.201	102.56
330.43	90.56
330.658	86.56
330.887	86.56
331.115	91.56
331.344	78.56
331.572	86.56
331.801	77.56
332.03	97.56
332.258	76.56
332.486	81.56
332.715	79.56
332.943	88.56
333.172	101.56
333.4	73.56
333.629	77.56
333.857	73.56
334.085	75.56
334.314	81.56
334.542	91.56
334.771	89.56
334.999	90.56
335.227	69.56
335.455	81.56
335.684	88.56
335.912	85.56
336.14	78.56
336.369	83.56
336.597	86.56
336.825	82.56
337.053	86.56
337.281	87.56
337.51	87.56
337.738	84.56
337.966	89.56
338.194	81.56
338.422	85.56
338.65	85.56
338.878	88.56
339.106	74.56
339.334	82.56
339.562	86.56
339.79	82.56
340.018	92.56
340.246	73.56
340.474	84.56
340.702	76.56
340.93	80.56
341.158	78.56
341.386	91.56
341.614	67.56
341.842	77.56
342.07	88.56
342.298	97.56
342.526	88.56
342.754	85.56
342.981	84.56
343.209	84.56
343.437	82.56
343.665	82.56
343.893	80.56
344.12	93.56
344.348	63.56
344.576	79.56
344.804	83.56
345.031	75.56
345.259	73.56
345.487	90.56
345.714	78.56
345.942	76.56
346.17	82.56
346.397	99.56
346.625	82.56
346.853	77.56
347.08	84.56
347.308	99.56
347.535	91.56
347.763	87.56
347.99	93.56
348.218	90.56
348.445	105.56
348.673	83.56
348.9	81.56
349.128	93.56
349.355	95.56
349.583	91.56
349.81	88.56
350.037	96.56
350.265	85.56
350.492	86.56
350.72	92.56
350.947	72.56
351.174	88.56
351.402	81.56
351.629	94.56
351.856	83.56
352.083	78.56
352.311	76.56
352.538	77.56
352.765	75.56
352.992	81.56
353.22	84.56
353.447	98.56
353.674	103.56
353.901	88.56
354.128	84.56
354.355	88.56
354.583	89.56
354.81	82.56
355.037	94.56
355.264	77.56
355.491	81.56
355.718	78.56
355.945	83.56
356.172	73.56
356.399	88.56
356.626	90.56
356.853	71.56
357.08	79.56
357.307	82.56
357.534	79.56
357.761	79.56
357.988	95.56
358.215	106.56
358.441	79.56
358.668	78.56
358.895	77.56
359.122	89.56
359.349	78.56
359.576	65.56
359.802	80.56
360.029	78.56
360.256	73.56
360.483	82.56
360.709	78.56
360.936	80.56
361.163	90.56
361.39	91.56
361.616	93.56
361.843	81.56
362.07	70.56
362.296	91.56
362.523	88.56
362.749	89.56
362.976	75.56
363.203	95.56
363.429	88.56
363.656	87.56
363.882	79.56
364.109	81.56
364.335	92.56
364.562	84.56
364.788	76.56
365.015	85.56
365.241	77.56
365.468	80.56
365.694	89.56
365.92	85.56
366.147	86.56
366.373	74.56
366.599	78.56
366.826	84.56
367.052	75.56
367.278	89.56
367.505	79.56
367.731	71.56
367.957	90.56
368.184	84.56
368.41	77.56
368.636	97.56
368.862	99.56
369.089	79.56
369.315	95.56
369.541	94.56
369.767	96.56
369.993	88.56
370.219	82.56
370.445	82.56
370.672	86.56
370.898	88.56
371.124	98.56
371.35	85.56
371.576	85.56
371.802	86.56
372.028	87.56
372.254	103.56
372.48	98.56
372.706	107.56
372.932	72.56
373.158	89.56
373.384	98.56
373.61	90.56
373.835	75.56
374.061	89.56
374.287	95.56
374.513	88.56
374.739	90.56
374.965	105.56
375.191	88.56
375.416	88.56
375.642	89.56
375.868	76.56
376.094	79.56
376.319	94.56
376.545	76.56
376.771	78.56
376.997	97.56
377.222	78.56
377.448	101.56
377.674	96.56
377.899	99.56
378.125	92.56
378.35	103.56
378.576	87.56
378.802	95.56
379.027	102.56
379.253	92.56
379.478	99.56
379.704	95.56
379.929	88.56
380.155	90.56
380.38	91.56
380.606	90.56
380.831	83.56
381.057	92.56
381.282	94.56
381.507	98.56
381.733	87.56
381.958	83.56
382.184	108.56
382.409	85.56
382.634	92.56
382.86	89.56
383.085	96.56
383.31	90.56
383.535	94.56
383.761	90.56
383.986	107.56
384.211	85.56
384.436	98.56
384.662	84.56
384.887	100.56
385.112	97.56
385.337	94.56
385.562	106.56
385.787	101.56
386.013	86.56
386.238	93.56
386.463	95.56
386.688	97.56
386.913	102.56
387.138	85.56
387.363	94.56
387.588	109.56
387.813	93.56
388.038	90.56
388.263	102.56
388.488	107.56
388.713	100.56
388.938	94.56
389.163	85.56
389.387	108.56
389.612	86.56
389.837	89.56
390.062	103.56
390.287	101.56
390.512	115.56
390.736	110.56
390.961	87.56
391.186	103.56
391.411	101.56
391.636	117.56
391.86	115.56
392.085	95.56
392.31	96.56
392.534	98.56
392.759	110.56
392.984	109.56
393.208	114.56
393.433	100.56
393.658	105.56
393.882	107.56
394.107	96.56
394.331	108.56
394.556	114.56
394.78	104.56
395.005	103.56
395.229	110.56
395.454	108.56
395.678	106.56
395.903	98.56
396.127	112.56
396.352	109.56
396.576	115.56
396.801	90.56
397.025	118.56
397.249	114.56
397.474	114.56
397.698	100.56
397.922	117.56
398.147	107.56
398.371	108.56
398.595	118.56
398.82	107.56
399.044	123.56
399.268	106.56
399.492	106.56
399.717	116.56
399.941	97.56
400.165	98.56
400.389	114.56
400.613	117.56
400.837	106.56
401.062	119.56
401.286	109.56
401.51	100.56
401.734	114.56
401.958	89.56
402.182	113.56
402.406	106.56
402.63	120.56
402.854	109.56
403.078	121.56
403.302	98.56
403.526	99.56
403.75	115.56
403.974	125.56
404.198	111.56
404.422	104.56
404.645	121.56
404.869	110.56
405.093	115.56
405.317	121.56
405.541	106.56
405.765	120.56
405.988	119.56
406.212	115.56
406.436	119.56
406.66	114.56
406.883	114.56
407.107	124.56
407.331	121.56
407.555	111.56
407.778	111.56
408.002	106.56
408.226	120.56
408.449	103.56
408.673	108.56
408.896	96.56
409.12	111.56
409.344	129.56
409.567	123.56
409.791	121.56
410.014	118.56
410.238	125.56
410.461	133.56
410.685	133.56
410.908	105.56
411.132	126.56
411.355	133.56
411.578	128.56
411.802	119.56
412.025	122.56
412.249	133.56
412.472	106.56
412.695	114.56
412.919	121.56
413.142	112.56
413.365	117.56
413.589	126.56
413.812	125.56
414.035	110.56
414.258	125.56
414.482	115.56
414.705	111.56
414.928	124.56
415.151	113.56
415.374	107.56
415.597	107.56
415.821	122.56
416.044	124.56
416.267	130.56
416.49	115.56
416.713	124.56
416.936	117.56
417.159	118.56
417.382	116.56
417.605	117.56
417.828	134.56
418.051	133.56
418.274	127.56
418.497	125.56
418.72	114.56
418.943	137.56
419.166	138.56
419.389	128.56
419.611	135.56
419.834	138.56
420.057	141.56
420.28	133.56
420.503	140.56
420.726	138.56
420.948	126.56
421.171	130.56
421.394	128.56
421.617	153.56
421.839	131.56
422.062	132.56
422.285	138.56
422.507	137.56
422.73	119.56
422.953	142.56
423.175	140.56
423.398	129.56
423.621	146.56
423.843	136.56
424.066	138.56
424.288	125.56
424.511	138.56
424.733	147.56
424.956	149.56
425.178	136.56
425.401	139.56
425.623	143.56
425.846	145.56
426.068	132.56
426.291	104.56
426.513	138.56
426.735	134.56
426.958	133.56
427.18	131.56
427.402	137.56
427.625	134.56
427.847	125.56
428.069	131.56
428.292	127.56
428.514	127.56
428.736	120.56
428.958	127.56
429.181	126.56
429.403	125.56
429.625	125.56
429.847	133.56
430.069	120.56
430.292	122.56
430.514	119.56
430.736	124.56
430.958	114.56
431.18	110.56
431.402	137.56
431.624	109.56
431.846	111.56
432.068	107.56
432.29	84.56
432.512	113.56
432.734	110.56
432.956	131.56
433.178	144.56
433.4	144.56
433.622	140.56
433.844	123.56
434.066	113.56
434.287	108.56
434.509	96.56
434.731	100.56
434.953	106.56
435.175	124.56
435.397	123.56
435.618	109.56
435.84	105.56
436.062	114.56
436.284	117.56
436.505	129.56
436.727	137.56
436.949	135.56
437.17	126.56
437.392	120.56
437.614	118.56
437.835	116.56
438.057	118.56
438.278	101.56
438.5	119.56
438.721	129.56
438.943	129.56
439.165	122.56
439.386	128.56
439.608	137.56
439.829	140.56
440.05	134.56
440.272	137.56
440.493	125.56
440.715	142.56
440.936	150.56
441.158	133.56
441.379	131.56
441.6	136.56
441.822	141.56
442.043	143.56
442.264	141.56
442.486	137.56
442.707	131.56
442.928	150.56
443.149	135.56
443.371	127.56
443.592	123.56
443.813	133.56
444.034	140.56
444.255	126.56
444.476	140.56
444.698	148.56
444.919	151.56
445.14	250.56
445.361	179.56
445.582	151.56
445.803	145.56
446.024	146.56
446.245	145.56
446.466	150.56
446.687	152.56
446.908	157.56
447.129	150.56
447.35	155.56
447.571	162.56
447.792	139.56
448.013	136.56
448.234	139.56
448.455	132.56
448.675	142.56
448.896	135.56
449.117	130.56
449.338	124.56
449.559	133.56
449.779	124.56
450	117.56
450.221	141.56
450.442	135.56
450.662	126.56
450.883	135.56
451.104	149.56
451.324	142.56
451.545	127.56
451.766	127.56
451.986	122.56
452.207	124.56
452.428	134.56
452.648	117.56
452.869	114.56
453.089	122.56
453.31	90.56
453.53	106.56
453.751	123.56
453.971	114.56
454.192	108.56
454.412	115.56
454.633	117.56
454.853	118.56
455.073	125.56
455.294	110.56
455.514	116.56
455.734	115.56
455.955	115.56
456.175	98.56
456.395	112.56
456.616	117.56
456.836	102.56
457.056	107.56
457.276	104.56
457.497	99.56
457.717	107.56
457.937	115.56
458.157	109.56
458.377	109.56
458.598	99.56
458.818	91.56
459.038	91.56
459.258	83.56
459.478	77.56
459.698	79.56
459.918	87.56
460.138	109.56
460.358	94.56
460.578	113.56
460.798	121.56
461.018	125.56
461.238	105.56
461.458	117.56
461.678	99.56
461.898	113.56
462.118	108.56
462.338	106.56
462.558	107.56
462.777	122.56
462.997	107.56
463.217	119.56
463.437	126.56
463.657	103.56
463.876	101.56
464.096	104.56
464.316	114.56
464.536	106.56
464.755	123.56
464.975	103.56
465.195	125.56
465.414	116.56
465.634	113.56
465.854	123.56
466.073	131.56
466.293	135.56
466.512	127.56
466.732	122.56
466.951	130.56
467.171	126.56
467.391	127.56
467.61	132.56
467.829	133.56
468.049	145.56
468.268	133.56
468.488	141.56
468.707	122.56
468.927	137.56
469.146	138.56
469.365	134.56
469.585	138.56
469.804	144.56
470.023	131.56
470.243	140.56
470.462	157.56
470.681	123.56
470.901	122.56
471.12	144.56
471.339	144.56
471.558	138.56
471.777	135.56
471.997	134.56
472.216	129.56
472.435	115.56
472.654	92.56
472.873	109.56
473.092	112.56
473.311	124.56
473.53	125.56
473.749	124.56
473.968	122.56
474.187	114.56
474.406	111.56
474.625	127.56
474.844	127.56
475.063	109.56
475.282	123.56
475.501	101.56
475.72	121.56
475.939	125.56
476.158	122.56
476.377	133.56
476.596	133.56
476.814	117.56
477.033	102.56
477.252	104.56
477.471	117.56
477.69	136.56
477.908	132.56
478.127	139.56
478.346	144.56
478.564	131.56
478.783	135.56
479.002	116.56
479.22	129.56
479.439	128.56
479.658	127.56
479.876	121.56
480.095	107.56
480.313	116.56
480.532	127.56
480.751	126.56
480.969	99.56
481.188	89.56
481.406	106.56
481.624	86.56
481.843	97.56
482.061	106.56
482.28	104.56
482.498	114.56
482.717	119.56
482.935	125.56
483.153	140.56
483.372	155.56
483.59	155.56
483.808	143.56
484.027	139.56
484.245	148.56
484.463	167.56
484.681	157.56
484.9	151.56
485.118	145.56
485.336	120.56
485.554	110.56
485.772	98.56
485.99	105.56
486.209	100.56
486.427	104.56
486.645	121.56
486.863	129.56
487.081	142.56
487.299	138.56
487.517	132.56
487.735	172.56
487.953	192.56
488.171	191.56
488.389	172.56
488.607	143.56
488.825	138.56
489.043	134.56
489.261	108.56
489.479	124.56
489.696	146.56
489.914	137.56
490.132	138.56
490.35	135.56
490.568	150.56
490.786	153.56
491.003	165.56
491.221	177.56
491.439	193.56
491.657	191.56
491.874	194.56
492.092	219.56
492.31	238.56
492.527	228.56
492.745	209.56
492.963	191.56
493.18	180.56
493.398	206.56
493.615	177.56
493.833	169.56
494.05	177.56
494.268	171.56
494.485	169.56
494.703	171.56
494.92	170.56
495.138	166.56
495.355	176.56
495.573	179.56
495.79	172.56
496.008	177.56
496.225	161.56
496.442	166.56
496.66	184.56
496.877	166.56
497.094	147.56
497.312	159.56
497.529	148.56
497.746	154.56
497.963	142.56
498.181	119.56
498.398	131.56
498.615	115.56
498.832	116.56
499.049	118.56
499.267	109.56
499.484	119.56
499.701	141.56
499.918	147.56
500.135	138.56
500.352	134.56
500.569	134.56
500.786	160.56
501.003	158.56
501.22	139.56
501.437	135.56
501.654	121.56
501.871	120.56
502.088	135.56
502.305	136.56
502.522	127.56
502.739	150.56
502.956	125.56
503.172	123.56
503.389	112.56
503.606	117.56
503.823	126.56
504.04	122.56
504.256	117.56
504.473	121.56
504.69	96.56
504.907	99.56
505.123	119.56
505.34	121.56
505.557	132.56
505.773	121.56
505.99	103.56
506.207	134.56
506.423	123.56
506.64	115.56
506.856	108.56
507.073	121.56
507.289	123.56
507.506	126.56
507.722	117.56
507.939	115.56
508.155	130.56
508.372	122.56
508.588	107.56
508.805	112.56
509.021	106.56
509.238	105.56
509.454	108.56
509.67	93.56
509.887	92.56
510.103	92.56
510.319	92.56
510.536	97.56
510.752	94.56
510.968	95.56
511.184	80.56
511.401	81.56
511.617	86.56
511.833	93.56
