Data from Location1.07152019.Energy5.Lamp.07192019.3%Agarose_HRD10591_14-30-40-015.txt Node
Date: Fri Jul 19 14:30:40 EDT 2019
User: cochatt
Spectrometer: HR+D1059
Trigger mode: 1
Integration Time (sec): 1.000000E-1
Scans to average: 1
Electric dark correction enabled: true
Nonlinearity correction enabled: false
Boxcar width: 0
XAxis mode: Wavelengths
Number of Pixels in Spectrum: 2048
>>>>>Begin Spectral Data<<<<<
223.165	-20.94
223.4	-20.94
223.635	-20.94
223.869	-19.94
224.104	-16.94
224.338	-13.94
224.573	-26.94
224.808	-20.94
225.042	-8.94
225.277	2.06
225.511	0.06
225.746	9.06
225.98	19.06
226.215	4.06
226.449	19.06
226.683	20.06
226.918	31.06
227.152	24.06
227.387	52.06
227.621	37.06
227.856	50.06
228.09	50.06
228.324	49.06
228.559	59.06
228.793	59.06
229.027	73.06
229.262	69.06
229.496	63.06
229.73	77.06
229.964	70.06
230.199	88.06
230.433	80.06
230.667	84.06
230.901	80.06
231.136	83.06
231.37	78.06
231.604	76.06
231.838	87.06
232.072	97.06
232.306	83.06
232.541	69.06
232.775	78.06
233.009	89.06
233.243	93.06
233.477	94.06
233.711	86.06
233.945	80.06
234.179	93.06
234.413	79.06
234.647	69.06
234.881	78.06
235.115	83.06
235.349	71.06
235.583	79.06
235.817	85.06
236.051	83.06
236.285	94.06
236.519	75.06
236.753	78.06
236.987	77.06
237.221	78.06
237.455	97.06
237.689	86.06
237.922	70.06
238.156	83.06
238.39	74.06
238.624	75.06
238.858	82.06
239.091	92.06
239.325	69.06
239.559	73.06
239.793	73.06
240.027	74.06
240.26	73.06
240.494	81.06
240.728	82.06
240.961	90.06
241.195	95.06
241.429	76.06
241.662	66.06
241.896	77.06
242.13	82.06
242.363	77.06
242.597	78.06
242.83	72.06
243.064	77.06
243.298	83.06
243.531	89.06
243.765	95.06
243.998	96.06
244.232	72.06
244.465	78.06
244.699	95.06
244.932	78.06
245.166	81.06
245.399	71.06
245.633	71.06
245.866	82.06
246.099	77.06
246.333	89.06
246.566	76.06
246.8	67.06
247.033	80.06
247.266	87.06
247.5	73.06
247.733	75.06
247.966	74.06
248.2	75.06
248.433	88.06
248.666	82.06
248.899	61.06
249.133	74.06
249.366	76.06
249.599	75.06
249.832	89.06
250.066	93.06
250.299	93.06
250.532	90.06
250.765	81.06
250.998	93.06
251.231	85.06
251.465	87.06
251.698	73.06
251.931	75.06
252.164	75.06
252.397	73.06
252.63	88.06
252.863	105.06
253.096	89.06
253.329	81.06
253.562	76.06
253.795	80.06
254.028	69.06
254.261	88.06
254.494	93.06
254.727	93.06
254.96	100.06
255.193	87.06
255.426	73.06
255.659	79.06
255.892	88.06
256.124	83.06
256.357	79.06
256.59	83.06
256.823	79.06
257.056	94.06
257.289	75.06
257.521	77.06
257.754	82.06
257.987	90.06
258.22	92.06
258.452	103.06
258.685	93.06
258.918	94.06
259.151	79.06
259.383	89.06
259.616	71.06
259.849	83.06
260.081	87.06
260.314	92.06
260.547	96.06
260.779	85.06
261.012	105.06
261.244	93.06
261.477	86.06
261.71	92.06
261.942	84.06
262.175	73.06
262.407	77.06
262.64	98.06
262.872	80.06
263.105	92.06
263.337	93.06
263.57	87.06
263.802	83.06
264.035	90.06
264.267	79.06
264.499	103.06
264.732	80.06
264.964	83.06
265.197	75.06
265.429	85.06
265.661	91.06
265.894	82.06
266.126	79.06
266.358	99.06
266.591	87.06
266.823	86.06
267.055	103.06
267.287	80.06
267.52	79.06
267.752	88.06
267.984	96.06
268.216	87.06
268.448	85.06
268.681	95.06
268.913	88.06
269.145	87.06
269.377	76.06
269.609	79.06
269.841	84.06
270.073	94.06
270.306	92.06
270.538	91.06
270.77	90.06
271.002	82.06
271.234	76.06
271.466	77.06
271.698	83.06
271.93	88.06
272.162	88.06
272.394	89.06
272.626	90.06
272.858	95.06
273.09	83.06
273.322	78.06
273.553	85.06
273.785	83.06
274.017	69.06
274.249	89.06
274.481	72.06
274.713	99.06
274.945	73.06
275.176	88.06
275.408	80.06
275.64	83.06
275.872	83.06
276.104	82.06
276.335	88.06
276.567	97.06
276.799	92.06
277.031	88.06
277.262	82.06
277.494	101.06
277.726	81.06
277.957	84.06
278.189	93.06
278.421	102.06
278.652	85.06
278.884	92.06
279.115	100.06
279.347	95.06
279.579	89.06
279.81	88.06
280.042	95.06
280.273	84.06
280.505	83.06
280.736	87.06
280.968	92.06
281.199	96.06
281.431	105.06
281.662	84.06
281.894	85.06
282.125	82.06
282.356	81.06
282.588	83.06
282.819	78.06
283.051	78.06
283.282	89.06
283.513	96.06
283.745	96.06
283.976	96.06
284.207	86.06
284.439	85.06
284.67	95.06
284.901	104.06
285.132	95.06
285.364	101.06
285.595	104.06
285.826	90.06
286.057	87.06
286.288	103.06
286.52	83.06
286.751	92.06
286.982	90.06
287.213	77.06
287.444	78.06
287.675	88.06
287.906	89.06
288.138	81.06
288.369	90.06
288.6	69.06
288.831	78.06
289.062	96.06
289.293	87.06
289.524	101.06
289.755	92.06
289.986	63.06
290.217	80.06
290.448	82.06
290.679	88.06
290.91	90.06
291.141	81.06
291.371	85.06
291.602	91.06
291.833	94.06
292.064	82.06
292.295	86.06
292.526	97.06
292.757	92.06
292.987	81.06
293.218	81.06
293.449	94.06
293.68	70.06
293.91	81.06
294.141	90.06
294.372	80.06
294.603	91.06
294.833	82.06
295.064	81.06
295.295	84.06
295.525	80.06
295.756	98.06
295.987	98.06
296.217	84.06
296.448	87.06
296.679	82.06
296.909	97.06
297.14	82.06
297.37	97.06
297.601	84.06
297.831	72.06
298.062	94.06
298.292	90.06
298.523	86.06
298.753	90.06
298.984	94.06
299.214	93.06
299.445	86.06
299.675	93.06
299.905	97.06
300.136	89.06
300.366	79.06
300.597	72.06
300.827	85.06
301.057	79.06
301.288	93.06
301.518	92.06
301.748	92.06
301.979	82.06
302.209	94.06
302.439	86.06
302.669	87.06
302.9	94.06
303.13	76.06
303.36	78.06
303.59	102.06
303.82	79.06
304.051	75.06
304.281	88.06
304.511	88.06
304.741	80.06
304.971	82.06
305.201	89.06
305.431	82.06
305.661	88.06
305.891	79.06
306.121	96.06
306.352	84.06
306.582	84.06
306.812	98.06
307.042	94.06
307.272	95.06
307.502	84.06
307.731	93.06
307.961	84.06
308.191	92.06
308.421	83.06
308.651	71.06
308.881	75.06
309.111	94.06
309.341	77.06
309.571	94.06
309.8	85.06
310.03	91.06
310.26	83.06
310.49	92.06
310.72	83.06
310.949	82.06
311.179	82.06
311.409	84.06
311.639	85.06
311.868	91.06
312.098	84.06
312.328	80.06
312.557	81.06
312.787	85.06
313.017	94.06
313.246	87.06
313.476	87.06
313.706	77.06
313.935	92.06
314.165	93.06
314.394	83.06
314.624	89.06
314.853	94.06
315.083	80.06
315.312	83.06
315.542	90.06
315.771	98.06
316.001	91.06
316.23	84.06
316.46	87.06
316.689	91.06
316.919	87.06
317.148	89.06
317.377	93.06
317.607	92.06
317.836	80.06
318.065	93.06
318.295	85.06
318.524	90.06
318.753	95.06
318.983	86.06
319.212	76.06
319.441	83.06
319.67	94.06
319.9	87.06
320.129	76.06
320.358	79.06
320.587	94.06
320.816	88.06
321.046	88.06
321.275	89.06
321.504	82.06
321.733	94.06
321.962	89.06
322.191	87.06
322.42	93.06
322.649	88.06
322.878	78.06
323.108	94.06
323.337	95.06
323.566	95.06
323.795	90.06
324.024	95.06
324.253	80.06
324.482	65.06
324.71	90.06
324.939	104.06
325.168	101.06
325.397	101.06
325.626	82.06
325.855	88.06
326.084	81.06
326.313	97.06
326.542	84.06
326.77	94.06
326.999	101.06
327.228	99.06
327.457	101.06
327.686	93.06
327.914	82.06
328.143	97.06
328.372	84.06
328.6	97.06
328.829	75.06
329.058	78.06
329.287	90.06
329.515	76.06
329.744	91.06
329.972	88.06
330.201	83.06
330.43	83.06
330.658	87.06
330.887	76.06
331.115	83.06
331.344	79.06
331.572	88.06
331.801	97.06
332.03	84.06
332.258	81.06
332.486	96.06
332.715	82.06
332.943	90.06
333.172	98.06
333.4	101.06
333.629	87.06
333.857	87.06
334.085	84.06
334.314	88.06
334.542	92.06
334.771	90.06
334.999	95.06
335.227	89.06
335.455	91.06
335.684	75.06
335.912	87.06
336.14	88.06
336.369	87.06
336.597	85.06
336.825	90.06
337.053	85.06
337.281	83.06
337.51	83.06
337.738	81.06
337.966	95.06
338.194	95.06
338.422	90.06
338.65	90.06
338.878	101.06
339.106	90.06
339.334	110.06
339.562	87.06
339.79	94.06
340.018	83.06
340.246	99.06
340.474	73.06
340.702	84.06
340.93	100.06
341.158	100.06
341.386	85.06
341.614	78.06
341.842	84.06
342.07	81.06
342.298	96.06
342.526	72.06
342.754	83.06
342.981	80.06
343.209	88.06
343.437	91.06
343.665	87.06
343.893	82.06
344.12	83.06
344.348	94.06
344.576	79.06
344.804	94.06
345.031	77.06
345.259	83.06
345.487	78.06
345.714	97.06
345.942	81.06
346.17	90.06
346.397	81.06
346.625	88.06
346.853	89.06
347.08	93.06
347.308	82.06
347.535	97.06
347.763	77.06
347.99	89.06
348.218	82.06
348.445	78.06
348.673	91.06
348.9	94.06
349.128	80.06
349.355	85.06
349.583	86.06
349.81	83.06
350.037	83.06
350.265	80.06
350.492	83.06
350.72	93.06
350.947	91.06
351.174	77.06
351.402	88.06
351.629	101.06
351.856	94.06
352.083	106.06
352.311	85.06
352.538	89.06
352.765	98.06
352.992	74.06
353.22	80.06
353.447	85.06
353.674	91.06
353.901	88.06
354.128	86.06
354.355	81.06
354.583	85.06
354.81	105.06
355.037	87.06
355.264	84.06
355.491	91.06
355.718	73.06
355.945	87.06
356.172	77.06
356.399	87.06
356.626	83.06
356.853	94.06
357.08	86.06
357.307	90.06
357.534	100.06
357.761	91.06
357.988	81.06
358.215	75.06
358.441	80.06
358.668	70.06
358.895	86.06
359.122	94.06
359.349	96.06
359.576	91.06
359.802	83.06
360.029	107.06
360.256	89.06
360.483	90.06
360.709	72.06
360.936	98.06
361.163	99.06
361.39	87.06
361.616	83.06
361.843	93.06
362.07	109.06
362.296	83.06
362.523	83.06
362.749	83.06
362.976	83.06
363.203	95.06
363.429	69.06
363.656	88.06
363.882	102.06
364.109	109.06
364.335	90.06
364.562	80.06
364.788	78.06
365.015	88.06
365.241	98.06
365.468	99.06
365.694	83.06
365.92	90.06
366.147	92.06
366.373	80.06
366.599	87.06
366.826	89.06
367.052	101.06
367.278	101.06
367.505	87.06
367.731	88.06
367.957	91.06
368.184	101.06
368.41	96.06
368.636	78.06
368.862	87.06
369.089	81.06
369.315	84.06
369.541	92.06
369.767	95.06
369.993	104.06
370.219	95.06
370.445	107.06
370.672	114.06
370.898	95.06
371.124	81.06
371.35	96.06
371.576	89.06
371.802	101.06
372.028	81.06
372.254	93.06
372.48	77.06
372.706	91.06
372.932	86.06
373.158	93.06
373.384	91.06
373.61	81.06
373.835	87.06
374.061	86.06
374.287	89.06
374.513	102.06
374.739	101.06
374.965	87.06
375.191	99.06
375.416	82.06
375.642	91.06
375.868	98.06
376.094	103.06
376.319	89.06
376.545	84.06
376.771	100.06
376.997	91.06
377.222	83.06
377.448	83.06
377.674	88.06
377.899	83.06
378.125	89.06
378.35	97.06
378.576	99.06
378.802	96.06
379.027	95.06
379.253	111.06
379.478	94.06
379.704	97.06
379.929	93.06
380.155	94.06
380.38	82.06
380.606	77.06
380.831	93.06
381.057	111.06
381.282	98.06
381.507	114.06
381.733	109.06
381.958	106.06
382.184	82.06
382.409	103.06
382.634	120.06
382.86	98.06
383.085	94.06
383.31	103.06
383.535	102.06
383.761	106.06
383.986	113.06
384.211	108.06
384.436	86.06
384.662	87.06
384.887	92.06
385.112	111.06
385.337	95.06
385.562	102.06
385.787	96.06
386.013	101.06
386.238	107.06
386.463	104.06
386.688	102.06
386.913	107.06
387.138	109.06
387.363	107.06
387.588	118.06
387.813	106.06
388.038	95.06
388.263	101.06
388.488	97.06
388.713	107.06
388.938	90.06
389.163	100.06
389.387	96.06
389.612	98.06
389.837	101.06
390.062	104.06
390.287	110.06
390.512	119.06
390.736	106.06
390.961	123.06
391.186	98.06
391.411	105.06
391.636	120.06
391.86	111.06
392.085	108.06
392.31	99.06
392.534	112.06
392.759	108.06
392.984	113.06
393.208	102.06
393.433	114.06
393.658	107.06
393.882	121.06
394.107	108.06
394.331	123.06
394.556	118.06
394.78	105.06
395.005	105.06
395.229	102.06
395.454	109.06
395.678	115.06
395.903	97.06
396.127	103.06
396.352	108.06
396.576	109.06
396.801	117.06
397.025	98.06
397.249	114.06
397.474	120.06
397.698	119.06
397.922	102.06
398.147	117.06
398.371	105.06
398.595	119.06
398.82	123.06
399.044	117.06
399.268	118.06
399.492	125.06
399.717	111.06
399.941	109.06
400.165	113.06
400.389	125.06
400.613	111.06
400.837	109.06
401.062	110.06
401.286	117.06
401.51	93.06
401.734	111.06
401.958	108.06
402.182	117.06
402.406	122.06
402.63	103.06
402.854	121.06
403.078	106.06
403.302	124.06
403.526	111.06
403.75	119.06
403.974	125.06
404.198	119.06
404.422	105.06
404.645	122.06
404.869	107.06
405.093	117.06
405.317	112.06
405.541	119.06
405.765	137.06
405.988	115.06
406.212	95.06
406.436	133.06
406.66	127.06
406.883	109.06
407.107	111.06
407.331	124.06
407.555	115.06
407.778	118.06
408.002	122.06
408.226	122.06
408.449	124.06
408.673	105.06
408.896	114.06
409.12	124.06
409.344	125.06
409.567	113.06
409.791	113.06
410.014	121.06
410.238	122.06
410.461	122.06
410.685	137.06
410.908	129.06
411.132	117.06
411.355	126.06
411.578	137.06
411.802	121.06
412.025	117.06
412.249	121.06
412.472	111.06
412.695	115.06
412.919	119.06
413.142	126.06
413.365	126.06
413.589	132.06
413.812	122.06
414.035	114.06
414.258	125.06
414.482	118.06
414.705	127.06
414.928	126.06
415.151	131.06
415.374	103.06
415.597	147.06
415.821	130.06
416.044	130.06
416.267	110.06
416.49	135.06
416.713	114.06
416.936	129.06
417.159	133.06
417.382	126.06
417.605	129.06
417.828	126.06
418.051	119.06
418.274	134.06
418.497	137.06
418.72	137.06
418.943	141.06
419.166	147.06
419.389	122.06
419.611	126.06
419.834	129.06
420.057	136.06
420.28	122.06
420.503	125.06
420.726	127.06
420.948	123.06
421.171	133.06
421.394	142.06
421.617	142.06
421.839	142.06
422.062	138.06
422.285	133.06
422.507	127.06
422.73	130.06
422.953	135.06
423.175	135.06
423.398	132.06
423.621	146.06
423.843	137.06
424.066	127.06
424.288	134.06
424.511	150.06
424.733	141.06
424.956	151.06
425.178	142.06
425.401	157.06
425.623	130.06
425.846	128.06
426.068	137.06
426.291	134.06
426.513	117.06
426.735	124.06
426.958	120.06
427.18	139.06
427.402	137.06
427.625	130.06
427.847	137.06
428.069	131.06
428.292	124.06
428.514	135.06
428.736	119.06
428.958	123.06
429.181	138.06
429.403	121.06
429.625	126.06
429.847	136.06
430.069	130.06
430.292	139.06
430.514	115.06
430.736	127.06
430.958	127.06
431.18	123.06
431.402	135.06
431.624	121.06
431.846	114.06
432.068	115.06
432.29	102.06
432.512	109.06
432.734	119.06
432.956	130.06
433.178	142.06
433.4	136.06
433.622	141.06
433.844	141.06
434.066	126.06
434.287	130.06
434.509	103.06
434.731	101.06
434.953	125.06
435.175	117.06
435.397	129.06
435.618	118.06
435.84	108.06
436.062	123.06
436.284	131.06
436.505	134.06
436.727	132.06
436.949	125.06
437.17	122.06
437.392	126.06
437.614	136.06
437.835	119.06
438.057	111.06
438.278	120.06
438.5	114.06
438.721	127.06
438.943	149.06
439.165	151.06
439.386	142.06
439.608	157.06
439.829	135.06
440.05	143.06
440.272	141.06
440.493	146.06
440.715	154.06
440.936	137.06
441.158	145.06
441.379	150.06
441.6	143.06
441.822	147.06
442.043	163.06
442.264	141.06
442.486	134.06
442.707	133.06
442.928	144.06
443.149	130.06
443.371	139.06
443.592	131.06
443.813	129.06
444.034	152.06
444.255	147.06
444.476	138.06
444.698	132.06
444.919	141.06
445.14	250.06
445.361	211.06
445.582	159.06
445.803	155.06
446.024	155.06
446.245	157.06
446.466	145.06
446.687	151.06
446.908	149.06
447.129	158.06
447.35	169.06
447.571	156.06
447.792	158.06
448.013	147.06
448.234	139.06
448.455	146.06
448.675	149.06
448.896	137.06
449.117	149.06
449.338	137.06
449.559	148.06
449.779	138.06
450	157.06
450.221	135.06
450.442	137.06
450.662	127.06
450.883	125.06
451.104	132.06
451.324	134.06
451.545	138.06
451.766	125.06
451.986	136.06
452.207	134.06
452.428	147.06
452.648	133.06
452.869	153.06
453.089	125.06
453.31	105.06
453.53	109.06
453.751	117.06
453.971	122.06
454.192	117.06
454.412	117.06
454.633	101.06
454.853	129.06
455.073	104.06
455.294	130.06
455.514	130.06
455.734	135.06
455.955	117.06
456.175	130.06
456.395	107.06
456.616	112.06
456.836	104.06
457.056	131.06
457.276	116.06
457.497	104.06
457.717	115.06
457.937	112.06
458.157	107.06
458.377	105.06
458.598	107.06
458.818	109.06
459.038	105.06
459.258	95.06
459.478	100.06
459.698	93.06
459.918	103.06
460.138	122.06
460.358	127.06
460.578	108.06
460.798	105.06
461.018	110.06
461.238	106.06
461.458	115.06
461.678	111.06
461.898	112.06
462.118	115.06
462.338	127.06
462.558	128.06
462.777	117.06
462.997	105.06
463.217	129.06
463.437	116.06
463.657	117.06
463.876	108.06
464.096	125.06
464.316	125.06
464.536	111.06
464.755	110.06
464.975	120.06
465.195	105.06
465.414	115.06
465.634	107.06
465.854	105.06
466.073	112.06
466.293	136.06
466.512	125.06
466.732	140.06
466.951	137.06
467.171	146.06
467.391	134.06
467.61	125.06
467.829	133.06
468.049	132.06
468.268	141.06
468.488	125.06
468.707	143.06
468.927	142.06
469.146	143.06
469.365	130.06
469.585	147.06
469.804	148.06
470.023	135.06
470.243	139.06
470.462	134.06
470.681	149.06
470.901	135.06
471.12	141.06
471.339	131.06
471.558	149.06
471.777	135.06
471.997	139.06
472.216	118.06
472.435	120.06
472.654	110.06
472.873	109.06
473.092	135.06
473.311	123.06
473.53	136.06
473.749	122.06
473.968	135.06
474.187	119.06
474.406	127.06
474.625	128.06
474.844	119.06
475.063	129.06
475.282	127.06
475.501	126.06
475.72	115.06
475.939	122.06
476.158	129.06
476.377	145.06
476.596	133.06
476.814	117.06
477.033	112.06
477.252	105.06
477.471	128.06
477.69	134.06
477.908	151.06
478.127	145.06
478.346	139.06
478.564	128.06
478.783	145.06
479.002	138.06
479.22	131.06
479.439	148.06
479.658	120.06
479.876	111.06
480.095	104.06
480.313	111.06
480.532	115.06
480.751	119.06
480.969	103.06
481.188	109.06
481.406	103.06
481.624	87.06
481.843	100.06
482.061	105.06
482.28	124.06
482.498	97.06
482.717	122.06
482.935	121.06
483.153	138.06
483.372	155.06
483.59	148.06
483.808	133.06
484.027	127.06
484.245	138.06
484.463	167.06
484.681	156.06
484.9	173.06
485.118	151.06
485.336	128.06
485.554	127.06
485.772	99.06
485.99	101.06
486.209	106.06
486.427	112.06
486.645	126.06
486.863	138.06
487.081	135.06
487.299	118.06
487.517	145.06
487.735	166.06
487.953	194.06
488.171	174.06
488.389	175.06
488.607	158.06
488.825	145.06
489.043	141.06
489.261	135.06
489.479	150.06
489.696	146.06
489.914	155.06
490.132	153.06
490.35	151.06
490.568	160.06
490.786	151.06
491.003	169.06
491.221	170.06
491.439	181.06
491.657	183.06
491.874	210.06
492.092	222.06
492.31	237.06
492.527	220.06
492.745	207.06
492.963	184.06
493.18	183.06
493.398	170.06
493.615	162.06
493.833	166.06
494.05	164.06
494.268	171.06
494.485	168.06
494.703	169.06
494.92	189.06
495.138	181.06
495.355	170.06
495.573	167.06
495.79	174.06
496.008	171.06
496.225	183.06
496.442	153.06
496.66	181.06
496.877	160.06
497.094	160.06
497.312	173.06
497.529	158.06
497.746	141.06
497.963	146.06
498.181	125.06
498.398	125.06
498.615	122.06
498.832	113.06
499.049	117.06
499.267	117.06
499.484	136.06
499.701	147.06
499.918	147.06
500.135	140.06
500.352	146.06
500.569	146.06
500.786	154.06
501.003	141.06
501.22	148.06
501.437	127.06
501.654	138.06
501.871	139.06
502.088	127.06
502.305	130.06
502.522	139.06
502.739	133.06
502.956	139.06
503.172	122.06
503.389	109.06
503.606	129.06
503.823	118.06
504.04	114.06
504.256	123.06
504.473	131.06
504.69	122.06
504.907	134.06
505.123	120.06
505.34	121.06
505.557	127.06
505.773	138.06
505.99	125.06
506.207	120.06
506.423	127.06
506.64	124.06
506.856	129.06
507.073	131.06
507.289	117.06
507.506	118.06
507.722	119.06
507.939	112.06
508.155	124.06
508.372	111.06
508.588	121.06
508.805	127.06
509.021	113.06
509.238	119.06
509.454	92.06
509.67	98.06
509.887	98.06
510.103	93.06
510.319	100.06
510.536	93.06
510.752	94.06
