Data from Location1.07152019.Energy5.Lamp.07192019.3%Agarose_HRD10591_14-30-14-018.txt Node
Date: Fri Jul 19 14:30:14 EDT 2019
User: cochatt
Spectrometer: HR+D1059
Trigger mode: 1
Integration Time (sec): 1.000000E-1
Scans to average: 1
Electric dark correction enabled: true
Nonlinearity correction enabled: false
Boxcar width: 0
XAxis mode: Wavelengths
Number of Pixels in Spectrum: 2048
>>>>>Begin Spectral Data<<<<<
223.165	-14.25
223.4	-14.25
223.635	-14.25
223.869	-20.25
224.104	-25.25
224.338	-17.25
224.573	-25.25
224.808	-18.25
225.042	-13.25
225.277	5.75
225.511	7.75
225.746	13.75
225.98	8.75
226.215	6.75
226.449	25.75
226.683	25.75
226.918	20.75
227.152	18.75
227.387	32.75
227.621	50.75
227.856	38.75
228.09	50.75
228.324	41.75
228.559	49.75
228.793	46.75
229.027	52.75
229.262	66.75
229.496	81.75
229.73	64.75
229.964	77.75
230.199	74.75
230.433	81.75
230.667	70.75
230.901	83.75
231.136	84.75
231.37	89.75
231.604	94.75
231.838	75.75
232.072	77.75
232.306	97.75
232.541	101.75
232.775	86.75
233.009	82.75
233.243	77.75
233.477	87.75
233.711	90.75
233.945	91.75
234.179	78.75
234.413	84.75
234.647	72.75
234.881	92.75
235.115	79.75
235.349	82.75
235.583	88.75
235.817	79.75
236.051	80.75
236.285	82.75
236.519	95.75
236.753	95.75
236.987	75.75
237.221	82.75
237.455	82.75
237.689	79.75
237.922	77.75
238.156	73.75
238.39	92.75
238.624	88.75
238.858	75.75
239.091	80.75
239.325	69.75
239.559	81.75
239.793	76.75
240.027	86.75
240.26	85.75
240.494	62.75
240.728	71.75
240.961	65.75
241.195	73.75
241.429	78.75
241.662	84.75
241.896	73.75
242.13	84.75
242.363	78.75
242.597	80.75
242.83	74.75
243.064	73.75
243.298	84.75
243.531	64.75
243.765	77.75
243.998	80.75
244.232	96.75
244.465	73.75
244.699	83.75
244.932	79.75
245.166	75.75
245.399	88.75
245.633	89.75
245.866	82.75
246.099	77.75
246.333	73.75
246.566	80.75
246.8	75.75
247.033	73.75
247.266	71.75
247.5	71.75
247.733	82.75
247.966	93.75
248.2	82.75
248.433	86.75
248.666	84.75
248.899	88.75
249.133	96.75
249.366	80.75
249.599	94.75
249.832	83.75
250.066	77.75
250.299	77.75
250.532	89.75
250.765	80.75
250.998	72.75
251.231	78.75
251.465	80.75
251.698	75.75
251.931	85.75
252.164	80.75
252.397	84.75
252.63	84.75
252.863	93.75
253.096	78.75
253.329	84.75
253.562	79.75
253.795	72.75
254.028	70.75
254.261	88.75
254.494	80.75
254.727	88.75
254.96	81.75
255.193	71.75
255.426	88.75
255.659	84.75
255.892	80.75
256.124	85.75
256.357	84.75
256.59	66.75
256.823	76.75
257.056	77.75
257.289	71.75
257.521	83.75
257.754	81.75
257.987	77.75
258.22	98.75
258.452	82.75
258.685	76.75
258.918	76.75
259.151	91.75
259.383	81.75
259.616	77.75
259.849	81.75
260.081	73.75
260.314	83.75
260.547	77.75
260.779	90.75
261.012	88.75
261.244	68.75
261.477	87.75
261.71	81.75
261.942	79.75
262.175	72.75
262.407	78.75
262.64	90.75
262.872	99.75
263.105	103.75
263.337	87.75
263.57	102.75
263.802	77.75
264.035	88.75
264.267	94.75
264.499	89.75
264.732	70.75
264.964	66.75
265.197	92.75
265.429	76.75
265.661	84.75
265.894	76.75
266.126	86.75
266.358	81.75
266.591	91.75
266.823	80.75
267.055	81.75
267.287	77.75
267.52	93.75
267.752	80.75
267.984	89.75
268.216	82.75
268.448	77.75
268.681	71.75
268.913	88.75
269.145	75.75
269.377	78.75
269.609	86.75
269.841	74.75
270.073	92.75
270.306	78.75
270.538	86.75
270.77	88.75
271.002	67.75
271.234	77.75
271.466	91.75
271.698	92.75
271.93	77.75
272.162	89.75
272.394	87.75
272.626	82.75
272.858	78.75
273.09	81.75
273.322	78.75
273.553	88.75
273.785	94.75
274.017	98.75
274.249	77.75
274.481	82.75
274.713	88.75
274.945	72.75
275.176	75.75
275.408	82.75
275.64	83.75
275.872	92.75
276.104	85.75
276.335	73.75
276.567	65.75
276.799	87.75
277.031	86.75
277.262	95.75
277.494	89.75
277.726	88.75
277.957	92.75
278.189	112.75
278.421	87.75
278.652	81.75
278.884	89.75
279.115	81.75
279.347	71.75
279.579	92.75
279.81	86.75
280.042	97.75
280.273	82.75
280.505	89.75
280.736	78.75
280.968	86.75
281.199	90.75
281.431	82.75
281.662	91.75
281.894	86.75
282.125	86.75
282.356	82.75
282.588	78.75
282.819	86.75
283.051	80.75
283.282	81.75
283.513	96.75
283.745	69.75
283.976	84.75
284.207	95.75
284.439	76.75
284.67	92.75
284.901	84.75
285.132	89.75
285.364	81.75
285.595	87.75
285.826	84.75
286.057	88.75
286.288	96.75
286.52	81.75
286.751	90.75
286.982	82.75
287.213	76.75
287.444	80.75
287.675	85.75
287.906	76.75
288.138	79.75
288.369	87.75
288.6	85.75
288.831	88.75
289.062	75.75
289.293	82.75
289.524	93.75
289.755	75.75
289.986	85.75
290.217	88.75
290.448	78.75
290.679	97.75
290.91	96.75
291.141	86.75
291.371	89.75
291.602	82.75
291.833	77.75
292.064	100.75
292.295	82.75
292.526	80.75
292.757	85.75
292.987	100.75
293.218	86.75
293.449	80.75
293.68	84.75
293.91	74.75
294.141	105.75
294.372	87.75
294.603	81.75
294.833	84.75
295.064	78.75
295.295	84.75
295.525	96.75
295.756	85.75
295.987	75.75
296.217	81.75
296.448	85.75
296.679	80.75
296.909	98.75
297.14	85.75
297.37	92.75
297.601	98.75
297.831	73.75
298.062	85.75
298.292	86.75
298.523	78.75
298.753	89.75
298.984	94.75
299.214	82.75
299.445	89.75
299.675	107.75
299.905	88.75
300.136	90.75
300.366	93.75
300.597	86.75
300.827	93.75
301.057	87.75
301.288	90.75
301.518	91.75
301.748	93.75
301.979	89.75
302.209	82.75
302.439	88.75
302.669	97.75
302.9	89.75
303.13	96.75
303.36	103.75
303.59	77.75
303.82	82.75
304.051	110.75
304.281	85.75
304.511	87.75
304.741	92.75
304.971	84.75
305.201	92.75
305.431	91.75
305.661	96.75
305.891	90.75
306.121	85.75
306.352	86.75
306.582	78.75
306.812	75.75
307.042	82.75
307.272	75.75
307.502	79.75
307.731	86.75
307.961	85.75
308.191	93.75
308.421	86.75
308.651	77.75
308.881	88.75
309.111	91.75
309.341	90.75
309.571	86.75
309.8	81.75
310.03	100.75
310.26	92.75
310.49	79.75
310.72	84.75
310.949	94.75
311.179	94.75
311.409	87.75
311.639	86.75
311.868	86.75
312.098	90.75
312.328	89.75
312.557	91.75
312.787	91.75
313.017	94.75
313.246	82.75
313.476	81.75
313.706	82.75
313.935	76.75
314.165	76.75
314.394	78.75
314.624	81.75
314.853	92.75
315.083	83.75
315.312	92.75
315.542	84.75
315.771	86.75
316.001	94.75
316.23	86.75
316.46	88.75
316.689	89.75
316.919	82.75
317.148	100.75
317.377	100.75
317.607	107.75
317.836	74.75
318.065	72.75
318.295	85.75
318.524	88.75
318.753	82.75
318.983	93.75
319.212	68.75
319.441	86.75
319.67	102.75
319.9	82.75
320.129	81.75
320.358	90.75
320.587	79.75
320.816	78.75
321.046	89.75
321.275	86.75
321.504	80.75
321.733	78.75
321.962	84.75
322.191	87.75
322.42	99.75
322.649	85.75
322.878	71.75
323.108	89.75
323.337	83.75
323.566	83.75
323.795	88.75
324.024	81.75
324.253	79.75
324.482	92.75
324.71	88.75
324.939	97.75
325.168	84.75
325.397	72.75
325.626	80.75
325.855	84.75
326.084	84.75
326.313	86.75
326.542	86.75
326.77	99.75
326.999	90.75
327.228	88.75
327.457	87.75
327.686	103.75
327.914	88.75
328.143	88.75
328.372	95.75
328.6	102.75
328.829	96.75
329.058	81.75
329.287	80.75
329.515	82.75
329.744	86.75
329.972	81.75
330.201	91.75
330.43	91.75
330.658	82.75
330.887	90.75
331.115	92.75
331.344	88.75
331.572	98.75
331.801	86.75
332.03	98.75
332.258	87.75
332.486	92.75
332.715	88.75
332.943	97.75
333.172	106.75
333.4	81.75
333.629	86.75
333.857	90.75
334.085	80.75
334.314	84.75
334.542	76.75
334.771	80.75
334.999	85.75
335.227	89.75
335.455	102.75
335.684	88.75
335.912	78.75
336.14	84.75
336.369	82.75
336.597	82.75
336.825	103.75
337.053	81.75
337.281	78.75
337.51	66.75
337.738	92.75
337.966	88.75
338.194	87.75
338.422	94.75
338.65	71.75
338.878	87.75
339.106	89.75
339.334	88.75
339.562	89.75
339.79	99.75
340.018	86.75
340.246	83.75
340.474	87.75
340.702	93.75
340.93	96.75
341.158	90.75
341.386	82.75
341.614	76.75
341.842	99.75
342.07	85.75
342.298	78.75
342.526	89.75
342.754	95.75
342.981	82.75
343.209	72.75
343.437	84.75
343.665	91.75
343.893	86.75
344.12	94.75
344.348	80.75
344.576	93.75
344.804	86.75
345.031	80.75
345.259	78.75
345.487	86.75
345.714	86.75
345.942	93.75
346.17	85.75
346.397	74.75
346.625	80.75
346.853	80.75
347.08	83.75
347.308	100.75
347.535	82.75
347.763	79.75
347.99	85.75
348.218	75.75
348.445	83.75
348.673	106.75
348.9	90.75
349.128	86.75
349.355	86.75
349.583	91.75
349.81	88.75
350.037	89.75
350.265	78.75
350.492	81.75
350.72	87.75
350.947	80.75
351.174	92.75
351.402	78.75
351.629	92.75
351.856	84.75
352.083	83.75
352.311	86.75
352.538	81.75
352.765	76.75
352.992	84.75
353.22	84.75
353.447	92.75
353.674	91.75
353.901	105.75
354.128	93.75
354.355	84.75
354.583	85.75
354.81	87.75
355.037	86.75
355.264	86.75
355.491	76.75
355.718	77.75
355.945	95.75
356.172	75.75
356.399	84.75
356.626	78.75
356.853	78.75
357.08	87.75
357.307	100.75
357.534	97.75
357.761	96.75
357.988	88.75
358.215	81.75
358.441	88.75
358.668	93.75
358.895	95.75
359.122	77.75
359.349	93.75
359.576	68.75
359.802	86.75
360.029	86.75
360.256	85.75
360.483	89.75
360.709	94.75
360.936	94.75
361.163	89.75
361.39	88.75
361.616	85.75
361.843	88.75
362.07	73.75
362.296	87.75
362.523	91.75
362.749	87.75
362.976	99.75
363.203	71.75
363.429	81.75
363.656	82.75
363.882	88.75
364.109	87.75
364.335	92.75
364.562	78.75
364.788	79.75
365.015	89.75
365.241	80.75
365.468	92.75
365.694	89.75
365.92	85.75
366.147	92.75
366.373	97.75
366.599	101.75
366.826	87.75
367.052	88.75
367.278	74.75
367.505	93.75
367.731	92.75
367.957	81.75
368.184	83.75
368.41	71.75
368.636	76.75
368.862	88.75
369.089	92.75
369.315	94.75
369.541	97.75
369.767	81.75
369.993	95.75
370.219	97.75
370.445	98.75
370.672	78.75
370.898	93.75
371.124	91.75
371.35	92.75
371.576	94.75
371.802	91.75
372.028	87.75
372.254	97.75
372.48	90.75
372.706	78.75
372.932	93.75
373.158	81.75
373.384	100.75
373.61	91.75
373.835	98.75
374.061	90.75
374.287	93.75
374.513	80.75
374.739	96.75
374.965	90.75
375.191	72.75
375.416	99.75
375.642	95.75
375.868	105.75
376.094	103.75
376.319	87.75
376.545	90.75
376.771	92.75
376.997	97.75
377.222	98.75
377.448	101.75
377.674	90.75
377.899	87.75
378.125	95.75
378.35	91.75
378.576	85.75
378.802	89.75
379.027	93.75
379.253	106.75
379.478	90.75
379.704	92.75
379.929	95.75
380.155	90.75
380.38	97.75
380.606	109.75
380.831	89.75
381.057	101.75
381.282	101.75
381.507	100.75
381.733	109.75
381.958	93.75
382.184	98.75
382.409	106.75
382.634	105.75
382.86	109.75
383.085	105.75
383.31	103.75
383.535	102.75
383.761	94.75
383.986	92.75
384.211	100.75
384.436	99.75
384.662	106.75
384.887	103.75
385.112	93.75
385.337	97.75
385.562	103.75
385.787	104.75
386.013	116.75
386.238	108.75
386.463	88.75
386.688	113.75
386.913	102.75
387.138	108.75
387.363	111.75
387.588	115.75
387.813	103.75
388.038	100.75
388.263	98.75
388.488	91.75
388.713	104.75
388.938	109.75
389.163	116.75
389.387	120.75
389.612	119.75
389.837	108.75
390.062	94.75
390.287	97.75
390.512	94.75
390.736	112.75
390.961	83.75
391.186	93.75
391.411	100.75
391.636	109.75
391.86	110.75
392.085	107.75
392.31	109.75
392.534	107.75
392.759	119.75
392.984	110.75
393.208	90.75
393.433	98.75
393.658	106.75
393.882	109.75
394.107	86.75
394.331	102.75
394.556	107.75
394.78	119.75
395.005	96.75
395.229	103.75
395.454	105.75
395.678	93.75
395.903	110.75
396.127	108.75
396.352	113.75
396.576	102.75
396.801	121.75
397.025	106.75
397.249	108.75
397.474	101.75
397.698	106.75
397.922	125.75
398.147	102.75
398.371	100.75
398.595	128.75
398.82	124.75
399.044	107.75
399.268	104.75
399.492	120.75
399.717	107.75
399.941	110.75
400.165	102.75
400.389	106.75
400.613	109.75
400.837	120.75
401.062	126.75
401.286	124.75
401.51	127.75
401.734	95.75
401.958	114.75
402.182	110.75
402.406	112.75
402.63	109.75
402.854	116.75
403.078	113.75
403.302	114.75
403.526	118.75
403.75	109.75
403.974	116.75
404.198	102.75
404.422	122.75
404.645	124.75
404.869	107.75
405.093	118.75
405.317	117.75
405.541	122.75
405.765	125.75
405.988	130.75
406.212	111.75
406.436	118.75
406.66	111.75
406.883	116.75
407.107	124.75
407.331	132.75
407.555	120.75
407.778	116.75
408.002	118.75
408.226	119.75
408.449	116.75
408.673	129.75
408.896	119.75
409.12	116.75
409.344	118.75
409.567	124.75
409.791	119.75
410.014	133.75
410.238	117.75
410.461	117.75
410.685	130.75
410.908	118.75
411.132	129.75
411.355	122.75
411.578	122.75
411.802	125.75
412.025	116.75
412.249	113.75
412.472	105.75
412.695	119.75
412.919	120.75
413.142	121.75
413.365	124.75
413.589	107.75
413.812	112.75
414.035	116.75
414.258	117.75
414.482	121.75
414.705	120.75
414.928	117.75
415.151	122.75
415.374	125.75
415.597	119.75
415.821	121.75
416.044	128.75
416.267	130.75
416.49	118.75
416.713	124.75
416.936	131.75
417.159	130.75
417.382	125.75
417.605	129.75
417.828	122.75
418.051	120.75
418.274	138.75
418.497	127.75
418.72	122.75
418.943	129.75
419.166	127.75
419.389	142.75
419.611	123.75
419.834	128.75
420.057	134.75
420.28	120.75
420.503	136.75
420.726	140.75
420.948	126.75
421.171	130.75
421.394	133.75
421.617	143.75
421.839	141.75
422.062	138.75
422.285	136.75
422.507	143.75
422.73	148.75
422.953	130.75
423.175	120.75
423.398	142.75
423.621	129.75
423.843	127.75
424.066	132.75
424.288	140.75
424.511	157.75
424.733	129.75
424.956	146.75
425.178	142.75
425.401	136.75
425.623	145.75
425.846	131.75
426.068	130.75
426.291	128.75
426.513	109.75
426.735	138.75
426.958	136.75
427.18	135.75
427.402	132.75
427.625	137.75
427.847	132.75
428.069	134.75
428.292	139.75
428.514	132.75
428.736	119.75
428.958	144.75
429.181	140.75
429.403	128.75
429.625	107.75
429.847	138.75
430.069	133.75
430.292	124.75
430.514	129.75
430.736	137.75
430.958	113.75
431.18	120.75
431.402	134.75
431.624	127.75
431.846	117.75
432.068	94.75
432.29	98.75
432.512	119.75
432.734	109.75
432.956	136.75
433.178	136.75
433.4	140.75
433.622	136.75
433.844	142.75
434.066	117.75
434.287	116.75
434.509	116.75
434.731	105.75
434.953	120.75
435.175	126.75
435.397	129.75
435.618	129.75
435.84	113.75
436.062	125.75
436.284	122.75
436.505	142.75
436.727	134.75
436.949	132.75
437.17	121.75
437.392	116.75
437.614	121.75
437.835	124.75
438.057	107.75
438.278	108.75
438.5	121.75
438.721	124.75
438.943	148.75
439.165	130.75
439.386	130.75
439.608	151.75
439.829	132.75
440.05	152.75
440.272	140.75
440.493	141.75
440.715	135.75
440.936	149.75
441.158	128.75
441.379	136.75
441.6	146.75
441.822	136.75
442.043	135.75
442.264	142.75
442.486	145.75
442.707	143.75
442.928	143.75
443.149	132.75
443.371	149.75
443.592	136.75
443.813	124.75
444.034	129.75
444.255	129.75
444.476	129.75
444.698	149.75
444.919	146.75
445.14	276.75
445.361	202.75
445.582	158.75
445.803	147.75
446.024	144.75
446.245	150.75
446.466	148.75
446.687	146.75
446.908	152.75
447.129	172.75
447.35	161.75
447.571	154.75
447.792	159.75
448.013	125.75
448.234	153.75
448.455	141.75
448.675	158.75
448.896	145.75
449.117	138.75
449.338	135.75
449.559	144.75
449.779	139.75
450	130.75
450.221	142.75
450.442	135.75
450.662	127.75
450.883	153.75
451.104	132.75
451.324	128.75
451.545	127.75
451.766	122.75
451.986	131.75
452.207	130.75
452.428	127.75
452.648	129.75
452.869	134.75
453.089	118.75
453.31	105.75
453.53	101.75
453.751	106.75
453.971	96.75
454.192	90.75
454.412	101.75
454.633	128.75
454.853	127.75
455.073	143.75
455.294	122.75
455.514	121.75
455.734	114.75
455.955	120.75
456.175	113.75
456.395	113.75
456.616	98.75
456.836	119.75
457.056	103.75
457.276	92.75
457.497	107.75
457.717	104.75
457.937	102.75
458.157	116.75
458.377	118.75
458.598	94.75
458.818	93.75
459.038	101.75
459.258	88.75
459.478	89.75
459.698	93.75
459.918	94.75
460.138	113.75
460.358	119.75
460.578	117.75
460.798	109.75
461.018	108.75
461.238	111.75
461.458	122.75
461.678	111.75
461.898	114.75
462.118	120.75
462.338	113.75
462.558	101.75
462.777	111.75
462.997	112.75
463.217	101.75
463.437	120.75
463.657	100.75
463.876	114.75
464.096	105.75
464.316	105.75
464.536	107.75
464.755	127.75
464.975	108.75
465.195	116.75
465.414	113.75
465.634	111.75
465.854	123.75
466.073	130.75
466.293	129.75
466.512	125.75
466.732	122.75
466.951	132.75
467.171	134.75
467.391	125.75
467.61	140.75
467.829	145.75
468.049	127.75
468.268	133.75
468.488	128.75
468.707	143.75
468.927	138.75
469.146	137.75
469.365	141.75
469.585	141.75
469.804	143.75
470.023	142.75
470.243	141.75
470.462	153.75
470.681	142.75
470.901	145.75
471.12	145.75
471.339	147.75
471.558	133.75
471.777	145.75
471.997	126.75
472.216	147.75
472.435	110.75
472.654	97.75
472.873	106.75
473.092	115.75
473.311	128.75
473.53	114.75
473.749	137.75
473.968	132.75
474.187	134.75
474.406	108.75
474.625	128.75
474.844	121.75
475.063	118.75
475.282	128.75
475.501	110.75
475.72	128.75
475.939	136.75
476.158	138.75
476.377	114.75
476.596	120.75
476.814	113.75
477.033	118.75
477.252	113.75
477.471	123.75
477.69	134.75
477.908	131.75
478.127	135.75
478.346	132.75
478.564	128.75
478.783	126.75
479.002	134.75
479.22	137.75
479.439	148.75
479.658	126.75
479.876	121.75
480.095	113.75
480.313	125.75
480.532	129.75
480.751	111.75
480.969	112.75
481.188	88.75
481.406	99.75
481.624	81.75
481.843	87.75
482.061	90.75
482.28	115.75
482.498	117.75
482.717	116.75
482.935	109.75
483.153	146.75
483.372	159.75
483.59	162.75
483.808	141.75
484.027	134.75
484.245	137.75
484.463	158.75
484.681	162.75
484.9	140.75
485.118	138.75
485.336	138.75
485.554	103.75
485.772	98.75
485.99	94.75
486.209	119.75
486.427	124.75
486.645	122.75
486.863	138.75
487.081	128.75
487.299	139.75
487.517	145.75
487.735	175.75
487.953	185.75
488.171	188.75
488.389	188.75
488.607	168.75
488.825	143.75
489.043	127.75
489.261	146.75
489.479	140.75
489.696	146.75
489.914	136.75
490.132	136.75
490.35	153.75
490.568	178.75
490.786	160.75
491.003	174.75
491.221	181.75
491.439	180.75
491.657	189.75
491.874	208.75
492.092	216.75
492.31	253.75
492.527	247.75
492.745	210.75
492.963	190.75
493.18	187.75
493.398	186.75
493.615	177.75
493.833	180.75
494.05	182.75
494.268	180.75
494.485	174.75
494.703	168.75
494.92	181.75
495.138	180.75
495.355	170.75
495.573	167.75
495.79	146.75
496.008	166.75
496.225	158.75
496.442	161.75
496.66	159.75
496.877	165.75
497.094	169.75
497.312	144.75
497.529	158.75
497.746	142.75
497.963	139.75
498.181	127.75
498.398	109.75
498.615	125.75
498.832	127.75
499.049	117.75
499.267	123.75
499.484	128.75
499.701	139.75
499.918	121.75
500.135	142.75
500.352	150.75
500.569	154.75
500.786	143.75
501.003	138.75
501.22	145.75
501.437	162.75
501.654	153.75
501.871	125.75
502.088	136.75
502.305	129.75
502.522	134.75
502.739	129.75
502.956	131.75
503.172	129.75
503.389	123.75
503.606	128.75
503.823	120.75
504.04	105.75
504.256	120.75
504.473	127.75
504.69	117.75
504.907	119.75
505.123	122.75
505.34	120.75
505.557	104.75
505.773	109.75
505.99	126.75
506.207	125.75
506.423	116.75
506.64	136.75
506.856	118.75
507.073	125.75
507.289	118.75
507.506	103.75
507.722	110.75
507.939	107.75
508.155	113.75
508.372	120.75
508.588	111.75
508.805	98.75
509.021	111.75
509.238	111.75
509.454	109.75
509.67	124.75
509.887	104.75
510.103	108.75
510.319	100.75
510.536	94.75
510.752	81.75
510.968	88.75
511.184	84.75
