Data from Location1.07152019.Energy5.Lamp.07192019.3%Agarose_HRD10591_14-31-20-015.txt Node
Date: Fri Jul 19 14:31:20 EDT 2019
User: cochatt
Spectrometer: HR+D1059
Trigger mode: 1
Integration Time (sec): 1.000000E-1
Scans to average: 1
Electric dark correction enabled: true
Nonlinearity correction enabled: false
Boxcar width: 0
XAxis mode: Wavelengths
Number of Pixels in Spectrum: 2048
>>>>>Begin Spectral Data<<<<<
223.165	-9.56
223.4	-9.56
223.635	-9.56
223.869	-18.56
224.104	-21.56
224.338	-6.56
224.573	-20.56
224.808	-18.56
225.042	-0.56
225.277	1.44
225.511	-10.56
225.746	-4.56
225.98	12.44
226.215	12.44
226.449	18.44
226.683	21.44
226.918	22.44
227.152	22.44
227.387	26.44
227.621	28.44
227.856	41.44
228.09	49.44
228.324	55.44
228.559	52.44
228.793	50.44
229.027	66.44
229.262	67.44
229.496	71.44
229.73	59.44
229.964	71.44
230.199	72.44
230.433	78.44
230.667	76.44
230.901	85.44
231.136	83.44
231.37	82.44
231.604	80.44
231.838	75.44
232.072	82.44
232.306	91.44
232.541	85.44
232.775	73.44
233.009	81.44
233.243	88.44
233.477	91.44
233.711	99.44
233.945	81.44
234.179	78.44
234.413	74.44
234.647	92.44
234.881	83.44
235.115	91.44
235.349	77.44
235.583	74.44
235.817	84.44
236.051	80.44
236.285	86.44
236.519	74.44
236.753	92.44
236.987	79.44
237.221	67.44
237.455	91.44
237.689	71.44
237.922	91.44
238.156	73.44
238.39	79.44
238.624	95.44
238.858	78.44
239.091	78.44
239.325	80.44
239.559	82.44
239.793	72.44
240.027	78.44
240.26	74.44
240.494	82.44
240.728	72.44
240.961	76.44
241.195	82.44
241.429	84.44
241.662	58.44
241.896	77.44
242.13	76.44
242.363	78.44
242.597	63.44
242.83	75.44
243.064	86.44
243.298	68.44
243.531	76.44
243.765	78.44
243.998	63.44
244.232	80.44
244.465	67.44
244.699	77.44
244.932	77.44
245.166	86.44
245.399	86.44
245.633	84.44
245.866	62.44
246.099	89.44
246.333	89.44
246.566	80.44
246.8	75.44
247.033	84.44
247.266	87.44
247.5	86.44
247.733	91.44
247.966	97.44
248.2	99.44
248.433	92.44
248.666	72.44
248.899	79.44
249.133	77.44
249.366	89.44
249.599	70.44
249.832	74.44
250.066	84.44
250.299	81.44
250.532	87.44
250.765	75.44
250.998	83.44
251.231	82.44
251.465	76.44
251.698	85.44
251.931	75.44
252.164	92.44
252.397	83.44
252.63	90.44
252.863	69.44
253.096	83.44
253.329	82.44
253.562	92.44
253.795	82.44
254.028	90.44
254.261	72.44
254.494	71.44
254.727	80.44
254.96	77.44
255.193	67.44
255.426	69.44
255.659	78.44
255.892	85.44
256.124	83.44
256.357	83.44
256.59	84.44
256.823	67.44
257.056	75.44
257.289	83.44
257.521	82.44
257.754	77.44
257.987	78.44
258.22	82.44
258.452	88.44
258.685	88.44
258.918	70.44
259.151	82.44
259.383	77.44
259.616	71.44
259.849	71.44
260.081	84.44
260.314	87.44
260.547	81.44
260.779	82.44
261.012	81.44
261.244	93.44
261.477	87.44
261.71	87.44
261.942	85.44
262.175	65.44
262.407	78.44
262.64	73.44
262.872	77.44
263.105	81.44
263.337	85.44
263.57	61.44
263.802	74.44
264.035	77.44
264.267	84.44
264.499	75.44
264.732	84.44
264.964	71.44
265.197	78.44
265.429	87.44
265.661	81.44
265.894	75.44
266.126	70.44
266.358	82.44
266.591	87.44
266.823	84.44
267.055	76.44
267.287	81.44
267.52	74.44
267.752	84.44
267.984	81.44
268.216	78.44
268.448	83.44
268.681	101.44
268.913	79.44
269.145	93.44
269.377	73.44
269.609	88.44
269.841	84.44
270.073	84.44
270.306	75.44
270.538	79.44
270.77	83.44
271.002	75.44
271.234	87.44
271.466	85.44
271.698	88.44
271.93	83.44
272.162	65.44
272.394	92.44
272.626	89.44
272.858	78.44
273.09	93.44
273.322	87.44
273.553	85.44
273.785	78.44
274.017	71.44
274.249	86.44
274.481	88.44
274.713	84.44
274.945	81.44
275.176	74.44
275.408	79.44
275.64	87.44
275.872	64.44
276.104	83.44
276.335	84.44
276.567	78.44
276.799	78.44
277.031	74.44
277.262	81.44
277.494	81.44
277.726	86.44
277.957	83.44
278.189	69.44
278.421	83.44
278.652	77.44
278.884	81.44
279.115	90.44
279.347	77.44
279.579	87.44
279.81	91.44
280.042	90.44
280.273	87.44
280.505	77.44
280.736	83.44
280.968	75.44
281.199	82.44
281.431	90.44
281.662	79.44
281.894	82.44
282.125	81.44
282.356	89.44
282.588	91.44
282.819	62.44
283.051	81.44
283.282	90.44
283.513	93.44
283.745	85.44
283.976	89.44
284.207	79.44
284.439	84.44
284.67	83.44
284.901	76.44
285.132	88.44
285.364	90.44
285.595	92.44
285.826	78.44
286.057	75.44
286.288	62.44
286.52	82.44
286.751	108.44
286.982	85.44
287.213	98.44
287.444	83.44
287.675	99.44
287.906	83.44
288.138	86.44
288.369	71.44
288.6	81.44
288.831	78.44
289.062	86.44
289.293	79.44
289.524	85.44
289.755	77.44
289.986	86.44
290.217	84.44
290.448	88.44
290.679	90.44
290.91	89.44
291.141	89.44
291.371	90.44
291.602	91.44
291.833	79.44
292.064	81.44
292.295	85.44
292.526	87.44
292.757	85.44
292.987	84.44
293.218	91.44
293.449	87.44
293.68	92.44
293.91	93.44
294.141	77.44
294.372	72.44
294.603	85.44
294.833	94.44
295.064	87.44
295.295	86.44
295.525	89.44
295.756	93.44
295.987	83.44
296.217	87.44
296.448	87.44
296.679	92.44
296.909	83.44
297.14	88.44
297.37	77.44
297.601	89.44
297.831	78.44
298.062	90.44
298.292	80.44
298.523	76.44
298.753	80.44
298.984	87.44
299.214	87.44
299.445	82.44
299.675	68.44
299.905	83.44
300.136	66.44
300.366	79.44
300.597	90.44
300.827	95.44
301.057	104.44
301.288	87.44
301.518	91.44
301.748	87.44
301.979	67.44
302.209	86.44
302.439	72.44
302.669	86.44
302.9	83.44
303.13	78.44
303.36	81.44
303.59	80.44
303.82	74.44
304.051	85.44
304.281	109.44
304.511	80.44
304.741	83.44
304.971	70.44
305.201	98.44
305.431	98.44
305.661	88.44
305.891	87.44
306.121	80.44
306.352	75.44
306.582	85.44
306.812	80.44
307.042	92.44
307.272	90.44
307.502	89.44
307.731	86.44
307.961	85.44
308.191	87.44
308.421	78.44
308.651	91.44
308.881	76.44
309.111	82.44
309.341	89.44
309.571	95.44
309.8	80.44
310.03	75.44
310.26	90.44
310.49	85.44
310.72	97.44
310.949	96.44
311.179	85.44
311.409	75.44
311.639	84.44
311.868	96.44
312.098	93.44
312.328	84.44
312.557	82.44
312.787	91.44
313.017	78.44
313.246	88.44
313.476	87.44
313.706	80.44
313.935	89.44
314.165	67.44
314.394	88.44
314.624	76.44
314.853	89.44
315.083	94.44
315.312	89.44
315.542	100.44
315.771	88.44
316.001	84.44
316.23	83.44
316.46	80.44
316.689	88.44
316.919	94.44
317.148	74.44
317.377	87.44
317.607	100.44
317.836	91.44
318.065	84.44
318.295	94.44
318.524	91.44
318.753	91.44
318.983	91.44
319.212	92.44
319.441	87.44
319.67	94.44
319.9	98.44
320.129	73.44
320.358	89.44
320.587	90.44
320.816	97.44
321.046	94.44
321.275	79.44
321.504	73.44
321.733	81.44
321.962	89.44
322.191	96.44
322.42	87.44
322.649	94.44
322.878	90.44
323.108	95.44
323.337	98.44
323.566	81.44
323.795	77.44
324.024	85.44
324.253	89.44
324.482	75.44
324.71	100.44
324.939	91.44
325.168	87.44
325.397	76.44
325.626	76.44
325.855	91.44
326.084	76.44
326.313	90.44
326.542	82.44
326.77	89.44
326.999	88.44
327.228	71.44
327.457	98.44
327.686	86.44
327.914	89.44
328.143	88.44
328.372	79.44
328.6	87.44
328.829	82.44
329.058	94.44
329.287	92.44
329.515	94.44
329.744	91.44
329.972	75.44
330.201	89.44
330.43	76.44
330.658	89.44
330.887	89.44
331.115	88.44
331.344	89.44
331.572	83.44
331.801	94.44
332.03	85.44
332.258	92.44
332.486	92.44
332.715	71.44
332.943	87.44
333.172	82.44
333.4	90.44
333.629	66.44
333.857	87.44
334.085	86.44
334.314	85.44
334.542	74.44
334.771	85.44
334.999	84.44
335.227	85.44
335.455	98.44
335.684	77.44
335.912	78.44
336.14	77.44
336.369	99.44
336.597	81.44
336.825	77.44
337.053	78.44
337.281	89.44
337.51	78.44
337.738	93.44
337.966	91.44
338.194	82.44
338.422	70.44
338.65	90.44
338.878	91.44
339.106	84.44
339.334	97.44
339.562	76.44
339.79	84.44
340.018	76.44
340.246	76.44
340.474	82.44
340.702	98.44
340.93	97.44
341.158	77.44
341.386	88.44
341.614	91.44
341.842	92.44
342.07	75.44
342.298	86.44
342.526	81.44
342.754	73.44
342.981	58.44
343.209	90.44
343.437	92.44
343.665	93.44
343.893	72.44
344.12	86.44
344.348	79.44
344.576	77.44
344.804	85.44
345.031	81.44
345.259	92.44
345.487	79.44
345.714	102.44
345.942	83.44
346.17	91.44
346.397	80.44
346.625	73.44
346.853	85.44
347.08	79.44
347.308	95.44
347.535	86.44
347.763	83.44
347.99	82.44
348.218	87.44
348.445	75.44
348.673	84.44
348.9	87.44
349.128	88.44
349.355	95.44
349.583	91.44
349.81	86.44
350.037	80.44
350.265	77.44
350.492	79.44
350.72	77.44
350.947	90.44
351.174	74.44
351.402	89.44
351.629	89.44
351.856	75.44
352.083	85.44
352.311	102.44
352.538	88.44
352.765	90.44
352.992	75.44
353.22	78.44
353.447	86.44
353.674	83.44
353.901	69.44
354.128	88.44
354.355	87.44
354.583	95.44
354.81	93.44
355.037	73.44
355.264	85.44
355.491	87.44
355.718	98.44
355.945	82.44
356.172	76.44
356.399	89.44
356.626	93.44
356.853	86.44
357.08	75.44
357.307	83.44
357.534	88.44
357.761	80.44
357.988	97.44
358.215	85.44
358.441	79.44
358.668	85.44
358.895	84.44
359.122	80.44
359.349	84.44
359.576	78.44
359.802	86.44
360.029	82.44
360.256	77.44
360.483	92.44
360.709	93.44
360.936	78.44
361.163	79.44
361.39	93.44
361.616	84.44
361.843	75.44
362.07	82.44
362.296	88.44
362.523	88.44
362.749	83.44
362.976	74.44
363.203	86.44
363.429	83.44
363.656	71.44
363.882	78.44
364.109	85.44
364.335	83.44
364.562	81.44
364.788	79.44
365.015	84.44
365.241	82.44
365.468	89.44
365.694	71.44
365.92	89.44
366.147	86.44
366.373	89.44
366.599	78.44
366.826	96.44
367.052	72.44
367.278	83.44
367.505	91.44
367.731	78.44
367.957	88.44
368.184	79.44
368.41	84.44
368.636	98.44
368.862	90.44
369.089	84.44
369.315	89.44
369.541	80.44
369.767	95.44
369.993	99.44
370.219	87.44
370.445	92.44
370.672	78.44
370.898	83.44
371.124	100.44
371.35	79.44
371.576	95.44
371.802	82.44
372.028	96.44
372.254	102.44
372.48	90.44
372.706	87.44
372.932	98.44
373.158	71.44
373.384	87.44
373.61	77.44
373.835	106.44
374.061	76.44
374.287	89.44
374.513	101.44
374.739	90.44
374.965	98.44
375.191	88.44
375.416	87.44
375.642	103.44
375.868	89.44
376.094	90.44
376.319	74.44
376.545	83.44
376.771	80.44
376.997	90.44
377.222	106.44
377.448	102.44
377.674	95.44
377.899	85.44
378.125	95.44
378.35	99.44
378.576	111.44
378.802	86.44
379.027	90.44
379.253	102.44
379.478	95.44
379.704	105.44
379.929	96.44
380.155	97.44
380.38	97.44
380.606	86.44
380.831	94.44
381.057	111.44
381.282	99.44
381.507	98.44
381.733	93.44
381.958	113.44
382.184	94.44
382.409	97.44
382.634	100.44
382.86	94.44
383.085	101.44
383.31	111.44
383.535	105.44
383.761	102.44
383.986	94.44
384.211	98.44
384.436	92.44
384.662	88.44
384.887	108.44
385.112	100.44
385.337	96.44
385.562	92.44
385.787	90.44
386.013	95.44
386.238	109.44
386.463	85.44
386.688	103.44
386.913	91.44
387.138	85.44
387.363	87.44
387.588	94.44
387.813	102.44
388.038	115.44
388.263	102.44
388.488	85.44
388.713	99.44
388.938	98.44
389.163	97.44
389.387	109.44
389.612	110.44
389.837	110.44
390.062	107.44
390.287	99.44
390.512	90.44
390.736	94.44
390.961	85.44
391.186	93.44
391.411	112.44
391.636	100.44
391.86	115.44
392.085	94.44
392.31	117.44
392.534	114.44
392.759	116.44
392.984	111.44
393.208	103.44
393.433	91.44
393.658	90.44
393.882	95.44
394.107	104.44
394.331	98.44
394.556	117.44
394.78	121.44
395.005	103.44
395.229	122.44
395.454	107.44
395.678	108.44
395.903	103.44
396.127	122.44
396.352	105.44
396.576	106.44
396.801	104.44
397.025	100.44
397.249	107.44
397.474	113.44
397.698	114.44
397.922	111.44
398.147	101.44
398.371	114.44
398.595	117.44
398.82	124.44
399.044	128.44
399.268	102.44
399.492	105.44
399.717	114.44
399.941	107.44
400.165	108.44
400.389	108.44
400.613	105.44
400.837	128.44
401.062	115.44
401.286	113.44
401.51	115.44
401.734	115.44
401.958	115.44
402.182	113.44
402.406	105.44
402.63	108.44
402.854	115.44
403.078	112.44
403.302	111.44
403.526	125.44
403.75	113.44
403.974	122.44
404.198	120.44
404.422	117.44
404.645	109.44
404.869	125.44
405.093	102.44
405.317	111.44
405.541	122.44
405.765	116.44
405.988	124.44
406.212	101.44
406.436	125.44
406.66	122.44
406.883	118.44
407.107	132.44
407.331	129.44
407.555	129.44
407.778	111.44
408.002	119.44
408.226	113.44
408.449	119.44
408.673	118.44
408.896	115.44
409.12	114.44
409.344	118.44
409.567	110.44
409.791	136.44
410.014	119.44
410.238	117.44
410.461	125.44
410.685	122.44
410.908	125.44
411.132	131.44
411.355	118.44
411.578	124.44
411.802	106.44
412.025	125.44
412.249	119.44
412.472	125.44
412.695	132.44
412.919	133.44
413.142	117.44
413.365	128.44
413.589	118.44
413.812	107.44
414.035	149.44
414.258	119.44
414.482	128.44
414.705	127.44
414.928	121.44
415.151	117.44
415.374	127.44
415.597	122.44
415.821	114.44
416.044	121.44
416.267	125.44
416.49	127.44
416.713	118.44
416.936	125.44
417.159	123.44
417.382	128.44
417.605	120.44
417.828	127.44
418.051	122.44
418.274	119.44
418.497	143.44
418.72	135.44
418.943	141.44
419.166	127.44
419.389	141.44
419.611	150.44
419.834	131.44
420.057	126.44
420.28	135.44
420.503	119.44
420.726	136.44
420.948	116.44
421.171	131.44
421.394	146.44
421.617	153.44
421.839	139.44
422.062	155.44
422.285	151.44
422.507	141.44
422.73	134.44
422.953	113.44
423.175	115.44
423.398	116.44
423.621	133.44
423.843	137.44
424.066	141.44
424.288	143.44
424.511	138.44
424.733	147.44
424.956	129.44
425.178	139.44
425.401	133.44
425.623	131.44
425.846	138.44
426.068	139.44
426.291	132.44
426.513	129.44
426.735	126.44
426.958	128.44
427.18	127.44
427.402	135.44
427.625	125.44
427.847	127.44
428.069	129.44
428.292	131.44
428.514	119.44
428.736	113.44
428.958	132.44
429.181	132.44
429.403	122.44
429.625	125.44
429.847	133.44
430.069	126.44
430.292	132.44
430.514	125.44
430.736	126.44
430.958	132.44
431.18	133.44
431.402	130.44
431.624	115.44
431.846	91.44
432.068	110.44
432.29	114.44
432.512	107.44
432.734	140.44
432.956	119.44
433.178	151.44
433.4	125.44
433.622	131.44
433.844	129.44
434.066	121.44
434.287	114.44
434.509	89.44
434.731	94.44
434.953	117.44
435.175	121.44
435.397	140.44
435.618	100.44
435.84	107.44
436.062	102.44
436.284	117.44
436.505	121.44
436.727	124.44
436.949	121.44
437.17	139.44
437.392	135.44
437.614	121.44
437.835	108.44
438.057	102.44
438.278	129.44
438.5	122.44
438.721	130.44
438.943	121.44
439.165	130.44
439.386	147.44
439.608	129.44
439.829	141.44
440.05	145.44
440.272	147.44
440.493	153.44
440.715	155.44
440.936	148.44
441.158	141.44
441.379	164.44
441.6	139.44
441.822	139.44
442.043	131.44
442.264	142.44
442.486	135.44
442.707	140.44
442.928	133.44
443.149	144.44
443.371	141.44
443.592	147.44
443.813	137.44
444.034	129.44
444.255	147.44
444.476	137.44
444.698	126.44
444.919	135.44
445.14	249.44
445.361	212.44
445.582	137.44
445.803	139.44
446.024	135.44
446.245	143.44
446.466	143.44
446.687	137.44
446.908	151.44
447.129	169.44
447.35	147.44
447.571	153.44
447.792	134.44
448.013	145.44
448.234	142.44
448.455	140.44
448.675	151.44
448.896	120.44
449.117	129.44
449.338	138.44
449.559	136.44
449.779	137.44
450	125.44
450.221	132.44
450.442	132.44
450.662	142.44
450.883	127.44
451.104	130.44
451.324	124.44
451.545	121.44
451.766	137.44
451.986	134.44
452.207	127.44
452.428	125.44
452.648	124.44
452.869	129.44
453.089	119.44
453.31	116.44
453.53	115.44
453.751	98.44
453.971	99.44
454.192	108.44
454.412	116.44
454.633	108.44
454.853	126.44
455.073	115.44
455.294	124.44
455.514	131.44
455.734	131.44
455.955	119.44
456.175	121.44
456.395	87.44
456.616	114.44
456.836	116.44
457.056	106.44
457.276	113.44
457.497	107.44
457.717	99.44
457.937	122.44
458.157	82.44
458.377	93.44
458.598	95.44
458.818	90.44
459.038	86.44
459.258	102.44
459.478	101.44
459.698	84.44
459.918	95.44
460.138	100.44
460.358	127.44
460.578	121.44
460.798	129.44
461.018	119.44
461.238	119.44
461.458	122.44
461.678	110.44
461.898	116.44
462.118	121.44
462.338	92.44
462.558	108.44
462.777	108.44
462.997	108.44
463.217	114.44
463.437	115.44
463.657	106.44
463.876	95.44
464.096	107.44
464.316	97.44
464.536	107.44
464.755	103.44
464.975	106.44
465.195	107.44
465.414	118.44
465.634	131.44
465.854	107.44
466.073	101.44
466.293	117.44
466.512	131.44
466.732	118.44
466.951	129.44
467.171	129.44
467.391	121.44
467.61	127.44
467.829	133.44
468.049	117.44
468.268	125.44
468.488	143.44
468.707	119.44
468.927	127.44
469.146	135.44
469.365	132.44
469.585	136.44
469.804	122.44
470.023	130.44
470.243	129.44
470.462	141.44
470.681	147.44
470.901	148.44
471.12	131.44
471.339	141.44
471.558	135.44
471.777	146.44
471.997	145.44
472.216	126.44
472.435	110.44
472.654	104.44
472.873	98.44
473.092	119.44
473.311	117.44
473.53	117.44
473.749	123.44
473.968	125.44
474.187	135.44
474.406	122.44
474.625	108.44
474.844	137.44
475.063	135.44
475.282	124.44
475.501	127.44
475.72	128.44
475.939	123.44
476.158	123.44
476.377	121.44
476.596	131.44
476.814	130.44
477.033	115.44
477.252	110.44
477.471	120.44
477.69	117.44
477.908	139.44
478.127	147.44
478.346	133.44
478.564	128.44
478.783	138.44
479.002	140.44
479.22	136.44
479.439	131.44
479.658	127.44
479.876	118.44
480.095	126.44
480.313	116.44
480.532	117.44
480.751	116.44
480.969	94.44
481.188	81.44
481.406	101.44
481.624	83.44
481.843	93.44
482.061	118.44
482.28	104.44
482.498	105.44
482.717	112.44
482.935	138.44
483.153	131.44
483.372	143.44
483.59	130.44
483.808	135.44
484.027	134.44
484.245	134.44
484.463	142.44
484.681	158.44
484.9	142.44
485.118	147.44
485.336	127.44
485.554	117.44
485.772	86.44
485.99	90.44
486.209	107.44
486.427	121.44
486.645	135.44
486.863	141.44
487.081	154.44
487.299	127.44
487.517	142.44
487.735	149.44
487.953	175.44
488.171	184.44
488.389	168.44
488.607	163.44
488.825	143.44
489.043	146.44
489.261	125.44
489.479	126.44
489.696	140.44
489.914	139.44
490.132	153.44
490.35	148.44
490.568	162.44
490.786	173.44
491.003	171.44
491.221	190.44
491.439	172.44
491.657	195.44
491.874	215.44
492.092	214.44
492.31	233.44
492.527	206.44
492.745	209.44
492.963	195.44
493.18	183.44
493.398	184.44
493.615	186.44
493.833	182.44
494.05	178.44
494.268	162.44
494.485	184.44
494.703	179.44
494.92	163.44
495.138	161.44
495.355	168.44
495.573	158.44
495.79	161.44
496.008	171.44
496.225	170.44
496.442	174.44
496.66	166.44
496.877	159.44
497.094	177.44
497.312	147.44
497.529	134.44
497.746	155.44
497.963	143.44
498.181	124.44
498.398	125.44
498.615	113.44
498.832	102.44
499.049	116.44
499.267	129.44
499.484	132.44
499.701	120.44
499.918	145.44
500.135	137.44
500.352	136.44
500.569	152.44
500.786	154.44
501.003	145.44
501.22	130.44
501.437	139.44
501.654	132.44
501.871	137.44
502.088	130.44
502.305	118.44
502.522	149.44
502.739	139.44
502.956	122.44
503.172	123.44
503.389	124.44
503.606	123.44
503.823	123.44
504.04	106.44
504.256	116.44
504.473	105.44
504.69	118.44
504.907	108.44
505.123	115.44
505.34	124.44
505.557	117.44
505.773	126.44
505.99	115.44
506.207	124.44
506.423	133.44
506.64	126.44
506.856	116.44
507.073	115.44
507.289	110.44
507.506	117.44
507.722	110.44
507.939	131.44
508.155	117.44
508.372	105.44
508.588	116.44
508.805	110.44
509.021	114.44
509.238	109.44
509.454	111.44
509.67	117.44
509.887	91.44
510.103	102.44
510.319	85.44
510.536	102.44
510.752	89.44
510.968	93.44
511.184	82.44
511.401	80.44
511.617	81.44
