Data from Location1.07152019.Energy5.Lamp.07192019.3%Agarose_HRD10591_14-33-22-016.txt Node
Date: Fri Jul 19 14:33:22 EDT 2019
User: cochatt
Spectrometer: HR+D1059
Trigger mode: 1
Integration Time (sec): 1.000000E-1
Scans to average: 1
Electric dark correction enabled: true
Nonlinearity correction enabled: false
Boxcar width: 0
XAxis mode: Wavelengths
Number of Pixels in Spectrum: 2048
>>>>>Begin Spectral Data<<<<<
223.165	-12.88
223.4	-12.88
223.635	-12.88
223.869	-26.88
224.104	-19.88
224.338	-20.88
224.573	-22.88
224.808	-5.88
225.042	-8.88
225.277	-14.88
225.511	-1.88
225.746	7.12
225.98	2.12
226.215	22.12
226.449	22.12
226.683	22.12
226.918	30.12
227.152	29.12
227.387	42.12
227.621	25.12
227.856	35.12
228.09	44.12
228.324	50.12
228.559	52.12
228.793	59.12
229.027	69.12
229.262	63.12
229.496	75.12
229.73	52.12
229.964	84.12
230.199	82.12
230.433	75.12
230.667	74.12
230.901	74.12
231.136	93.12
231.37	66.12
231.604	64.12
231.838	64.12
232.072	84.12
232.306	79.12
232.541	63.12
232.775	77.12
233.009	72.12
233.243	78.12
233.477	83.12
233.711	78.12
233.945	93.12
234.179	77.12
234.413	84.12
234.647	77.12
234.881	88.12
235.115	82.12
235.349	77.12
235.583	77.12
235.817	84.12
236.051	84.12
236.285	78.12
236.519	84.12
236.753	76.12
236.987	82.12
237.221	67.12
237.455	72.12
237.689	86.12
237.922	82.12
238.156	75.12
238.39	75.12
238.624	81.12
238.858	73.12
239.091	75.12
239.325	80.12
239.559	71.12
239.793	73.12
240.027	88.12
240.26	88.12
240.494	89.12
240.728	86.12
240.961	76.12
241.195	79.12
241.429	75.12
241.662	70.12
241.896	70.12
242.13	80.12
242.363	69.12
242.597	67.12
242.83	81.12
243.064	79.12
243.298	63.12
243.531	74.12
243.765	82.12
243.998	68.12
244.232	76.12
244.465	80.12
244.699	92.12
244.932	78.12
245.166	66.12
245.399	69.12
245.633	79.12
245.866	77.12
246.099	76.12
246.333	79.12
246.566	67.12
246.8	79.12
247.033	86.12
247.266	65.12
247.5	76.12
247.733	71.12
247.966	86.12
248.2	91.12
248.433	88.12
248.666	68.12
248.899	77.12
249.133	85.12
249.366	82.12
249.599	72.12
249.832	72.12
250.066	71.12
250.299	66.12
250.532	74.12
250.765	81.12
250.998	83.12
251.231	89.12
251.465	80.12
251.698	75.12
251.931	70.12
252.164	77.12
252.397	78.12
252.63	62.12
252.863	83.12
253.096	80.12
253.329	77.12
253.562	86.12
253.795	83.12
254.028	80.12
254.261	90.12
254.494	76.12
254.727	74.12
254.96	84.12
255.193	75.12
255.426	85.12
255.659	70.12
255.892	77.12
256.124	84.12
256.357	82.12
256.59	95.12
256.823	88.12
257.056	79.12
257.289	69.12
257.521	75.12
257.754	65.12
257.987	80.12
258.22	80.12
258.452	73.12
258.685	79.12
258.918	78.12
259.151	83.12
259.383	70.12
259.616	81.12
259.849	88.12
260.081	77.12
260.314	68.12
260.547	74.12
260.779	90.12
261.012	67.12
261.244	71.12
261.477	80.12
261.71	74.12
261.942	91.12
262.175	83.12
262.407	89.12
262.64	100.12
262.872	71.12
263.105	95.12
263.337	94.12
263.57	84.12
263.802	76.12
264.035	79.12
264.267	80.12
264.499	76.12
264.732	83.12
264.964	85.12
265.197	84.12
265.429	84.12
265.661	86.12
265.894	84.12
266.126	85.12
266.358	71.12
266.591	82.12
266.823	70.12
267.055	73.12
267.287	80.12
267.52	85.12
267.752	87.12
267.984	91.12
268.216	86.12
268.448	85.12
268.681	78.12
268.913	84.12
269.145	88.12
269.377	88.12
269.609	75.12
269.841	72.12
270.073	83.12
270.306	76.12
270.538	87.12
270.77	82.12
271.002	79.12
271.234	70.12
271.466	97.12
271.698	81.12
271.93	86.12
272.162	79.12
272.394	79.12
272.626	75.12
272.858	105.12
273.09	93.12
273.322	87.12
273.553	78.12
273.785	86.12
274.017	63.12
274.249	85.12
274.481	71.12
274.713	64.12
274.945	76.12
275.176	76.12
275.408	84.12
275.64	79.12
275.872	63.12
276.104	64.12
276.335	81.12
276.567	90.12
276.799	79.12
277.031	76.12
277.262	84.12
277.494	90.12
277.726	95.12
277.957	80.12
278.189	83.12
278.421	76.12
278.652	75.12
278.884	91.12
279.115	94.12
279.347	76.12
279.579	92.12
279.81	92.12
280.042	58.12
280.273	82.12
280.505	72.12
280.736	86.12
280.968	84.12
281.199	80.12
281.431	101.12
281.662	87.12
281.894	76.12
282.125	82.12
282.356	91.12
282.588	83.12
282.819	71.12
283.051	82.12
283.282	90.12
283.513	91.12
283.745	87.12
283.976	81.12
284.207	82.12
284.439	82.12
284.67	87.12
284.901	84.12
285.132	73.12
285.364	76.12
285.595	84.12
285.826	78.12
286.057	88.12
286.288	74.12
286.52	93.12
286.751	73.12
286.982	88.12
287.213	77.12
287.444	77.12
287.675	85.12
287.906	89.12
288.138	80.12
288.369	91.12
288.6	75.12
288.831	93.12
289.062	79.12
289.293	83.12
289.524	84.12
289.755	80.12
289.986	79.12
290.217	71.12
290.448	72.12
290.679	75.12
290.91	88.12
291.141	85.12
291.371	84.12
291.602	101.12
291.833	68.12
292.064	95.12
292.295	92.12
292.526	73.12
292.757	79.12
292.987	67.12
293.218	75.12
293.449	89.12
293.68	87.12
293.91	96.12
294.141	78.12
294.372	81.12
294.603	101.12
294.833	80.12
295.064	79.12
295.295	69.12
295.525	76.12
295.756	84.12
295.987	94.12
296.217	91.12
296.448	87.12
296.679	92.12
296.909	86.12
297.14	86.12
297.37	97.12
297.601	76.12
297.831	71.12
298.062	95.12
298.292	78.12
298.523	90.12
298.753	99.12
298.984	92.12
299.214	86.12
299.445	77.12
299.675	83.12
299.905	89.12
300.136	75.12
300.366	87.12
300.597	90.12
300.827	87.12
301.057	69.12
301.288	81.12
301.518	82.12
301.748	98.12
301.979	83.12
302.209	82.12
302.439	88.12
302.669	86.12
302.9	74.12
303.13	84.12
303.36	73.12
303.59	85.12
303.82	89.12
304.051	101.12
304.281	87.12
304.511	95.12
304.741	87.12
304.971	91.12
305.201	90.12
305.431	88.12
305.661	93.12
305.891	102.12
306.121	96.12
306.352	81.12
306.582	82.12
306.812	84.12
307.042	99.12
307.272	84.12
307.502	102.12
307.731	83.12
307.961	98.12
308.191	78.12
308.421	74.12
308.651	76.12
308.881	81.12
309.111	74.12
309.341	88.12
309.571	83.12
309.8	84.12
310.03	83.12
310.26	79.12
310.49	90.12
310.72	84.12
310.949	88.12
311.179	75.12
311.409	77.12
311.639	86.12
311.868	82.12
312.098	96.12
312.328	88.12
312.557	76.12
312.787	86.12
313.017	83.12
313.246	78.12
313.476	76.12
313.706	84.12
313.935	88.12
314.165	71.12
314.394	83.12
314.624	89.12
314.853	95.12
315.083	90.12
315.312	75.12
315.542	81.12
315.771	68.12
316.001	87.12
316.23	80.12
316.46	74.12
316.689	80.12
316.919	72.12
317.148	77.12
317.377	89.12
317.607	86.12
317.836	77.12
318.065	86.12
318.295	90.12
318.524	85.12
318.753	79.12
318.983	87.12
319.212	92.12
319.441	69.12
319.67	81.12
319.9	82.12
320.129	80.12
320.358	90.12
320.587	91.12
320.816	111.12
321.046	80.12
321.275	85.12
321.504	79.12
321.733	87.12
321.962	92.12
322.191	94.12
322.42	81.12
322.649	77.12
322.878	85.12
323.108	89.12
323.337	94.12
323.566	89.12
323.795	84.12
324.024	65.12
324.253	76.12
324.482	90.12
324.71	95.12
324.939	81.12
325.168	87.12
325.397	79.12
325.626	90.12
325.855	82.12
326.084	62.12
326.313	86.12
326.542	92.12
326.77	91.12
326.999	85.12
327.228	84.12
327.457	83.12
327.686	90.12
327.914	78.12
328.143	82.12
328.372	75.12
328.6	89.12
328.829	92.12
329.058	79.12
329.287	89.12
329.515	87.12
329.744	92.12
329.972	78.12
330.201	94.12
330.43	92.12
330.658	87.12
330.887	81.12
331.115	83.12
331.344	82.12
331.572	84.12
331.801	85.12
332.03	89.12
332.258	94.12
332.486	92.12
332.715	82.12
332.943	87.12
333.172	93.12
333.4	86.12
333.629	74.12
333.857	84.12
334.085	68.12
334.314	74.12
334.542	87.12
334.771	78.12
334.999	94.12
335.227	87.12
335.455	86.12
335.684	84.12
335.912	86.12
336.14	85.12
336.369	82.12
336.597	79.12
336.825	86.12
337.053	93.12
337.281	79.12
337.51	95.12
337.738	70.12
337.966	96.12
338.194	83.12
338.422	80.12
338.65	89.12
338.878	81.12
339.106	85.12
339.334	87.12
339.562	87.12
339.79	87.12
340.018	81.12
340.246	80.12
340.474	76.12
340.702	98.12
340.93	88.12
341.158	85.12
341.386	86.12
341.614	75.12
341.842	78.12
342.07	87.12
342.298	81.12
342.526	73.12
342.754	81.12
342.981	93.12
343.209	77.12
343.437	93.12
343.665	87.12
343.893	87.12
344.12	97.12
344.348	92.12
344.576	86.12
344.804	82.12
345.031	87.12
345.259	95.12
345.487	94.12
345.714	75.12
345.942	87.12
346.17	83.12
346.397	69.12
346.625	83.12
346.853	79.12
347.08	79.12
347.308	82.12
347.535	89.12
347.763	94.12
347.99	75.12
348.218	92.12
348.445	89.12
348.673	85.12
348.9	82.12
349.128	77.12
349.355	88.12
349.583	83.12
349.81	84.12
350.037	94.12
350.265	74.12
350.492	85.12
350.72	92.12
350.947	73.12
351.174	78.12
351.402	69.12
351.629	91.12
351.856	90.12
352.083	92.12
352.311	84.12
352.538	75.12
352.765	82.12
352.992	86.12
353.22	80.12
353.447	86.12
353.674	96.12
353.901	85.12
354.128	93.12
354.355	81.12
354.583	78.12
354.81	80.12
355.037	80.12
355.264	73.12
355.491	77.12
355.718	75.12
355.945	84.12
356.172	78.12
356.399	84.12
356.626	82.12
356.853	89.12
357.08	76.12
357.307	93.12
357.534	70.12
357.761	88.12
357.988	70.12
358.215	79.12
358.441	78.12
358.668	82.12
358.895	96.12
359.122	78.12
359.349	77.12
359.576	86.12
359.802	66.12
360.029	82.12
360.256	80.12
360.483	85.12
360.709	93.12
360.936	97.12
361.163	100.12
361.39	83.12
361.616	86.12
361.843	82.12
362.07	89.12
362.296	68.12
362.523	76.12
362.749	87.12
362.976	100.12
363.203	83.12
363.429	92.12
363.656	84.12
363.882	88.12
364.109	87.12
364.335	96.12
364.562	81.12
364.788	77.12
365.015	83.12
365.241	90.12
365.468	95.12
365.694	76.12
365.92	69.12
366.147	90.12
366.373	93.12
366.599	83.12
366.826	90.12
367.052	76.12
367.278	82.12
367.505	92.12
367.731	93.12
367.957	82.12
368.184	88.12
368.41	90.12
368.636	95.12
368.862	84.12
369.089	85.12
369.315	75.12
369.541	86.12
369.767	84.12
369.993	92.12
370.219	96.12
370.445	72.12
370.672	86.12
370.898	77.12
371.124	105.12
371.35	92.12
371.576	93.12
371.802	91.12
372.028	100.12
372.254	100.12
372.48	89.12
372.706	103.12
372.932	96.12
373.158	99.12
373.384	92.12
373.61	92.12
373.835	96.12
374.061	92.12
374.287	93.12
374.513	89.12
374.739	87.12
374.965	104.12
375.191	111.12
375.416	88.12
375.642	68.12
375.868	107.12
376.094	100.12
376.319	93.12
376.545	87.12
376.771	97.12
376.997	104.12
377.222	98.12
377.448	91.12
377.674	102.12
377.899	97.12
378.125	95.12
378.35	83.12
378.576	96.12
378.802	95.12
379.027	100.12
379.253	96.12
379.478	97.12
379.704	92.12
379.929	87.12
380.155	95.12
380.38	105.12
380.606	86.12
380.831	84.12
381.057	100.12
381.282	86.12
381.507	102.12
381.733	102.12
381.958	90.12
382.184	86.12
382.409	96.12
382.634	107.12
382.86	99.12
383.085	98.12
383.31	103.12
383.535	102.12
383.761	95.12
383.986	90.12
384.211	99.12
384.436	94.12
384.662	98.12
384.887	85.12
385.112	107.12
385.337	98.12
385.562	91.12
385.787	84.12
386.013	105.12
386.238	108.12
386.463	105.12
386.688	90.12
386.913	92.12
387.138	103.12
387.363	102.12
387.588	103.12
387.813	96.12
388.038	100.12
388.263	96.12
388.488	78.12
388.713	94.12
388.938	94.12
389.163	101.12
389.387	100.12
389.612	101.12
389.837	106.12
390.062	97.12
390.287	108.12
390.512	113.12
390.736	103.12
390.961	84.12
391.186	110.12
391.411	96.12
391.636	85.12
391.86	115.12
392.085	98.12
392.31	94.12
392.534	105.12
392.759	115.12
392.984	113.12
393.208	98.12
393.433	103.12
393.658	112.12
393.882	102.12
394.107	111.12
394.331	95.12
394.556	99.12
394.78	110.12
395.005	121.12
395.229	108.12
395.454	114.12
395.678	98.12
395.903	111.12
396.127	123.12
396.352	108.12
396.576	102.12
396.801	107.12
397.025	114.12
397.249	101.12
397.474	116.12
397.698	103.12
397.922	109.12
398.147	103.12
398.371	102.12
398.595	115.12
398.82	108.12
399.044	101.12
399.268	107.12
399.492	100.12
399.717	120.12
399.941	107.12
400.165	118.12
400.389	120.12
400.613	106.12
400.837	99.12
401.062	92.12
401.286	103.12
401.51	107.12
401.734	120.12
401.958	103.12
402.182	111.12
402.406	102.12
402.63	113.12
402.854	112.12
403.078	102.12
403.302	119.12
403.526	119.12
403.75	118.12
403.974	97.12
404.198	109.12
404.422	120.12
404.645	107.12
404.869	116.12
405.093	109.12
405.317	102.12
405.541	118.12
405.765	127.12
405.988	119.12
406.212	122.12
406.436	116.12
406.66	119.12
406.883	115.12
407.107	119.12
407.331	124.12
407.555	119.12
407.778	118.12
408.002	123.12
408.226	110.12
408.449	104.12
408.673	109.12
408.896	116.12
409.12	119.12
409.344	118.12
409.567	109.12
409.791	125.12
410.014	114.12
410.238	108.12
410.461	117.12
410.685	123.12
410.908	123.12
411.132	124.12
411.355	131.12
411.578	142.12
411.802	125.12
412.025	116.12
412.249	116.12
412.472	131.12
412.695	120.12
412.919	111.12
413.142	114.12
413.365	104.12
413.589	108.12
413.812	120.12
414.035	118.12
414.258	124.12
414.482	107.12
414.705	122.12
414.928	128.12
415.151	116.12
415.374	107.12
415.597	114.12
415.821	124.12
416.044	120.12
416.267	121.12
416.49	125.12
416.713	137.12
416.936	125.12
417.159	125.12
417.382	132.12
417.605	115.12
417.828	117.12
418.051	123.12
418.274	130.12
418.497	126.12
418.72	126.12
418.943	134.12
419.166	143.12
419.389	115.12
419.611	142.12
419.834	132.12
420.057	121.12
420.28	134.12
420.503	134.12
420.726	150.12
420.948	126.12
421.171	123.12
421.394	118.12
421.617	138.12
421.839	129.12
422.062	129.12
422.285	132.12
422.507	129.12
422.73	116.12
422.953	124.12
423.175	125.12
423.398	130.12
423.621	126.12
423.843	128.12
424.066	141.12
424.288	138.12
424.511	144.12
424.733	148.12
424.956	145.12
425.178	150.12
425.401	139.12
425.623	148.12
425.846	126.12
426.068	131.12
426.291	135.12
426.513	138.12
426.735	124.12
426.958	132.12
427.18	134.12
427.402	136.12
427.625	126.12
427.847	125.12
428.069	136.12
428.292	119.12
428.514	131.12
428.736	128.12
428.958	111.12
429.181	122.12
429.403	121.12
429.625	117.12
429.847	113.12
430.069	125.12
430.292	128.12
430.514	128.12
430.736	122.12
430.958	117.12
431.18	121.12
431.402	123.12
431.624	132.12
431.846	108.12
432.068	82.12
432.29	81.12
432.512	117.12
432.734	122.12
432.956	134.12
433.178	137.12
433.4	128.12
433.622	126.12
433.844	129.12
434.066	120.12
434.287	110.12
434.509	87.12
434.731	88.12
434.953	111.12
435.175	117.12
435.397	128.12
435.618	125.12
435.84	119.12
436.062	118.12
436.284	125.12
436.505	139.12
436.727	140.12
436.949	107.12
437.17	122.12
437.392	122.12
437.614	129.12
437.835	120.12
438.057	108.12
438.278	109.12
438.5	120.12
438.721	126.12
438.943	130.12
439.165	130.12
439.386	131.12
439.608	127.12
439.829	148.12
440.05	150.12
440.272	135.12
440.493	136.12
440.715	140.12
440.936	143.12
441.158	133.12
441.379	134.12
441.6	143.12
441.822	158.12
442.043	153.12
442.264	132.12
442.486	134.12
442.707	120.12
442.928	143.12
443.149	125.12
443.371	136.12
443.592	145.12
443.813	140.12
444.034	136.12
444.255	130.12
444.476	140.12
444.698	137.12
444.919	140.12
445.14	227.12
445.361	168.12
445.582	157.12
445.803	151.12
446.024	136.12
446.245	155.12
446.466	152.12
446.687	152.12
446.908	158.12
447.129	164.12
447.35	164.12
447.571	131.12
447.792	147.12
448.013	141.12
448.234	142.12
448.455	141.12
448.675	141.12
448.896	126.12
449.117	138.12
449.338	131.12
449.559	142.12
449.779	132.12
450	132.12
450.221	134.12
450.442	131.12
450.662	130.12
450.883	134.12
451.104	142.12
451.324	114.12
451.545	104.12
451.766	130.12
451.986	134.12
452.207	123.12
452.428	140.12
452.648	133.12
452.869	124.12
453.089	99.12
453.31	112.12
453.53	114.12
453.751	99.12
453.971	102.12
454.192	107.12
454.412	120.12
454.633	130.12
454.853	122.12
455.073	124.12
455.294	126.12
455.514	131.12
455.734	125.12
455.955	128.12
456.175	115.12
456.395	99.12
456.616	107.12
456.836	127.12
457.056	115.12
457.276	104.12
457.497	96.12
457.717	105.12
457.937	88.12
458.157	122.12
458.377	101.12
458.598	111.12
458.818	79.12
459.038	105.12
459.258	93.12
459.478	87.12
459.698	96.12
459.918	96.12
460.138	100.12
460.358	119.12
460.578	106.12
460.798	117.12
461.018	111.12
461.238	118.12
461.458	114.12
461.678	115.12
461.898	107.12
462.118	104.12
462.338	123.12
462.558	117.12
462.777	107.12
462.997	111.12
463.217	115.12
463.437	110.12
463.657	98.12
463.876	110.12
464.096	118.12
464.316	120.12
464.536	108.12
464.755	108.12
464.975	114.12
465.195	108.12
465.414	114.12
465.634	118.12
465.854	116.12
466.073	118.12
466.293	128.12
466.512	144.12
466.732	131.12
466.951	130.12
467.171	114.12
467.391	128.12
467.61	144.12
467.829	136.12
468.049	128.12
468.268	150.12
468.488	128.12
468.707	131.12
468.927	132.12
469.146	138.12
469.365	144.12
469.585	140.12
469.804	142.12
470.023	128.12
470.243	143.12
470.462	138.12
470.681	147.12
470.901	144.12
471.12	152.12
471.339	132.12
471.558	124.12
471.777	142.12
471.997	140.12
472.216	128.12
472.435	118.12
472.654	93.12
472.873	110.12
473.092	119.12
473.311	128.12
473.53	140.12
473.749	131.12
473.968	112.12
474.187	126.12
474.406	126.12
474.625	126.12
474.844	126.12
475.063	119.12
475.282	123.12
475.501	120.12
475.72	118.12
475.939	128.12
476.158	131.12
476.377	130.12
476.596	132.12
476.814	112.12
477.033	103.12
477.252	106.12
477.471	124.12
477.69	127.12
477.908	121.12
478.127	136.12
478.346	137.12
478.564	140.12
478.783	123.12
479.002	125.12
479.22	140.12
479.439	137.12
479.658	116.12
479.876	118.12
480.095	107.12
480.313	129.12
480.532	124.12
480.751	114.12
480.969	96.12
481.188	94.12
481.406	94.12
481.624	87.12
481.843	93.12
482.061	91.12
482.28	115.12
482.498	114.12
482.717	127.12
482.935	126.12
483.153	139.12
483.372	134.12
483.59	158.12
483.808	142.12
484.027	120.12
484.245	141.12
484.463	168.12
484.681	159.12
484.9	153.12
485.118	131.12
485.336	126.12
485.554	114.12
485.772	104.12
485.99	90.12
486.209	124.12
486.427	108.12
486.645	114.12
486.863	132.12
487.081	135.12
487.299	141.12
487.517	134.12
487.735	154.12
487.953	181.12
488.171	196.12
488.389	192.12
488.607	166.12
488.825	146.12
489.043	130.12
489.261	138.12
489.479	135.12
489.696	140.12
489.914	141.12
490.132	136.12
490.35	153.12
490.568	176.12
490.786	163.12
491.003	188.12
491.221	166.12
491.439	186.12
491.657	186.12
491.874	208.12
492.092	215.12
492.31	235.12
492.527	239.12
492.745	211.12
492.963	202.12
493.18	199.12
493.398	188.12
493.615	186.12
493.833	195.12
494.05	181.12
494.268	170.12
494.485	147.12
494.703	188.12
494.92	165.12
495.138	173.12
495.355	167.12
495.573	154.12
495.79	157.12
496.008	162.12
496.225	184.12
496.442	174.12
496.66	174.12
496.877	163.12
497.094	170.12
497.312	155.12
497.529	152.12
497.746	170.12
497.963	145.12
498.181	120.12
498.398	118.12
498.615	116.12
498.832	103.12
499.049	109.12
499.267	128.12
499.484	120.12
499.701	121.12
499.918	143.12
500.135	136.12
500.352	157.12
500.569	133.12
500.786	139.12
501.003	133.12
501.22	142.12
501.437	135.12
501.654	152.12
501.871	133.12
502.088	136.12
502.305	126.12
502.522	138.12
502.739	123.12
502.956	125.12
503.172	123.12
503.389	124.12
503.606	119.12
503.823	126.12
504.04	103.12
504.256	122.12
504.473	114.12
504.69	123.12
504.907	120.12
505.123	116.12
505.34	107.12
505.557	124.12
505.773	117.12
505.99	122.12
506.207	123.12
506.423	130.12
506.64	128.12
506.856	109.12
507.073	107.12
507.289	115.12
507.506	122.12
507.722	124.12
507.939	116.12
508.155	131.12
508.372	137.12
508.588	116.12
508.805	104.12
509.021	96.12
509.238	106.12
509.454	113.12
509.67	114.12
509.887	83.12
510.103	104.12
510.319	86.12
510.536	100.12
510.752	77.12
510.968	92.12
511.184	70.12
511.401	80.12
511.617	83.12
