Data from Location1.07152019.Energy5.Lamp.07192019.3%Agarose_HRD10591_14-30-42-015.txt Node
Date: Fri Jul 19 14:30:42 EDT 2019
User: cochatt
Spectrometer: HR+D1059
Trigger mode: 1
Integration Time (sec): 1.000000E-1
Scans to average: 1
Electric dark correction enabled: true
Nonlinearity correction enabled: false
Boxcar width: 0
XAxis mode: Wavelengths
Number of Pixels in Spectrum: 2048
>>>>>Begin Spectral Data<<<<<
223.165	-13.31
223.4	-13.31
223.635	-13.31
223.869	-8.31
224.104	-14.31
224.338	-28.31
224.573	-16.31
224.808	-9.31
225.042	-16.31
225.277	0.69
225.511	-10.31
225.746	3.69
225.98	20.69
226.215	10.69
226.449	7.69
226.683	13.69
226.918	33.69
227.152	25.69
227.387	23.69
227.621	35.69
227.856	38.69
228.09	44.69
228.324	50.69
228.559	58.69
228.793	61.69
229.027	61.69
229.262	52.69
229.496	61.69
229.73	62.69
229.964	63.69
230.199	54.69
230.433	76.69
230.667	71.69
230.901	76.69
231.136	85.69
231.37	82.69
231.604	72.69
231.838	75.69
232.072	71.69
232.306	83.69
232.541	89.69
232.775	70.69
233.009	86.69
233.243	79.69
233.477	85.69
233.711	80.69
233.945	80.69
234.179	62.69
234.413	83.69
234.647	84.69
234.881	85.69
235.115	83.69
235.349	72.69
235.583	78.69
235.817	81.69
236.051	69.69
236.285	74.69
236.519	83.69
236.753	70.69
236.987	91.69
237.221	81.69
237.455	76.69
237.689	79.69
237.922	74.69
238.156	85.69
238.39	72.69
238.624	78.69
238.858	72.69
239.091	68.69
239.325	70.69
239.559	82.69
239.793	80.69
240.027	67.69
240.26	73.69
240.494	77.69
240.728	59.69
240.961	69.69
241.195	88.69
241.429	74.69
241.662	83.69
241.896	63.69
242.13	75.69
242.363	83.69
242.597	67.69
242.83	78.69
243.064	66.69
243.298	83.69
243.531	72.69
243.765	76.69
243.998	78.69
244.232	79.69
244.465	77.69
244.699	67.69
244.932	75.69
245.166	85.69
245.399	73.69
245.633	79.69
245.866	81.69
246.099	74.69
246.333	80.69
246.566	74.69
246.8	76.69
247.033	82.69
247.266	82.69
247.5	75.69
247.733	68.69
247.966	70.69
248.2	81.69
248.433	100.69
248.666	77.69
248.899	89.69
249.133	66.69
249.366	75.69
249.599	76.69
249.832	89.69
250.066	78.69
250.299	88.69
250.532	79.69
250.765	68.69
250.998	75.69
251.231	80.69
251.465	83.69
251.698	88.69
251.931	76.69
252.164	83.69
252.397	77.69
252.63	83.69
252.863	81.69
253.096	93.69
253.329	65.69
253.562	76.69
253.795	85.69
254.028	80.69
254.261	76.69
254.494	79.69
254.727	71.69
254.96	73.69
255.193	89.69
255.426	72.69
255.659	87.69
255.892	83.69
256.124	73.69
256.357	81.69
256.59	96.69
256.823	77.69
257.056	81.69
257.289	72.69
257.521	87.69
257.754	89.69
257.987	65.69
258.22	95.69
258.452	68.69
258.685	78.69
258.918	83.69
259.151	76.69
259.383	76.69
259.616	91.69
259.849	75.69
260.081	74.69
260.314	92.69
260.547	84.69
260.779	80.69
261.012	69.69
261.244	74.69
261.477	68.69
261.71	82.69
261.942	72.69
262.175	76.69
262.407	83.69
262.64	68.69
262.872	79.69
263.105	77.69
263.337	99.69
263.57	79.69
263.802	80.69
264.035	73.69
264.267	80.69
264.499	73.69
264.732	81.69
264.964	85.69
265.197	82.69
265.429	80.69
265.661	87.69
265.894	101.69
266.126	77.69
266.358	92.69
266.591	81.69
266.823	83.69
267.055	89.69
267.287	76.69
267.52	81.69
267.752	82.69
267.984	68.69
268.216	80.69
268.448	86.69
268.681	84.69
268.913	86.69
269.145	75.69
269.377	85.69
269.609	75.69
269.841	85.69
270.073	78.69
270.306	102.69
270.538	78.69
270.77	88.69
271.002	76.69
271.234	92.69
271.466	85.69
271.698	81.69
271.93	81.69
272.162	75.69
272.394	75.69
272.626	77.69
272.858	90.69
273.09	84.69
273.322	84.69
273.553	84.69
273.785	93.69
274.017	77.69
274.249	77.69
274.481	84.69
274.713	90.69
274.945	80.69
275.176	77.69
275.408	92.69
275.64	90.69
275.872	82.69
276.104	69.69
276.335	79.69
276.567	73.69
276.799	88.69
277.031	92.69
277.262	89.69
277.494	78.69
277.726	87.69
277.957	73.69
278.189	71.69
278.421	82.69
278.652	96.69
278.884	79.69
279.115	86.69
279.347	87.69
279.579	92.69
279.81	76.69
280.042	71.69
280.273	79.69
280.505	76.69
280.736	96.69
280.968	91.69
281.199	84.69
281.431	92.69
281.662	83.69
281.894	96.69
282.125	73.69
282.356	84.69
282.588	88.69
282.819	86.69
283.051	92.69
283.282	81.69
283.513	78.69
283.745	89.69
283.976	68.69
284.207	91.69
284.439	75.69
284.67	80.69
284.901	88.69
285.132	87.69
285.364	75.69
285.595	96.69
285.826	86.69
286.057	78.69
286.288	76.69
286.52	82.69
286.751	85.69
286.982	82.69
287.213	76.69
287.444	75.69
287.675	77.69
287.906	92.69
288.138	76.69
288.369	83.69
288.6	79.69
288.831	73.69
289.062	83.69
289.293	74.69
289.524	92.69
289.755	87.69
289.986	95.69
290.217	78.69
290.448	72.69
290.679	76.69
290.91	83.69
291.141	81.69
291.371	90.69
291.602	83.69
291.833	74.69
292.064	80.69
292.295	85.69
292.526	78.69
292.757	78.69
292.987	94.69
293.218	89.69
293.449	77.69
293.68	82.69
293.91	90.69
294.141	92.69
294.372	97.69
294.603	83.69
294.833	97.69
295.064	90.69
295.295	83.69
295.525	81.69
295.756	83.69
295.987	67.69
296.217	88.69
296.448	74.69
296.679	84.69
296.909	75.69
297.14	72.69
297.37	66.69
297.601	93.69
297.831	85.69
298.062	80.69
298.292	81.69
298.523	91.69
298.753	80.69
298.984	91.69
299.214	95.69
299.445	87.69
299.675	83.69
299.905	73.69
300.136	72.69
300.366	90.69
300.597	75.69
300.827	89.69
301.057	82.69
301.288	90.69
301.518	104.69
301.748	99.69
301.979	86.69
302.209	85.69
302.439	69.69
302.669	72.69
302.9	85.69
303.13	86.69
303.36	82.69
303.59	85.69
303.82	74.69
304.051	81.69
304.281	87.69
304.511	86.69
304.741	82.69
304.971	80.69
305.201	66.69
305.431	100.69
305.661	99.69
305.891	85.69
306.121	79.69
306.352	85.69
306.582	90.69
306.812	76.69
307.042	78.69
307.272	92.69
307.502	90.69
307.731	92.69
307.961	85.69
308.191	84.69
308.421	65.69
308.651	73.69
308.881	76.69
309.111	73.69
309.341	86.69
309.571	84.69
309.8	89.69
310.03	89.69
310.26	84.69
310.49	72.69
310.72	73.69
310.949	82.69
311.179	92.69
311.409	78.69
311.639	92.69
311.868	81.69
312.098	80.69
312.328	77.69
312.557	90.69
312.787	98.69
313.017	90.69
313.246	74.69
313.476	84.69
313.706	80.69
313.935	83.69
314.165	85.69
314.394	82.69
314.624	77.69
314.853	86.69
315.083	87.69
315.312	96.69
315.542	90.69
315.771	90.69
316.001	89.69
316.23	78.69
316.46	83.69
316.689	75.69
316.919	80.69
317.148	84.69
317.377	72.69
317.607	100.69
317.836	85.69
318.065	100.69
318.295	84.69
318.524	69.69
318.753	76.69
318.983	84.69
319.212	85.69
319.441	85.69
319.67	87.69
319.9	90.69
320.129	90.69
320.358	87.69
320.587	69.69
320.816	84.69
321.046	73.69
321.275	80.69
321.504	87.69
321.733	76.69
321.962	80.69
322.191	73.69
322.42	79.69
322.649	90.69
322.878	88.69
323.108	85.69
323.337	92.69
323.566	82.69
323.795	78.69
324.024	82.69
324.253	92.69
324.482	85.69
324.71	83.69
324.939	89.69
325.168	86.69
325.397	100.69
325.626	84.69
325.855	73.69
326.084	82.69
326.313	77.69
326.542	85.69
326.77	87.69
326.999	77.69
327.228	89.69
327.457	95.69
327.686	70.69
327.914	87.69
328.143	93.69
328.372	86.69
328.6	83.69
328.829	80.69
329.058	74.69
329.287	80.69
329.515	75.69
329.744	87.69
329.972	82.69
330.201	83.69
330.43	70.69
330.658	75.69
330.887	91.69
331.115	75.69
331.344	79.69
331.572	84.69
331.801	82.69
332.03	74.69
332.258	90.69
332.486	75.69
332.715	70.69
332.943	76.69
333.172	92.69
333.4	83.69
333.629	81.69
333.857	72.69
334.085	81.69
334.314	91.69
334.542	86.69
334.771	85.69
334.999	86.69
335.227	87.69
335.455	82.69
335.684	67.69
335.912	88.69
336.14	77.69
336.369	85.69
336.597	70.69
336.825	83.69
337.053	76.69
337.281	87.69
337.51	65.69
337.738	81.69
337.966	78.69
338.194	70.69
338.422	86.69
338.65	71.69
338.878	75.69
339.106	77.69
339.334	85.69
339.562	84.69
339.79	67.69
340.018	87.69
340.246	79.69
340.474	87.69
340.702	75.69
340.93	82.69
341.158	77.69
341.386	92.69
341.614	88.69
341.842	69.69
342.07	75.69
342.298	92.69
342.526	88.69
342.754	88.69
342.981	87.69
343.209	83.69
343.437	81.69
343.665	86.69
343.893	86.69
344.12	94.69
344.348	85.69
344.576	60.69
344.804	72.69
345.031	100.69
345.259	79.69
345.487	96.69
345.714	89.69
345.942	76.69
346.17	95.69
346.397	75.69
346.625	84.69
346.853	81.69
347.08	88.69
347.308	97.69
347.535	85.69
347.763	89.69
347.99	83.69
348.218	85.69
348.445	85.69
348.673	80.69
348.9	75.69
349.128	99.69
349.355	87.69
349.583	94.69
349.81	80.69
350.037	88.69
350.265	72.69
350.492	89.69
350.72	82.69
350.947	84.69
351.174	75.69
351.402	83.69
351.629	77.69
351.856	91.69
352.083	90.69
352.311	85.69
352.538	74.69
352.765	76.69
352.992	86.69
353.22	82.69
353.447	69.69
353.674	90.69
353.901	75.69
354.128	73.69
354.355	92.69
354.583	64.69
354.81	68.69
355.037	84.69
355.264	80.69
355.491	59.69
355.718	91.69
355.945	73.69
356.172	90.69
356.399	82.69
356.626	69.69
356.853	79.69
357.08	94.69
357.307	86.69
357.534	79.69
357.761	92.69
357.988	82.69
358.215	79.69
358.441	72.69
358.668	71.69
358.895	80.69
359.122	79.69
359.349	74.69
359.576	72.69
359.802	77.69
360.029	71.69
360.256	76.69
360.483	79.69
360.709	71.69
360.936	90.69
361.163	75.69
361.39	76.69
361.616	70.69
361.843	82.69
362.07	72.69
362.296	84.69
362.523	73.69
362.749	85.69
362.976	84.69
363.203	85.69
363.429	83.69
363.656	83.69
363.882	76.69
364.109	82.69
364.335	78.69
364.562	79.69
364.788	79.69
365.015	69.69
365.241	69.69
365.468	77.69
365.694	75.69
365.92	80.69
366.147	73.69
366.373	95.69
366.599	87.69
366.826	99.69
367.052	85.69
367.278	79.69
367.505	95.69
367.731	95.69
367.957	82.69
368.184	85.69
368.41	100.69
368.636	79.69
368.862	89.69
369.089	89.69
369.315	84.69
369.541	93.69
369.767	77.69
369.993	93.69
370.219	89.69
370.445	102.69
370.672	89.69
370.898	77.69
371.124	88.69
371.35	103.69
371.576	86.69
371.802	95.69
372.028	92.69
372.254	80.69
372.48	94.69
372.706	83.69
372.932	81.69
373.158	88.69
373.384	69.69
373.61	85.69
373.835	88.69
374.061	105.69
374.287	91.69
374.513	85.69
374.739	98.69
374.965	85.69
375.191	93.69
375.416	94.69
375.642	95.69
375.868	100.69
376.094	93.69
376.319	95.69
376.545	84.69
376.771	84.69
376.997	84.69
377.222	70.69
377.448	86.69
377.674	85.69
377.899	89.69
378.125	87.69
378.35	93.69
378.576	76.69
378.802	93.69
379.027	92.69
379.253	101.69
379.478	86.69
379.704	85.69
379.929	79.69
380.155	86.69
380.38	83.69
380.606	83.69
380.831	89.69
381.057	96.69
381.282	104.69
381.507	88.69
381.733	88.69
381.958	100.69
382.184	88.69
382.409	92.69
382.634	102.69
382.86	86.69
383.085	94.69
383.31	100.69
383.535	77.69
383.761	79.69
383.986	103.69
384.211	86.69
384.436	78.69
384.662	87.69
384.887	98.69
385.112	89.69
385.337	86.69
385.562	101.69
385.787	104.69
386.013	111.69
386.238	84.69
386.463	94.69
386.688	88.69
386.913	100.69
387.138	97.69
387.363	95.69
387.588	111.69
387.813	109.69
388.038	89.69
388.263	84.69
388.488	91.69
388.713	93.69
388.938	96.69
389.163	92.69
389.387	105.69
389.612	85.69
389.837	109.69
390.062	100.69
390.287	103.69
390.512	95.69
390.736	78.69
390.961	90.69
391.186	88.69
391.411	84.69
391.636	85.69
391.86	95.69
392.085	106.69
392.31	86.69
392.534	97.69
392.759	90.69
392.984	106.69
393.208	115.69
393.433	95.69
393.658	117.69
393.882	98.69
394.107	102.69
394.331	114.69
394.556	95.69
394.78	100.69
395.005	112.69
395.229	97.69
395.454	118.69
395.678	96.69
395.903	107.69
396.127	99.69
396.352	90.69
396.576	99.69
396.801	89.69
397.025	112.69
397.249	102.69
397.474	111.69
397.698	89.69
397.922	96.69
398.147	108.69
398.371	113.69
398.595	91.69
398.82	108.69
399.044	103.69
399.268	111.69
399.492	114.69
399.717	108.69
399.941	94.69
400.165	97.69
400.389	113.69
400.613	101.69
400.837	93.69
401.062	120.69
401.286	103.69
401.51	115.69
401.734	87.69
401.958	102.69
402.182	95.69
402.406	117.69
402.63	102.69
402.854	104.69
403.078	96.69
403.302	106.69
403.526	114.69
403.75	105.69
403.974	106.69
404.198	113.69
404.422	107.69
404.645	114.69
404.869	107.69
405.093	112.69
405.317	104.69
405.541	121.69
405.765	113.69
405.988	119.69
406.212	117.69
406.436	123.69
406.66	125.69
406.883	105.69
407.107	117.69
407.331	108.69
407.555	119.69
407.778	129.69
408.002	115.69
408.226	123.69
408.449	113.69
408.673	121.69
408.896	120.69
409.12	123.69
409.344	121.69
409.567	115.69
409.791	103.69
410.014	112.69
410.238	121.69
410.461	127.69
410.685	119.69
410.908	121.69
411.132	116.69
411.355	141.69
411.578	121.69
411.802	98.69
412.025	122.69
412.249	116.69
412.472	112.69
412.695	113.69
412.919	121.69
413.142	127.69
413.365	119.69
413.589	125.69
413.812	104.69
414.035	129.69
414.258	125.69
414.482	121.69
414.705	135.69
414.928	117.69
415.151	105.69
415.374	125.69
415.597	108.69
415.821	122.69
416.044	125.69
416.267	130.69
416.49	123.69
416.713	124.69
416.936	111.69
417.159	111.69
417.382	121.69
417.605	125.69
417.828	123.69
418.051	127.69
418.274	120.69
418.497	129.69
418.72	112.69
418.943	117.69
419.166	137.69
419.389	131.69
419.611	121.69
419.834	139.69
420.057	135.69
420.28	144.69
420.503	145.69
420.726	124.69
420.948	113.69
421.171	106.69
421.394	137.69
421.617	140.69
421.839	137.69
422.062	134.69
422.285	127.69
422.507	118.69
422.73	119.69
422.953	123.69
423.175	118.69
423.398	120.69
423.621	126.69
423.843	130.69
424.066	132.69
424.288	127.69
424.511	150.69
424.733	142.69
424.956	128.69
425.178	123.69
425.401	124.69
425.623	109.69
425.846	122.69
426.068	136.69
426.291	112.69
426.513	124.69
426.735	121.69
426.958	132.69
427.18	129.69
427.402	125.69
427.625	118.69
427.847	135.69
428.069	139.69
428.292	129.69
428.514	125.69
428.736	122.69
428.958	129.69
429.181	127.69
429.403	128.69
429.625	126.69
429.847	122.69
430.069	127.69
430.292	136.69
430.514	125.69
430.736	125.69
430.958	135.69
431.18	127.69
431.402	133.69
431.624	115.69
431.846	96.69
432.068	102.69
432.29	97.69
432.512	100.69
432.734	113.69
432.956	123.69
433.178	116.69
433.4	136.69
433.622	123.69
433.844	117.69
434.066	120.69
434.287	86.69
434.509	84.69
434.731	97.69
434.953	103.69
435.175	121.69
435.397	117.69
435.618	116.69
435.84	113.69
436.062	108.69
436.284	120.69
436.505	133.69
436.727	119.69
436.949	115.69
437.17	127.69
437.392	120.69
437.614	117.69
437.835	118.69
438.057	112.69
438.278	123.69
438.5	131.69
438.721	136.69
438.943	126.69
439.165	146.69
439.386	135.69
439.608	147.69
439.829	152.69
440.05	129.69
440.272	130.69
440.493	129.69
440.715	139.69
440.936	127.69
441.158	147.69
441.379	127.69
441.6	160.69
441.822	155.69
442.043	140.69
442.264	125.69
442.486	133.69
442.707	124.69
442.928	148.69
443.149	148.69
443.371	141.69
443.592	128.69
443.813	135.69
444.034	143.69
444.255	139.69
444.476	142.69
444.698	136.69
444.919	139.69
445.14	261.69
445.361	203.69
445.582	162.69
445.803	141.69
446.024	132.69
446.245	138.69
446.466	155.69
446.687	147.69
446.908	163.69
447.129	154.69
447.35	166.69
447.571	136.69
447.792	143.69
448.013	146.69
448.234	141.69
448.455	149.69
448.675	135.69
448.896	133.69
449.117	139.69
449.338	139.69
449.559	147.69
449.779	133.69
450	124.69
450.221	123.69
450.442	133.69
450.662	142.69
450.883	133.69
451.104	126.69
451.324	136.69
451.545	121.69
451.766	127.69
451.986	136.69
452.207	125.69
452.428	125.69
452.648	132.69
452.869	120.69
453.089	120.69
453.31	109.69
453.53	103.69
453.751	104.69
453.971	98.69
454.192	104.69
454.412	100.69
454.633	105.69
454.853	131.69
455.073	133.69
455.294	120.69
455.514	118.69
455.734	122.69
455.955	114.69
456.175	107.69
456.395	111.69
456.616	101.69
456.836	113.69
457.056	105.69
457.276	99.69
457.497	99.69
457.717	104.69
457.937	103.69
458.157	114.69
458.377	116.69
458.598	93.69
458.818	87.69
459.038	96.69
459.258	79.69
459.478	79.69
459.698	96.69
459.918	100.69
460.138	91.69
460.358	115.69
460.578	123.69
460.798	130.69
461.018	116.69
461.238	123.69
461.458	116.69
461.678	121.69
461.898	117.69
462.118	119.69
462.338	117.69
462.558	106.69
462.777	104.69
462.997	123.69
463.217	106.69
463.437	109.69
463.657	116.69
463.876	129.69
464.096	96.69
464.316	104.69
464.536	101.69
464.755	115.69
464.975	107.69
465.195	119.69
465.414	108.69
465.634	116.69
465.854	104.69
466.073	113.69
466.293	116.69
466.512	131.69
466.732	133.69
466.951	119.69
467.171	134.69
467.391	131.69
467.61	137.69
467.829	137.69
468.049	138.69
468.268	151.69
468.488	121.69
468.707	123.69
468.927	127.69
469.146	125.69
469.365	135.69
469.585	135.69
469.804	153.69
470.023	134.69
470.243	128.69
470.462	131.69
470.681	137.69
470.901	139.69
471.12	139.69
471.339	124.69
471.558	127.69
471.777	116.69
471.997	132.69
472.216	119.69
472.435	111.69
472.654	102.69
472.873	90.69
473.092	108.69
473.311	122.69
473.53	125.69
473.749	114.69
473.968	136.69
474.187	115.69
474.406	120.69
474.625	121.69
474.844	131.69
475.063	124.69
475.282	121.69
475.501	120.69
475.72	113.69
475.939	129.69
476.158	135.69
476.377	139.69
476.596	122.69
476.814	111.69
477.033	115.69
477.252	100.69
477.471	121.69
477.69	133.69
477.908	130.69
478.127	148.69
478.346	130.69
478.564	140.69
478.783	144.69
479.002	138.69
479.22	135.69
479.439	116.69
479.658	111.69
479.876	108.69
480.095	106.69
480.313	117.69
480.532	92.69
480.751	114.69
480.969	106.69
481.188	87.69
481.406	91.69
481.624	95.69
481.843	75.69
482.061	92.69
482.28	112.69
482.498	113.69
482.717	102.69
482.935	114.69
483.153	142.69
483.372	154.69
483.59	153.69
483.808	131.69
484.027	142.69
484.245	135.69
484.463	157.69
484.681	142.69
484.9	146.69
485.118	135.69
485.336	139.69
485.554	109.69
485.772	107.69
485.99	104.69
486.209	106.69
486.427	93.69
486.645	119.69
486.863	125.69
487.081	133.69
487.299	125.69
487.517	141.69
487.735	159.69
487.953	187.69
488.171	180.69
488.389	161.69
488.607	149.69
488.825	147.69
489.043	139.69
489.261	120.69
489.479	138.69
489.696	139.69
489.914	148.69
490.132	142.69
490.35	157.69
490.568	141.69
490.786	168.69
491.003	165.69
491.221	170.69
491.439	170.69
491.657	184.69
491.874	195.69
492.092	215.69
492.31	222.69
492.527	212.69
492.745	200.69
492.963	175.69
493.18	191.69
493.398	180.69
493.615	166.69
493.833	164.69
494.05	162.69
494.268	164.69
494.485	158.69
494.703	196.69
494.92	164.69
495.138	183.69
495.355	169.69
495.573	167.69
495.79	162.69
496.008	148.69
496.225	142.69
496.442	152.69
496.66	165.69
496.877	155.69
497.094	167.69
497.312	155.69
497.529	169.69
497.746	153.69
497.963	140.69
498.181	123.69
498.398	124.69
498.615	130.69
498.832	111.69
499.049	129.69
499.267	119.69
499.484	134.69
499.701	139.69
499.918	121.69
500.135	135.69
500.352	133.69
500.569	128.69
500.786	155.69
501.003	139.69
501.22	142.69
501.437	122.69
501.654	130.69
501.871	125.69
502.088	133.69
502.305	136.69
502.522	131.69
502.739	145.69
502.956	130.69
503.172	127.69
503.389	126.69
503.606	124.69
503.823	107.69
504.04	119.69
504.256	105.69
504.473	131.69
504.69	104.69
504.907	109.69
505.123	121.69
505.34	127.69
505.557	125.69
505.773	113.69
505.99	108.69
506.207	113.69
506.423	119.69
506.64	114.69
506.856	118.69
507.073	130.69
507.289	120.69
507.506	107.69
507.722	116.69
507.939	121.69
508.155	120.69
508.372	123.69
508.588	115.69
508.805	113.69
509.021	98.69
509.238	111.69
509.454	105.69
509.67	98.69
509.887	98.69
510.103	89.69
510.319	87.69
510.536	92.69
510.752	87.69
510.968	84.69
511.184	84.69
511.401	77.69
511.617	89.69
511.833	76.69
512.049	84.69
