Data from Location1.07152019.Energy5.Lamp.07192019.3%Agarose_HRD10591_14-33-18-017.txt Node
Date: Fri Jul 19 14:33:18 EDT 2019
User: cochatt
Spectrometer: HR+D1059
Trigger mode: 1
Integration Time (sec): 1.000000E-1
Scans to average: 1
Electric dark correction enabled: true
Nonlinearity correction enabled: false
Boxcar width: 0
XAxis mode: Wavelengths
Number of Pixels in Spectrum: 2048
>>>>>Begin Spectral Data<<<<<
223.165	-25.56
223.4	-25.56
223.635	-25.56
223.869	-22.56
224.104	-22.56
224.338	-20.56
224.573	-14.56
224.808	-7.56
225.042	-8.56
225.277	-11.56
225.511	-2.56
225.746	19.44
225.98	1.44
226.215	17.44
226.449	26.44
226.683	7.44
226.918	29.44
227.152	34.44
227.387	37.44
227.621	38.44
227.856	47.44
228.09	39.44
228.324	55.44
228.559	53.44
228.793	59.44
229.027	66.44
229.262	54.44
229.496	67.44
229.73	87.44
229.964	66.44
230.199	74.44
230.433	72.44
230.667	83.44
230.901	70.44
231.136	72.44
231.37	70.44
231.604	79.44
231.838	82.44
232.072	99.44
232.306	89.44
232.541	88.44
232.775	84.44
233.009	76.44
233.243	73.44
233.477	87.44
233.711	86.44
233.945	69.44
234.179	85.44
234.413	81.44
234.647	73.44
234.881	81.44
235.115	71.44
235.349	85.44
235.583	77.44
235.817	73.44
236.051	76.44
236.285	83.44
236.519	69.44
236.753	92.44
236.987	77.44
237.221	68.44
237.455	84.44
237.689	79.44
237.922	76.44
238.156	79.44
238.39	68.44
238.624	76.44
238.858	85.44
239.091	78.44
239.325	66.44
239.559	81.44
239.793	78.44
240.027	80.44
240.26	75.44
240.494	87.44
240.728	81.44
240.961	90.44
241.195	72.44
241.429	78.44
241.662	83.44
241.896	84.44
242.13	89.44
242.363	66.44
242.597	76.44
242.83	83.44
243.064	81.44
243.298	63.44
243.531	57.44
243.765	81.44
243.998	83.44
244.232	83.44
244.465	83.44
244.699	86.44
244.932	71.44
245.166	67.44
245.399	68.44
245.633	89.44
245.866	74.44
246.099	67.44
246.333	79.44
246.566	76.44
246.8	62.44
247.033	60.44
247.266	69.44
247.5	87.44
247.733	79.44
247.966	77.44
248.2	85.44
248.433	66.44
248.666	73.44
248.899	91.44
249.133	77.44
249.366	82.44
249.599	94.44
249.832	86.44
250.066	84.44
250.299	85.44
250.532	87.44
250.765	70.44
250.998	74.44
251.231	81.44
251.465	85.44
251.698	85.44
251.931	79.44
252.164	84.44
252.397	90.44
252.63	80.44
252.863	75.44
253.096	95.44
253.329	83.44
253.562	75.44
253.795	64.44
254.028	65.44
254.261	78.44
254.494	99.44
254.727	84.44
254.96	89.44
255.193	78.44
255.426	75.44
255.659	67.44
255.892	82.44
256.124	71.44
256.357	77.44
256.59	82.44
256.823	79.44
257.056	77.44
257.289	70.44
257.521	88.44
257.754	79.44
257.987	78.44
258.22	80.44
258.452	88.44
258.685	67.44
258.918	86.44
259.151	74.44
259.383	82.44
259.616	86.44
259.849	82.44
260.081	81.44
260.314	84.44
260.547	72.44
260.779	61.44
261.012	85.44
261.244	85.44
261.477	98.44
261.71	75.44
261.942	87.44
262.175	67.44
262.407	78.44
262.64	87.44
262.872	79.44
263.105	82.44
263.337	75.44
263.57	74.44
263.802	78.44
264.035	87.44
264.267	86.44
264.499	78.44
264.732	78.44
264.964	90.44
265.197	85.44
265.429	85.44
265.661	86.44
265.894	89.44
266.126	77.44
266.358	75.44
266.591	75.44
266.823	78.44
267.055	93.44
267.287	77.44
267.52	86.44
267.752	76.44
267.984	85.44
268.216	83.44
268.448	87.44
268.681	97.44
268.913	91.44
269.145	74.44
269.377	76.44
269.609	96.44
269.841	88.44
270.073	83.44
270.306	80.44
270.538	91.44
270.77	91.44
271.002	84.44
271.234	85.44
271.466	73.44
271.698	83.44
271.93	83.44
272.162	97.44
272.394	79.44
272.626	76.44
272.858	82.44
273.09	87.44
273.322	85.44
273.553	86.44
273.785	90.44
274.017	76.44
274.249	78.44
274.481	88.44
274.713	74.44
274.945	88.44
275.176	83.44
275.408	82.44
275.64	83.44
275.872	85.44
276.104	92.44
276.335	75.44
276.567	88.44
276.799	90.44
277.031	91.44
277.262	93.44
277.494	87.44
277.726	93.44
277.957	75.44
278.189	84.44
278.421	91.44
278.652	102.44
278.884	97.44
279.115	94.44
279.347	89.44
279.579	89.44
279.81	90.44
280.042	88.44
280.273	90.44
280.505	79.44
280.736	88.44
280.968	80.44
281.199	91.44
281.431	77.44
281.662	75.44
281.894	78.44
282.125	78.44
282.356	78.44
282.588	79.44
282.819	98.44
283.051	85.44
283.282	77.44
283.513	90.44
283.745	88.44
283.976	78.44
284.207	84.44
284.439	93.44
284.67	77.44
284.901	91.44
285.132	85.44
285.364	99.44
285.595	96.44
285.826	83.44
286.057	74.44
286.288	93.44
286.52	70.44
286.751	91.44
286.982	98.44
287.213	85.44
287.444	94.44
287.675	92.44
287.906	90.44
288.138	69.44
288.369	82.44
288.6	76.44
288.831	88.44
289.062	92.44
289.293	87.44
289.524	86.44
289.755	91.44
289.986	78.44
290.217	85.44
290.448	87.44
290.679	81.44
290.91	83.44
291.141	83.44
291.371	98.44
291.602	95.44
291.833	100.44
292.064	93.44
292.295	93.44
292.526	81.44
292.757	74.44
292.987	90.44
293.218	79.44
293.449	87.44
293.68	92.44
293.91	83.44
294.141	65.44
294.372	76.44
294.603	86.44
294.833	88.44
295.064	93.44
295.295	76.44
295.525	92.44
295.756	87.44
295.987	84.44
296.217	99.44
296.448	84.44
296.679	94.44
296.909	84.44
297.14	92.44
297.37	74.44
297.601	85.44
297.831	81.44
298.062	72.44
298.292	82.44
298.523	88.44
298.753	98.44
298.984	93.44
299.214	79.44
299.445	99.44
299.675	85.44
299.905	78.44
300.136	82.44
300.366	76.44
300.597	71.44
300.827	85.44
301.057	83.44
301.288	94.44
301.518	89.44
301.748	83.44
301.979	80.44
302.209	84.44
302.439	94.44
302.669	84.44
302.9	87.44
303.13	76.44
303.36	80.44
303.59	82.44
303.82	91.44
304.051	83.44
304.281	94.44
304.511	83.44
304.741	91.44
304.971	88.44
305.201	81.44
305.431	76.44
305.661	87.44
305.891	79.44
306.121	81.44
306.352	80.44
306.582	84.44
306.812	86.44
307.042	95.44
307.272	84.44
307.502	84.44
307.731	85.44
307.961	91.44
308.191	75.44
308.421	82.44
308.651	83.44
308.881	78.44
309.111	73.44
309.341	87.44
309.571	83.44
309.8	87.44
310.03	89.44
310.26	100.44
310.49	102.44
310.72	80.44
310.949	79.44
311.179	80.44
311.409	78.44
311.639	94.44
311.868	88.44
312.098	89.44
312.328	86.44
312.557	98.44
312.787	83.44
313.017	90.44
313.246	93.44
313.476	86.44
313.706	65.44
313.935	81.44
314.165	80.44
314.394	85.44
314.624	84.44
314.853	82.44
315.083	78.44
315.312	80.44
315.542	70.44
315.771	85.44
316.001	90.44
316.23	97.44
316.46	88.44
316.689	96.44
316.919	80.44
317.148	94.44
317.377	91.44
317.607	87.44
317.836	95.44
318.065	86.44
318.295	71.44
318.524	96.44
318.753	76.44
318.983	102.44
319.212	70.44
319.441	75.44
319.67	84.44
319.9	96.44
320.129	72.44
320.358	88.44
320.587	99.44
320.816	96.44
321.046	90.44
321.275	88.44
321.504	75.44
321.733	98.44
321.962	81.44
322.191	95.44
322.42	95.44
322.649	105.44
322.878	91.44
323.108	83.44
323.337	85.44
323.566	75.44
323.795	78.44
324.024	82.44
324.253	65.44
324.482	86.44
324.71	91.44
324.939	88.44
325.168	87.44
325.397	79.44
325.626	89.44
325.855	85.44
326.084	95.44
326.313	83.44
326.542	85.44
326.77	98.44
326.999	81.44
327.228	73.44
327.457	85.44
327.686	84.44
327.914	97.44
328.143	87.44
328.372	94.44
328.6	94.44
328.829	76.44
329.058	77.44
329.287	88.44
329.515	79.44
329.744	86.44
329.972	85.44
330.201	77.44
330.43	101.44
330.658	91.44
330.887	92.44
331.115	71.44
331.344	84.44
331.572	91.44
331.801	87.44
332.03	85.44
332.258	83.44
332.486	84.44
332.715	89.44
332.943	80.44
333.172	97.44
333.4	81.44
333.629	101.44
333.857	89.44
334.085	82.44
334.314	84.44
334.542	91.44
334.771	85.44
334.999	87.44
335.227	83.44
335.455	99.44
335.684	103.44
335.912	81.44
336.14	89.44
336.369	74.44
336.597	89.44
336.825	85.44
337.053	81.44
337.281	82.44
337.51	84.44
337.738	79.44
337.966	69.44
338.194	75.44
338.422	78.44
338.65	84.44
338.878	82.44
339.106	91.44
339.334	90.44
339.562	81.44
339.79	91.44
340.018	73.44
340.246	79.44
340.474	99.44
340.702	93.44
340.93	88.44
341.158	88.44
341.386	90.44
341.614	79.44
341.842	90.44
342.07	84.44
342.298	87.44
342.526	76.44
342.754	79.44
342.981	82.44
343.209	86.44
343.437	84.44
343.665	78.44
343.893	77.44
344.12	90.44
344.348	74.44
344.576	81.44
344.804	89.44
345.031	80.44
345.259	77.44
345.487	96.44
345.714	80.44
345.942	70.44
346.17	89.44
346.397	82.44
346.625	81.44
346.853	85.44
347.08	78.44
347.308	91.44
347.535	94.44
347.763	75.44
347.99	100.44
348.218	97.44
348.445	88.44
348.673	83.44
348.9	85.44
349.128	77.44
349.355	84.44
349.583	103.44
349.81	83.44
350.037	89.44
350.265	80.44
350.492	67.44
350.72	98.44
350.947	91.44
351.174	90.44
351.402	93.44
351.629	83.44
351.856	68.44
352.083	91.44
352.311	96.44
352.538	95.44
352.765	92.44
352.992	76.44
353.22	76.44
353.447	81.44
353.674	89.44
353.901	80.44
354.128	75.44
354.355	75.44
354.583	74.44
354.81	75.44
355.037	77.44
355.264	91.44
355.491	75.44
355.718	73.44
355.945	74.44
356.172	83.44
356.399	74.44
356.626	78.44
356.853	71.44
357.08	68.44
357.307	91.44
357.534	78.44
357.761	100.44
357.988	70.44
358.215	80.44
358.441	79.44
358.668	85.44
358.895	72.44
359.122	86.44
359.349	82.44
359.576	81.44
359.802	85.44
360.029	71.44
360.256	85.44
360.483	74.44
360.709	81.44
360.936	93.44
361.163	102.44
361.39	79.44
361.616	96.44
361.843	80.44
362.07	83.44
362.296	74.44
362.523	82.44
362.749	98.44
362.976	98.44
363.203	79.44
363.429	92.44
363.656	94.44
363.882	101.44
364.109	87.44
364.335	82.44
364.562	90.44
364.788	77.44
365.015	80.44
365.241	89.44
365.468	87.44
365.694	97.44
365.92	78.44
366.147	92.44
366.373	86.44
366.599	72.44
366.826	79.44
367.052	82.44
367.278	87.44
367.505	88.44
367.731	78.44
367.957	72.44
368.184	95.44
368.41	108.44
368.636	96.44
368.862	71.44
369.089	78.44
369.315	94.44
369.541	90.44
369.767	87.44
369.993	94.44
370.219	85.44
370.445	109.44
370.672	85.44
370.898	83.44
371.124	82.44
371.35	78.44
371.576	93.44
371.802	100.44
372.028	91.44
372.254	105.44
372.48	102.44
372.706	100.44
372.932	75.44
373.158	92.44
373.384	101.44
373.61	98.44
373.835	86.44
374.061	74.44
374.287	98.44
374.513	99.44
374.739	88.44
374.965	87.44
375.191	80.44
375.416	95.44
375.642	97.44
375.868	105.44
376.094	83.44
376.319	100.44
376.545	91.44
376.771	84.44
376.997	93.44
377.222	103.44
377.448	88.44
377.674	86.44
377.899	96.44
378.125	99.44
378.35	106.44
378.576	94.44
378.802	85.44
379.027	97.44
379.253	91.44
379.478	99.44
379.704	107.44
379.929	94.44
380.155	98.44
380.38	86.44
380.606	97.44
380.831	94.44
381.057	93.44
381.282	118.44
381.507	111.44
381.733	111.44
381.958	90.44
382.184	80.44
382.409	72.44
382.634	83.44
382.86	91.44
383.085	87.44
383.31	95.44
383.535	88.44
383.761	105.44
383.986	95.44
384.211	93.44
384.436	105.44
384.662	94.44
384.887	97.44
385.112	89.44
385.337	98.44
385.562	94.44
385.787	106.44
386.013	108.44
386.238	106.44
386.463	105.44
386.688	100.44
386.913	100.44
387.138	89.44
387.363	99.44
387.588	121.44
387.813	98.44
388.038	81.44
388.263	81.44
388.488	84.44
388.713	85.44
388.938	88.44
389.163	99.44
389.387	99.44
389.612	96.44
389.837	99.44
390.062	101.44
390.287	99.44
390.512	102.44
390.736	86.44
390.961	89.44
391.186	110.44
391.411	97.44
391.636	104.44
391.86	96.44
392.085	110.44
392.31	105.44
392.534	88.44
392.759	100.44
392.984	111.44
393.208	104.44
393.433	100.44
393.658	98.44
393.882	89.44
394.107	117.44
394.331	107.44
394.556	94.44
394.78	103.44
395.005	107.44
395.229	117.44
395.454	100.44
395.678	102.44
395.903	99.44
396.127	100.44
396.352	108.44
396.576	107.44
396.801	121.44
397.025	103.44
397.249	106.44
397.474	104.44
397.698	101.44
397.922	98.44
398.147	110.44
398.371	105.44
398.595	115.44
398.82	104.44
399.044	114.44
399.268	97.44
399.492	101.44
399.717	117.44
399.941	117.44
400.165	107.44
400.389	121.44
400.613	108.44
400.837	113.44
401.062	118.44
401.286	107.44
401.51	119.44
401.734	92.44
401.958	116.44
402.182	109.44
402.406	109.44
402.63	108.44
402.854	111.44
403.078	124.44
403.302	127.44
403.526	117.44
403.75	115.44
403.974	119.44
404.198	127.44
404.422	108.44
404.645	122.44
404.869	108.44
405.093	111.44
405.317	117.44
405.541	115.44
405.765	125.44
405.988	110.44
406.212	107.44
406.436	123.44
406.66	122.44
406.883	110.44
407.107	129.44
407.331	119.44
407.555	118.44
407.778	121.44
408.002	122.44
408.226	112.44
408.449	110.44
408.673	115.44
408.896	108.44
409.12	121.44
409.344	139.44
409.567	110.44
409.791	109.44
410.014	113.44
410.238	121.44
410.461	117.44
410.685	127.44
410.908	120.44
411.132	141.44
411.355	116.44
411.578	117.44
411.802	115.44
412.025	113.44
412.249	114.44
412.472	107.44
412.695	119.44
412.919	115.44
413.142	123.44
413.365	110.44
413.589	121.44
413.812	125.44
414.035	131.44
414.258	122.44
414.482	127.44
414.705	118.44
414.928	121.44
415.151	123.44
415.374	108.44
415.597	124.44
415.821	122.44
416.044	124.44
416.267	114.44
416.49	120.44
416.713	125.44
416.936	126.44
417.159	118.44
417.382	105.44
417.605	120.44
417.828	120.44
418.051	124.44
418.274	124.44
418.497	127.44
418.72	126.44
418.943	122.44
419.166	131.44
419.389	137.44
419.611	130.44
419.834	144.44
420.057	142.44
420.28	125.44
420.503	133.44
420.726	136.44
420.948	137.44
421.171	147.44
421.394	133.44
421.617	141.44
421.839	149.44
422.062	132.44
422.285	135.44
422.507	129.44
422.73	115.44
422.953	131.44
423.175	122.44
423.398	117.44
423.621	127.44
423.843	140.44
424.066	129.44
424.288	131.44
424.511	146.44
424.733	152.44
424.956	149.44
425.178	146.44
425.401	136.44
425.623	131.44
425.846	145.44
426.068	134.44
426.291	140.44
426.513	140.44
426.735	130.44
426.958	149.44
427.18	140.44
427.402	132.44
427.625	137.44
427.847	116.44
428.069	117.44
428.292	129.44
428.514	120.44
428.736	123.44
428.958	124.44
429.181	126.44
429.403	126.44
429.625	134.44
429.847	127.44
430.069	125.44
430.292	133.44
430.514	121.44
430.736	117.44
430.958	117.44
431.18	126.44
431.402	116.44
431.624	102.44
431.846	106.44
432.068	88.44
432.29	88.44
432.512	116.44
432.734	111.44
432.956	125.44
433.178	148.44
433.4	128.44
433.622	123.44
433.844	129.44
434.066	118.44
434.287	113.44
434.509	98.44
434.731	104.44
434.953	120.44
435.175	115.44
435.397	122.44
435.618	115.44
435.84	112.44
436.062	115.44
436.284	115.44
436.505	114.44
436.727	121.44
436.949	121.44
437.17	129.44
437.392	116.44
437.614	127.44
437.835	100.44
438.057	95.44
438.278	117.44
438.5	130.44
438.721	133.44
438.943	131.44
439.165	126.44
439.386	149.44
439.608	147.44
439.829	141.44
440.05	138.44
440.272	133.44
440.493	131.44
440.715	146.44
440.936	126.44
441.158	141.44
441.379	147.44
441.6	152.44
441.822	154.44
442.043	140.44
442.264	127.44
442.486	140.44
442.707	122.44
442.928	137.44
443.149	124.44
443.371	146.44
443.592	133.44
443.813	137.44
444.034	126.44
444.255	139.44
444.476	146.44
444.698	136.44
444.919	148.44
445.14	207.44
445.361	169.44
445.582	147.44
445.803	140.44
446.024	151.44
446.245	165.44
446.466	152.44
446.687	166.44
446.908	158.44
447.129	153.44
447.35	129.44
447.571	139.44
447.792	151.44
448.013	146.44
448.234	149.44
448.455	145.44
448.675	141.44
448.896	147.44
449.117	127.44
449.338	123.44
449.559	148.44
449.779	140.44
450	140.44
450.221	134.44
450.442	141.44
450.662	131.44
450.883	127.44
451.104	141.44
451.324	122.44
451.545	126.44
451.766	119.44
451.986	136.44
452.207	137.44
452.428	117.44
452.648	122.44
452.869	117.44
453.089	110.44
453.31	113.44
453.53	110.44
453.751	88.44
453.971	90.44
454.192	108.44
454.412	110.44
454.633	125.44
454.853	125.44
455.073	110.44
455.294	99.44
455.514	120.44
455.734	116.44
455.955	110.44
456.175	121.44
456.395	103.44
456.616	109.44
456.836	98.44
457.056	109.44
457.276	100.44
457.497	104.44
457.717	101.44
457.937	109.44
458.157	100.44
458.377	94.44
458.598	106.44
458.818	90.44
459.038	98.44
459.258	92.44
459.478	82.44
459.698	81.44
459.918	100.44
460.138	101.44
460.358	110.44
460.578	116.44
460.798	104.44
461.018	99.44
461.238	110.44
461.458	121.44
461.678	123.44
461.898	130.44
462.118	111.44
462.338	101.44
462.558	108.44
462.777	110.44
462.997	107.44
463.217	102.44
463.437	117.44
463.657	119.44
463.876	105.44
464.096	105.44
464.316	117.44
464.536	99.44
464.755	101.44
464.975	125.44
465.195	112.44
465.414	117.44
465.634	116.44
465.854	115.44
466.073	115.44
466.293	116.44
466.512	115.44
466.732	124.44
466.951	117.44
467.171	136.44
467.391	126.44
467.61	126.44
467.829	146.44
468.049	141.44
468.268	124.44
468.488	132.44
468.707	137.44
468.927	140.44
469.146	136.44
469.365	133.44
469.585	123.44
469.804	134.44
470.023	138.44
470.243	128.44
470.462	157.44
470.681	133.44
470.901	144.44
471.12	127.44
471.339	135.44
471.558	146.44
471.777	143.44
471.997	133.44
472.216	141.44
472.435	132.44
472.654	110.44
472.873	121.44
473.092	103.44
473.311	121.44
473.53	117.44
473.749	113.44
473.968	122.44
474.187	116.44
474.406	113.44
474.625	115.44
474.844	133.44
475.063	129.44
475.282	139.44
475.501	124.44
475.72	117.44
475.939	98.44
476.158	125.44
476.377	111.44
476.596	118.44
476.814	122.44
477.033	133.44
477.252	121.44
477.471	125.44
477.69	127.44
477.908	135.44
478.127	144.44
478.346	135.44
478.564	137.44
478.783	125.44
479.002	131.44
479.22	155.44
479.439	148.44
479.658	119.44
479.876	114.44
480.095	109.44
480.313	110.44
480.532	123.44
480.751	103.44
480.969	100.44
481.188	105.44
481.406	89.44
481.624	94.44
481.843	89.44
482.061	103.44
482.28	94.44
482.498	116.44
482.717	101.44
482.935	122.44
483.153	145.44
483.372	159.44
483.59	156.44
483.808	125.44
484.027	124.44
484.245	127.44
484.463	123.44
484.681	157.44
484.9	138.44
485.118	139.44
485.336	122.44
485.554	118.44
485.772	108.44
485.99	93.44
486.209	115.44
486.427	108.44
486.645	110.44
486.863	151.44
487.081	139.44
487.299	130.44
487.517	132.44
487.735	161.44
487.953	169.44
488.171	185.44
488.389	159.44
488.607	157.44
488.825	140.44
489.043	131.44
489.261	134.44
489.479	137.44
489.696	137.44
489.914	137.44
490.132	146.44
490.35	151.44
490.568	174.44
490.786	173.44
491.003	182.44
491.221	183.44
491.439	180.44
491.657	186.44
491.874	193.44
492.092	219.44
492.31	238.44
492.527	232.44
492.745	205.44
492.963	189.44
493.18	198.44
493.398	184.44
493.615	167.44
493.833	167.44
494.05	168.44
494.268	169.44
494.485	160.44
494.703	172.44
494.92	168.44
495.138	177.44
495.355	164.44
495.573	181.44
495.79	181.44
496.008	162.44
496.225	161.44
496.442	153.44
496.66	171.44
496.877	163.44
497.094	167.44
497.312	158.44
497.529	158.44
497.746	145.44
497.963	138.44
498.181	133.44
498.398	131.44
498.615	125.44
498.832	127.44
499.049	111.44
499.267	123.44
499.484	121.44
499.701	130.44
499.918	123.44
500.135	124.44
500.352	139.44
500.569	144.44
500.786	151.44
501.003	134.44
501.22	139.44
501.437	139.44
501.654	138.44
501.871	125.44
502.088	140.44
502.305	133.44
502.522	147.44
502.739	152.44
502.956	118.44
503.172	117.44
503.389	107.44
503.606	133.44
503.823	123.44
504.04	126.44
504.256	106.44
504.473	125.44
504.69	131.44
504.907	131.44
505.123	123.44
505.34	130.44
505.557	124.44
505.773	126.44
505.99	119.44
506.207	113.44
506.423	121.44
506.64	119.44
506.856	120.44
507.073	111.44
507.289	114.44
507.506	104.44
507.722	115.44
507.939	119.44
508.155	110.44
508.372	109.44
508.588	119.44
508.805	118.44
509.021	108.44
509.238	118.44
509.454	121.44
509.67	83.44
509.887	90.44
510.103	83.44
510.319	92.44
510.536	102.44
510.752	88.44
510.968	85.44
511.184	79.44
511.401	74.44
511.617	93.44
