Data from Location1.07152019.Energy5.Lamp.07192019.3%Agarose_HRD10591_14-33-24-016.txt Node
Date: Fri Jul 19 14:33:24 EDT 2019
User: cochatt
Spectrometer: HR+D1059
Trigger mode: 1
Integration Time (sec): 1.000000E-1
Scans to average: 1
Electric dark correction enabled: true
Nonlinearity correction enabled: false
Boxcar width: 0
XAxis mode: Wavelengths
Number of Pixels in Spectrum: 2048
>>>>>Begin Spectral Data<<<<<
223.165	-12.38
223.4	-12.38
223.635	-12.38
223.869	-19.38
224.104	-14.38
224.338	-12.38
224.573	-26.38
224.808	-17.38
225.042	2.62
225.277	-0.38
225.511	4.62
225.746	3.62
225.98	10.62
226.215	0.62
226.449	14.62
226.683	13.62
226.918	20.62
227.152	31.62
227.387	29.62
227.621	29.62
227.856	41.62
228.09	49.62
228.324	41.62
228.559	39.62
228.793	59.62
229.027	61.62
229.262	60.62
229.496	54.62
229.73	72.62
229.964	55.62
230.199	52.62
230.433	69.62
230.667	88.62
230.901	82.62
231.136	74.62
231.37	63.62
231.604	77.62
231.838	74.62
232.072	89.62
232.306	78.62
232.541	79.62
232.775	75.62
233.009	70.62
233.243	86.62
233.477	82.62
233.711	89.62
233.945	87.62
234.179	79.62
234.413	80.62
234.647	85.62
234.881	90.62
235.115	80.62
235.349	71.62
235.583	70.62
235.817	66.62
236.051	65.62
236.285	85.62
236.519	89.62
236.753	79.62
236.987	86.62
237.221	79.62
237.455	82.62
237.689	70.62
237.922	72.62
238.156	66.62
238.39	67.62
238.624	74.62
238.858	80.62
239.091	80.62
239.325	80.62
239.559	85.62
239.793	84.62
240.027	81.62
240.26	83.62
240.494	87.62
240.728	72.62
240.961	86.62
241.195	77.62
241.429	74.62
241.662	88.62
241.896	73.62
242.13	73.62
242.363	71.62
242.597	71.62
242.83	82.62
243.064	82.62
243.298	83.62
243.531	81.62
243.765	77.62
243.998	76.62
244.232	89.62
244.465	80.62
244.699	82.62
244.932	77.62
245.166	80.62
245.399	78.62
245.633	69.62
245.866	74.62
246.099	86.62
246.333	70.62
246.566	73.62
246.8	82.62
247.033	67.62
247.266	86.62
247.5	76.62
247.733	79.62
247.966	78.62
248.2	71.62
248.433	78.62
248.666	85.62
248.899	69.62
249.133	72.62
249.366	81.62
249.599	90.62
249.832	76.62
250.066	78.62
250.299	78.62
250.532	87.62
250.765	80.62
250.998	75.62
251.231	74.62
251.465	77.62
251.698	77.62
251.931	87.62
252.164	82.62
252.397	77.62
252.63	89.62
252.863	74.62
253.096	84.62
253.329	94.62
253.562	89.62
253.795	75.62
254.028	76.62
254.261	82.62
254.494	71.62
254.727	85.62
254.96	87.62
255.193	79.62
255.426	89.62
255.659	87.62
255.892	83.62
256.124	87.62
256.357	91.62
256.59	80.62
256.823	97.62
257.056	69.62
257.289	62.62
257.521	82.62
257.754	76.62
257.987	88.62
258.22	87.62
258.452	80.62
258.685	83.62
258.918	87.62
259.151	68.62
259.383	76.62
259.616	72.62
259.849	86.62
260.081	86.62
260.314	83.62
260.547	75.62
260.779	78.62
261.012	78.62
261.244	85.62
261.477	96.62
261.71	95.62
261.942	83.62
262.175	83.62
262.407	77.62
262.64	82.62
262.872	77.62
263.105	83.62
263.337	91.62
263.57	77.62
263.802	79.62
264.035	66.62
264.267	77.62
264.499	76.62
264.732	81.62
264.964	69.62
265.197	86.62
265.429	74.62
265.661	79.62
265.894	79.62
266.126	84.62
266.358	65.62
266.591	99.62
266.823	88.62
267.055	76.62
267.287	84.62
267.52	83.62
267.752	80.62
267.984	82.62
268.216	70.62
268.448	86.62
268.681	77.62
268.913	82.62
269.145	92.62
269.377	77.62
269.609	79.62
269.841	87.62
270.073	83.62
270.306	75.62
270.538	78.62
270.77	78.62
271.002	82.62
271.234	87.62
271.466	79.62
271.698	85.62
271.93	81.62
272.162	82.62
272.394	80.62
272.626	83.62
272.858	70.62
273.09	74.62
273.322	85.62
273.553	72.62
273.785	83.62
274.017	88.62
274.249	82.62
274.481	89.62
274.713	85.62
274.945	86.62
275.176	71.62
275.408	83.62
275.64	80.62
275.872	69.62
276.104	87.62
276.335	77.62
276.567	82.62
276.799	74.62
277.031	87.62
277.262	83.62
277.494	70.62
277.726	69.62
277.957	79.62
278.189	65.62
278.421	67.62
278.652	83.62
278.884	76.62
279.115	80.62
279.347	86.62
279.579	90.62
279.81	73.62
280.042	84.62
280.273	92.62
280.505	91.62
280.736	86.62
280.968	69.62
281.199	84.62
281.431	85.62
281.662	70.62
281.894	76.62
282.125	79.62
282.356	93.62
282.588	83.62
282.819	86.62
283.051	79.62
283.282	83.62
283.513	82.62
283.745	82.62
283.976	87.62
284.207	72.62
284.439	75.62
284.67	87.62
284.901	76.62
285.132	92.62
285.364	92.62
285.595	75.62
285.826	79.62
286.057	79.62
286.288	74.62
286.52	88.62
286.751	80.62
286.982	89.62
287.213	84.62
287.444	77.62
287.675	82.62
287.906	70.62
288.138	83.62
288.369	86.62
288.6	100.62
288.831	72.62
289.062	89.62
289.293	98.62
289.524	70.62
289.755	75.62
289.986	89.62
290.217	92.62
290.448	84.62
290.679	78.62
290.91	86.62
291.141	88.62
291.371	91.62
291.602	71.62
291.833	81.62
292.064	75.62
292.295	77.62
292.526	87.62
292.757	67.62
292.987	85.62
293.218	87.62
293.449	68.62
293.68	99.62
293.91	88.62
294.141	81.62
294.372	86.62
294.603	78.62
294.833	91.62
295.064	82.62
295.295	82.62
295.525	94.62
295.756	88.62
295.987	88.62
296.217	93.62
296.448	82.62
296.679	76.62
296.909	72.62
297.14	79.62
297.37	87.62
297.601	77.62
297.831	93.62
298.062	97.62
298.292	85.62
298.523	95.62
298.753	77.62
298.984	85.62
299.214	84.62
299.445	82.62
299.675	84.62
299.905	100.62
300.136	86.62
300.366	82.62
300.597	83.62
300.827	72.62
301.057	87.62
301.288	85.62
301.518	97.62
301.748	83.62
301.979	99.62
302.209	91.62
302.439	76.62
302.669	73.62
302.9	98.62
303.13	94.62
303.36	91.62
303.59	86.62
303.82	84.62
304.051	94.62
304.281	75.62
304.511	85.62
304.741	68.62
304.971	79.62
305.201	79.62
305.431	91.62
305.661	67.62
305.891	94.62
306.121	94.62
306.352	77.62
306.582	69.62
306.812	78.62
307.042	94.62
307.272	84.62
307.502	82.62
307.731	90.62
307.961	76.62
308.191	100.62
308.421	90.62
308.651	77.62
308.881	68.62
309.111	66.62
309.341	92.62
309.571	94.62
309.8	97.62
310.03	80.62
310.26	97.62
310.49	91.62
310.72	97.62
310.949	88.62
311.179	70.62
311.409	87.62
311.639	87.62
311.868	90.62
312.098	84.62
312.328	103.62
312.557	84.62
312.787	76.62
313.017	94.62
313.246	92.62
313.476	96.62
313.706	84.62
313.935	98.62
314.165	86.62
314.394	82.62
314.624	78.62
314.853	95.62
315.083	90.62
315.312	84.62
315.542	75.62
315.771	74.62
316.001	68.62
316.23	89.62
316.46	91.62
316.689	77.62
316.919	83.62
317.148	76.62
317.377	86.62
317.607	85.62
317.836	78.62
318.065	93.62
318.295	91.62
318.524	72.62
318.753	82.62
318.983	76.62
319.212	85.62
319.441	94.62
319.67	89.62
319.9	89.62
320.129	87.62
320.358	93.62
320.587	90.62
320.816	82.62
321.046	87.62
321.275	85.62
321.504	86.62
321.733	79.62
321.962	72.62
322.191	76.62
322.42	102.62
322.649	83.62
322.878	78.62
323.108	85.62
323.337	83.62
323.566	82.62
323.795	78.62
324.024	78.62
324.253	85.62
324.482	78.62
324.71	87.62
324.939	79.62
325.168	75.62
325.397	82.62
325.626	74.62
325.855	74.62
326.084	86.62
326.313	71.62
326.542	82.62
326.77	92.62
326.999	86.62
327.228	76.62
327.457	94.62
327.686	95.62
327.914	84.62
328.143	84.62
328.372	79.62
328.6	99.62
328.829	90.62
329.058	83.62
329.287	76.62
329.515	79.62
329.744	87.62
329.972	88.62
330.201	98.62
330.43	71.62
330.658	89.62
330.887	74.62
331.115	85.62
331.344	94.62
331.572	86.62
331.801	86.62
332.03	78.62
332.258	66.62
332.486	69.62
332.715	79.62
332.943	82.62
333.172	93.62
333.4	80.62
333.629	82.62
333.857	71.62
334.085	71.62
334.314	92.62
334.542	80.62
334.771	92.62
334.999	92.62
335.227	75.62
335.455	88.62
335.684	79.62
335.912	87.62
336.14	91.62
336.369	85.62
336.597	92.62
336.825	76.62
337.053	84.62
337.281	85.62
337.51	82.62
337.738	87.62
337.966	84.62
338.194	82.62
338.422	82.62
338.65	84.62
338.878	78.62
339.106	83.62
339.334	82.62
339.562	82.62
339.79	94.62
340.018	94.62
340.246	89.62
340.474	77.62
340.702	88.62
340.93	84.62
341.158	85.62
341.386	81.62
341.614	88.62
341.842	77.62
342.07	100.62
342.298	86.62
342.526	85.62
342.754	83.62
342.981	72.62
343.209	99.62
343.437	85.62
343.665	84.62
343.893	94.62
344.12	80.62
344.348	90.62
344.576	85.62
344.804	77.62
345.031	108.62
345.259	86.62
345.487	86.62
345.714	90.62
345.942	94.62
346.17	80.62
346.397	79.62
346.625	85.62
346.853	93.62
347.08	83.62
347.308	88.62
347.535	78.62
347.763	97.62
347.99	66.62
348.218	74.62
348.445	79.62
348.673	85.62
348.9	94.62
349.128	84.62
349.355	91.62
349.583	92.62
349.81	78.62
350.037	73.62
350.265	81.62
350.492	81.62
350.72	99.62
350.947	72.62
351.174	79.62
351.402	93.62
351.629	88.62
351.856	80.62
352.083	74.62
352.311	85.62
352.538	92.62
352.765	92.62
352.992	85.62
353.22	79.62
353.447	76.62
353.674	83.62
353.901	91.62
354.128	91.62
354.355	78.62
354.583	72.62
354.81	79.62
355.037	79.62
355.264	83.62
355.491	89.62
355.718	67.62
355.945	85.62
356.172	93.62
356.399	84.62
356.626	101.62
356.853	84.62
357.08	83.62
357.307	76.62
357.534	88.62
357.761	90.62
357.988	86.62
358.215	92.62
358.441	91.62
358.668	82.62
358.895	78.62
359.122	66.62
359.349	66.62
359.576	96.62
359.802	99.62
360.029	89.62
360.256	84.62
360.483	89.62
360.709	81.62
360.936	105.62
361.163	95.62
361.39	85.62
361.616	77.62
361.843	88.62
362.07	92.62
362.296	80.62
362.523	73.62
362.749	85.62
362.976	104.62
363.203	93.62
363.429	83.62
363.656	56.62
363.882	78.62
364.109	84.62
364.335	83.62
364.562	104.62
364.788	113.62
365.015	80.62
365.241	82.62
365.468	93.62
365.694	65.62
365.92	79.62
366.147	82.62
366.373	79.62
366.599	84.62
366.826	87.62
367.052	68.62
367.278	82.62
367.505	81.62
367.731	92.62
367.957	93.62
368.184	100.62
368.41	90.62
368.636	78.62
368.862	101.62
369.089	88.62
369.315	98.62
369.541	89.62
369.767	89.62
369.993	108.62
370.219	90.62
370.445	86.62
370.672	92.62
370.898	95.62
371.124	85.62
371.35	97.62
371.576	92.62
371.802	87.62
372.028	90.62
372.254	84.62
372.48	98.62
372.706	86.62
372.932	99.62
373.158	95.62
373.384	99.62
373.61	112.62
373.835	89.62
374.061	88.62
374.287	90.62
374.513	84.62
374.739	100.62
374.965	93.62
375.191	79.62
375.416	96.62
375.642	99.62
375.868	109.62
376.094	81.62
376.319	91.62
376.545	76.62
376.771	79.62
376.997	87.62
377.222	93.62
377.448	99.62
377.674	103.62
377.899	80.62
378.125	73.62
378.35	84.62
378.576	76.62
378.802	103.62
379.027	94.62
379.253	89.62
379.478	103.62
379.704	97.62
379.929	100.62
380.155	105.62
380.38	98.62
380.606	73.62
380.831	97.62
381.057	104.62
381.282	97.62
381.507	95.62
381.733	90.62
381.958	92.62
382.184	90.62
382.409	91.62
382.634	97.62
382.86	103.62
383.085	94.62
383.31	107.62
383.535	101.62
383.761	108.62
383.986	103.62
384.211	93.62
384.436	94.62
384.662	109.62
384.887	102.62
385.112	102.62
385.337	109.62
385.562	106.62
385.787	108.62
386.013	96.62
386.238	99.62
386.463	111.62
386.688	90.62
386.913	94.62
387.138	92.62
387.363	98.62
387.588	105.62
387.813	105.62
388.038	112.62
388.263	94.62
388.488	97.62
388.713	100.62
388.938	109.62
389.163	100.62
389.387	96.62
389.612	90.62
389.837	100.62
390.062	86.62
390.287	106.62
390.512	99.62
390.736	99.62
390.961	104.62
391.186	109.62
391.411	90.62
391.636	87.62
391.86	102.62
392.085	102.62
392.31	98.62
392.534	100.62
392.759	112.62
392.984	106.62
393.208	106.62
393.433	107.62
393.658	100.62
393.882	117.62
394.107	106.62
394.331	95.62
394.556	101.62
394.78	101.62
395.005	103.62
395.229	106.62
395.454	115.62
395.678	112.62
395.903	102.62
396.127	103.62
396.352	112.62
396.576	95.62
396.801	103.62
397.025	90.62
397.249	111.62
397.474	105.62
397.698	125.62
397.922	115.62
398.147	102.62
398.371	107.62
398.595	98.62
398.82	90.62
399.044	120.62
399.268	115.62
399.492	119.62
399.717	103.62
399.941	117.62
400.165	115.62
400.389	129.62
400.613	110.62
400.837	115.62
401.062	121.62
401.286	125.62
401.51	118.62
401.734	97.62
401.958	106.62
402.182	115.62
402.406	114.62
402.63	103.62
402.854	108.62
403.078	105.62
403.302	115.62
403.526	116.62
403.75	119.62
403.974	107.62
404.198	127.62
404.422	110.62
404.645	127.62
404.869	116.62
405.093	119.62
405.317	115.62
405.541	125.62
405.765	117.62
405.988	129.62
406.212	110.62
406.436	111.62
406.66	118.62
406.883	89.62
407.107	105.62
407.331	105.62
407.555	125.62
407.778	114.62
408.002	107.62
408.226	100.62
408.449	129.62
408.673	120.62
408.896	125.62
409.12	119.62
409.344	135.62
409.567	106.62
409.791	116.62
410.014	121.62
410.238	104.62
410.461	131.62
410.685	133.62
410.908	123.62
411.132	133.62
411.355	121.62
411.578	125.62
411.802	130.62
412.025	117.62
412.249	121.62
412.472	123.62
412.695	124.62
412.919	126.62
413.142	116.62
413.365	116.62
413.589	116.62
413.812	113.62
414.035	136.62
414.258	133.62
414.482	118.62
414.705	116.62
414.928	118.62
415.151	126.62
415.374	99.62
415.597	123.62
415.821	117.62
416.044	123.62
416.267	121.62
416.49	130.62
416.713	129.62
416.936	119.62
417.159	111.62
417.382	129.62
417.605	137.62
417.828	119.62
418.051	133.62
418.274	142.62
418.497	108.62
418.72	139.62
418.943	141.62
419.166	130.62
419.389	134.62
419.611	138.62
419.834	127.62
420.057	132.62
420.28	135.62
420.503	126.62
420.726	138.62
420.948	143.62
421.171	151.62
421.394	141.62
421.617	141.62
421.839	145.62
422.062	156.62
422.285	138.62
422.507	120.62
422.73	125.62
422.953	129.62
423.175	125.62
423.398	130.62
423.621	135.62
423.843	117.62
424.066	127.62
424.288	140.62
424.511	125.62
424.733	125.62
424.956	133.62
425.178	147.62
425.401	155.62
425.623	135.62
425.846	127.62
426.068	132.62
426.291	135.62
426.513	129.62
426.735	125.62
426.958	139.62
427.18	139.62
427.402	125.62
427.625	119.62
427.847	127.62
428.069	143.62
428.292	135.62
428.514	134.62
428.736	126.62
428.958	133.62
429.181	124.62
429.403	124.62
429.625	134.62
429.847	119.62
430.069	123.62
430.292	136.62
430.514	134.62
430.736	137.62
430.958	135.62
431.18	116.62
431.402	129.62
431.624	126.62
431.846	114.62
432.068	91.62
432.29	91.62
432.512	120.62
432.734	114.62
432.956	145.62
433.178	152.62
433.4	145.62
433.622	149.62
433.844	135.62
434.066	123.62
434.287	97.62
434.509	97.62
434.731	104.62
434.953	100.62
435.175	122.62
435.397	111.62
435.618	117.62
435.84	112.62
436.062	122.62
436.284	124.62
436.505	121.62
436.727	129.62
436.949	108.62
437.17	127.62
437.392	119.62
437.614	115.62
437.835	113.62
438.057	109.62
438.278	128.62
438.5	119.62
438.721	129.62
438.943	139.62
439.165	148.62
439.386	133.62
439.608	143.62
439.829	151.62
440.05	152.62
440.272	148.62
440.493	133.62
440.715	136.62
440.936	138.62
441.158	135.62
441.379	124.62
441.6	141.62
441.822	152.62
442.043	135.62
442.264	126.62
442.486	157.62
442.707	148.62
442.928	129.62
443.149	138.62
443.371	138.62
443.592	132.62
443.813	134.62
444.034	133.62
444.255	137.62
444.476	128.62
444.698	144.62
444.919	149.62
445.14	224.62
445.361	211.62
445.582	141.62
445.803	138.62
446.024	148.62
446.245	151.62
446.466	154.62
446.687	153.62
446.908	161.62
447.129	157.62
447.35	147.62
447.571	147.62
447.792	154.62
448.013	139.62
448.234	155.62
448.455	129.62
448.675	139.62
448.896	141.62
449.117	139.62
449.338	141.62
449.559	143.62
449.779	148.62
450	127.62
450.221	137.62
450.442	132.62
450.662	133.62
450.883	136.62
451.104	121.62
451.324	138.62
451.545	118.62
451.766	138.62
451.986	111.62
452.207	126.62
452.428	131.62
452.648	110.62
452.869	119.62
453.089	109.62
453.31	115.62
453.53	103.62
453.751	118.62
453.971	105.62
454.192	100.62
454.412	113.62
454.633	121.62
454.853	130.62
455.073	128.62
455.294	119.62
455.514	126.62
455.734	131.62
455.955	109.62
456.175	113.62
456.395	107.62
456.616	112.62
456.836	104.62
457.056	113.62
457.276	97.62
457.497	108.62
457.717	109.62
457.937	106.62
458.157	108.62
458.377	98.62
458.598	120.62
458.818	100.62
459.038	86.62
459.258	96.62
459.478	86.62
459.698	78.62
459.918	97.62
460.138	100.62
460.358	116.62
460.578	117.62
460.798	115.62
461.018	106.62
461.238	119.62
461.458	119.62
461.678	124.62
461.898	113.62
462.118	110.62
462.338	109.62
462.558	121.62
462.777	105.62
462.997	102.62
463.217	113.62
463.437	115.62
463.657	106.62
463.876	107.62
464.096	104.62
464.316	109.62
464.536	113.62
464.755	121.62
464.975	128.62
465.195	103.62
465.414	116.62
465.634	113.62
465.854	105.62
466.073	114.62
466.293	119.62
466.512	135.62
466.732	122.62
466.951	132.62
467.171	131.62
467.391	131.62
467.61	132.62
467.829	113.62
468.049	137.62
468.268	129.62
468.488	129.62
468.707	119.62
468.927	145.62
469.146	135.62
469.365	147.62
469.585	130.62
469.804	129.62
470.023	142.62
470.243	144.62
470.462	135.62
470.681	140.62
470.901	132.62
471.12	139.62
471.339	144.62
471.558	147.62
471.777	131.62
471.997	134.62
472.216	137.62
472.435	110.62
472.654	109.62
472.873	108.62
473.092	117.62
473.311	123.62
473.53	126.62
473.749	124.62
473.968	127.62
474.187	116.62
474.406	109.62
474.625	120.62
474.844	126.62
475.063	123.62
475.282	117.62
475.501	115.62
475.72	141.62
475.939	127.62
476.158	139.62
476.377	124.62
476.596	127.62
476.814	115.62
477.033	108.62
477.252	121.62
477.471	120.62
477.69	137.62
477.908	140.62
478.127	129.62
478.346	137.62
478.564	127.62
478.783	142.62
479.002	135.62
479.22	135.62
479.439	121.62
479.658	122.62
479.876	108.62
480.095	102.62
480.313	114.62
480.532	118.62
480.751	95.62
480.969	86.62
481.188	86.62
481.406	88.62
481.624	93.62
481.843	88.62
482.061	100.62
482.28	96.62
482.498	111.62
482.717	119.62
482.935	114.62
483.153	137.62
483.372	161.62
483.59	134.62
483.808	129.62
484.027	129.62
484.245	120.62
484.463	142.62
484.681	179.62
484.9	147.62
485.118	131.62
485.336	116.62
485.554	115.62
485.772	98.62
485.99	106.62
486.209	93.62
486.427	113.62
486.645	117.62
486.863	129.62
487.081	136.62
487.299	138.62
487.517	149.62
487.735	152.62
487.953	183.62
488.171	168.62
488.389	166.62
488.607	153.62
488.825	135.62
489.043	131.62
489.261	128.62
489.479	127.62
489.696	138.62
489.914	127.62
490.132	135.62
490.35	147.62
490.568	160.62
490.786	168.62
491.003	168.62
491.221	185.62
491.439	190.62
491.657	179.62
491.874	194.62
492.092	224.62
492.31	224.62
492.527	213.62
492.745	201.62
492.963	184.62
493.18	197.62
493.398	181.62
493.615	167.62
493.833	188.62
494.05	174.62
494.268	170.62
494.485	156.62
494.703	181.62
494.92	165.62
495.138	160.62
495.355	154.62
495.573	176.62
495.79	163.62
496.008	155.62
496.225	164.62
496.442	171.62
496.66	167.62
496.877	155.62
497.094	159.62
497.312	157.62
497.529	155.62
497.746	149.62
497.963	142.62
498.181	124.62
498.398	127.62
498.615	118.62
498.832	113.62
499.049	114.62
499.267	112.62
499.484	127.62
499.701	120.62
499.918	132.62
500.135	131.62
500.352	141.62
500.569	131.62
500.786	143.62
501.003	129.62
501.22	147.62
501.437	148.62
501.654	142.62
501.871	112.62
502.088	106.62
502.305	122.62
502.522	129.62
502.739	121.62
502.956	138.62
503.172	130.62
503.389	122.62
503.606	121.62
503.823	139.62
504.04	122.62
504.256	130.62
504.473	134.62
504.69	120.62
504.907	126.62
505.123	127.62
505.34	127.62
505.557	107.62
505.773	131.62
505.99	119.62
506.207	110.62
506.423	117.62
506.64	131.62
506.856	120.62
507.073	117.62
507.289	119.62
507.506	125.62
507.722	126.62
507.939	118.62
508.155	119.62
508.372	120.62
508.588	96.62
508.805	107.62
509.021	111.62
509.238	105.62
509.454	97.62
509.67	109.62
509.887	88.62
510.103	82.62
510.319	88.62
510.536	91.62
510.752	86.62
510.968	82.62
511.184	90.62
511.401	89.62
511.617	90.62
