Data from Location1.07152019.Energy5.Lamp.07192019.3%Agarose_HRD10591_14-31-53-015.txt Node
Date: Fri Jul 19 14:31:53 EDT 2019
User: cochatt
Spectrometer: HR+D1059
Trigger mode: 1
Integration Time (sec): 1.000000E-1
Scans to average: 1
Electric dark correction enabled: true
Nonlinearity correction enabled: false
Boxcar width: 0
XAxis mode: Wavelengths
Number of Pixels in Spectrum: 2048
>>>>>Begin Spectral Data<<<<<
223.165	-20.75
223.4	-20.75
223.635	-20.75
223.869	-17.75
224.104	-9.75
224.338	-11.75
224.573	-11.75
224.808	-1.75
225.042	-9.75
225.277	-4.75
225.511	-4.75
225.746	0.25
225.98	8.25
226.215	7.25
226.449	2.25
226.683	19.25
226.918	24.25
227.152	31.25
227.387	34.25
227.621	33.25
227.856	45.25
228.09	51.25
228.324	46.25
228.559	45.25
228.793	56.25
229.027	56.25
229.262	58.25
229.496	71.25
229.73	71.25
229.964	80.25
230.199	64.25
230.433	80.25
230.667	76.25
230.901	73.25
231.136	77.25
231.37	80.25
231.604	75.25
231.838	90.25
232.072	84.25
232.306	77.25
232.541	85.25
232.775	85.25
233.009	73.25
233.243	69.25
233.477	75.25
233.711	86.25
233.945	66.25
234.179	74.25
234.413	73.25
234.647	77.25
234.881	75.25
235.115	76.25
235.349	80.25
235.583	80.25
235.817	82.25
236.051	84.25
236.285	91.25
236.519	80.25
236.753	71.25
236.987	68.25
237.221	74.25
237.455	76.25
237.689	92.25
237.922	88.25
238.156	82.25
238.39	72.25
238.624	82.25
238.858	74.25
239.091	72.25
239.325	74.25
239.559	71.25
239.793	74.25
240.027	76.25
240.26	66.25
240.494	80.25
240.728	69.25
240.961	68.25
241.195	80.25
241.429	75.25
241.662	80.25
241.896	71.25
242.13	74.25
242.363	84.25
242.597	84.25
242.83	63.25
243.064	74.25
243.298	71.25
243.531	83.25
243.765	89.25
243.998	85.25
244.232	77.25
244.465	79.25
244.699	90.25
244.932	62.25
245.166	72.25
245.399	84.25
245.633	80.25
245.866	93.25
246.099	71.25
246.333	86.25
246.566	69.25
246.8	76.25
247.033	76.25
247.266	79.25
247.5	82.25
247.733	85.25
247.966	84.25
248.2	88.25
248.433	79.25
248.666	90.25
248.899	84.25
249.133	83.25
249.366	65.25
249.599	68.25
249.832	76.25
250.066	80.25
250.299	90.25
250.532	83.25
250.765	81.25
250.998	85.25
251.231	81.25
251.465	77.25
251.698	78.25
251.931	74.25
252.164	62.25
252.397	84.25
252.63	82.25
252.863	83.25
253.096	74.25
253.329	74.25
253.562	85.25
253.795	73.25
254.028	79.25
254.261	76.25
254.494	82.25
254.727	90.25
254.96	93.25
255.193	75.25
255.426	79.25
255.659	70.25
255.892	77.25
256.124	75.25
256.357	70.25
256.59	72.25
256.823	92.25
257.056	72.25
257.289	77.25
257.521	70.25
257.754	81.25
257.987	79.25
258.22	73.25
258.452	72.25
258.685	72.25
258.918	74.25
259.151	88.25
259.383	75.25
259.616	72.25
259.849	89.25
260.081	88.25
260.314	99.25
260.547	89.25
260.779	83.25
261.012	90.25
261.244	80.25
261.477	75.25
261.71	97.25
261.942	90.25
262.175	93.25
262.407	68.25
262.64	88.25
262.872	94.25
263.105	83.25
263.337	84.25
263.57	88.25
263.802	70.25
264.035	81.25
264.267	69.25
264.499	79.25
264.732	88.25
264.964	79.25
265.197	78.25
265.429	64.25
265.661	79.25
265.894	86.25
266.126	76.25
266.358	70.25
266.591	84.25
266.823	86.25
267.055	83.25
267.287	87.25
267.52	66.25
267.752	90.25
267.984	71.25
268.216	79.25
268.448	88.25
268.681	72.25
268.913	85.25
269.145	81.25
269.377	83.25
269.609	83.25
269.841	77.25
270.073	90.25
270.306	75.25
270.538	85.25
270.77	84.25
271.002	86.25
271.234	86.25
271.466	82.25
271.698	66.25
271.93	70.25
272.162	81.25
272.394	90.25
272.626	83.25
272.858	71.25
273.09	69.25
273.322	90.25
273.553	85.25
273.785	75.25
274.017	79.25
274.249	67.25
274.481	82.25
274.713	76.25
274.945	86.25
275.176	86.25
275.408	78.25
275.64	83.25
275.872	83.25
276.104	87.25
276.335	91.25
276.567	83.25
276.799	73.25
277.031	73.25
277.262	76.25
277.494	91.25
277.726	83.25
277.957	79.25
278.189	92.25
278.421	80.25
278.652	70.25
278.884	77.25
279.115	80.25
279.347	95.25
279.579	75.25
279.81	92.25
280.042	87.25
280.273	86.25
280.505	79.25
280.736	77.25
280.968	73.25
281.199	77.25
281.431	80.25
281.662	68.25
281.894	87.25
282.125	89.25
282.356	77.25
282.588	82.25
282.819	92.25
283.051	70.25
283.282	81.25
283.513	82.25
283.745	87.25
283.976	95.25
284.207	83.25
284.439	88.25
284.67	77.25
284.901	79.25
285.132	88.25
285.364	90.25
285.595	79.25
285.826	76.25
286.057	77.25
286.288	83.25
286.52	79.25
286.751	88.25
286.982	84.25
287.213	98.25
287.444	90.25
287.675	77.25
287.906	79.25
288.138	76.25
288.369	87.25
288.6	87.25
288.831	78.25
289.062	86.25
289.293	91.25
289.524	82.25
289.755	79.25
289.986	91.25
290.217	76.25
290.448	86.25
290.679	84.25
290.91	76.25
291.141	83.25
291.371	86.25
291.602	73.25
291.833	81.25
292.064	93.25
292.295	84.25
292.526	84.25
292.757	82.25
292.987	76.25
293.218	91.25
293.449	79.25
293.68	94.25
293.91	84.25
294.141	87.25
294.372	85.25
294.603	87.25
294.833	85.25
295.064	83.25
295.295	82.25
295.525	76.25
295.756	82.25
295.987	80.25
296.217	75.25
296.448	71.25
296.679	79.25
296.909	71.25
297.14	78.25
297.37	100.25
297.601	89.25
297.831	84.25
298.062	98.25
298.292	74.25
298.523	80.25
298.753	94.25
298.984	89.25
299.214	81.25
299.445	81.25
299.675	87.25
299.905	89.25
300.136	76.25
300.366	82.25
300.597	89.25
300.827	94.25
301.057	88.25
301.288	91.25
301.518	85.25
301.748	84.25
301.979	105.25
302.209	80.25
302.439	84.25
302.669	82.25
302.9	89.25
303.13	90.25
303.36	94.25
303.59	74.25
303.82	84.25
304.051	86.25
304.281	78.25
304.511	83.25
304.741	86.25
304.971	86.25
305.201	75.25
305.431	94.25
305.661	83.25
305.891	77.25
306.121	78.25
306.352	72.25
306.582	94.25
306.812	91.25
307.042	84.25
307.272	91.25
307.502	94.25
307.731	86.25
307.961	76.25
308.191	84.25
308.421	98.25
308.651	83.25
308.881	87.25
309.111	86.25
309.341	74.25
309.571	85.25
309.8	83.25
310.03	79.25
310.26	80.25
310.49	92.25
310.72	87.25
310.949	100.25
311.179	99.25
311.409	74.25
311.639	64.25
311.868	84.25
312.098	79.25
312.328	86.25
312.557	77.25
312.787	74.25
313.017	82.25
313.246	83.25
313.476	76.25
313.706	90.25
313.935	88.25
314.165	66.25
314.394	96.25
314.624	85.25
314.853	81.25
315.083	101.25
315.312	62.25
315.542	94.25
315.771	88.25
316.001	75.25
316.23	86.25
316.46	88.25
316.689	76.25
316.919	82.25
317.148	93.25
317.377	85.25
317.607	89.25
317.836	90.25
318.065	79.25
318.295	78.25
318.524	84.25
318.753	76.25
318.983	80.25
319.212	94.25
319.441	98.25
319.67	83.25
319.9	88.25
320.129	83.25
320.358	91.25
320.587	85.25
320.816	94.25
321.046	86.25
321.275	75.25
321.504	83.25
321.733	91.25
321.962	94.25
322.191	98.25
322.42	77.25
322.649	83.25
322.878	80.25
323.108	87.25
323.337	98.25
323.566	88.25
323.795	84.25
324.024	86.25
324.253	78.25
324.482	72.25
324.71	75.25
324.939	87.25
325.168	84.25
325.397	94.25
325.626	95.25
325.855	87.25
326.084	89.25
326.313	86.25
326.542	98.25
326.77	86.25
326.999	94.25
327.228	83.25
327.457	92.25
327.686	109.25
327.914	100.25
328.143	79.25
328.372	85.25
328.6	95.25
328.829	102.25
329.058	93.25
329.287	89.25
329.515	88.25
329.744	90.25
329.972	82.25
330.201	87.25
330.43	99.25
330.658	89.25
330.887	94.25
331.115	92.25
331.344	80.25
331.572	91.25
331.801	75.25
332.03	91.25
332.258	94.25
332.486	79.25
332.715	82.25
332.943	79.25
333.172	74.25
333.4	75.25
333.629	78.25
333.857	80.25
334.085	78.25
334.314	77.25
334.542	81.25
334.771	74.25
334.999	84.25
335.227	79.25
335.455	82.25
335.684	69.25
335.912	76.25
336.14	92.25
336.369	81.25
336.597	85.25
336.825	90.25
337.053	98.25
337.281	88.25
337.51	84.25
337.738	83.25
337.966	71.25
338.194	85.25
338.422	82.25
338.65	84.25
338.878	82.25
339.106	85.25
339.334	89.25
339.562	87.25
339.79	89.25
340.018	90.25
340.246	87.25
340.474	84.25
340.702	80.25
340.93	88.25
341.158	88.25
341.386	76.25
341.614	84.25
341.842	75.25
342.07	78.25
342.298	84.25
342.526	82.25
342.754	87.25
342.981	72.25
343.209	70.25
343.437	90.25
343.665	89.25
343.893	96.25
344.12	99.25
344.348	94.25
344.576	80.25
344.804	93.25
345.031	85.25
345.259	89.25
345.487	95.25
345.714	80.25
345.942	91.25
346.17	86.25
346.397	91.25
346.625	91.25
346.853	80.25
347.08	86.25
347.308	94.25
347.535	93.25
347.763	97.25
347.99	94.25
348.218	86.25
348.445	95.25
348.673	92.25
348.9	63.25
349.128	92.25
349.355	77.25
349.583	85.25
349.81	73.25
350.037	81.25
350.265	86.25
350.492	95.25
350.72	97.25
350.947	87.25
351.174	84.25
351.402	84.25
351.629	81.25
351.856	88.25
352.083	87.25
352.311	88.25
352.538	74.25
352.765	85.25
352.992	94.25
353.22	83.25
353.447	81.25
353.674	105.25
353.901	86.25
354.128	96.25
354.355	85.25
354.583	85.25
354.81	87.25
355.037	85.25
355.264	85.25
355.491	81.25
355.718	78.25
355.945	92.25
356.172	79.25
356.399	81.25
356.626	93.25
356.853	106.25
357.08	83.25
357.307	86.25
357.534	88.25
357.761	72.25
357.988	84.25
358.215	86.25
358.441	82.25
358.668	85.25
358.895	85.25
359.122	79.25
359.349	79.25
359.576	88.25
359.802	77.25
360.029	75.25
360.256	94.25
360.483	89.25
360.709	80.25
360.936	97.25
361.163	91.25
361.39	78.25
361.616	82.25
361.843	79.25
362.07	86.25
362.296	88.25
362.523	78.25
362.749	84.25
362.976	82.25
363.203	91.25
363.429	85.25
363.656	99.25
363.882	82.25
364.109	89.25
364.335	97.25
364.562	80.25
364.788	84.25
365.015	82.25
365.241	78.25
365.468	93.25
365.694	80.25
365.92	83.25
366.147	82.25
366.373	78.25
366.599	91.25
366.826	79.25
367.052	83.25
367.278	83.25
367.505	95.25
367.731	69.25
367.957	92.25
368.184	87.25
368.41	81.25
368.636	98.25
368.862	90.25
369.089	93.25
369.315	95.25
369.541	84.25
369.767	98.25
369.993	106.25
370.219	89.25
370.445	87.25
370.672	88.25
370.898	96.25
371.124	90.25
371.35	102.25
371.576	93.25
371.802	85.25
372.028	94.25
372.254	81.25
372.48	91.25
372.706	92.25
372.932	88.25
373.158	89.25
373.384	100.25
373.61	89.25
373.835	96.25
374.061	82.25
374.287	83.25
374.513	99.25
374.739	95.25
374.965	93.25
375.191	91.25
375.416	93.25
375.642	104.25
375.868	103.25
376.094	94.25
376.319	100.25
376.545	111.25
376.771	78.25
376.997	88.25
377.222	92.25
377.448	101.25
377.674	94.25
377.899	101.25
378.125	101.25
378.35	100.25
378.576	92.25
378.802	103.25
379.027	97.25
379.253	82.25
379.478	102.25
379.704	95.25
379.929	98.25
380.155	106.25
380.38	90.25
380.606	94.25
380.831	92.25
381.057	101.25
381.282	89.25
381.507	93.25
381.733	101.25
381.958	99.25
382.184	91.25
382.409	91.25
382.634	87.25
382.86	101.25
383.085	98.25
383.31	95.25
383.535	93.25
383.761	93.25
383.986	104.25
384.211	83.25
384.436	98.25
384.662	101.25
384.887	98.25
385.112	95.25
385.337	88.25
385.562	103.25
385.787	98.25
386.013	110.25
386.238	98.25
386.463	92.25
386.688	102.25
386.913	105.25
387.138	100.25
387.363	111.25
387.588	93.25
387.813	106.25
388.038	109.25
388.263	102.25
388.488	91.25
388.713	89.25
388.938	112.25
389.163	114.25
389.387	114.25
389.612	110.25
389.837	92.25
390.062	82.25
390.287	99.25
390.512	103.25
390.736	106.25
390.961	106.25
391.186	99.25
391.411	96.25
391.636	98.25
391.86	100.25
392.085	107.25
392.31	94.25
392.534	121.25
392.759	91.25
392.984	89.25
393.208	103.25
393.433	115.25
393.658	112.25
393.882	98.25
394.107	121.25
394.331	107.25
394.556	102.25
394.78	95.25
395.005	98.25
395.229	117.25
395.454	108.25
395.678	114.25
395.903	102.25
396.127	99.25
396.352	114.25
396.576	98.25
396.801	102.25
397.025	107.25
397.249	108.25
397.474	119.25
397.698	118.25
397.922	122.25
398.147	93.25
398.371	108.25
398.595	121.25
398.82	103.25
399.044	108.25
399.268	126.25
399.492	106.25
399.717	116.25
399.941	118.25
400.165	94.25
400.389	94.25
400.613	107.25
400.837	117.25
401.062	118.25
401.286	117.25
401.51	117.25
401.734	107.25
401.958	122.25
402.182	125.25
402.406	106.25
402.63	122.25
402.854	106.25
403.078	111.25
403.302	114.25
403.526	115.25
403.75	103.25
403.974	117.25
404.198	122.25
404.422	120.25
404.645	106.25
404.869	106.25
405.093	115.25
405.317	125.25
405.541	125.25
405.765	114.25
405.988	120.25
406.212	133.25
406.436	117.25
406.66	107.25
406.883	98.25
407.107	118.25
407.331	103.25
407.555	127.25
407.778	125.25
408.002	122.25
408.226	117.25
408.449	113.25
408.673	125.25
408.896	103.25
409.12	100.25
409.344	126.25
409.567	122.25
409.791	142.25
410.014	134.25
410.238	117.25
410.461	116.25
410.685	123.25
410.908	126.25
411.132	120.25
411.355	124.25
411.578	125.25
411.802	114.25
412.025	127.25
412.249	118.25
412.472	109.25
412.695	124.25
412.919	130.25
413.142	126.25
413.365	115.25
413.589	137.25
413.812	124.25
414.035	137.25
414.258	117.25
414.482	124.25
414.705	140.25
414.928	132.25
415.151	122.25
415.374	131.25
415.597	116.25
415.821	122.25
416.044	115.25
416.267	107.25
416.49	115.25
416.713	134.25
416.936	130.25
417.159	109.25
417.382	123.25
417.605	124.25
417.828	118.25
418.051	130.25
418.274	144.25
418.497	132.25
418.72	136.25
418.943	131.25
419.166	121.25
419.389	134.25
419.611	140.25
419.834	136.25
420.057	127.25
420.28	143.25
420.503	142.25
420.726	129.25
420.948	132.25
421.171	127.25
421.394	118.25
421.617	128.25
421.839	116.25
422.062	128.25
422.285	132.25
422.507	125.25
422.73	122.25
422.953	125.25
423.175	125.25
423.398	141.25
423.621	122.25
423.843	137.25
424.066	149.25
424.288	131.25
424.511	130.25
424.733	135.25
424.956	130.25
425.178	131.25
425.401	147.25
425.623	125.25
425.846	143.25
426.068	124.25
426.291	129.25
426.513	138.25
426.735	127.25
426.958	126.25
427.18	126.25
427.402	151.25
427.625	124.25
427.847	137.25
428.069	126.25
428.292	140.25
428.514	126.25
428.736	140.25
428.958	134.25
429.181	124.25
429.403	124.25
429.625	126.25
429.847	142.25
430.069	139.25
430.292	135.25
430.514	133.25
430.736	138.25
430.958	123.25
431.18	129.25
431.402	126.25
431.624	134.25
431.846	106.25
432.068	100.25
432.29	93.25
432.512	107.25
432.734	118.25
432.956	133.25
433.178	128.25
433.4	140.25
433.622	134.25
433.844	138.25
434.066	120.25
434.287	108.25
434.509	97.25
434.731	99.25
434.953	101.25
435.175	121.25
435.397	125.25
435.618	114.25
435.84	87.25
436.062	97.25
436.284	118.25
436.505	131.25
436.727	147.25
436.949	133.25
437.17	120.25
437.392	133.25
437.614	127.25
437.835	117.25
438.057	110.25
438.278	119.25
438.5	115.25
438.721	125.25
438.943	131.25
439.165	155.25
439.386	142.25
439.608	143.25
439.829	131.25
440.05	145.25
440.272	158.25
440.493	144.25
440.715	135.25
440.936	150.25
441.158	147.25
441.379	143.25
441.6	147.25
441.822	142.25
442.043	130.25
442.264	130.25
442.486	155.25
442.707	141.25
442.928	130.25
443.149	128.25
443.371	130.25
443.592	130.25
443.813	129.25
444.034	126.25
444.255	124.25
444.476	140.25
444.698	132.25
444.919	150.25
445.14	286.25
445.361	215.25
445.582	142.25
445.803	138.25
446.024	150.25
446.245	142.25
446.466	154.25
446.687	162.25
446.908	157.25
447.129	153.25
447.35	149.25
447.571	168.25
447.792	139.25
448.013	142.25
448.234	150.25
448.455	143.25
448.675	144.25
448.896	137.25
449.117	140.25
449.338	120.25
449.559	130.25
449.779	127.25
450	126.25
450.221	140.25
450.442	144.25
450.662	147.25
450.883	137.25
451.104	130.25
451.324	135.25
451.545	144.25
451.766	127.25
451.986	131.25
452.207	126.25
452.428	140.25
452.648	130.25
452.869	122.25
453.089	122.25
453.31	124.25
453.53	117.25
453.751	106.25
453.971	94.25
454.192	102.25
454.412	114.25
454.633	114.25
454.853	117.25
455.073	112.25
455.294	124.25
455.514	131.25
455.734	107.25
455.955	106.25
456.175	121.25
456.395	111.25
456.616	104.25
456.836	114.25
457.056	119.25
457.276	108.25
457.497	105.25
457.717	104.25
457.937	126.25
458.157	100.25
458.377	102.25
458.598	95.25
458.818	95.25
459.038	85.25
459.258	94.25
459.478	101.25
459.698	101.25
459.918	107.25
460.138	112.25
460.358	119.25
460.578	109.25
460.798	126.25
461.018	107.25
461.238	118.25
461.458	129.25
461.678	114.25
461.898	116.25
462.118	107.25
462.338	113.25
462.558	123.25
462.777	122.25
462.997	118.25
463.217	109.25
463.437	107.25
463.657	109.25
463.876	104.25
464.096	113.25
464.316	116.25
464.536	129.25
464.755	115.25
464.975	118.25
465.195	104.25
465.414	116.25
465.634	116.25
465.854	122.25
466.073	117.25
466.293	128.25
466.512	141.25
466.732	136.25
466.951	136.25
467.171	134.25
467.391	140.25
467.61	142.25
467.829	120.25
468.049	119.25
468.268	123.25
468.488	131.25
468.707	127.25
468.927	152.25
469.146	140.25
469.365	127.25
469.585	135.25
469.804	124.25
470.023	143.25
470.243	134.25
470.462	159.25
470.681	130.25
470.901	143.25
471.12	143.25
471.339	132.25
471.558	142.25
471.777	130.25
471.997	137.25
472.216	125.25
472.435	103.25
472.654	116.25
472.873	121.25
473.092	118.25
473.311	114.25
473.53	127.25
473.749	125.25
473.968	136.25
474.187	108.25
474.406	115.25
474.625	107.25
474.844	136.25
475.063	138.25
475.282	132.25
475.501	118.25
475.72	116.25
475.939	123.25
476.158	118.25
476.377	130.25
476.596	111.25
476.814	118.25
477.033	102.25
477.252	107.25
477.471	124.25
477.69	126.25
477.908	131.25
478.127	127.25
478.346	136.25
478.564	134.25
478.783	139.25
479.002	135.25
479.22	119.25
479.439	126.25
479.658	142.25
479.876	118.25
480.095	93.25
480.313	112.25
480.532	127.25
480.751	118.25
480.969	97.25
481.188	84.25
481.406	94.25
481.624	85.25
481.843	103.25
482.061	103.25
482.28	115.25
482.498	107.25
482.717	112.25
482.935	120.25
483.153	148.25
483.372	152.25
483.59	150.25
483.808	131.25
484.027	135.25
484.245	135.25
484.463	132.25
484.681	172.25
484.9	141.25
485.118	134.25
485.336	144.25
485.554	108.25
485.772	107.25
485.99	104.25
486.209	117.25
486.427	106.25
486.645	104.25
486.863	133.25
487.081	135.25
487.299	143.25
487.517	143.25
487.735	159.25
487.953	180.25
488.171	168.25
488.389	178.25
488.607	158.25
488.825	132.25
489.043	147.25
489.261	140.25
489.479	134.25
489.696	140.25
489.914	139.25
490.132	155.25
490.35	161.25
490.568	146.25
490.786	164.25
491.003	174.25
491.221	178.25
491.439	188.25
491.657	193.25
491.874	203.25
492.092	215.25
492.31	228.25
492.527	225.25
492.745	190.25
492.963	180.25
493.18	175.25
493.398	180.25
493.615	174.25
493.833	168.25
494.05	185.25
494.268	160.25
494.485	171.25
494.703	162.25
494.92	163.25
495.138	159.25
495.355	188.25
495.573	151.25
495.79	167.25
496.008	180.25
496.225	165.25
496.442	170.25
496.66	155.25
496.877	156.25
497.094	167.25
497.312	158.25
497.529	144.25
497.746	145.25
497.963	142.25
498.181	134.25
498.398	122.25
498.615	123.25
498.832	112.25
499.049	122.25
499.267	116.25
499.484	122.25
499.701	117.25
499.918	138.25
500.135	128.25
500.352	137.25
500.569	148.25
500.786	140.25
501.003	143.25
501.22	135.25
501.437	127.25
501.654	133.25
501.871	143.25
502.088	136.25
502.305	125.25
502.522	129.25
502.739	119.25
502.956	131.25
503.172	142.25
503.389	120.25
503.606	125.25
503.823	122.25
504.04	110.25
504.256	118.25
504.473	107.25
504.69	111.25
504.907	127.25
505.123	118.25
505.34	114.25
505.557	132.25
505.773	117.25
505.99	127.25
506.207	123.25
506.423	123.25
506.64	129.25
506.856	116.25
507.073	105.25
507.289	125.25
507.506	108.25
507.722	122.25
507.939	118.25
508.155	119.25
508.372	108.25
508.588	116.25
508.805	108.25
509.021	114.25
509.238	109.25
509.454	104.25
509.67	93.25
509.887	94.25
510.103	99.25
510.319	82.25
510.536	95.25
510.752	89.25
510.968	92.25
511.184	82.25
511.401	78.25
511.617	78.25
