Data from Location1.07152019.Energy5.Lamp.07192019.3%Agarose_HRD10591_14-31-29-015.txt Node
Date: Fri Jul 19 14:31:29 EDT 2019
User: cochatt
Spectrometer: HR+D1059
Trigger mode: 1
Integration Time (sec): 1.000000E-1
Scans to average: 1
Electric dark correction enabled: true
Nonlinearity correction enabled: false
Boxcar width: 0
XAxis mode: Wavelengths
Number of Pixels in Spectrum: 2048
>>>>>Begin Spectral Data<<<<<
223.165	-4.44
223.4	-4.44
223.635	-4.44
223.869	-13.44
224.104	-9.44
224.338	-10.44
224.573	-21.44
224.808	-8.44
225.042	-2.44
225.277	-2.44
225.511	-7.44
225.746	-2.44
225.98	1.56
226.215	2.56
226.449	19.56
226.683	12.56
226.918	23.56
227.152	22.56
227.387	31.56
227.621	40.56
227.856	53.56
228.09	59.56
228.324	36.56
228.559	58.56
228.793	54.56
229.027	62.56
229.262	56.56
229.496	67.56
229.73	75.56
229.964	73.56
230.199	69.56
230.433	66.56
230.667	81.56
230.901	59.56
231.136	77.56
231.37	77.56
231.604	76.56
231.838	65.56
232.072	76.56
232.306	81.56
232.541	84.56
232.775	85.56
233.009	85.56
233.243	88.56
233.477	82.56
233.711	82.56
233.945	89.56
234.179	67.56
234.413	68.56
234.647	80.56
234.881	82.56
235.115	75.56
235.349	78.56
235.583	81.56
235.817	76.56
236.051	69.56
236.285	78.56
236.519	73.56
236.753	85.56
236.987	92.56
237.221	67.56
237.455	77.56
237.689	69.56
237.922	74.56
238.156	71.56
238.39	57.56
238.624	66.56
238.858	68.56
239.091	70.56
239.325	66.56
239.559	82.56
239.793	73.56
240.027	72.56
240.26	70.56
240.494	82.56
240.728	64.56
240.961	76.56
241.195	80.56
241.429	84.56
241.662	74.56
241.896	68.56
242.13	77.56
242.363	73.56
242.597	71.56
242.83	92.56
243.064	75.56
243.298	72.56
243.531	77.56
243.765	74.56
243.998	84.56
244.232	77.56
244.465	77.56
244.699	67.56
244.932	86.56
245.166	72.56
245.399	86.56
245.633	68.56
245.866	63.56
246.099	82.56
246.333	66.56
246.566	95.56
246.8	75.56
247.033	85.56
247.266	73.56
247.5	69.56
247.733	77.56
247.966	70.56
248.2	78.56
248.433	83.56
248.666	73.56
248.899	89.56
249.133	69.56
249.366	77.56
249.599	75.56
249.832	77.56
250.066	93.56
250.299	80.56
250.532	73.56
250.765	74.56
250.998	67.56
251.231	76.56
251.465	87.56
251.698	72.56
251.931	78.56
252.164	84.56
252.397	64.56
252.63	89.56
252.863	87.56
253.096	73.56
253.329	88.56
253.562	76.56
253.795	68.56
254.028	100.56
254.261	89.56
254.494	70.56
254.727	75.56
254.96	75.56
255.193	74.56
255.426	75.56
255.659	74.56
255.892	80.56
256.124	77.56
256.357	88.56
256.59	83.56
256.823	85.56
257.056	93.56
257.289	76.56
257.521	70.56
257.754	81.56
257.987	78.56
258.22	77.56
258.452	82.56
258.685	82.56
258.918	76.56
259.151	85.56
259.383	71.56
259.616	69.56
259.849	76.56
260.081	72.56
260.314	65.56
260.547	82.56
260.779	84.56
261.012	83.56
261.244	90.56
261.477	86.56
261.71	81.56
261.942	81.56
262.175	82.56
262.407	58.56
262.64	89.56
262.872	78.56
263.105	83.56
263.337	88.56
263.57	69.56
263.802	74.56
264.035	67.56
264.267	82.56
264.499	92.56
264.732	86.56
264.964	74.56
265.197	81.56
265.429	74.56
265.661	86.56
265.894	81.56
266.126	79.56
266.358	79.56
266.591	77.56
266.823	77.56
267.055	88.56
267.287	83.56
267.52	84.56
267.752	80.56
267.984	81.56
268.216	65.56
268.448	81.56
268.681	67.56
268.913	72.56
269.145	69.56
269.377	89.56
269.609	84.56
269.841	88.56
270.073	83.56
270.306	77.56
270.538	70.56
270.77	86.56
271.002	95.56
271.234	82.56
271.466	94.56
271.698	83.56
271.93	88.56
272.162	86.56
272.394	91.56
272.626	78.56
272.858	92.56
273.09	92.56
273.322	81.56
273.553	87.56
273.785	75.56
274.017	79.56
274.249	67.56
274.481	91.56
274.713	92.56
274.945	78.56
275.176	74.56
275.408	73.56
275.64	80.56
275.872	85.56
276.104	81.56
276.335	79.56
276.567	90.56
276.799	91.56
277.031	81.56
277.262	87.56
277.494	99.56
277.726	88.56
277.957	89.56
278.189	81.56
278.421	66.56
278.652	81.56
278.884	80.56
279.115	86.56
279.347	80.56
279.579	77.56
279.81	79.56
280.042	87.56
280.273	93.56
280.505	77.56
280.736	77.56
280.968	96.56
281.199	94.56
281.431	86.56
281.662	83.56
281.894	96.56
282.125	84.56
282.356	86.56
282.588	95.56
282.819	84.56
283.051	75.56
283.282	79.56
283.513	85.56
283.745	97.56
283.976	93.56
284.207	84.56
284.439	77.56
284.67	72.56
284.901	80.56
285.132	71.56
285.364	92.56
285.595	84.56
285.826	76.56
286.057	79.56
286.288	79.56
286.52	81.56
286.751	83.56
286.982	79.56
287.213	74.56
287.444	84.56
287.675	81.56
287.906	75.56
288.138	72.56
288.369	84.56
288.6	79.56
288.831	82.56
289.062	87.56
289.293	90.56
289.524	85.56
289.755	94.56
289.986	84.56
290.217	79.56
290.448	68.56
290.679	93.56
290.91	91.56
291.141	86.56
291.371	91.56
291.602	96.56
291.833	84.56
292.064	85.56
292.295	85.56
292.526	71.56
292.757	80.56
292.987	84.56
293.218	76.56
293.449	80.56
293.68	101.56
293.91	90.56
294.141	73.56
294.372	92.56
294.603	86.56
294.833	76.56
295.064	74.56
295.295	83.56
295.525	74.56
295.756	81.56
295.987	85.56
296.217	82.56
296.448	90.56
296.679	85.56
296.909	80.56
297.14	90.56
297.37	88.56
297.601	82.56
297.831	91.56
298.062	69.56
298.292	73.56
298.523	82.56
298.753	85.56
298.984	76.56
299.214	84.56
299.445	100.56
299.675	80.56
299.905	86.56
300.136	80.56
300.366	86.56
300.597	77.56
300.827	85.56
301.057	81.56
301.288	98.56
301.518	78.56
301.748	84.56
301.979	86.56
302.209	75.56
302.439	77.56
302.669	87.56
302.9	80.56
303.13	76.56
303.36	78.56
303.59	82.56
303.82	82.56
304.051	68.56
304.281	82.56
304.511	89.56
304.741	86.56
304.971	101.56
305.201	92.56
305.431	70.56
305.661	66.56
305.891	90.56
306.121	71.56
306.352	79.56
306.582	78.56
306.812	87.56
307.042	89.56
307.272	82.56
307.502	88.56
307.731	76.56
307.961	91.56
308.191	81.56
308.421	96.56
308.651	76.56
308.881	77.56
309.111	84.56
309.341	67.56
309.571	84.56
309.8	87.56
310.03	91.56
310.26	84.56
310.49	75.56
310.72	64.56
310.949	90.56
311.179	85.56
311.409	81.56
311.639	72.56
311.868	79.56
312.098	81.56
312.328	85.56
312.557	87.56
312.787	98.56
313.017	83.56
313.246	86.56
313.476	90.56
313.706	87.56
313.935	75.56
314.165	76.56
314.394	104.56
314.624	78.56
314.853	89.56
315.083	73.56
315.312	77.56
315.542	78.56
315.771	94.56
316.001	78.56
316.23	81.56
316.46	80.56
316.689	83.56
316.919	78.56
317.148	66.56
317.377	75.56
317.607	84.56
317.836	91.56
318.065	89.56
318.295	94.56
318.524	90.56
318.753	73.56
318.983	86.56
319.212	96.56
319.441	79.56
319.67	84.56
319.9	85.56
320.129	96.56
320.358	92.56
320.587	78.56
320.816	82.56
321.046	84.56
321.275	88.56
321.504	77.56
321.733	82.56
321.962	77.56
322.191	77.56
322.42	83.56
322.649	75.56
322.878	92.56
323.108	75.56
323.337	87.56
323.566	91.56
323.795	75.56
324.024	84.56
324.253	88.56
324.482	94.56
324.71	84.56
324.939	81.56
325.168	85.56
325.397	83.56
325.626	96.56
325.855	82.56
326.084	78.56
326.313	93.56
326.542	90.56
326.77	77.56
326.999	88.56
327.228	85.56
327.457	86.56
327.686	85.56
327.914	86.56
328.143	93.56
328.372	93.56
328.6	91.56
328.829	86.56
329.058	72.56
329.287	76.56
329.515	75.56
329.744	77.56
329.972	77.56
330.201	84.56
330.43	91.56
330.658	88.56
330.887	68.56
331.115	84.56
331.344	61.56
331.572	87.56
331.801	78.56
332.03	84.56
332.258	94.56
332.486	92.56
332.715	84.56
332.943	73.56
333.172	95.56
333.4	84.56
333.629	94.56
333.857	83.56
334.085	80.56
334.314	77.56
334.542	75.56
334.771	84.56
334.999	88.56
335.227	72.56
335.455	78.56
335.684	99.56
335.912	72.56
336.14	94.56
336.369	87.56
336.597	79.56
336.825	83.56
337.053	68.56
337.281	83.56
337.51	91.56
337.738	91.56
337.966	82.56
338.194	82.56
338.422	79.56
338.65	82.56
338.878	77.56
339.106	75.56
339.334	74.56
339.562	81.56
339.79	66.56
340.018	83.56
340.246	77.56
340.474	85.56
340.702	77.56
340.93	68.56
341.158	91.56
341.386	87.56
341.614	68.56
341.842	83.56
342.07	90.56
342.298	72.56
342.526	81.56
342.754	86.56
342.981	84.56
343.209	80.56
343.437	79.56
343.665	87.56
343.893	91.56
344.12	89.56
344.348	69.56
344.576	69.56
344.804	71.56
345.031	75.56
345.259	81.56
345.487	84.56
345.714	87.56
345.942	72.56
346.17	92.56
346.397	81.56
346.625	96.56
346.853	74.56
347.08	93.56
347.308	88.56
347.535	74.56
347.763	84.56
347.99	71.56
348.218	87.56
348.445	87.56
348.673	88.56
348.9	82.56
349.128	86.56
349.355	81.56
349.583	71.56
349.81	90.56
350.037	83.56
350.265	95.56
350.492	91.56
350.72	74.56
350.947	79.56
351.174	85.56
351.402	94.56
351.629	78.56
351.856	79.56
352.083	77.56
352.311	87.56
352.538	75.56
352.765	82.56
352.992	78.56
353.22	73.56
353.447	78.56
353.674	104.56
353.901	76.56
354.128	75.56
354.355	81.56
354.583	82.56
354.81	91.56
355.037	75.56
355.264	80.56
355.491	77.56
355.718	86.56
355.945	89.56
356.172	73.56
356.399	82.56
356.626	84.56
356.853	94.56
357.08	90.56
357.307	78.56
357.534	96.56
357.761	78.56
357.988	88.56
358.215	89.56
358.441	83.56
358.668	84.56
358.895	91.56
359.122	80.56
359.349	88.56
359.576	79.56
359.802	74.56
360.029	70.56
360.256	99.56
360.483	79.56
360.709	71.56
360.936	86.56
361.163	91.56
361.39	77.56
361.616	94.56
361.843	76.56
362.07	78.56
362.296	79.56
362.523	72.56
362.749	74.56
362.976	91.56
363.203	96.56
363.429	90.56
363.656	86.56
363.882	88.56
364.109	95.56
364.335	88.56
364.562	95.56
364.788	94.56
365.015	81.56
365.241	76.56
365.468	88.56
365.694	74.56
365.92	82.56
366.147	76.56
366.373	95.56
366.599	90.56
366.826	84.56
367.052	89.56
367.278	93.56
367.505	79.56
367.731	91.56
367.957	82.56
368.184	79.56
368.41	87.56
368.636	83.56
368.862	79.56
369.089	89.56
369.315	85.56
369.541	85.56
369.767	87.56
369.993	86.56
370.219	90.56
370.445	88.56
370.672	90.56
370.898	85.56
371.124	96.56
371.35	88.56
371.576	97.56
371.802	91.56
372.028	85.56
372.254	94.56
372.48	93.56
372.706	93.56
372.932	94.56
373.158	99.56
373.384	92.56
373.61	89.56
373.835	89.56
374.061	93.56
374.287	96.56
374.513	86.56
374.739	84.56
374.965	105.56
375.191	80.56
375.416	101.56
375.642	85.56
375.868	98.56
376.094	100.56
376.319	89.56
376.545	80.56
376.771	85.56
376.997	92.56
377.222	89.56
377.448	106.56
377.674	101.56
377.899	91.56
378.125	94.56
378.35	80.56
378.576	87.56
378.802	98.56
379.027	96.56
379.253	76.56
379.478	99.56
379.704	90.56
379.929	71.56
380.155	93.56
380.38	93.56
380.606	82.56
380.831	92.56
381.057	88.56
381.282	92.56
381.507	108.56
381.733	89.56
381.958	98.56
382.184	86.56
382.409	79.56
382.634	97.56
382.86	104.56
383.085	95.56
383.31	96.56
383.535	86.56
383.761	90.56
383.986	106.56
384.211	103.56
384.436	104.56
384.662	93.56
384.887	90.56
385.112	93.56
385.337	100.56
385.562	107.56
385.787	93.56
386.013	95.56
386.238	91.56
386.463	91.56
386.688	96.56
386.913	95.56
387.138	79.56
387.363	94.56
387.588	101.56
387.813	98.56
388.038	110.56
388.263	113.56
388.488	98.56
388.713	102.56
388.938	95.56
389.163	101.56
389.387	110.56
389.612	98.56
389.837	99.56
390.062	94.56
390.287	100.56
390.512	118.56
390.736	114.56
390.961	106.56
391.186	102.56
391.411	109.56
391.636	101.56
391.86	94.56
392.085	97.56
392.31	90.56
392.534	101.56
392.759	84.56
392.984	105.56
393.208	94.56
393.433	102.56
393.658	92.56
393.882	101.56
394.107	92.56
394.331	102.56
394.556	117.56
394.78	108.56
395.005	97.56
395.229	105.56
395.454	103.56
395.678	106.56
395.903	117.56
396.127	95.56
396.352	100.56
396.576	111.56
396.801	90.56
397.025	102.56
397.249	118.56
397.474	108.56
397.698	108.56
397.922	115.56
398.147	107.56
398.371	85.56
398.595	110.56
398.82	113.56
399.044	105.56
399.268	101.56
399.492	115.56
399.717	118.56
399.941	106.56
400.165	102.56
400.389	103.56
400.613	116.56
400.837	132.56
401.062	109.56
401.286	108.56
401.51	112.56
401.734	126.56
401.958	132.56
402.182	109.56
402.406	120.56
402.63	106.56
402.854	112.56
403.078	93.56
403.302	105.56
403.526	121.56
403.75	115.56
403.974	107.56
404.198	125.56
404.422	126.56
404.645	112.56
404.869	109.56
405.093	108.56
405.317	109.56
405.541	115.56
405.765	114.56
405.988	113.56
406.212	109.56
406.436	103.56
406.66	114.56
406.883	107.56
407.107	112.56
407.331	115.56
407.555	128.56
407.778	106.56
408.002	112.56
408.226	114.56
408.449	101.56
408.673	116.56
408.896	121.56
409.12	107.56
409.344	124.56
409.567	115.56
409.791	118.56
410.014	115.56
410.238	119.56
410.461	128.56
410.685	124.56
410.908	111.56
411.132	120.56
411.355	122.56
411.578	97.56
411.802	128.56
412.025	105.56
412.249	130.56
412.472	107.56
412.695	101.56
412.919	107.56
413.142	126.56
413.365	121.56
413.589	128.56
413.812	125.56
414.035	112.56
414.258	117.56
414.482	109.56
414.705	123.56
414.928	132.56
415.151	136.56
415.374	110.56
415.597	118.56
415.821	120.56
416.044	114.56
416.267	124.56
416.49	118.56
416.713	115.56
416.936	122.56
417.159	128.56
417.382	116.56
417.605	130.56
417.828	119.56
418.051	121.56
418.274	131.56
418.497	139.56
418.72	126.56
418.943	126.56
419.166	132.56
419.389	138.56
419.611	122.56
419.834	140.56
420.057	136.56
420.28	130.56
420.503	139.56
420.726	132.56
420.948	126.56
421.171	134.56
421.394	134.56
421.617	141.56
421.839	137.56
422.062	138.56
422.285	134.56
422.507	125.56
422.73	119.56
422.953	115.56
423.175	107.56
423.398	138.56
423.621	124.56
423.843	126.56
424.066	137.56
424.288	140.56
424.511	152.56
424.733	157.56
424.956	135.56
425.178	136.56
425.401	132.56
425.623	139.56
425.846	108.56
426.068	131.56
426.291	130.56
426.513	130.56
426.735	142.56
426.958	106.56
427.18	125.56
427.402	128.56
427.625	130.56
427.847	143.56
428.069	122.56
428.292	108.56
428.514	125.56
428.736	131.56
428.958	120.56
429.181	126.56
429.403	126.56
429.625	132.56
429.847	125.56
430.069	132.56
430.292	126.56
430.514	119.56
430.736	134.56
430.958	134.56
431.18	140.56
431.402	123.56
431.624	109.56
431.846	109.56
432.068	89.56
432.29	85.56
432.512	113.56
432.734	128.56
432.956	125.56
433.178	132.56
433.4	132.56
433.622	124.56
433.844	132.56
434.066	133.56
434.287	104.56
434.509	79.56
434.731	109.56
434.953	105.56
435.175	134.56
435.397	117.56
435.618	128.56
435.84	104.56
436.062	113.56
436.284	120.56
436.505	124.56
436.727	124.56
436.949	125.56
437.17	115.56
437.392	129.56
437.614	123.56
437.835	105.56
438.057	93.56
438.278	107.56
438.5	111.56
438.721	134.56
438.943	134.56
439.165	135.56
439.386	146.56
439.608	146.56
439.829	162.56
440.05	140.56
440.272	139.56
440.493	141.56
440.715	151.56
440.936	150.56
441.158	145.56
441.379	144.56
441.6	142.56
441.822	146.56
442.043	134.56
442.264	147.56
442.486	133.56
442.707	132.56
442.928	139.56
443.149	148.56
443.371	129.56
443.592	129.56
443.813	135.56
444.034	133.56
444.255	136.56
444.476	138.56
444.698	145.56
444.919	145.56
445.14	260.56
445.361	197.56
445.582	151.56
445.803	128.56
446.024	140.56
446.245	144.56
446.466	140.56
446.687	150.56
446.908	148.56
447.129	158.56
447.35	149.56
447.571	149.56
447.792	146.56
448.013	132.56
448.234	159.56
448.455	133.56
448.675	140.56
448.896	124.56
449.117	137.56
449.338	117.56
449.559	124.56
449.779	152.56
450	131.56
450.221	138.56
450.442	137.56
450.662	121.56
450.883	130.56
451.104	131.56
451.324	132.56
451.545	134.56
451.766	130.56
451.986	110.56
452.207	128.56
452.428	114.56
452.648	107.56
452.869	114.56
453.089	108.56
453.31	120.56
453.53	114.56
453.751	121.56
453.971	114.56
454.192	106.56
454.412	107.56
454.633	115.56
454.853	129.56
455.073	124.56
455.294	122.56
455.514	128.56
455.734	134.56
455.955	122.56
456.175	119.56
456.395	107.56
456.616	120.56
456.836	115.56
457.056	102.56
457.276	101.56
457.497	102.56
457.717	106.56
457.937	108.56
458.157	97.56
458.377	103.56
458.598	108.56
458.818	101.56
459.038	99.56
459.258	88.56
459.478	85.56
459.698	100.56
459.918	74.56
460.138	109.56
460.358	109.56
460.578	116.56
460.798	111.56
461.018	131.56
461.238	109.56
461.458	119.56
461.678	124.56
461.898	109.56
462.118	115.56
462.338	122.56
462.558	108.56
462.777	104.56
462.997	116.56
463.217	104.56
463.437	121.56
463.657	123.56
463.876	104.56
464.096	106.56
464.316	109.56
464.536	116.56
464.755	117.56
464.975	120.56
465.195	124.56
465.414	120.56
465.634	109.56
465.854	130.56
466.073	122.56
466.293	123.56
466.512	130.56
466.732	120.56
466.951	133.56
467.171	136.56
467.391	144.56
467.61	131.56
467.829	126.56
468.049	126.56
468.268	121.56
468.488	142.56
468.707	125.56
468.927	131.56
469.146	126.56
469.365	145.56
469.585	139.56
469.804	128.56
470.023	134.56
470.243	131.56
470.462	152.56
470.681	146.56
470.901	134.56
471.12	139.56
471.339	132.56
471.558	135.56
471.777	131.56
471.997	127.56
472.216	124.56
472.435	119.56
472.654	120.56
472.873	96.56
473.092	120.56
473.311	114.56
473.53	111.56
473.749	108.56
473.968	134.56
474.187	135.56
474.406	126.56
474.625	119.56
474.844	142.56
475.063	119.56
475.282	129.56
475.501	113.56
475.72	125.56
475.939	128.56
476.158	121.56
476.377	118.56
476.596	128.56
476.814	115.56
477.033	116.56
477.252	113.56
477.471	120.56
477.69	131.56
477.908	122.56
478.127	136.56
478.346	130.56
478.564	134.56
478.783	127.56
479.002	137.56
479.22	128.56
479.439	128.56
479.658	124.56
479.876	119.56
480.095	113.56
480.313	112.56
480.532	118.56
480.751	107.56
480.969	90.56
481.188	81.56
481.406	103.56
481.624	85.56
481.843	81.56
482.061	100.56
482.28	105.56
482.498	113.56
482.717	120.56
482.935	118.56
483.153	138.56
483.372	157.56
483.59	139.56
483.808	114.56
484.027	123.56
484.245	132.56
484.463	134.56
484.681	163.56
484.9	157.56
485.118	125.56
485.336	107.56
485.554	104.56
485.772	102.56
485.99	82.56
486.209	105.56
486.427	94.56
486.645	133.56
486.863	135.56
487.081	135.56
487.299	144.56
487.517	125.56
487.735	146.56
487.953	178.56
488.171	180.56
488.389	164.56
488.607	156.56
488.825	147.56
489.043	134.56
489.261	141.56
489.479	122.56
489.696	140.56
489.914	141.56
490.132	130.56
490.35	157.56
490.568	144.56
490.786	153.56
491.003	162.56
491.221	190.56
491.439	168.56
491.657	185.56
491.874	194.56
492.092	208.56
492.31	219.56
492.527	209.56
492.745	198.56
492.963	194.56
493.18	186.56
493.398	176.56
493.615	179.56
493.833	166.56
494.05	163.56
494.268	173.56
494.485	179.56
494.703	176.56
494.92	162.56
495.138	168.56
495.355	164.56
495.573	169.56
495.79	177.56
496.008	164.56
496.225	147.56
496.442	155.56
496.66	156.56
496.877	145.56
497.094	180.56
497.312	150.56
497.529	146.56
497.746	148.56
497.963	137.56
498.181	123.56
498.398	131.56
498.615	136.56
498.832	124.56
499.049	117.56
499.267	120.56
499.484	123.56
499.701	125.56
499.918	119.56
500.135	140.56
500.352	138.56
500.569	130.56
500.786	138.56
501.003	138.56
501.22	133.56
501.437	147.56
501.654	132.56
501.871	120.56
502.088	142.56
502.305	138.56
502.522	125.56
502.739	125.56
502.956	119.56
503.172	110.56
503.389	125.56
503.606	125.56
503.823	118.56
504.04	140.56
504.256	126.56
504.473	120.56
504.69	132.56
504.907	116.56
505.123	116.56
505.34	111.56
505.557	122.56
505.773	110.56
505.99	117.56
506.207	119.56
506.423	104.56
506.64	111.56
506.856	124.56
507.073	124.56
507.289	132.56
507.506	109.56
507.722	112.56
507.939	106.56
508.155	110.56
508.372	120.56
508.588	106.56
508.805	91.56
509.021	119.56
509.238	113.56
509.454	103.56
509.67	99.56
509.887	94.56
510.103	86.56
510.319	97.56
510.536	90.56
510.752	90.56
510.968	90.56
511.184	73.56
511.401	85.56
511.617	96.56
511.833	91.56
