Data from Location1.07152019.Energy5.Lamp.07192019.3%Agarose_HRD10591_14-32-11-016.txt Node
Date: Fri Jul 19 14:32:11 EDT 2019
User: cochatt
Spectrometer: HR+D1059
Trigger mode: 1
Integration Time (sec): 1.000000E-1
Scans to average: 1
Electric dark correction enabled: true
Nonlinearity correction enabled: false
Boxcar width: 0
XAxis mode: Wavelengths
Number of Pixels in Spectrum: 2048
>>>>>Begin Spectral Data<<<<<
223.165	-11.5
223.4	-11.5
223.635	-11.5
223.869	-22.5
224.104	-24.5
224.338	-23.5
224.573	-15.5
224.808	-13.5
225.042	-13.5
225.277	3.5
225.511	4.5
225.746	0.5
225.98	2.5
226.215	14.5
226.449	11.5
226.683	29.5
226.918	25.5
227.152	32.5
227.387	32.5
227.621	33.5
227.856	49.5
228.09	54.5
228.324	64.5
228.559	65.5
228.793	65.5
229.027	71.5
229.262	69.5
229.496	75.5
229.73	81.5
229.964	72.5
230.199	73.5
230.433	67.5
230.667	64.5
230.901	92.5
231.136	80.5
231.37	85.5
231.604	83.5
231.838	98.5
232.072	91.5
232.306	75.5
232.541	78.5
232.775	77.5
233.009	85.5
233.243	88.5
233.477	76.5
233.711	84.5
233.945	73.5
234.179	78.5
234.413	75.5
234.647	75.5
234.881	87.5
235.115	68.5
235.349	95.5
235.583	78.5
235.817	80.5
236.051	74.5
236.285	70.5
236.519	101.5
236.753	77.5
236.987	81.5
237.221	79.5
237.455	74.5
237.689	78.5
237.922	84.5
238.156	64.5
238.39	75.5
238.624	74.5
238.858	66.5
239.091	84.5
239.325	85.5
239.559	84.5
239.793	73.5
240.027	88.5
240.26	80.5
240.494	86.5
240.728	78.5
240.961	74.5
241.195	70.5
241.429	85.5
241.662	88.5
241.896	82.5
242.13	86.5
242.363	79.5
242.597	76.5
242.83	74.5
243.064	78.5
243.298	72.5
243.531	76.5
243.765	72.5
243.998	70.5
244.232	83.5
244.465	82.5
244.699	88.5
244.932	50.5
245.166	67.5
245.399	73.5
245.633	80.5
245.866	83.5
246.099	83.5
246.333	71.5
246.566	84.5
246.8	71.5
247.033	91.5
247.266	86.5
247.5	68.5
247.733	87.5
247.966	88.5
248.2	91.5
248.433	82.5
248.666	89.5
248.899	78.5
249.133	73.5
249.366	79.5
249.599	75.5
249.832	79.5
250.066	88.5
250.299	80.5
250.532	81.5
250.765	87.5
250.998	72.5
251.231	81.5
251.465	67.5
251.698	58.5
251.931	79.5
252.164	74.5
252.397	84.5
252.63	82.5
252.863	88.5
253.096	71.5
253.329	76.5
253.562	90.5
253.795	94.5
254.028	90.5
254.261	73.5
254.494	72.5
254.727	79.5
254.96	74.5
255.193	84.5
255.426	80.5
255.659	79.5
255.892	86.5
256.124	80.5
256.357	90.5
256.59	81.5
256.823	65.5
257.056	72.5
257.289	88.5
257.521	86.5
257.754	79.5
257.987	84.5
258.22	92.5
258.452	88.5
258.685	88.5
258.918	87.5
259.151	76.5
259.383	79.5
259.616	86.5
259.849	92.5
260.081	88.5
260.314	94.5
260.547	86.5
260.779	78.5
261.012	96.5
261.244	81.5
261.477	84.5
261.71	82.5
261.942	77.5
262.175	91.5
262.407	82.5
262.64	92.5
262.872	82.5
263.105	88.5
263.337	77.5
263.57	78.5
263.802	81.5
264.035	98.5
264.267	90.5
264.499	79.5
264.732	96.5
264.964	101.5
265.197	97.5
265.429	69.5
265.661	72.5
265.894	74.5
266.126	60.5
266.358	86.5
266.591	67.5
266.823	78.5
267.055	70.5
267.287	81.5
267.52	77.5
267.752	79.5
267.984	88.5
268.216	92.5
268.448	79.5
268.681	88.5
268.913	85.5
269.145	83.5
269.377	88.5
269.609	86.5
269.841	85.5
270.073	89.5
270.306	72.5
270.538	87.5
270.77	65.5
271.002	86.5
271.234	88.5
271.466	78.5
271.698	95.5
271.93	85.5
272.162	97.5
272.394	77.5
272.626	75.5
272.858	90.5
273.09	89.5
273.322	83.5
273.553	73.5
273.785	98.5
274.017	80.5
274.249	73.5
274.481	78.5
274.713	88.5
274.945	86.5
275.176	82.5
275.408	82.5
275.64	76.5
275.872	91.5
276.104	87.5
276.335	88.5
276.567	95.5
276.799	87.5
277.031	80.5
277.262	74.5
277.494	95.5
277.726	77.5
277.957	84.5
278.189	72.5
278.421	77.5
278.652	82.5
278.884	85.5
279.115	88.5
279.347	84.5
279.579	77.5
279.81	80.5
280.042	80.5
280.273	91.5
280.505	89.5
280.736	82.5
280.968	81.5
281.199	90.5
281.431	74.5
281.662	80.5
281.894	82.5
282.125	89.5
282.356	83.5
282.588	86.5
282.819	92.5
283.051	82.5
283.282	83.5
283.513	92.5
283.745	78.5
283.976	81.5
284.207	77.5
284.439	85.5
284.67	96.5
284.901	89.5
285.132	72.5
285.364	87.5
285.595	96.5
285.826	89.5
286.057	78.5
286.288	76.5
286.52	82.5
286.751	97.5
286.982	94.5
287.213	87.5
287.444	78.5
287.675	76.5
287.906	88.5
288.138	84.5
288.369	86.5
288.6	98.5
288.831	92.5
289.062	88.5
289.293	93.5
289.524	79.5
289.755	89.5
289.986	98.5
290.217	95.5
290.448	93.5
290.679	84.5
290.91	89.5
291.141	90.5
291.371	80.5
291.602	75.5
291.833	85.5
292.064	95.5
292.295	71.5
292.526	95.5
292.757	90.5
292.987	77.5
293.218	88.5
293.449	90.5
293.68	83.5
293.91	79.5
294.141	77.5
294.372	80.5
294.603	101.5
294.833	76.5
295.064	90.5
295.295	84.5
295.525	85.5
295.756	96.5
295.987	92.5
296.217	87.5
296.448	77.5
296.679	84.5
296.909	86.5
297.14	71.5
297.37	85.5
297.601	81.5
297.831	83.5
298.062	88.5
298.292	86.5
298.523	84.5
298.753	86.5
298.984	82.5
299.214	100.5
299.445	80.5
299.675	98.5
299.905	94.5
300.136	86.5
300.366	81.5
300.597	90.5
300.827	81.5
301.057	72.5
301.288	86.5
301.518	95.5
301.748	88.5
301.979	91.5
302.209	71.5
302.439	68.5
302.669	92.5
302.9	88.5
303.13	78.5
303.36	80.5
303.59	94.5
303.82	104.5
304.051	99.5
304.281	101.5
304.511	91.5
304.741	77.5
304.971	88.5
305.201	89.5
305.431	92.5
305.661	93.5
305.891	82.5
306.121	83.5
306.352	92.5
306.582	93.5
306.812	94.5
307.042	82.5
307.272	75.5
307.502	76.5
307.731	96.5
307.961	95.5
308.191	94.5
308.421	83.5
308.651	79.5
308.881	79.5
309.111	72.5
309.341	93.5
309.571	93.5
309.8	95.5
310.03	84.5
310.26	87.5
310.49	79.5
310.72	93.5
310.949	82.5
311.179	77.5
311.409	89.5
311.639	74.5
311.868	89.5
312.098	83.5
312.328	88.5
312.557	84.5
312.787	89.5
313.017	96.5
313.246	83.5
313.476	95.5
313.706	91.5
313.935	80.5
314.165	89.5
314.394	103.5
314.624	97.5
314.853	90.5
315.083	81.5
315.312	85.5
315.542	91.5
315.771	93.5
316.001	78.5
316.23	85.5
316.46	94.5
316.689	82.5
316.919	93.5
317.148	91.5
317.377	89.5
317.607	86.5
317.836	78.5
318.065	82.5
318.295	90.5
318.524	84.5
318.753	85.5
318.983	89.5
319.212	73.5
319.441	77.5
319.67	82.5
319.9	87.5
320.129	76.5
320.358	55.5
320.587	73.5
320.816	88.5
321.046	78.5
321.275	93.5
321.504	88.5
321.733	90.5
321.962	84.5
322.191	88.5
322.42	88.5
322.649	77.5
322.878	107.5
323.108	89.5
323.337	86.5
323.566	79.5
323.795	92.5
324.024	86.5
324.253	91.5
324.482	92.5
324.71	82.5
324.939	85.5
325.168	97.5
325.397	102.5
325.626	79.5
325.855	89.5
326.084	96.5
326.313	94.5
326.542	93.5
326.77	87.5
326.999	74.5
327.228	92.5
327.457	84.5
327.686	84.5
327.914	83.5
328.143	90.5
328.372	102.5
328.6	87.5
328.829	70.5
329.058	78.5
329.287	86.5
329.515	87.5
329.744	78.5
329.972	61.5
330.201	87.5
330.43	96.5
330.658	77.5
330.887	94.5
331.115	87.5
331.344	88.5
331.572	102.5
331.801	92.5
332.03	95.5
332.258	89.5
332.486	76.5
332.715	87.5
332.943	87.5
333.172	94.5
333.4	81.5
333.629	88.5
333.857	75.5
334.085	74.5
334.314	80.5
334.542	83.5
334.771	65.5
334.999	78.5
335.227	89.5
335.455	90.5
335.684	94.5
335.912	93.5
336.14	85.5
336.369	90.5
336.597	81.5
336.825	71.5
337.053	81.5
337.281	76.5
337.51	86.5
337.738	90.5
337.966	80.5
338.194	93.5
338.422	80.5
338.65	86.5
338.878	82.5
339.106	83.5
339.334	86.5
339.562	89.5
339.79	76.5
340.018	101.5
340.246	82.5
340.474	80.5
340.702	84.5
340.93	92.5
341.158	87.5
341.386	87.5
341.614	74.5
341.842	96.5
342.07	84.5
342.298	79.5
342.526	85.5
342.754	86.5
342.981	85.5
343.209	77.5
343.437	88.5
343.665	77.5
343.893	81.5
344.12	87.5
344.348	85.5
344.576	97.5
344.804	82.5
345.031	86.5
345.259	85.5
345.487	76.5
345.714	84.5
345.942	85.5
346.17	89.5
346.397	75.5
346.625	86.5
346.853	92.5
347.08	89.5
347.308	99.5
347.535	83.5
347.763	93.5
347.99	79.5
348.218	76.5
348.445	81.5
348.673	82.5
348.9	90.5
349.128	82.5
349.355	79.5
349.583	94.5
349.81	85.5
350.037	79.5
350.265	86.5
350.492	98.5
350.72	82.5
350.947	89.5
351.174	80.5
351.402	80.5
351.629	98.5
351.856	99.5
352.083	81.5
352.311	80.5
352.538	79.5
352.765	78.5
352.992	84.5
353.22	92.5
353.447	88.5
353.674	93.5
353.901	88.5
354.128	89.5
354.355	64.5
354.583	72.5
354.81	82.5
355.037	77.5
355.264	76.5
355.491	81.5
355.718	75.5
355.945	76.5
356.172	90.5
356.399	92.5
356.626	76.5
356.853	74.5
357.08	77.5
357.307	83.5
357.534	86.5
357.761	85.5
357.988	87.5
358.215	104.5
358.441	78.5
358.668	68.5
358.895	82.5
359.122	78.5
359.349	81.5
359.576	82.5
359.802	80.5
360.029	87.5
360.256	85.5
360.483	90.5
360.709	101.5
360.936	100.5
361.163	82.5
361.39	95.5
361.616	81.5
361.843	81.5
362.07	96.5
362.296	82.5
362.523	88.5
362.749	74.5
362.976	96.5
363.203	84.5
363.429	87.5
363.656	82.5
363.882	85.5
364.109	86.5
364.335	82.5
364.562	79.5
364.788	93.5
365.015	78.5
365.241	82.5
365.468	97.5
365.694	88.5
365.92	90.5
366.147	93.5
366.373	75.5
366.599	89.5
366.826	89.5
367.052	103.5
367.278	89.5
367.505	79.5
367.731	92.5
367.957	79.5
368.184	88.5
368.41	80.5
368.636	94.5
368.862	85.5
369.089	93.5
369.315	89.5
369.541	110.5
369.767	91.5
369.993	79.5
370.219	90.5
370.445	98.5
370.672	100.5
370.898	88.5
371.124	89.5
371.35	98.5
371.576	95.5
371.802	97.5
372.028	90.5
372.254	96.5
372.48	90.5
372.706	88.5
372.932	101.5
373.158	94.5
373.384	90.5
373.61	90.5
373.835	90.5
374.061	91.5
374.287	92.5
374.513	92.5
374.739	88.5
374.965	92.5
375.191	101.5
375.416	83.5
375.642	106.5
375.868	112.5
376.094	104.5
376.319	93.5
376.545	70.5
376.771	84.5
376.997	83.5
377.222	86.5
377.448	91.5
377.674	90.5
377.899	93.5
378.125	84.5
378.35	84.5
378.576	100.5
378.802	93.5
379.027	102.5
379.253	90.5
379.478	93.5
379.704	88.5
379.929	88.5
380.155	102.5
380.38	98.5
380.606	101.5
380.831	95.5
381.057	100.5
381.282	94.5
381.507	102.5
381.733	89.5
381.958	90.5
382.184	92.5
382.409	91.5
382.634	97.5
382.86	111.5
383.085	105.5
383.31	108.5
383.535	94.5
383.761	101.5
383.986	95.5
384.211	105.5
384.436	96.5
384.662	100.5
384.887	109.5
385.112	102.5
385.337	93.5
385.562	89.5
385.787	98.5
386.013	105.5
386.238	74.5
386.463	92.5
386.688	103.5
386.913	97.5
387.138	94.5
387.363	98.5
387.588	101.5
387.813	105.5
388.038	122.5
388.263	99.5
388.488	108.5
388.713	89.5
388.938	109.5
389.163	104.5
389.387	110.5
389.612	91.5
389.837	100.5
390.062	101.5
390.287	117.5
390.512	96.5
390.736	105.5
390.961	103.5
391.186	95.5
391.411	97.5
391.636	118.5
391.86	113.5
392.085	99.5
392.31	100.5
392.534	96.5
392.759	100.5
392.984	107.5
393.208	124.5
393.433	106.5
393.658	101.5
393.882	112.5
394.107	103.5
394.331	105.5
394.556	112.5
394.78	98.5
395.005	117.5
395.229	104.5
395.454	114.5
395.678	110.5
395.903	109.5
396.127	106.5
396.352	105.5
396.576	116.5
396.801	118.5
397.025	96.5
397.249	96.5
397.474	116.5
397.698	123.5
397.922	110.5
398.147	109.5
398.371	106.5
398.595	113.5
398.82	93.5
399.044	113.5
399.268	113.5
399.492	120.5
399.717	125.5
399.941	112.5
400.165	122.5
400.389	116.5
400.613	121.5
400.837	114.5
401.062	113.5
401.286	117.5
401.51	103.5
401.734	113.5
401.958	124.5
402.182	109.5
402.406	111.5
402.63	112.5
402.854	109.5
403.078	114.5
403.302	114.5
403.526	105.5
403.75	101.5
403.974	92.5
404.198	113.5
404.422	119.5
404.645	132.5
404.869	110.5
405.093	119.5
405.317	116.5
405.541	116.5
405.765	119.5
405.988	129.5
406.212	113.5
406.436	120.5
406.66	114.5
406.883	114.5
407.107	127.5
407.331	118.5
407.555	116.5
407.778	113.5
408.002	118.5
408.226	118.5
408.449	111.5
408.673	115.5
408.896	103.5
409.12	110.5
409.344	128.5
409.567	125.5
409.791	116.5
410.014	120.5
410.238	123.5
410.461	126.5
410.685	116.5
410.908	121.5
411.132	125.5
411.355	117.5
411.578	125.5
411.802	114.5
412.025	127.5
412.249	134.5
412.472	124.5
412.695	123.5
412.919	114.5
413.142	128.5
413.365	121.5
413.589	113.5
413.812	120.5
414.035	103.5
414.258	120.5
414.482	121.5
414.705	107.5
414.928	128.5
415.151	128.5
415.374	105.5
415.597	124.5
415.821	126.5
416.044	128.5
416.267	124.5
416.49	128.5
416.713	128.5
416.936	125.5
417.159	136.5
417.382	127.5
417.605	117.5
417.828	118.5
418.051	124.5
418.274	132.5
418.497	126.5
418.72	126.5
418.943	129.5
419.166	127.5
419.389	141.5
419.611	136.5
419.834	133.5
420.057	137.5
420.28	129.5
420.503	125.5
420.726	129.5
420.948	141.5
421.171	151.5
421.394	135.5
421.617	134.5
421.839	154.5
422.062	130.5
422.285	120.5
422.507	138.5
422.73	137.5
422.953	125.5
423.175	137.5
423.398	134.5
423.621	127.5
423.843	140.5
424.066	128.5
424.288	150.5
424.511	139.5
424.733	154.5
424.956	138.5
425.178	134.5
425.401	133.5
425.623	126.5
425.846	140.5
426.068	118.5
426.291	126.5
426.513	127.5
426.735	124.5
426.958	128.5
427.18	138.5
427.402	128.5
427.625	116.5
427.847	128.5
428.069	124.5
428.292	135.5
428.514	116.5
428.736	117.5
428.958	114.5
429.181	111.5
429.403	120.5
429.625	132.5
429.847	117.5
430.069	136.5
430.292	137.5
430.514	116.5
430.736	118.5
430.958	144.5
431.18	125.5
431.402	117.5
431.624	120.5
431.846	101.5
432.068	103.5
432.29	97.5
432.512	116.5
432.734	138.5
432.956	128.5
433.178	156.5
433.4	135.5
433.622	143.5
433.844	130.5
434.066	118.5
434.287	108.5
434.509	92.5
434.731	108.5
434.953	105.5
435.175	118.5
435.397	136.5
435.618	123.5
435.84	101.5
436.062	111.5
436.284	121.5
436.505	126.5
436.727	127.5
436.949	120.5
437.17	138.5
437.392	126.5
437.614	124.5
437.835	121.5
438.057	125.5
438.278	117.5
438.5	129.5
438.721	138.5
438.943	135.5
439.165	134.5
439.386	134.5
439.608	153.5
439.829	154.5
440.05	156.5
440.272	143.5
440.493	150.5
440.715	154.5
440.936	146.5
441.158	132.5
441.379	136.5
441.6	136.5
441.822	153.5
442.043	140.5
442.264	129.5
442.486	147.5
442.707	132.5
442.928	117.5
443.149	136.5
443.371	150.5
443.592	139.5
443.813	137.5
444.034	138.5
444.255	140.5
444.476	150.5
444.698	133.5
444.919	129.5
445.14	275.5
445.361	202.5
445.582	146.5
445.803	148.5
446.024	137.5
446.245	142.5
446.466	140.5
446.687	159.5
446.908	173.5
447.129	156.5
447.35	154.5
447.571	156.5
447.792	141.5
448.013	153.5
448.234	148.5
448.455	136.5
448.675	139.5
448.896	157.5
449.117	132.5
449.338	140.5
449.559	145.5
449.779	132.5
450	133.5
450.221	125.5
450.442	144.5
450.662	135.5
450.883	140.5
451.104	141.5
451.324	126.5
451.545	134.5
451.766	135.5
451.986	124.5
452.207	123.5
452.428	126.5
452.648	125.5
452.869	104.5
453.089	124.5
453.31	127.5
453.53	112.5
453.751	107.5
453.971	99.5
454.192	115.5
454.412	104.5
454.633	103.5
454.853	118.5
455.073	132.5
455.294	117.5
455.514	117.5
455.734	129.5
455.955	126.5
456.175	126.5
456.395	107.5
456.616	113.5
456.836	121.5
457.056	101.5
457.276	104.5
457.497	103.5
457.717	113.5
457.937	100.5
458.157	92.5
458.377	109.5
458.598	100.5
458.818	87.5
459.038	89.5
459.258	91.5
459.478	88.5
459.698	90.5
459.918	96.5
460.138	109.5
460.358	113.5
460.578	126.5
460.798	116.5
461.018	120.5
461.238	120.5
461.458	128.5
461.678	124.5
461.898	120.5
462.118	119.5
462.338	116.5
462.558	117.5
462.777	114.5
462.997	122.5
463.217	118.5
463.437	119.5
463.657	108.5
463.876	102.5
464.096	121.5
464.316	118.5
464.536	117.5
464.755	118.5
464.975	122.5
465.195	121.5
465.414	106.5
465.634	113.5
465.854	124.5
466.073	123.5
466.293	126.5
466.512	119.5
466.732	138.5
466.951	150.5
467.171	115.5
467.391	143.5
467.61	118.5
467.829	122.5
468.049	137.5
468.268	144.5
468.488	125.5
468.707	146.5
468.927	129.5
469.146	125.5
469.365	133.5
469.585	125.5
469.804	133.5
470.023	129.5
470.243	137.5
470.462	159.5
470.681	141.5
470.901	137.5
471.12	130.5
471.339	146.5
471.558	146.5
471.777	134.5
471.997	144.5
472.216	129.5
472.435	109.5
472.654	105.5
472.873	125.5
473.092	120.5
473.311	127.5
473.53	121.5
473.749	122.5
473.968	132.5
474.187	133.5
474.406	122.5
474.625	118.5
474.844	128.5
475.063	126.5
475.282	140.5
475.501	118.5
475.72	128.5
475.939	133.5
476.158	124.5
476.377	126.5
476.596	117.5
476.814	125.5
477.033	108.5
477.252	121.5
477.471	123.5
477.69	141.5
477.908	138.5
478.127	140.5
478.346	144.5
478.564	127.5
478.783	133.5
479.002	128.5
479.22	132.5
479.439	135.5
479.658	123.5
479.876	111.5
480.095	102.5
480.313	116.5
480.532	111.5
480.751	104.5
480.969	99.5
481.188	102.5
481.406	94.5
481.624	88.5
481.843	82.5
482.061	107.5
482.28	99.5
482.498	94.5
482.717	114.5
482.935	120.5
483.153	154.5
483.372	141.5
483.59	141.5
483.808	133.5
484.027	142.5
484.245	129.5
484.463	144.5
484.681	164.5
484.9	155.5
485.118	142.5
485.336	132.5
485.554	118.5
485.772	118.5
485.99	98.5
486.209	107.5
486.427	126.5
486.645	111.5
486.863	132.5
487.081	126.5
487.299	133.5
487.517	140.5
487.735	176.5
487.953	188.5
488.171	162.5
488.389	159.5
488.607	163.5
488.825	131.5
489.043	140.5
489.261	127.5
489.479	130.5
489.696	132.5
489.914	144.5
490.132	148.5
490.35	144.5
490.568	153.5
490.786	168.5
491.003	164.5
491.221	166.5
491.439	182.5
491.657	184.5
491.874	199.5
492.092	235.5
492.31	240.5
492.527	226.5
492.745	206.5
492.963	206.5
493.18	182.5
493.398	185.5
493.615	183.5
493.833	173.5
494.05	175.5
494.268	173.5
494.485	165.5
494.703	171.5
494.92	176.5
495.138	174.5
495.355	171.5
495.573	167.5
495.79	169.5
496.008	161.5
496.225	159.5
496.442	170.5
496.66	170.5
496.877	173.5
497.094	175.5
497.312	158.5
497.529	146.5
497.746	155.5
497.963	129.5
498.181	124.5
498.398	114.5
498.615	132.5
498.832	110.5
499.049	113.5
499.267	121.5
499.484	123.5
499.701	129.5
499.918	125.5
500.135	140.5
500.352	124.5
500.569	146.5
500.786	138.5
501.003	135.5
501.22	129.5
501.437	136.5
501.654	127.5
501.871	132.5
502.088	132.5
502.305	144.5
502.522	126.5
502.739	125.5
502.956	120.5
503.172	122.5
503.389	117.5
503.606	134.5
503.823	117.5
504.04	119.5
504.256	118.5
504.473	125.5
504.69	123.5
504.907	111.5
505.123	131.5
505.34	132.5
505.557	128.5
505.773	117.5
505.99	142.5
506.207	106.5
506.423	116.5
506.64	129.5
506.856	124.5
507.073	128.5
507.289	129.5
507.506	121.5
507.722	126.5
507.939	108.5
508.155	103.5
508.372	124.5
508.588	106.5
508.805	105.5
509.021	110.5
509.238	102.5
509.454	111.5
509.67	103.5
509.887	102.5
510.103	96.5
510.319	93.5
510.536	96.5
510.752	83.5
510.968	85.5
511.184	74.5
511.401	93.5
511.617	86.5
511.833	95.5
512.049	95.5
512.265	94.5
512.481	94.5
512.698	85.5
512.914	81.5
513.13	94.5
513.346	95.5
513.562	89.5
513.778	106.5
513.994	91.5
514.21	98.5
514.426	112.5
514.642	89.5
514.858	77.5
515.074	102.5
515.29	105.5
515.506	95.5
515.721	90.5
515.937	101.5
516.153	87.5
516.369	77.5
516.585	103.5
516.801	87.5
517.016	87.5
517.232	106.5
517.448	99.5
517.664	99.5
517.879	92.5
518.095	87.5
518.311	97.5
518.527	92.5
518.742	106.5
518.958	105.5
519.173	116.5
519.389	104.5
519.605	106.5
519.82	113.5
520.036	106.5
520.251	109.5
520.467	95.5
520.682	99.5
520.898	98.5
521.113	104.5
521.329	95.5
521.544	96.5
521.76	87.5
521.975	90.5
522.19	111.5
522.406	98.5
522.621	95.5
522.836	105.5
523.052	118.5
523.267	98.5
523.482	90.5
523.698	104.5
523.913	98.5
524.128	123.5
524.343	125.5
524.559	122.5
524.774	109.5
524.989	121.5
525.204	112.5
525.419	126.5
525.634	122.5
525.849	118.5
526.064	102.5
526.28	102.5
526.495	106.5
526.71	96.5
526.925	90.5
527.14	72.5
527.355	88.5
527.57	82.5
527.785	84.5
527.999	116.5
528.214	106.5
528.429	103.5
528.644	130.5
528.859	144.5
529.074	134.5
529.289	181.5
529.503	165.5
529.718	134.5
529.933	128.5
530.148	108.5
530.363	103.5
530.577	92.5
