Data from Location1.07152019.Energy5.Lamp.07192019.3%Agarose_HRD10591_14-32-32-015.txt Node
Date: Fri Jul 19 14:32:32 EDT 2019
User: cochatt
Spectrometer: HR+D1059
Trigger mode: 1
Integration Time (sec): 1.000000E-1
Scans to average: 1
Electric dark correction enabled: true
Nonlinearity correction enabled: false
Boxcar width: 0
XAxis mode: Wavelengths
Number of Pixels in Spectrum: 2048
>>>>>Begin Spectral Data<<<<<
223.165	-23.19
223.4	-23.19
223.635	-23.19
223.869	-23.19
224.104	-0.19
224.338	-11.19
224.573	-4.19
224.808	-11.19
225.042	-2.19
225.277	-6.19
225.511	-7.19
225.746	-13.19
225.98	3.81
226.215	1.81
226.449	17.81
226.683	19.81
226.918	22.81
227.152	35.81
227.387	42.81
227.621	31.81
227.856	42.81
228.09	45.81
228.324	47.81
228.559	47.81
228.793	53.81
229.027	67.81
229.262	57.81
229.496	79.81
229.73	71.81
229.964	85.81
230.199	84.81
230.433	72.81
230.667	79.81
230.901	81.81
231.136	77.81
231.37	74.81
231.604	67.81
231.838	89.81
232.072	89.81
232.306	87.81
232.541	88.81
232.775	79.81
233.009	87.81
233.243	84.81
233.477	77.81
233.711	74.81
233.945	83.81
234.179	95.81
234.413	90.81
234.647	70.81
234.881	74.81
235.115	74.81
235.349	90.81
235.583	82.81
235.817	62.81
236.051	53.81
236.285	83.81
236.519	88.81
236.753	77.81
236.987	79.81
237.221	76.81
237.455	82.81
237.689	73.81
237.922	92.81
238.156	82.81
238.39	82.81
238.624	87.81
238.858	81.81
239.091	66.81
239.325	77.81
239.559	76.81
239.793	85.81
240.027	70.81
240.26	85.81
240.494	75.81
240.728	87.81
240.961	80.81
241.195	75.81
241.429	86.81
241.662	74.81
241.896	75.81
242.13	79.81
242.363	66.81
242.597	58.81
242.83	63.81
243.064	84.81
243.298	86.81
243.531	87.81
243.765	91.81
243.998	76.81
244.232	88.81
244.465	77.81
244.699	70.81
244.932	75.81
245.166	83.81
245.399	77.81
245.633	69.81
245.866	94.81
246.099	78.81
246.333	100.81
246.566	72.81
246.8	76.81
247.033	72.81
247.266	64.81
247.5	80.81
247.733	84.81
247.966	86.81
248.2	76.81
248.433	64.81
248.666	90.81
248.899	97.81
249.133	84.81
249.366	80.81
249.599	70.81
249.832	71.81
250.066	93.81
250.299	68.81
250.532	79.81
250.765	79.81
250.998	78.81
251.231	83.81
251.465	85.81
251.698	82.81
251.931	86.81
252.164	90.81
252.397	81.81
252.63	84.81
252.863	79.81
253.096	86.81
253.329	68.81
253.562	67.81
253.795	88.81
254.028	94.81
254.261	76.81
254.494	83.81
254.727	83.81
254.96	76.81
255.193	94.81
255.426	77.81
255.659	80.81
255.892	81.81
256.124	66.81
256.357	66.81
256.59	83.81
256.823	79.81
257.056	78.81
257.289	77.81
257.521	80.81
257.754	73.81
257.987	83.81
258.22	83.81
258.452	77.81
258.685	83.81
258.918	99.81
259.151	82.81
259.383	77.81
259.616	71.81
259.849	77.81
260.081	78.81
260.314	77.81
260.547	64.81
260.779	77.81
261.012	74.81
261.244	90.81
261.477	83.81
261.71	82.81
261.942	81.81
262.175	78.81
262.407	73.81
262.64	80.81
262.872	90.81
263.105	80.81
263.337	71.81
263.57	79.81
263.802	85.81
264.035	86.81
264.267	84.81
264.499	68.81
264.732	73.81
264.964	81.81
265.197	77.81
265.429	93.81
265.661	78.81
265.894	84.81
266.126	83.81
266.358	74.81
266.591	81.81
266.823	69.81
267.055	76.81
267.287	91.81
267.52	88.81
267.752	93.81
267.984	85.81
268.216	83.81
268.448	89.81
268.681	85.81
268.913	77.81
269.145	72.81
269.377	79.81
269.609	83.81
269.841	73.81
270.073	98.81
270.306	89.81
270.538	87.81
270.77	83.81
271.002	84.81
271.234	75.81
271.466	87.81
271.698	83.81
271.93	85.81
272.162	92.81
272.394	93.81
272.626	89.81
272.858	82.81
273.09	86.81
273.322	89.81
273.553	82.81
273.785	81.81
274.017	78.81
274.249	71.81
274.481	73.81
274.713	75.81
274.945	79.81
275.176	83.81
275.408	76.81
275.64	87.81
275.872	89.81
276.104	81.81
276.335	86.81
276.567	80.81
276.799	77.81
277.031	91.81
277.262	97.81
277.494	87.81
277.726	85.81
277.957	74.81
278.189	88.81
278.421	84.81
278.652	84.81
278.884	74.81
279.115	86.81
279.347	80.81
279.579	78.81
279.81	93.81
280.042	81.81
280.273	86.81
280.505	71.81
280.736	84.81
280.968	85.81
281.199	79.81
281.431	81.81
281.662	87.81
281.894	93.81
282.125	80.81
282.356	103.81
282.588	85.81
282.819	76.81
283.051	84.81
283.282	84.81
283.513	81.81
283.745	88.81
283.976	80.81
284.207	85.81
284.439	82.81
284.67	81.81
284.901	84.81
285.132	80.81
285.364	75.81
285.595	73.81
285.826	77.81
286.057	78.81
286.288	87.81
286.52	90.81
286.751	89.81
286.982	79.81
287.213	78.81
287.444	86.81
287.675	86.81
287.906	83.81
288.138	94.81
288.369	90.81
288.6	84.81
288.831	84.81
289.062	74.81
289.293	67.81
289.524	91.81
289.755	88.81
289.986	90.81
290.217	89.81
290.448	91.81
290.679	86.81
290.91	105.81
291.141	79.81
291.371	84.81
291.602	91.81
291.833	80.81
292.064	85.81
292.295	70.81
292.526	93.81
292.757	78.81
292.987	85.81
293.218	85.81
293.449	95.81
293.68	94.81
293.91	94.81
294.141	108.81
294.372	100.81
294.603	75.81
294.833	81.81
295.064	73.81
295.295	76.81
295.525	78.81
295.756	94.81
295.987	95.81
296.217	90.81
296.448	80.81
296.679	92.81
296.909	86.81
297.14	82.81
297.37	93.81
297.601	92.81
297.831	83.81
298.062	87.81
298.292	76.81
298.523	78.81
298.753	87.81
298.984	79.81
299.214	92.81
299.445	87.81
299.675	92.81
299.905	82.81
300.136	85.81
300.366	91.81
300.597	83.81
300.827	88.81
301.057	97.81
301.288	79.81
301.518	85.81
301.748	85.81
301.979	76.81
302.209	89.81
302.439	100.81
302.669	73.81
302.9	99.81
303.13	97.81
303.36	84.81
303.59	85.81
303.82	70.81
304.051	78.81
304.281	80.81
304.511	86.81
304.741	84.81
304.971	70.81
305.201	86.81
305.431	87.81
305.661	89.81
305.891	75.81
306.121	96.81
306.352	83.81
306.582	79.81
306.812	84.81
307.042	99.81
307.272	90.81
307.502	90.81
307.731	77.81
307.961	73.81
308.191	106.81
308.421	93.81
308.651	85.81
308.881	93.81
309.111	72.81
309.341	81.81
309.571	90.81
309.8	103.81
310.03	87.81
310.26	80.81
310.49	86.81
310.72	82.81
310.949	85.81
311.179	99.81
311.409	92.81
311.639	87.81
311.868	97.81
312.098	95.81
312.328	98.81
312.557	93.81
312.787	94.81
313.017	99.81
313.246	81.81
313.476	89.81
313.706	95.81
313.935	80.81
314.165	76.81
314.394	68.81
314.624	81.81
314.853	94.81
315.083	90.81
315.312	85.81
315.542	79.81
315.771	72.81
316.001	69.81
316.23	91.81
316.46	93.81
316.689	82.81
316.919	101.81
317.148	93.81
317.377	100.81
317.607	73.81
317.836	80.81
318.065	93.81
318.295	97.81
318.524	66.81
318.753	78.81
318.983	79.81
319.212	87.81
319.441	93.81
319.67	87.81
319.9	78.81
320.129	73.81
320.358	78.81
320.587	75.81
320.816	83.81
321.046	86.81
321.275	92.81
321.504	93.81
321.733	88.81
321.962	79.81
322.191	84.81
322.42	93.81
322.649	85.81
322.878	78.81
323.108	79.81
323.337	95.81
323.566	94.81
323.795	87.81
324.024	73.81
324.253	85.81
324.482	87.81
324.71	88.81
324.939	87.81
325.168	89.81
325.397	74.81
325.626	91.81
325.855	74.81
326.084	78.81
326.313	81.81
326.542	78.81
326.77	86.81
326.999	71.81
327.228	84.81
327.457	87.81
327.686	90.81
327.914	82.81
328.143	95.81
328.372	94.81
328.6	92.81
328.829	85.81
329.058	91.81
329.287	89.81
329.515	74.81
329.744	78.81
329.972	78.81
330.201	87.81
330.43	83.81
330.658	75.81
330.887	80.81
331.115	92.81
331.344	84.81
331.572	83.81
331.801	84.81
332.03	79.81
332.258	94.81
332.486	90.81
332.715	86.81
332.943	87.81
333.172	87.81
333.4	87.81
333.629	71.81
333.857	94.81
334.085	75.81
334.314	78.81
334.542	75.81
334.771	80.81
334.999	101.81
335.227	77.81
335.455	76.81
335.684	94.81
335.912	80.81
336.14	93.81
336.369	84.81
336.597	73.81
336.825	83.81
337.053	71.81
337.281	98.81
337.51	76.81
337.738	97.81
337.966	85.81
338.194	71.81
338.422	91.81
338.65	97.81
338.878	101.81
339.106	80.81
339.334	82.81
339.562	90.81
339.79	79.81
340.018	83.81
340.246	76.81
340.474	94.81
340.702	77.81
340.93	87.81
341.158	81.81
341.386	84.81
341.614	86.81
341.842	86.81
342.07	82.81
342.298	83.81
342.526	82.81
342.754	80.81
342.981	86.81
343.209	92.81
343.437	89.81
343.665	93.81
343.893	73.81
344.12	92.81
344.348	84.81
344.576	94.81
344.804	86.81
345.031	84.81
345.259	86.81
345.487	89.81
345.714	85.81
345.942	79.81
346.17	78.81
346.397	91.81
346.625	78.81
346.853	101.81
347.08	85.81
347.308	77.81
347.535	88.81
347.763	79.81
347.99	73.81
348.218	80.81
348.445	84.81
348.673	77.81
348.9	78.81
349.128	91.81
349.355	67.81
349.583	76.81
349.81	88.81
350.037	79.81
350.265	84.81
350.492	87.81
350.72	79.81
350.947	94.81
351.174	79.81
351.402	78.81
351.629	77.81
351.856	73.81
352.083	75.81
352.311	86.81
352.538	71.81
352.765	73.81
352.992	79.81
353.22	99.81
353.447	87.81
353.674	84.81
353.901	80.81
354.128	83.81
354.355	72.81
354.583	83.81
354.81	91.81
355.037	95.81
355.264	83.81
355.491	89.81
355.718	87.81
355.945	69.81
356.172	97.81
356.399	73.81
356.626	78.81
356.853	87.81
357.08	88.81
357.307	82.81
357.534	96.81
357.761	78.81
357.988	83.81
358.215	70.81
358.441	73.81
358.668	78.81
358.895	94.81
359.122	84.81
359.349	67.81
359.576	83.81
359.802	91.81
360.029	80.81
360.256	72.81
360.483	83.81
360.709	96.81
360.936	82.81
361.163	97.81
361.39	85.81
361.616	75.81
361.843	74.81
362.07	92.81
362.296	93.81
362.523	79.81
362.749	77.81
362.976	78.81
363.203	84.81
363.429	82.81
363.656	93.81
363.882	86.81
364.109	87.81
364.335	85.81
364.562	84.81
364.788	89.81
365.015	79.81
365.241	79.81
365.468	89.81
365.694	79.81
365.92	77.81
366.147	80.81
366.373	88.81
366.599	83.81
366.826	84.81
367.052	86.81
367.278	78.81
367.505	102.81
367.731	94.81
367.957	99.81
368.184	104.81
368.41	101.81
368.636	99.81
368.862	98.81
369.089	92.81
369.315	89.81
369.541	102.81
369.767	98.81
369.993	94.81
370.219	97.81
370.445	99.81
370.672	91.81
370.898	88.81
371.124	93.81
371.35	85.81
371.576	89.81
371.802	74.81
372.028	86.81
372.254	98.81
372.48	83.81
372.706	87.81
372.932	101.81
373.158	100.81
373.384	71.81
373.61	97.81
373.835	82.81
374.061	95.81
374.287	99.81
374.513	80.81
374.739	83.81
374.965	84.81
375.191	81.81
375.416	93.81
375.642	101.81
375.868	91.81
376.094	84.81
376.319	90.81
376.545	99.81
376.771	69.81
376.997	95.81
377.222	85.81
377.448	80.81
377.674	89.81
377.899	86.81
378.125	97.81
378.35	98.81
378.576	92.81
378.802	106.81
379.027	77.81
379.253	95.81
379.478	93.81
379.704	95.81
379.929	87.81
380.155	76.81
380.38	83.81
380.606	93.81
380.831	111.81
381.057	99.81
381.282	98.81
381.507	94.81
381.733	95.81
381.958	99.81
382.184	107.81
382.409	105.81
382.634	92.81
382.86	100.81
383.085	88.81
383.31	100.81
383.535	93.81
383.761	99.81
383.986	95.81
384.211	85.81
384.436	97.81
384.662	97.81
384.887	97.81
385.112	90.81
385.337	99.81
385.562	97.81
385.787	100.81
386.013	98.81
386.238	78.81
386.463	93.81
386.688	98.81
386.913	100.81
387.138	99.81
387.363	97.81
387.588	99.81
387.813	94.81
388.038	99.81
388.263	107.81
388.488	89.81
388.713	104.81
388.938	108.81
389.163	84.81
389.387	97.81
389.612	101.81
389.837	101.81
390.062	91.81
390.287	89.81
390.512	82.81
390.736	115.81
390.961	97.81
391.186	105.81
391.411	96.81
391.636	97.81
391.86	109.81
392.085	94.81
392.31	98.81
392.534	98.81
392.759	102.81
392.984	110.81
393.208	98.81
393.433	93.81
393.658	108.81
393.882	92.81
394.107	101.81
394.331	94.81
394.556	106.81
394.78	103.81
395.005	103.81
395.229	113.81
395.454	91.81
395.678	113.81
395.903	108.81
396.127	120.81
396.352	125.81
396.576	100.81
396.801	97.81
397.025	89.81
397.249	103.81
397.474	105.81
397.698	99.81
397.922	102.81
398.147	110.81
398.371	104.81
398.595	89.81
398.82	99.81
399.044	113.81
399.268	108.81
399.492	108.81
399.717	126.81
399.941	124.81
400.165	104.81
400.389	109.81
400.613	114.81
400.837	101.81
401.062	102.81
401.286	104.81
401.51	117.81
401.734	113.81
401.958	104.81
402.182	106.81
402.406	119.81
402.63	140.81
402.854	115.81
403.078	109.81
403.302	120.81
403.526	116.81
403.75	114.81
403.974	117.81
404.198	99.81
404.422	104.81
404.645	122.81
404.869	112.81
405.093	107.81
405.317	106.81
405.541	105.81
405.765	113.81
405.988	121.81
406.212	122.81
406.436	110.81
406.66	111.81
406.883	121.81
407.107	115.81
407.331	124.81
407.555	113.81
407.778	121.81
408.002	119.81
408.226	103.81
408.449	119.81
408.673	104.81
408.896	125.81
409.12	109.81
409.344	123.81
409.567	125.81
409.791	115.81
410.014	119.81
410.238	138.81
410.461	131.81
410.685	117.81
410.908	121.81
411.132	120.81
411.355	125.81
411.578	104.81
411.802	116.81
412.025	113.81
412.249	139.81
412.472	119.81
412.695	119.81
412.919	128.81
413.142	121.81
413.365	126.81
413.589	125.81
413.812	118.81
414.035	113.81
414.258	122.81
414.482	124.81
414.705	125.81
414.928	114.81
415.151	127.81
415.374	119.81
415.597	122.81
415.821	125.81
416.044	141.81
416.267	122.81
416.49	123.81
416.713	125.81
416.936	122.81
417.159	141.81
417.382	136.81
417.605	127.81
417.828	141.81
418.051	134.81
418.274	133.81
418.497	146.81
418.72	130.81
418.943	122.81
419.166	143.81
419.389	131.81
419.611	128.81
419.834	137.81
420.057	134.81
420.28	135.81
420.503	120.81
420.726	126.81
420.948	131.81
421.171	116.81
421.394	128.81
421.617	131.81
421.839	138.81
422.062	140.81
422.285	141.81
422.507	130.81
422.73	109.81
422.953	135.81
423.175	131.81
423.398	129.81
423.621	132.81
423.843	127.81
424.066	131.81
424.288	140.81
424.511	137.81
424.733	160.81
424.956	140.81
425.178	149.81
425.401	129.81
425.623	132.81
425.846	126.81
426.068	133.81
426.291	130.81
426.513	117.81
426.735	135.81
426.958	131.81
427.18	136.81
427.402	132.81
427.625	123.81
427.847	125.81
428.069	138.81
428.292	138.81
428.514	131.81
428.736	137.81
428.958	132.81
429.181	135.81
429.403	131.81
429.625	127.81
429.847	131.81
430.069	126.81
430.292	122.81
430.514	118.81
430.736	123.81
430.958	123.81
431.18	124.81
431.402	129.81
431.624	113.81
431.846	114.81
432.068	89.81
432.29	87.81
432.512	122.81
432.734	117.81
432.956	126.81
433.178	136.81
433.4	144.81
433.622	122.81
433.844	126.81
434.066	116.81
434.287	108.81
434.509	103.81
434.731	96.81
434.953	101.81
435.175	115.81
435.397	105.81
435.618	113.81
435.84	105.81
436.062	102.81
436.284	119.81
436.505	117.81
436.727	124.81
436.949	129.81
437.17	145.81
437.392	117.81
437.614	126.81
437.835	121.81
438.057	95.81
438.278	105.81
438.5	121.81
438.721	111.81
438.943	119.81
439.165	135.81
439.386	135.81
439.608	145.81
439.829	144.81
440.05	146.81
440.272	149.81
440.493	140.81
440.715	138.81
440.936	138.81
441.158	125.81
441.379	137.81
441.6	142.81
441.822	137.81
442.043	148.81
442.264	138.81
442.486	143.81
442.707	143.81
442.928	144.81
443.149	140.81
443.371	138.81
443.592	133.81
443.813	129.81
444.034	126.81
444.255	145.81
444.476	141.81
444.698	143.81
444.919	129.81
445.14	277.81
445.361	185.81
445.582	131.81
445.803	155.81
446.024	143.81
446.245	159.81
446.466	155.81
446.687	150.81
446.908	155.81
447.129	155.81
447.35	152.81
447.571	137.81
447.792	145.81
448.013	124.81
448.234	151.81
448.455	142.81
448.675	141.81
448.896	137.81
449.117	134.81
449.338	143.81
449.559	137.81
449.779	137.81
450	139.81
450.221	131.81
450.442	134.81
450.662	136.81
450.883	137.81
451.104	141.81
451.324	119.81
451.545	127.81
451.766	128.81
451.986	130.81
452.207	126.81
452.428	127.81
452.648	115.81
452.869	108.81
453.089	106.81
453.31	93.81
453.53	116.81
453.751	97.81
453.971	89.81
454.192	107.81
454.412	108.81
454.633	110.81
454.853	131.81
455.073	115.81
455.294	108.81
455.514	122.81
455.734	117.81
455.955	118.81
456.175	98.81
456.395	102.81
456.616	126.81
456.836	101.81
457.056	117.81
457.276	114.81
457.497	108.81
457.717	108.81
457.937	117.81
458.157	102.81
458.377	103.81
458.598	104.81
458.818	97.81
459.038	97.81
459.258	95.81
459.478	92.81
459.698	91.81
459.918	94.81
460.138	104.81
460.358	111.81
460.578	116.81
460.798	105.81
461.018	105.81
461.238	124.81
461.458	121.81
461.678	109.81
461.898	129.81
462.118	113.81
462.338	121.81
462.558	114.81
462.777	111.81
462.997	104.81
463.217	121.81
463.437	116.81
463.657	101.81
463.876	104.81
464.096	110.81
464.316	122.81
464.536	102.81
464.755	121.81
464.975	114.81
465.195	126.81
465.414	118.81
465.634	123.81
465.854	137.81
466.073	121.81
466.293	120.81
466.512	108.81
466.732	121.81
466.951	133.81
467.171	141.81
467.391	131.81
467.61	121.81
467.829	131.81
468.049	133.81
468.268	127.81
468.488	125.81
468.707	140.81
468.927	133.81
469.146	138.81
469.365	148.81
469.585	137.81
469.804	140.81
470.023	143.81
470.243	159.81
470.462	137.81
470.681	129.81
470.901	140.81
471.12	129.81
471.339	145.81
471.558	137.81
471.777	141.81
471.997	137.81
472.216	131.81
472.435	138.81
472.654	120.81
472.873	129.81
473.092	121.81
473.311	130.81
473.53	110.81
473.749	131.81
473.968	131.81
474.187	127.81
474.406	123.81
474.625	126.81
474.844	124.81
475.063	142.81
475.282	117.81
475.501	110.81
475.72	123.81
475.939	126.81
476.158	131.81
476.377	139.81
476.596	126.81
476.814	126.81
477.033	103.81
477.252	115.81
477.471	135.81
477.69	127.81
477.908	122.81
478.127	140.81
478.346	134.81
478.564	138.81
478.783	127.81
479.002	140.81
479.22	137.81
479.439	129.81
479.658	136.81
479.876	101.81
480.095	113.81
480.313	119.81
480.532	115.81
480.751	118.81
480.969	92.81
481.188	85.81
481.406	98.81
481.624	105.81
481.843	94.81
482.061	86.81
482.28	103.81
482.498	126.81
482.717	118.81
482.935	126.81
483.153	132.81
483.372	153.81
483.59	140.81
483.808	146.81
484.027	123.81
484.245	122.81
484.463	147.81
484.681	159.81
484.9	144.81
485.118	138.81
485.336	123.81
485.554	117.81
485.772	101.81
485.99	96.81
486.209	107.81
486.427	108.81
486.645	120.81
486.863	132.81
487.081	124.81
487.299	132.81
487.517	146.81
487.735	151.81
487.953	178.81
488.171	169.81
488.389	157.81
488.607	162.81
488.825	147.81
489.043	129.81
489.261	140.81
489.479	135.81
489.696	136.81
489.914	126.81
490.132	131.81
490.35	153.81
490.568	153.81
490.786	177.81
491.003	158.81
491.221	175.81
491.439	173.81
491.657	184.81
491.874	196.81
492.092	231.81
492.31	265.81
492.527	231.81
492.745	213.81
492.963	197.81
493.18	181.81
493.398	180.81
493.615	173.81
493.833	161.81
494.05	179.81
494.268	163.81
494.485	169.81
494.703	182.81
494.92	185.81
495.138	175.81
495.355	179.81
495.573	166.81
495.79	176.81
496.008	156.81
496.225	163.81
496.442	163.81
496.66	149.81
496.877	171.81
497.094	154.81
497.312	158.81
497.529	153.81
497.746	161.81
497.963	149.81
498.181	143.81
498.398	122.81
498.615	108.81
498.832	125.81
499.049	117.81
499.267	119.81
499.484	117.81
499.701	124.81
499.918	135.81
500.135	141.81
500.352	135.81
500.569	139.81
500.786	155.81
501.003	137.81
501.22	126.81
501.437	134.81
501.654	131.81
501.871	125.81
502.088	131.81
502.305	138.81
502.522	121.81
502.739	131.81
502.956	131.81
503.172	134.81
503.389	131.81
503.606	113.81
503.823	125.81
504.04	111.81
504.256	120.81
504.473	123.81
504.69	135.81
504.907	127.81
505.123	113.81
505.34	105.81
505.557	122.81
505.773	117.81
505.99	114.81
506.207	114.81
506.423	105.81
506.64	121.81
506.856	123.81
507.073	113.81
507.289	115.81
507.506	113.81
507.722	110.81
507.939	124.81
508.155	116.81
508.372	95.81
508.588	124.81
508.805	113.81
509.021	95.81
509.238	104.81
509.454	100.81
509.67	95.81
509.887	96.81
510.103	90.81
510.319	95.81
510.536	101.81
510.752	83.81
510.968	87.81
511.184	91.81
511.401	89.81
511.617	75.81
511.833	94.81
