Data from Location1.07152019.Energy5.Lamp.07192019.3%Agarose_HRD10591_14-30-34-015.txt Node
Date: Fri Jul 19 14:30:34 EDT 2019
User: cochatt
Spectrometer: HR+D1059
Trigger mode: 1
Integration Time (sec): 1.000000E-1
Scans to average: 1
Electric dark correction enabled: true
Nonlinearity correction enabled: false
Boxcar width: 0
XAxis mode: Wavelengths
Number of Pixels in Spectrum: 2048
>>>>>Begin Spectral Data<<<<<
223.165	-15.31
223.4	-15.31
223.635	-15.31
223.869	-20.31
224.104	-22.31
224.338	-24.31
224.573	-4.31
224.808	-21.31
225.042	-1.31
225.277	2.69
225.511	0.69
225.746	-1.31
225.98	12.69
226.215	6.69
226.449	24.69
226.683	16.69
226.918	15.69
227.152	30.69
227.387	38.69
227.621	44.69
227.856	51.69
228.09	50.69
228.324	42.69
228.559	59.69
228.793	77.69
229.027	64.69
229.262	64.69
229.496	62.69
229.73	66.69
229.964	75.69
230.199	78.69
230.433	97.69
230.667	73.69
230.901	81.69
231.136	79.69
231.37	86.69
231.604	69.69
231.838	80.69
232.072	67.69
232.306	78.69
232.541	81.69
232.775	82.69
233.009	82.69
233.243	86.69
233.477	89.69
233.711	79.69
233.945	82.69
234.179	76.69
234.413	83.69
234.647	85.69
234.881	88.69
235.115	78.69
235.349	81.69
235.583	74.69
235.817	80.69
236.051	81.69
236.285	79.69
236.519	88.69
236.753	74.69
236.987	77.69
237.221	71.69
237.455	77.69
237.689	80.69
237.922	96.69
238.156	73.69
238.39	74.69
238.624	81.69
238.858	74.69
239.091	72.69
239.325	87.69
239.559	84.69
239.793	77.69
240.027	83.69
240.26	75.69
240.494	88.69
240.728	78.69
240.961	94.69
241.195	96.69
241.429	84.69
241.662	70.69
241.896	78.69
242.13	88.69
242.363	76.69
242.597	77.69
242.83	90.69
243.064	83.69
243.298	84.69
243.531	73.69
243.765	84.69
243.998	79.69
244.232	63.69
244.465	87.69
244.699	81.69
244.932	71.69
245.166	82.69
245.399	96.69
245.633	81.69
245.866	72.69
246.099	80.69
246.333	75.69
246.566	71.69
246.8	74.69
247.033	92.69
247.266	91.69
247.5	76.69
247.733	85.69
247.966	83.69
248.2	67.69
248.433	87.69
248.666	81.69
248.899	68.69
249.133	95.69
249.366	81.69
249.599	83.69
249.832	79.69
250.066	90.69
250.299	71.69
250.532	72.69
250.765	75.69
250.998	94.69
251.231	84.69
251.465	86.69
251.698	75.69
251.931	94.69
252.164	81.69
252.397	82.69
252.63	77.69
252.863	84.69
253.096	75.69
253.329	83.69
253.562	85.69
253.795	100.69
254.028	86.69
254.261	79.69
254.494	80.69
254.727	86.69
254.96	90.69
255.193	88.69
255.426	82.69
255.659	78.69
255.892	88.69
256.124	84.69
256.357	80.69
256.59	81.69
256.823	92.69
257.056	90.69
257.289	76.69
257.521	86.69
257.754	94.69
257.987	80.69
258.22	90.69
258.452	82.69
258.685	84.69
258.918	94.69
259.151	95.69
259.383	89.69
259.616	78.69
259.849	86.69
260.081	90.69
260.314	82.69
260.547	88.69
260.779	92.69
261.012	83.69
261.244	74.69
261.477	75.69
261.71	89.69
261.942	84.69
262.175	90.69
262.407	89.69
262.64	90.69
262.872	96.69
263.105	105.69
263.337	98.69
263.57	87.69
263.802	92.69
264.035	83.69
264.267	79.69
264.499	86.69
264.732	81.69
264.964	87.69
265.197	82.69
265.429	93.69
265.661	101.69
265.894	98.69
266.126	84.69
266.358	88.69
266.591	79.69
266.823	92.69
267.055	67.69
267.287	80.69
267.52	71.69
267.752	90.69
267.984	88.69
268.216	102.69
268.448	75.69
268.681	83.69
268.913	84.69
269.145	85.69
269.377	75.69
269.609	84.69
269.841	93.69
270.073	86.69
270.306	81.69
270.538	75.69
270.77	75.69
271.002	91.69
271.234	79.69
271.466	93.69
271.698	87.69
271.93	74.69
272.162	81.69
272.394	83.69
272.626	80.69
272.858	84.69
273.09	78.69
273.322	87.69
273.553	89.69
273.785	80.69
274.017	84.69
274.249	86.69
274.481	89.69
274.713	107.69
274.945	91.69
275.176	76.69
275.408	88.69
275.64	78.69
275.872	91.69
276.104	87.69
276.335	76.69
276.567	95.69
276.799	102.69
277.031	105.69
277.262	77.69
277.494	90.69
277.726	86.69
277.957	88.69
278.189	91.69
278.421	87.69
278.652	71.69
278.884	88.69
279.115	87.69
279.347	87.69
279.579	79.69
279.81	90.69
280.042	84.69
280.273	76.69
280.505	73.69
280.736	88.69
280.968	89.69
281.199	83.69
281.431	77.69
281.662	92.69
281.894	90.69
282.125	94.69
282.356	85.69
282.588	85.69
282.819	83.69
283.051	83.69
283.282	82.69
283.513	103.69
283.745	80.69
283.976	82.69
284.207	87.69
284.439	83.69
284.67	79.69
284.901	91.69
285.132	87.69
285.364	93.69
285.595	77.69
285.826	79.69
286.057	83.69
286.288	92.69
286.52	90.69
286.751	99.69
286.982	95.69
287.213	75.69
287.444	98.69
287.675	98.69
287.906	81.69
288.138	95.69
288.369	93.69
288.6	97.69
288.831	85.69
289.062	88.69
289.293	81.69
289.524	71.69
289.755	80.69
289.986	86.69
290.217	89.69
290.448	92.69
290.679	90.69
290.91	87.69
291.141	98.69
291.371	81.69
291.602	82.69
291.833	82.69
292.064	83.69
292.295	84.69
292.526	85.69
292.757	92.69
292.987	86.69
293.218	83.69
293.449	90.69
293.68	95.69
293.91	89.69
294.141	81.69
294.372	79.69
294.603	93.69
294.833	86.69
295.064	83.69
295.295	89.69
295.525	92.69
295.756	73.69
295.987	93.69
296.217	78.69
296.448	72.69
296.679	95.69
296.909	85.69
297.14	91.69
297.37	90.69
297.601	98.69
297.831	89.69
298.062	81.69
298.292	99.69
298.523	84.69
298.753	92.69
298.984	91.69
299.214	96.69
299.445	88.69
299.675	87.69
299.905	88.69
300.136	84.69
300.366	82.69
300.597	92.69
300.827	106.69
301.057	87.69
301.288	97.69
301.518	89.69
301.748	89.69
301.979	90.69
302.209	92.69
302.439	98.69
302.669	92.69
302.9	94.69
303.13	83.69
303.36	108.69
303.59	95.69
303.82	92.69
304.051	93.69
304.281	92.69
304.511	91.69
304.741	93.69
304.971	92.69
305.201	93.69
305.431	90.69
305.661	85.69
305.891	91.69
306.121	91.69
306.352	96.69
306.582	102.69
306.812	93.69
307.042	88.69
307.272	87.69
307.502	83.69
307.731	80.69
307.961	87.69
308.191	79.69
308.421	93.69
308.651	95.69
308.881	93.69
309.111	87.69
309.341	78.69
309.571	81.69
309.8	88.69
310.03	90.69
310.26	83.69
310.49	86.69
310.72	83.69
310.949	97.69
311.179	87.69
311.409	90.69
311.639	87.69
311.868	94.69
312.098	87.69
312.328	102.69
312.557	94.69
312.787	90.69
313.017	85.69
313.246	109.69
313.476	93.69
313.706	103.69
313.935	100.69
314.165	101.69
314.394	88.69
314.624	92.69
314.853	86.69
315.083	97.69
315.312	98.69
315.542	91.69
315.771	96.69
316.001	111.69
316.23	97.69
316.46	83.69
316.689	92.69
316.919	71.69
317.148	93.69
317.377	95.69
317.607	84.69
317.836	82.69
318.065	83.69
318.295	93.69
318.524	82.69
318.753	73.69
318.983	86.69
319.212	96.69
319.441	85.69
319.67	89.69
319.9	73.69
320.129	87.69
320.358	104.69
320.587	86.69
320.816	81.69
321.046	94.69
321.275	90.69
321.504	89.69
321.733	102.69
321.962	92.69
322.191	91.69
322.42	79.69
322.649	83.69
322.878	85.69
323.108	89.69
323.337	91.69
323.566	85.69
323.795	87.69
324.024	87.69
324.253	79.69
324.482	88.69
324.71	95.69
324.939	92.69
325.168	92.69
325.397	93.69
325.626	95.69
325.855	103.69
326.084	90.69
326.313	95.69
326.542	100.69
326.77	98.69
326.999	93.69
327.228	87.69
327.457	102.69
327.686	89.69
327.914	89.69
328.143	85.69
328.372	90.69
328.6	89.69
328.829	98.69
329.058	66.69
329.287	81.69
329.515	88.69
329.744	91.69
329.972	94.69
330.201	93.69
330.43	87.69
330.658	85.69
330.887	94.69
331.115	88.69
331.344	85.69
331.572	89.69
331.801	92.69
332.03	94.69
332.258	103.69
332.486	98.69
332.715	93.69
332.943	96.69
333.172	82.69
333.4	91.69
333.629	87.69
333.857	86.69
334.085	78.69
334.314	94.69
334.542	98.69
334.771	79.69
334.999	87.69
335.227	79.69
335.455	92.69
335.684	90.69
335.912	88.69
336.14	96.69
336.369	83.69
336.597	89.69
336.825	89.69
337.053	75.69
337.281	95.69
337.51	102.69
337.738	76.69
337.966	83.69
338.194	81.69
338.422	75.69
338.65	87.69
338.878	92.69
339.106	83.69
339.334	87.69
339.562	84.69
339.79	75.69
340.018	73.69
340.246	97.69
340.474	97.69
340.702	84.69
340.93	94.69
341.158	87.69
341.386	107.69
341.614	85.69
341.842	76.69
342.07	96.69
342.298	80.69
342.526	87.69
342.754	98.69
342.981	97.69
343.209	89.69
343.437	107.69
343.665	87.69
343.893	86.69
344.12	95.69
344.348	91.69
344.576	80.69
344.804	83.69
345.031	88.69
345.259	81.69
345.487	97.69
345.714	90.69
345.942	91.69
346.17	89.69
346.397	83.69
346.625	84.69
346.853	83.69
347.08	74.69
347.308	82.69
347.535	94.69
347.763	91.69
347.99	86.69
348.218	83.69
348.445	90.69
348.673	91.69
348.9	82.69
349.128	98.69
349.355	94.69
349.583	83.69
349.81	82.69
350.037	96.69
350.265	76.69
350.492	81.69
350.72	89.69
350.947	90.69
351.174	78.69
351.402	77.69
351.629	90.69
351.856	95.69
352.083	91.69
352.311	94.69
352.538	97.69
352.765	96.69
352.992	90.69
353.22	83.69
353.447	90.69
353.674	93.69
353.901	97.69
354.128	89.69
354.355	84.69
354.583	90.69
354.81	76.69
355.037	90.69
355.264	88.69
355.491	71.69
355.718	70.69
355.945	81.69
356.172	79.69
356.399	94.69
356.626	93.69
356.853	87.69
357.08	95.69
357.307	100.69
357.534	75.69
357.761	99.69
357.988	85.69
358.215	79.69
358.441	94.69
358.668	93.69
358.895	79.69
359.122	84.69
359.349	88.69
359.576	90.69
359.802	95.69
360.029	94.69
360.256	94.69
360.483	80.69
360.709	95.69
360.936	102.69
361.163	90.69
361.39	84.69
361.616	84.69
361.843	95.69
362.07	96.69
362.296	92.69
362.523	101.69
362.749	91.69
362.976	88.69
363.203	85.69
363.429	79.69
363.656	88.69
363.882	91.69
364.109	90.69
364.335	97.69
364.562	83.69
364.788	90.69
365.015	85.69
365.241	78.69
365.468	79.69
365.694	92.69
365.92	101.69
366.147	99.69
366.373	85.69
366.599	88.69
366.826	89.69
367.052	99.69
367.278	103.69
367.505	115.69
367.731	92.69
367.957	91.69
368.184	97.69
368.41	83.69
368.636	90.69
368.862	100.69
369.089	81.69
369.315	92.69
369.541	104.69
369.767	105.69
369.993	96.69
370.219	87.69
370.445	93.69
370.672	95.69
370.898	109.69
371.124	91.69
371.35	90.69
371.576	111.69
371.802	116.69
372.028	84.69
372.254	102.69
372.48	96.69
372.706	97.69
372.932	81.69
373.158	100.69
373.384	120.69
373.61	102.69
373.835	94.69
374.061	91.69
374.287	94.69
374.513	104.69
374.739	88.69
374.965	100.69
375.191	90.69
375.416	81.69
375.642	93.69
375.868	96.69
376.094	100.69
376.319	96.69
376.545	88.69
376.771	88.69
376.997	93.69
377.222	105.69
377.448	98.69
377.674	91.69
377.899	102.69
378.125	98.69
378.35	93.69
378.576	122.69
378.802	74.69
379.027	100.69
379.253	96.69
379.478	106.69
379.704	107.69
379.929	94.69
380.155	98.69
380.38	99.69
380.606	116.69
380.831	123.69
381.057	104.69
381.282	110.69
381.507	104.69
381.733	106.69
381.958	95.69
382.184	84.69
382.409	115.69
382.634	88.69
382.86	111.69
383.085	87.69
383.31	105.69
383.535	114.69
383.761	103.69
383.986	113.69
384.211	103.69
384.436	109.69
384.662	90.69
384.887	94.69
385.112	102.69
385.337	105.69
385.562	96.69
385.787	96.69
386.013	108.69
386.238	107.69
386.463	104.69
386.688	96.69
386.913	90.69
387.138	95.69
387.363	101.69
387.588	111.69
387.813	99.69
388.038	104.69
388.263	109.69
388.488	110.69
388.713	111.69
388.938	99.69
389.163	109.69
389.387	107.69
389.612	113.69
389.837	129.69
390.062	114.69
390.287	103.69
390.512	99.69
390.736	99.69
390.961	101.69
391.186	104.69
391.411	100.69
391.636	109.69
391.86	102.69
392.085	92.69
392.31	114.69
392.534	116.69
392.759	96.69
392.984	108.69
393.208	103.69
393.433	115.69
393.658	105.69
393.882	114.69
394.107	98.69
394.331	123.69
394.556	106.69
394.78	112.69
395.005	97.69
395.229	121.69
395.454	103.69
395.678	100.69
395.903	100.69
396.127	122.69
396.352	106.69
396.576	107.69
396.801	116.69
397.025	123.69
397.249	108.69
397.474	124.69
397.698	98.69
397.922	108.69
398.147	111.69
398.371	118.69
398.595	111.69
398.82	122.69
399.044	106.69
399.268	129.69
399.492	107.69
399.717	110.69
399.941	124.69
400.165	125.69
400.389	113.69
400.613	124.69
400.837	114.69
401.062	124.69
401.286	108.69
401.51	113.69
401.734	113.69
401.958	110.69
402.182	108.69
402.406	107.69
402.63	108.69
402.854	114.69
403.078	115.69
403.302	125.69
403.526	118.69
403.75	113.69
403.974	118.69
404.198	132.69
404.422	121.69
404.645	111.69
404.869	120.69
405.093	107.69
405.317	127.69
405.541	128.69
405.765	127.69
405.988	128.69
406.212	118.69
406.436	126.69
406.66	111.69
406.883	121.69
407.107	126.69
407.331	128.69
407.555	129.69
407.778	126.69
408.002	127.69
408.226	105.69
408.449	115.69
408.673	117.69
408.896	132.69
409.12	110.69
409.344	104.69
409.567	128.69
409.791	121.69
410.014	127.69
410.238	125.69
410.461	119.69
410.685	128.69
410.908	128.69
411.132	116.69
411.355	130.69
411.578	124.69
411.802	118.69
412.025	142.69
412.249	115.69
412.472	120.69
412.695	128.69
412.919	129.69
413.142	127.69
413.365	115.69
413.589	136.69
413.812	130.69
414.035	113.69
414.258	138.69
414.482	136.69
414.705	136.69
414.928	127.69
415.151	138.69
415.374	122.69
415.597	131.69
415.821	129.69
416.044	131.69
416.267	130.69
416.49	129.69
416.713	142.69
416.936	122.69
417.159	125.69
417.382	128.69
417.605	128.69
417.828	133.69
418.051	130.69
418.274	135.69
418.497	138.69
418.72	131.69
418.943	126.69
419.166	141.69
419.389	131.69
419.611	140.69
419.834	131.69
420.057	134.69
420.28	130.69
420.503	128.69
420.726	128.69
420.948	145.69
421.171	131.69
421.394	141.69
421.617	136.69
421.839	134.69
422.062	141.69
422.285	134.69
422.507	122.69
422.73	131.69
422.953	122.69
423.175	138.69
423.398	123.69
423.621	130.69
423.843	136.69
424.066	136.69
424.288	135.69
424.511	122.69
424.733	142.69
424.956	146.69
425.178	149.69
425.401	139.69
425.623	139.69
425.846	136.69
426.068	132.69
426.291	131.69
426.513	126.69
426.735	121.69
426.958	148.69
427.18	127.69
427.402	118.69
427.625	142.69
427.847	119.69
428.069	135.69
428.292	129.69
428.514	126.69
428.736	126.69
428.958	125.69
429.181	134.69
429.403	125.69
429.625	108.69
429.847	142.69
430.069	145.69
430.292	123.69
430.514	129.69
430.736	134.69
430.958	138.69
431.18	142.69
431.402	125.69
431.624	118.69
431.846	103.69
432.068	96.69
432.29	87.69
432.512	120.69
432.734	132.69
432.956	137.69
433.178	140.69
433.4	135.69
433.622	141.69
433.844	139.69
434.066	134.69
434.287	131.69
434.509	92.69
434.731	102.69
434.953	127.69
435.175	121.69
435.397	126.69
435.618	128.69
435.84	120.69
436.062	127.69
436.284	133.69
436.505	134.69
436.727	133.69
436.949	129.69
437.17	139.69
437.392	136.69
437.614	124.69
437.835	120.69
438.057	113.69
438.278	107.69
438.5	121.69
438.721	127.69
438.943	144.69
439.165	134.69
439.386	149.69
439.608	146.69
439.829	131.69
440.05	140.69
440.272	156.69
440.493	137.69
440.715	135.69
440.936	151.69
441.158	153.69
441.379	152.69
441.6	152.69
441.822	148.69
442.043	154.69
442.264	137.69
442.486	134.69
442.707	152.69
442.928	134.69
443.149	134.69
443.371	135.69
443.592	127.69
443.813	136.69
444.034	142.69
444.255	146.69
444.476	144.69
444.698	140.69
444.919	154.69
445.14	266.69
445.361	199.69
445.582	146.69
445.803	142.69
446.024	148.69
446.245	138.69
446.466	149.69
446.687	151.69
446.908	139.69
447.129	149.69
447.35	146.69
447.571	161.69
447.792	166.69
448.013	149.69
448.234	141.69
448.455	137.69
448.675	144.69
448.896	136.69
449.117	147.69
449.338	125.69
449.559	137.69
449.779	131.69
450	124.69
450.221	142.69
450.442	141.69
450.662	127.69
450.883	143.69
451.104	125.69
451.324	130.69
451.545	130.69
451.766	121.69
451.986	125.69
452.207	148.69
452.428	125.69
452.648	124.69
452.869	136.69
453.089	123.69
453.31	118.69
453.53	111.69
453.751	112.69
453.971	93.69
454.192	115.69
454.412	110.69
454.633	118.69
454.853	123.69
455.073	137.69
455.294	142.69
455.514	134.69
455.734	122.69
455.955	134.69
456.175	125.69
456.395	114.69
456.616	109.69
456.836	122.69
457.056	106.69
457.276	111.69
457.497	103.69
457.717	110.69
457.937	122.69
458.157	110.69
458.377	114.69
458.598	98.69
458.818	105.69
459.038	88.69
459.258	83.69
459.478	100.69
459.698	92.69
459.918	95.69
460.138	112.69
460.358	115.69
460.578	132.69
460.798	109.69
461.018	111.69
461.238	115.69
461.458	127.69
461.678	132.69
461.898	108.69
462.118	126.69
462.338	115.69
462.558	110.69
462.777	113.69
462.997	120.69
463.217	110.69
463.437	112.69
463.657	131.69
463.876	124.69
464.096	116.69
464.316	114.69
464.536	110.69
464.755	121.69
464.975	136.69
465.195	127.69
465.414	121.69
465.634	134.69
465.854	122.69
466.073	128.69
466.293	130.69
466.512	134.69
466.732	134.69
466.951	144.69
467.171	123.69
467.391	142.69
467.61	137.69
467.829	131.69
468.049	128.69
468.268	139.69
468.488	139.69
468.707	143.69
468.927	131.69
469.146	140.69
469.365	127.69
469.585	129.69
469.804	141.69
470.023	134.69
470.243	135.69
470.462	155.69
470.681	153.69
470.901	153.69
471.12	141.69
471.339	138.69
471.558	164.69
471.777	142.69
471.997	128.69
472.216	109.69
472.435	115.69
472.654	103.69
472.873	130.69
473.092	118.69
473.311	118.69
473.53	143.69
473.749	128.69
473.968	128.69
474.187	130.69
474.406	128.69
474.625	123.69
474.844	130.69
475.063	129.69
475.282	123.69
475.501	118.69
475.72	120.69
475.939	139.69
476.158	123.69
476.377	130.69
476.596	134.69
476.814	120.69
477.033	115.69
477.252	108.69
477.471	135.69
477.69	139.69
477.908	128.69
478.127	155.69
478.346	130.69
478.564	142.69
478.783	136.69
479.002	138.69
479.22	153.69
479.439	128.69
479.658	111.69
479.876	123.69
480.095	110.69
480.313	110.69
480.532	121.69
480.751	129.69
480.969	93.69
481.188	95.69
481.406	90.69
481.624	94.69
481.843	104.69
482.061	116.69
482.28	112.69
482.498	103.69
482.717	102.69
482.935	104.69
483.153	140.69
483.372	157.69
483.59	160.69
483.808	137.69
484.027	148.69
484.245	156.69
484.463	154.69
484.681	167.69
484.9	151.69
485.118	132.69
485.336	134.69
485.554	119.69
485.772	100.69
485.99	110.69
486.209	110.69
486.427	119.69
486.645	120.69
486.863	139.69
487.081	137.69
487.299	138.69
487.517	133.69
487.735	177.69
487.953	197.69
488.171	190.69
488.389	178.69
488.607	157.69
488.825	162.69
489.043	137.69
489.261	142.69
489.479	144.69
489.696	141.69
489.914	147.69
490.132	137.69
490.35	147.69
490.568	170.69
490.786	162.69
491.003	188.69
491.221	185.69
491.439	186.69
491.657	195.69
491.874	204.69
492.092	226.69
492.31	246.69
492.527	246.69
492.745	209.69
492.963	201.69
493.18	188.69
493.398	185.69
493.615	174.69
493.833	166.69
494.05	166.69
494.268	185.69
494.485	179.69
494.703	170.69
494.92	168.69
495.138	166.69
495.355	164.69
495.573	176.69
495.79	161.69
496.008	185.69
496.225	164.69
496.442	180.69
496.66	175.69
496.877	171.69
497.094	161.69
497.312	154.69
497.529	168.69
497.746	140.69
497.963	131.69
498.181	127.69
498.398	115.69
498.615	126.69
498.832	138.69
499.049	114.69
499.267	131.69
499.484	123.69
499.701	134.69
499.918	127.69
500.135	139.69
500.352	144.69
500.569	162.69
500.786	147.69
501.003	146.69
501.22	131.69
501.437	138.69
501.654	137.69
501.871	105.69
502.088	132.69
502.305	131.69
502.522	138.69
502.739	139.69
502.956	120.69
503.172	137.69
503.389	124.69
503.606	113.69
503.823	130.69
504.04	126.69
504.256	118.69
504.473	110.69
504.69	129.69
504.907	129.69
505.123	127.69
505.34	139.69
505.557	125.69
505.773	139.69
505.99	127.69
506.207	130.69
506.423	128.69
506.64	129.69
506.856	132.69
507.073	130.69
507.289	114.69
507.506	109.69
507.722	126.69
507.939	132.69
508.155	130.69
508.372	120.69
508.588	116.69
508.805	110.69
509.021	96.69
509.238	110.69
509.454	106.69
509.67	103.69
509.887	98.69
510.103	102.69
510.319	99.69
510.536	98.69
510.752	88.69
