Data from Location1.07152019.Energy5.Lamp.07192019.3%Agarose_HRD10591_14-33-19-016.txt Node
Date: Fri Jul 19 14:33:19 EDT 2019
User: cochatt
Spectrometer: HR+D1059
Trigger mode: 1
Integration Time (sec): 1.000000E-1
Scans to average: 1
Electric dark correction enabled: true
Nonlinearity correction enabled: false
Boxcar width: 0
XAxis mode: Wavelengths
Number of Pixels in Spectrum: 2048
>>>>>Begin Spectral Data<<<<<
223.165	-2.25
223.4	-2.25
223.635	-2.25
223.869	-24.25
224.104	-23.25
224.338	-8.25
224.573	-3.25
224.808	-14.25
225.042	-7.25
225.277	-1.25
225.511	-3.25
225.746	2.75
225.98	2.75
226.215	4.75
226.449	11.75
226.683	18.75
226.918	22.75
227.152	23.75
227.387	19.75
227.621	36.75
227.856	46.75
228.09	40.75
228.324	48.75
228.559	63.75
228.793	56.75
229.027	58.75
229.262	48.75
229.496	46.75
229.73	59.75
229.964	64.75
230.199	61.75
230.433	71.75
230.667	67.75
230.901	83.75
231.136	78.75
231.37	82.75
231.604	81.75
231.838	75.75
232.072	80.75
232.306	79.75
232.541	62.75
232.775	83.75
233.009	90.75
233.243	78.75
233.477	72.75
233.711	79.75
233.945	77.75
234.179	90.75
234.413	82.75
234.647	81.75
234.881	80.75
235.115	76.75
235.349	77.75
235.583	81.75
235.817	74.75
236.051	80.75
236.285	88.75
236.519	90.75
236.753	66.75
236.987	73.75
237.221	82.75
237.455	67.75
237.689	68.75
237.922	70.75
238.156	73.75
238.39	67.75
238.624	67.75
238.858	68.75
239.091	69.75
239.325	75.75
239.559	79.75
239.793	74.75
240.027	70.75
240.26	73.75
240.494	87.75
240.728	63.75
240.961	70.75
241.195	80.75
241.429	76.75
241.662	72.75
241.896	75.75
242.13	68.75
242.363	58.75
242.597	73.75
242.83	72.75
243.064	66.75
243.298	75.75
243.531	76.75
243.765	65.75
243.998	64.75
244.232	91.75
244.465	81.75
244.699	79.75
244.932	73.75
245.166	62.75
245.399	54.75
245.633	64.75
245.866	67.75
246.099	70.75
246.333	84.75
246.566	83.75
246.8	81.75
247.033	91.75
247.266	73.75
247.5	77.75
247.733	83.75
247.966	62.75
248.2	64.75
248.433	75.75
248.666	77.75
248.899	90.75
249.133	72.75
249.366	80.75
249.599	87.75
249.832	76.75
250.066	71.75
250.299	81.75
250.532	80.75
250.765	75.75
250.998	75.75
251.231	89.75
251.465	75.75
251.698	67.75
251.931	71.75
252.164	71.75
252.397	79.75
252.63	70.75
252.863	80.75
253.096	84.75
253.329	67.75
253.562	84.75
253.795	78.75
254.028	90.75
254.261	80.75
254.494	84.75
254.727	70.75
254.96	79.75
255.193	75.75
255.426	81.75
255.659	78.75
255.892	79.75
256.124	84.75
256.357	77.75
256.59	77.75
256.823	67.75
257.056	81.75
257.289	75.75
257.521	66.75
257.754	79.75
257.987	71.75
258.22	80.75
258.452	68.75
258.685	78.75
258.918	75.75
259.151	82.75
259.383	76.75
259.616	79.75
259.849	66.75
260.081	72.75
260.314	75.75
260.547	67.75
260.779	77.75
261.012	76.75
261.244	82.75
261.477	87.75
261.71	79.75
261.942	85.75
262.175	77.75
262.407	73.75
262.64	68.75
262.872	84.75
263.105	81.75
263.337	87.75
263.57	80.75
263.802	66.75
264.035	72.75
264.267	69.75
264.499	69.75
264.732	73.75
264.964	75.75
265.197	80.75
265.429	75.75
265.661	73.75
265.894	65.75
266.126	76.75
266.358	84.75
266.591	83.75
266.823	83.75
267.055	75.75
267.287	78.75
267.52	83.75
267.752	91.75
267.984	73.75
268.216	68.75
268.448	70.75
268.681	79.75
268.913	79.75
269.145	80.75
269.377	82.75
269.609	73.75
269.841	94.75
270.073	71.75
270.306	85.75
270.538	97.75
270.77	68.75
271.002	71.75
271.234	86.75
271.466	73.75
271.698	92.75
271.93	76.75
272.162	98.75
272.394	79.75
272.626	76.75
272.858	68.75
273.09	81.75
273.322	68.75
273.553	72.75
273.785	79.75
274.017	90.75
274.249	64.75
274.481	79.75
274.713	79.75
274.945	66.75
275.176	84.75
275.408	91.75
275.64	66.75
275.872	77.75
276.104	78.75
276.335	94.75
276.567	88.75
276.799	86.75
277.031	79.75
277.262	84.75
277.494	85.75
277.726	75.75
277.957	75.75
278.189	80.75
278.421	76.75
278.652	83.75
278.884	76.75
279.115	72.75
279.347	98.75
279.579	76.75
279.81	83.75
280.042	70.75
280.273	83.75
280.505	85.75
280.736	71.75
280.968	71.75
281.199	81.75
281.431	86.75
281.662	79.75
281.894	90.75
282.125	66.75
282.356	88.75
282.588	76.75
282.819	86.75
283.051	78.75
283.282	73.75
283.513	82.75
283.745	85.75
283.976	79.75
284.207	85.75
284.439	80.75
284.67	70.75
284.901	78.75
285.132	77.75
285.364	78.75
285.595	81.75
285.826	84.75
286.057	74.75
286.288	88.75
286.52	73.75
286.751	88.75
286.982	90.75
287.213	71.75
287.444	75.75
287.675	81.75
287.906	83.75
288.138	97.75
288.369	69.75
288.6	74.75
288.831	66.75
289.062	85.75
289.293	78.75
289.524	81.75
289.755	78.75
289.986	85.75
290.217	84.75
290.448	75.75
290.679	83.75
290.91	95.75
291.141	88.75
291.371	80.75
291.602	77.75
291.833	61.75
292.064	83.75
292.295	81.75
292.526	76.75
292.757	89.75
292.987	81.75
293.218	82.75
293.449	83.75
293.68	87.75
293.91	82.75
294.141	87.75
294.372	73.75
294.603	74.75
294.833	70.75
295.064	87.75
295.295	74.75
295.525	87.75
295.756	97.75
295.987	78.75
296.217	79.75
296.448	80.75
296.679	78.75
296.909	90.75
297.14	83.75
297.37	79.75
297.601	94.75
297.831	70.75
298.062	90.75
298.292	80.75
298.523	60.75
298.753	81.75
298.984	90.75
299.214	77.75
299.445	83.75
299.675	103.75
299.905	83.75
300.136	74.75
300.366	82.75
300.597	75.75
300.827	72.75
301.057	76.75
301.288	73.75
301.518	86.75
301.748	71.75
301.979	81.75
302.209	91.75
302.439	76.75
302.669	70.75
302.9	81.75
303.13	73.75
303.36	79.75
303.59	90.75
303.82	77.75
304.051	91.75
304.281	74.75
304.511	76.75
304.741	89.75
304.971	86.75
305.201	67.75
305.431	84.75
305.661	64.75
305.891	79.75
306.121	69.75
306.352	87.75
306.582	74.75
306.812	76.75
307.042	81.75
307.272	71.75
307.502	88.75
307.731	85.75
307.961	72.75
308.191	80.75
308.421	84.75
308.651	70.75
308.881	97.75
309.111	71.75
309.341	67.75
309.571	86.75
309.8	89.75
310.03	84.75
310.26	79.75
310.49	93.75
310.72	76.75
310.949	76.75
311.179	82.75
311.409	75.75
311.639	89.75
311.868	75.75
312.098	81.75
312.328	74.75
312.557	83.75
312.787	76.75
313.017	82.75
313.246	86.75
313.476	91.75
313.706	75.75
313.935	72.75
314.165	88.75
314.394	71.75
314.624	96.75
314.853	69.75
315.083	80.75
315.312	91.75
315.542	106.75
315.771	76.75
316.001	74.75
316.23	79.75
316.46	87.75
316.689	93.75
316.919	66.75
317.148	67.75
317.377	83.75
317.607	90.75
317.836	81.75
318.065	96.75
318.295	64.75
318.524	71.75
318.753	70.75
318.983	74.75
319.212	97.75
319.441	86.75
319.67	83.75
319.9	77.75
320.129	85.75
320.358	78.75
320.587	77.75
320.816	71.75
321.046	73.75
321.275	76.75
321.504	74.75
321.733	71.75
321.962	86.75
322.191	84.75
322.42	89.75
322.649	88.75
322.878	70.75
323.108	82.75
323.337	92.75
323.566	83.75
323.795	80.75
324.024	74.75
324.253	84.75
324.482	91.75
324.71	86.75
324.939	79.75
325.168	76.75
325.397	85.75
325.626	78.75
325.855	91.75
326.084	84.75
326.313	80.75
326.542	82.75
326.77	85.75
326.999	68.75
327.228	81.75
327.457	82.75
327.686	77.75
327.914	84.75
328.143	86.75
328.372	74.75
328.6	78.75
328.829	93.75
329.058	64.75
329.287	72.75
329.515	71.75
329.744	78.75
329.972	82.75
330.201	75.75
330.43	82.75
330.658	79.75
330.887	71.75
331.115	80.75
331.344	80.75
331.572	86.75
331.801	74.75
332.03	87.75
332.258	70.75
332.486	83.75
332.715	85.75
332.943	81.75
333.172	86.75
333.4	84.75
333.629	82.75
333.857	85.75
334.085	85.75
334.314	83.75
334.542	84.75
334.771	81.75
334.999	79.75
335.227	83.75
335.455	89.75
335.684	61.75
335.912	79.75
336.14	81.75
336.369	77.75
336.597	72.75
336.825	69.75
337.053	78.75
337.281	67.75
337.51	74.75
337.738	87.75
337.966	86.75
338.194	82.75
338.422	83.75
338.65	82.75
338.878	86.75
339.106	75.75
339.334	80.75
339.562	86.75
339.79	83.75
340.018	88.75
340.246	90.75
340.474	84.75
340.702	76.75
340.93	89.75
341.158	85.75
341.386	74.75
341.614	86.75
341.842	93.75
342.07	82.75
342.298	73.75
342.526	85.75
342.754	86.75
342.981	84.75
343.209	95.75
343.437	74.75
343.665	86.75
343.893	69.75
344.12	91.75
344.348	81.75
344.576	79.75
344.804	87.75
345.031	79.75
345.259	85.75
345.487	88.75
345.714	73.75
345.942	65.75
346.17	82.75
346.397	83.75
346.625	73.75
346.853	83.75
347.08	70.75
347.308	79.75
347.535	74.75
347.763	80.75
347.99	78.75
348.218	72.75
348.445	79.75
348.673	65.75
348.9	75.75
349.128	76.75
349.355	76.75
349.583	67.75
349.81	76.75
350.037	74.75
350.265	83.75
350.492	86.75
350.72	70.75
350.947	70.75
351.174	73.75
351.402	66.75
351.629	77.75
351.856	92.75
352.083	91.75
352.311	74.75
352.538	81.75
352.765	80.75
352.992	87.75
353.22	75.75
353.447	91.75
353.674	80.75
353.901	86.75
354.128	85.75
354.355	86.75
354.583	63.75
354.81	76.75
355.037	65.75
355.264	88.75
355.491	72.75
355.718	81.75
355.945	85.75
356.172	86.75
356.399	84.75
356.626	68.75
356.853	83.75
357.08	76.75
357.307	82.75
357.534	80.75
357.761	82.75
357.988	65.75
358.215	81.75
358.441	83.75
358.668	82.75
358.895	96.75
359.122	69.75
359.349	85.75
359.576	92.75
359.802	83.75
360.029	88.75
360.256	82.75
360.483	94.75
360.709	79.75
360.936	87.75
361.163	82.75
361.39	81.75
361.616	75.75
361.843	89.75
362.07	74.75
362.296	68.75
362.523	79.75
362.749	88.75
362.976	79.75
363.203	88.75
363.429	76.75
363.656	80.75
363.882	91.75
364.109	70.75
364.335	76.75
364.562	85.75
364.788	76.75
365.015	74.75
365.241	81.75
365.468	92.75
365.694	80.75
365.92	71.75
366.147	86.75
366.373	78.75
366.599	78.75
366.826	83.75
367.052	74.75
367.278	74.75
367.505	81.75
367.731	74.75
367.957	89.75
368.184	87.75
368.41	83.75
368.636	71.75
368.862	80.75
369.089	73.75
369.315	69.75
369.541	100.75
369.767	75.75
369.993	83.75
370.219	71.75
370.445	77.75
370.672	89.75
370.898	79.75
371.124	82.75
371.35	87.75
371.576	92.75
371.802	73.75
372.028	91.75
372.254	97.75
372.48	83.75
372.706	74.75
372.932	95.75
373.158	83.75
373.384	78.75
373.61	85.75
373.835	84.75
374.061	92.75
374.287	90.75
374.513	76.75
374.739	88.75
374.965	85.75
375.191	90.75
375.416	92.75
375.642	96.75
375.868	91.75
376.094	99.75
376.319	81.75
376.545	92.75
376.771	83.75
376.997	93.75
377.222	73.75
377.448	86.75
377.674	96.75
377.899	92.75
378.125	92.75
378.35	89.75
378.576	92.75
378.802	93.75
379.027	79.75
379.253	85.75
379.478	89.75
379.704	82.75
379.929	69.75
380.155	72.75
380.38	91.75
380.606	85.75
380.831	87.75
381.057	101.75
381.282	107.75
381.507	98.75
381.733	93.75
381.958	96.75
382.184	85.75
382.409	90.75
382.634	85.75
382.86	87.75
383.085	90.75
383.31	94.75
383.535	92.75
383.761	90.75
383.986	96.75
384.211	94.75
384.436	76.75
384.662	103.75
384.887	91.75
385.112	80.75
385.337	97.75
385.562	90.75
385.787	104.75
386.013	95.75
386.238	80.75
386.463	99.75
386.688	96.75
386.913	89.75
387.138	100.75
387.363	89.75
387.588	92.75
387.813	103.75
388.038	91.75
388.263	97.75
388.488	105.75
388.713	95.75
388.938	94.75
389.163	105.75
389.387	111.75
389.612	93.75
389.837	105.75
390.062	87.75
390.287	88.75
390.512	97.75
390.736	103.75
390.961	92.75
391.186	105.75
391.411	91.75
391.636	95.75
391.86	99.75
392.085	92.75
392.31	92.75
392.534	119.75
392.759	98.75
392.984	82.75
393.208	87.75
393.433	98.75
393.658	95.75
393.882	96.75
394.107	96.75
394.331	99.75
394.556	106.75
394.78	115.75
395.005	96.75
395.229	93.75
395.454	105.75
395.678	98.75
395.903	105.75
396.127	99.75
396.352	103.75
396.576	103.75
396.801	101.75
397.025	99.75
397.249	112.75
397.474	109.75
397.698	104.75
397.922	97.75
398.147	99.75
398.371	107.75
398.595	101.75
398.82	107.75
399.044	107.75
399.268	112.75
399.492	107.75
399.717	103.75
399.941	108.75
400.165	119.75
400.389	107.75
400.613	120.75
400.837	110.75
401.062	120.75
401.286	104.75
401.51	119.75
401.734	96.75
401.958	113.75
402.182	104.75
402.406	118.75
402.63	123.75
402.854	101.75
403.078	114.75
403.302	118.75
403.526	97.75
403.75	103.75
403.974	106.75
404.198	115.75
404.422	109.75
404.645	99.75
404.869	104.75
405.093	114.75
405.317	107.75
405.541	113.75
405.765	112.75
405.988	127.75
406.212	112.75
406.436	106.75
406.66	119.75
406.883	107.75
407.107	122.75
407.331	116.75
407.555	114.75
407.778	102.75
408.002	116.75
408.226	107.75
408.449	110.75
408.673	126.75
408.896	121.75
409.12	109.75
409.344	112.75
409.567	122.75
409.791	124.75
410.014	124.75
410.238	122.75
410.461	110.75
410.685	112.75
410.908	117.75
411.132	120.75
411.355	118.75
411.578	120.75
411.802	121.75
412.025	111.75
412.249	118.75
412.472	113.75
412.695	120.75
412.919	125.75
413.142	117.75
413.365	114.75
413.589	114.75
413.812	110.75
414.035	126.75
414.258	126.75
414.482	117.75
414.705	108.75
414.928	106.75
415.151	114.75
415.374	116.75
415.597	121.75
415.821	111.75
416.044	109.75
416.267	117.75
416.49	113.75
416.713	133.75
416.936	124.75
417.159	124.75
417.382	125.75
417.605	126.75
417.828	129.75
418.051	130.75
418.274	124.75
418.497	124.75
418.72	126.75
418.943	118.75
419.166	135.75
419.389	123.75
419.611	120.75
419.834	116.75
420.057	135.75
420.28	140.75
420.503	139.75
420.726	133.75
420.948	119.75
421.171	128.75
421.394	132.75
421.617	117.75
421.839	141.75
422.062	146.75
422.285	113.75
422.507	130.75
422.73	135.75
422.953	130.75
423.175	125.75
423.398	118.75
423.621	122.75
423.843	120.75
424.066	145.75
424.288	128.75
424.511	144.75
424.733	136.75
424.956	131.75
425.178	130.75
425.401	136.75
425.623	128.75
425.846	136.75
426.068	119.75
426.291	96.75
426.513	108.75
426.735	136.75
426.958	105.75
427.18	113.75
427.402	130.75
427.625	122.75
427.847	131.75
428.069	122.75
428.292	111.75
428.514	120.75
428.736	122.75
428.958	118.75
429.181	126.75
429.403	120.75
429.625	123.75
429.847	122.75
430.069	128.75
430.292	133.75
430.514	130.75
430.736	121.75
430.958	136.75
431.18	126.75
431.402	118.75
431.624	99.75
431.846	104.75
432.068	102.75
432.29	96.75
432.512	108.75
432.734	121.75
432.956	119.75
433.178	133.75
433.4	147.75
433.622	137.75
433.844	132.75
434.066	135.75
434.287	106.75
434.509	89.75
434.731	94.75
434.953	95.75
435.175	127.75
435.397	122.75
435.618	114.75
435.84	110.75
436.062	116.75
436.284	112.75
436.505	126.75
436.727	121.75
436.949	138.75
437.17	124.75
437.392	121.75
437.614	118.75
437.835	114.75
438.057	114.75
438.278	134.75
438.5	111.75
438.721	126.75
438.943	120.75
439.165	127.75
439.386	120.75
439.608	145.75
439.829	154.75
440.05	144.75
440.272	136.75
440.493	148.75
440.715	128.75
440.936	136.75
441.158	141.75
441.379	134.75
441.6	138.75
441.822	120.75
442.043	138.75
442.264	132.75
442.486	141.75
442.707	114.75
442.928	139.75
443.149	122.75
443.371	130.75
443.592	131.75
443.813	113.75
444.034	130.75
444.255	128.75
444.476	138.75
444.698	139.75
444.919	122.75
445.14	226.75
445.361	183.75
445.582	146.75
445.803	139.75
446.024	128.75
446.245	142.75
446.466	136.75
446.687	149.75
446.908	150.75
447.129	138.75
447.35	135.75
447.571	137.75
447.792	123.75
448.013	131.75
448.234	143.75
448.455	132.75
448.675	144.75
448.896	150.75
449.117	117.75
449.338	143.75
449.559	140.75
449.779	130.75
450	135.75
450.221	126.75
450.442	136.75
450.662	122.75
450.883	123.75
451.104	131.75
451.324	130.75
451.545	122.75
451.766	122.75
451.986	122.75
452.207	114.75
452.428	122.75
452.648	142.75
452.869	120.75
453.089	113.75
453.31	116.75
453.53	113.75
453.751	110.75
453.971	108.75
454.192	103.75
454.412	97.75
454.633	112.75
454.853	116.75
455.073	111.75
455.294	105.75
455.514	126.75
455.734	116.75
455.955	110.75
456.175	116.75
456.395	121.75
456.616	113.75
456.836	117.75
457.056	94.75
457.276	99.75
457.497	102.75
457.717	104.75
457.937	110.75
458.157	102.75
458.377	103.75
458.598	100.75
458.818	91.75
459.038	81.75
459.258	72.75
459.478	75.75
459.698	83.75
459.918	82.75
460.138	91.75
460.358	110.75
460.578	110.75
460.798	118.75
461.018	111.75
461.238	103.75
461.458	102.75
461.678	107.75
461.898	113.75
462.118	106.75
462.338	119.75
462.558	123.75
462.777	111.75
462.997	84.75
463.217	89.75
463.437	89.75
463.657	122.75
463.876	128.75
464.096	97.75
464.316	114.75
464.536	114.75
464.755	103.75
464.975	110.75
465.195	105.75
465.414	98.75
465.634	114.75
465.854	104.75
466.073	122.75
466.293	118.75
466.512	123.75
466.732	130.75
466.951	128.75
467.171	133.75
467.391	128.75
467.61	134.75
467.829	128.75
468.049	136.75
468.268	127.75
468.488	120.75
468.707	120.75
468.927	136.75
469.146	135.75
469.365	148.75
469.585	135.75
469.804	122.75
470.023	140.75
470.243	126.75
470.462	134.75
470.681	148.75
470.901	128.75
471.12	142.75
471.339	144.75
471.558	137.75
471.777	130.75
471.997	125.75
472.216	118.75
472.435	115.75
472.654	103.75
472.873	99.75
473.092	99.75
473.311	108.75
473.53	124.75
473.749	134.75
473.968	129.75
474.187	117.75
474.406	124.75
474.625	122.75
474.844	133.75
475.063	123.75
475.282	122.75
475.501	128.75
475.72	127.75
475.939	125.75
476.158	123.75
476.377	115.75
476.596	120.75
476.814	115.75
477.033	105.75
477.252	101.75
477.471	119.75
477.69	124.75
477.908	124.75
478.127	130.75
478.346	121.75
478.564	128.75
478.783	120.75
479.002	126.75
479.22	122.75
479.439	134.75
479.658	118.75
479.876	117.75
480.095	101.75
480.313	107.75
480.532	122.75
480.751	124.75
480.969	85.75
481.188	97.75
481.406	79.75
481.624	87.75
481.843	84.75
482.061	76.75
482.28	103.75
482.498	112.75
482.717	104.75
482.935	114.75
483.153	139.75
483.372	147.75
483.59	157.75
483.808	133.75
484.027	140.75
484.245	127.75
484.463	132.75
484.681	154.75
484.9	135.75
485.118	145.75
485.336	118.75
485.554	117.75
485.772	98.75
485.99	99.75
486.209	95.75
486.427	116.75
486.645	112.75
486.863	130.75
487.081	136.75
487.299	136.75
487.517	133.75
487.735	168.75
487.953	190.75
488.171	179.75
488.389	172.75
488.607	158.75
488.825	160.75
489.043	121.75
489.261	126.75
489.479	141.75
489.696	140.75
489.914	142.75
490.132	142.75
490.35	143.75
490.568	152.75
490.786	162.75
491.003	180.75
491.221	185.75
491.439	176.75
491.657	192.75
491.874	183.75
492.092	214.75
492.31	227.75
492.527	213.75
492.745	197.75
492.963	182.75
493.18	184.75
493.398	164.75
493.615	178.75
493.833	175.75
494.05	185.75
494.268	171.75
494.485	168.75
494.703	182.75
494.92	177.75
495.138	177.75
495.355	161.75
495.573	160.75
495.79	147.75
496.008	166.75
496.225	155.75
496.442	152.75
496.66	178.75
496.877	159.75
497.094	170.75
497.312	144.75
497.529	162.75
497.746	151.75
497.963	126.75
498.181	130.75
498.398	125.75
498.615	120.75
498.832	126.75
499.049	123.75
499.267	115.75
499.484	132.75
499.701	122.75
499.918	130.75
500.135	145.75
500.352	128.75
500.569	135.75
500.786	126.75
501.003	142.75
501.22	135.75
501.437	132.75
501.654	126.75
501.871	123.75
502.088	134.75
502.305	128.75
502.522	134.75
502.739	132.75
502.956	117.75
503.172	128.75
503.389	130.75
503.606	102.75
503.823	122.75
504.04	118.75
504.256	99.75
504.473	111.75
504.69	114.75
504.907	120.75
505.123	112.75
505.34	134.75
505.557	126.75
505.773	111.75
505.99	117.75
506.207	114.75
506.423	97.75
506.64	107.75
506.856	123.75
507.073	130.75
507.289	112.75
507.506	107.75
507.722	108.75
507.939	112.75
508.155	98.75
508.372	107.75
508.588	111.75
508.805	102.75
509.021	94.75
509.238	114.75
509.454	103.75
509.67	104.75
509.887	101.75
510.103	96.75
510.319	76.75
510.536	83.75
510.752	83.75
510.968	86.75
511.184	91.75
511.401	80.75
511.617	96.75
511.833	89.75
512.049	83.75
512.265	98.75
512.481	91.75
