Data from Location1.07152019.Energy5.Lamp.07192019.3%Agarose_HRD10591_14-31-59-015.txt Node
Date: Fri Jul 19 14:31:59 EDT 2019
User: cochatt
Spectrometer: HR+D1059
Trigger mode: 1
Integration Time (sec): 1.000000E-1
Scans to average: 1
Electric dark correction enabled: true
Nonlinearity correction enabled: false
Boxcar width: 0
XAxis mode: Wavelengths
Number of Pixels in Spectrum: 2048
>>>>>Begin Spectral Data<<<<<
223.165	-12.56
223.4	-12.56
223.635	-12.56
223.869	-11.56
224.104	-18.56
224.338	-17.56
224.573	-7.56
224.808	-14.56
225.042	-5.56
225.277	-16.56
225.511	-4.56
225.746	11.44
225.98	7.44
226.215	7.44
226.449	20.44
226.683	9.44
226.918	25.44
227.152	27.44
227.387	42.44
227.621	45.44
227.856	61.44
228.09	25.44
228.324	47.44
228.559	56.44
228.793	59.44
229.027	53.44
229.262	57.44
229.496	57.44
229.73	75.44
229.964	66.44
230.199	76.44
230.433	81.44
230.667	75.44
230.901	79.44
231.136	76.44
231.37	79.44
231.604	77.44
231.838	69.44
232.072	70.44
232.306	72.44
232.541	75.44
232.775	82.44
233.009	71.44
233.243	90.44
233.477	79.44
233.711	73.44
233.945	75.44
234.179	83.44
234.413	81.44
234.647	87.44
234.881	79.44
235.115	74.44
235.349	68.44
235.583	72.44
235.817	75.44
236.051	75.44
236.285	74.44
236.519	74.44
236.753	73.44
236.987	86.44
237.221	61.44
237.455	66.44
237.689	80.44
237.922	83.44
238.156	78.44
238.39	65.44
238.624	80.44
238.858	72.44
239.091	67.44
239.325	71.44
239.559	68.44
239.793	59.44
240.027	66.44
240.26	67.44
240.494	71.44
240.728	68.44
240.961	78.44
241.195	76.44
241.429	70.44
241.662	83.44
241.896	73.44
242.13	78.44
242.363	78.44
242.597	68.44
242.83	79.44
243.064	74.44
243.298	74.44
243.531	76.44
243.765	77.44
243.998	73.44
244.232	81.44
244.465	70.44
244.699	69.44
244.932	72.44
245.166	69.44
245.399	79.44
245.633	89.44
245.866	72.44
246.099	68.44
246.333	75.44
246.566	70.44
246.8	76.44
247.033	73.44
247.266	69.44
247.5	70.44
247.733	66.44
247.966	82.44
248.2	79.44
248.433	78.44
248.666	68.44
248.899	65.44
249.133	79.44
249.366	78.44
249.599	84.44
249.832	90.44
250.066	85.44
250.299	98.44
250.532	79.44
250.765	84.44
250.998	69.44
251.231	85.44
251.465	81.44
251.698	85.44
251.931	70.44
252.164	81.44
252.397	84.44
252.63	103.44
252.863	72.44
253.096	79.44
253.329	81.44
253.562	76.44
253.795	73.44
254.028	70.44
254.261	79.44
254.494	79.44
254.727	77.44
254.96	83.44
255.193	79.44
255.426	75.44
255.659	77.44
255.892	80.44
256.124	70.44
256.357	65.44
256.59	85.44
256.823	78.44
257.056	77.44
257.289	81.44
257.521	92.44
257.754	81.44
257.987	71.44
258.22	72.44
258.452	88.44
258.685	76.44
258.918	85.44
259.151	73.44
259.383	71.44
259.616	82.44
259.849	86.44
260.081	87.44
260.314	88.44
260.547	71.44
260.779	89.44
261.012	86.44
261.244	70.44
261.477	73.44
261.71	84.44
261.942	75.44
262.175	100.44
262.407	85.44
262.64	100.44
262.872	94.44
263.105	77.44
263.337	87.44
263.57	77.44
263.802	77.44
264.035	92.44
264.267	82.44
264.499	84.44
264.732	89.44
264.964	85.44
265.197	89.44
265.429	80.44
265.661	82.44
265.894	65.44
266.126	91.44
266.358	77.44
266.591	85.44
266.823	74.44
267.055	69.44
267.287	91.44
267.52	75.44
267.752	103.44
267.984	102.44
268.216	81.44
268.448	76.44
268.681	81.44
268.913	91.44
269.145	89.44
269.377	94.44
269.609	81.44
269.841	84.44
270.073	81.44
270.306	83.44
270.538	93.44
270.77	83.44
271.002	74.44
271.234	80.44
271.466	88.44
271.698	80.44
271.93	84.44
272.162	90.44
272.394	78.44
272.626	84.44
272.858	76.44
273.09	95.44
273.322	82.44
273.553	92.44
273.785	73.44
274.017	85.44
274.249	81.44
274.481	86.44
274.713	82.44
274.945	70.44
275.176	75.44
275.408	90.44
275.64	87.44
275.872	78.44
276.104	84.44
276.335	99.44
276.567	86.44
276.799	89.44
277.031	83.44
277.262	79.44
277.494	82.44
277.726	89.44
277.957	72.44
278.189	76.44
278.421	87.44
278.652	94.44
278.884	75.44
279.115	103.44
279.347	89.44
279.579	83.44
279.81	88.44
280.042	87.44
280.273	89.44
280.505	81.44
280.736	82.44
280.968	82.44
281.199	94.44
281.431	84.44
281.662	74.44
281.894	81.44
282.125	86.44
282.356	86.44
282.588	84.44
282.819	82.44
283.051	79.44
283.282	84.44
283.513	97.44
283.745	100.44
283.976	94.44
284.207	82.44
284.439	76.44
284.67	81.44
284.901	89.44
285.132	85.44
285.364	88.44
285.595	97.44
285.826	89.44
286.057	75.44
286.288	88.44
286.52	85.44
286.751	84.44
286.982	98.44
287.213	82.44
287.444	92.44
287.675	84.44
287.906	80.44
288.138	87.44
288.369	79.44
288.6	92.44
288.831	78.44
289.062	97.44
289.293	93.44
289.524	83.44
289.755	90.44
289.986	77.44
290.217	102.44
290.448	91.44
290.679	92.44
290.91	91.44
291.141	71.44
291.371	76.44
291.602	79.44
291.833	82.44
292.064	78.44
292.295	88.44
292.526	79.44
292.757	84.44
292.987	81.44
293.218	81.44
293.449	86.44
293.68	70.44
293.91	70.44
294.141	88.44
294.372	87.44
294.603	102.44
294.833	73.44
295.064	82.44
295.295	73.44
295.525	68.44
295.756	93.44
295.987	69.44
296.217	78.44
296.448	81.44
296.679	95.44
296.909	78.44
297.14	85.44
297.37	89.44
297.601	79.44
297.831	93.44
298.062	94.44
298.292	86.44
298.523	94.44
298.753	95.44
298.984	100.44
299.214	74.44
299.445	92.44
299.675	78.44
299.905	74.44
300.136	73.44
300.366	62.44
300.597	90.44
300.827	92.44
301.057	75.44
301.288	87.44
301.518	71.44
301.748	84.44
301.979	87.44
302.209	79.44
302.439	85.44
302.669	96.44
302.9	84.44
303.13	78.44
303.36	83.44
303.59	89.44
303.82	89.44
304.051	92.44
304.281	84.44
304.511	90.44
304.741	92.44
304.971	77.44
305.201	83.44
305.431	87.44
305.661	89.44
305.891	88.44
306.121	73.44
306.352	84.44
306.582	81.44
306.812	66.44
307.042	89.44
307.272	81.44
307.502	65.44
307.731	85.44
307.961	83.44
308.191	85.44
308.421	75.44
308.651	86.44
308.881	80.44
309.111	75.44
309.341	94.44
309.571	90.44
309.8	86.44
310.03	86.44
310.26	86.44
310.49	95.44
310.72	81.44
310.949	79.44
311.179	77.44
311.409	74.44
311.639	78.44
311.868	95.44
312.098	90.44
312.328	84.44
312.557	94.44
312.787	76.44
313.017	98.44
313.246	67.44
313.476	79.44
313.706	83.44
313.935	90.44
314.165	90.44
314.394	72.44
314.624	72.44
314.853	87.44
315.083	90.44
315.312	89.44
315.542	89.44
315.771	90.44
316.001	86.44
316.23	96.44
316.46	79.44
316.689	80.44
316.919	94.44
317.148	95.44
317.377	106.44
317.607	92.44
317.836	98.44
318.065	84.44
318.295	93.44
318.524	89.44
318.753	84.44
318.983	77.44
319.212	87.44
319.441	80.44
319.67	87.44
319.9	75.44
320.129	75.44
320.358	97.44
320.587	93.44
320.816	76.44
321.046	99.44
321.275	83.44
321.504	86.44
321.733	82.44
321.962	93.44
322.191	83.44
322.42	85.44
322.649	94.44
322.878	90.44
323.108	93.44
323.337	81.44
323.566	96.44
323.795	92.44
324.024	82.44
324.253	75.44
324.482	79.44
324.71	86.44
324.939	90.44
325.168	88.44
325.397	74.44
325.626	74.44
325.855	86.44
326.084	87.44
326.313	100.44
326.542	84.44
326.77	84.44
326.999	85.44
327.228	74.44
327.457	74.44
327.686	83.44
327.914	94.44
328.143	97.44
328.372	82.44
328.6	83.44
328.829	79.44
329.058	89.44
329.287	87.44
329.515	75.44
329.744	86.44
329.972	82.44
330.201	86.44
330.43	94.44
330.658	85.44
330.887	79.44
331.115	84.44
331.344	81.44
331.572	105.44
331.801	82.44
332.03	73.44
332.258	91.44
332.486	74.44
332.715	86.44
332.943	95.44
333.172	82.44
333.4	77.44
333.629	92.44
333.857	83.44
334.085	90.44
334.314	88.44
334.542	82.44
334.771	70.44
334.999	68.44
335.227	80.44
335.455	74.44
335.684	81.44
335.912	84.44
336.14	81.44
336.369	82.44
336.597	87.44
336.825	85.44
337.053	92.44
337.281	89.44
337.51	98.44
337.738	79.44
337.966	82.44
338.194	80.44
338.422	97.44
338.65	90.44
338.878	91.44
339.106	76.44
339.334	100.44
339.562	86.44
339.79	84.44
340.018	83.44
340.246	84.44
340.474	83.44
340.702	90.44
340.93	98.44
341.158	72.44
341.386	77.44
341.614	91.44
341.842	80.44
342.07	90.44
342.298	102.44
342.526	78.44
342.754	81.44
342.981	91.44
343.209	73.44
343.437	87.44
343.665	72.44
343.893	93.44
344.12	96.44
344.348	68.44
344.576	90.44
344.804	79.44
345.031	92.44
345.259	98.44
345.487	84.44
345.714	94.44
345.942	85.44
346.17	73.44
346.397	76.44
346.625	87.44
346.853	79.44
347.08	89.44
347.308	89.44
347.535	86.44
347.763	78.44
347.99	83.44
348.218	90.44
348.445	87.44
348.673	83.44
348.9	87.44
349.128	92.44
349.355	85.44
349.583	78.44
349.81	77.44
350.037	77.44
350.265	83.44
350.492	74.44
350.72	90.44
350.947	75.44
351.174	84.44
351.402	87.44
351.629	79.44
351.856	86.44
352.083	87.44
352.311	83.44
352.538	94.44
352.765	86.44
352.992	77.44
353.22	81.44
353.447	82.44
353.674	84.44
353.901	79.44
354.128	87.44
354.355	79.44
354.583	80.44
354.81	83.44
355.037	94.44
355.264	83.44
355.491	85.44
355.718	67.44
355.945	89.44
356.172	97.44
356.399	84.44
356.626	78.44
356.853	84.44
357.08	82.44
357.307	87.44
357.534	89.44
357.761	71.44
357.988	92.44
358.215	79.44
358.441	87.44
358.668	85.44
358.895	74.44
359.122	81.44
359.349	87.44
359.576	78.44
359.802	89.44
360.029	90.44
360.256	96.44
360.483	81.44
360.709	81.44
360.936	92.44
361.163	81.44
361.39	87.44
361.616	75.44
361.843	72.44
362.07	87.44
362.296	90.44
362.523	83.44
362.749	87.44
362.976	87.44
363.203	86.44
363.429	80.44
363.656	78.44
363.882	92.44
364.109	78.44
364.335	96.44
364.562	77.44
364.788	90.44
365.015	85.44
365.241	84.44
365.468	82.44
365.694	93.44
365.92	82.44
366.147	84.44
366.373	92.44
366.599	91.44
366.826	86.44
367.052	93.44
367.278	73.44
367.505	80.44
367.731	91.44
367.957	82.44
368.184	93.44
368.41	89.44
368.636	94.44
368.862	102.44
369.089	91.44
369.315	85.44
369.541	80.44
369.767	90.44
369.993	92.44
370.219	97.44
370.445	101.44
370.672	95.44
370.898	88.44
371.124	92.44
371.35	89.44
371.576	88.44
371.802	94.44
372.028	101.44
372.254	79.44
372.48	81.44
372.706	91.44
372.932	99.44
373.158	93.44
373.384	90.44
373.61	107.44
373.835	111.44
374.061	102.44
374.287	90.44
374.513	89.44
374.739	88.44
374.965	78.44
375.191	86.44
375.416	83.44
375.642	86.44
375.868	97.44
376.094	100.44
376.319	92.44
376.545	89.44
376.771	100.44
376.997	84.44
377.222	95.44
377.448	107.44
377.674	74.44
377.899	101.44
378.125	97.44
378.35	87.44
378.576	99.44
378.802	97.44
379.027	103.44
379.253	99.44
379.478	93.44
379.704	94.44
379.929	86.44
380.155	106.44
380.38	105.44
380.606	89.44
380.831	92.44
381.057	99.44
381.282	92.44
381.507	83.44
381.733	94.44
381.958	105.44
382.184	93.44
382.409	104.44
382.634	84.44
382.86	89.44
383.085	92.44
383.31	90.44
383.535	101.44
383.761	99.44
383.986	96.44
384.211	93.44
384.436	107.44
384.662	103.44
384.887	93.44
385.112	97.44
385.337	88.44
385.562	86.44
385.787	103.44
386.013	104.44
386.238	100.44
386.463	96.44
386.688	108.44
386.913	96.44
387.138	97.44
387.363	84.44
387.588	98.44
387.813	104.44
388.038	97.44
388.263	108.44
388.488	101.44
388.713	110.44
388.938	99.44
389.163	94.44
389.387	94.44
389.612	113.44
389.837	104.44
390.062	93.44
390.287	103.44
390.512	86.44
390.736	96.44
390.961	103.44
391.186	99.44
391.411	106.44
391.636	96.44
391.86	104.44
392.085	100.44
392.31	101.44
392.534	104.44
392.759	106.44
392.984	108.44
393.208	107.44
393.433	94.44
393.658	112.44
393.882	109.44
394.107	117.44
394.331	109.44
394.556	100.44
394.78	110.44
395.005	116.44
395.229	107.44
395.454	94.44
395.678	110.44
395.903	103.44
396.127	104.44
396.352	107.44
396.576	114.44
396.801	98.44
397.025	107.44
397.249	114.44
397.474	125.44
397.698	101.44
397.922	103.44
398.147	97.44
398.371	100.44
398.595	118.44
398.82	116.44
399.044	105.44
399.268	115.44
399.492	109.44
399.717	108.44
399.941	91.44
400.165	111.44
400.389	101.44
400.613	96.44
400.837	96.44
401.062	108.44
401.286	108.44
401.51	113.44
401.734	113.44
401.958	121.44
402.182	116.44
402.406	118.44
402.63	122.44
402.854	121.44
403.078	117.44
403.302	89.44
403.526	104.44
403.75	121.44
403.974	106.44
404.198	103.44
404.422	120.44
404.645	114.44
404.869	113.44
405.093	124.44
405.317	111.44
405.541	115.44
405.765	113.44
405.988	110.44
406.212	118.44
406.436	114.44
406.66	116.44
406.883	129.44
407.107	115.44
407.331	114.44
407.555	116.44
407.778	134.44
408.002	118.44
408.226	127.44
408.449	110.44
408.673	127.44
408.896	109.44
409.12	118.44
409.344	139.44
409.567	128.44
409.791	115.44
410.014	114.44
410.238	117.44
410.461	119.44
410.685	119.44
410.908	114.44
411.132	121.44
411.355	127.44
411.578	103.44
411.802	105.44
412.025	133.44
412.249	117.44
412.472	123.44
412.695	117.44
412.919	123.44
413.142	115.44
413.365	118.44
413.589	109.44
413.812	109.44
414.035	109.44
414.258	110.44
414.482	131.44
414.705	121.44
414.928	117.44
415.151	127.44
415.374	120.44
415.597	115.44
415.821	110.44
416.044	108.44
416.267	135.44
416.49	135.44
416.713	122.44
416.936	133.44
417.159	132.44
417.382	127.44
417.605	133.44
417.828	127.44
418.051	125.44
418.274	130.44
418.497	135.44
418.72	134.44
418.943	114.44
419.166	126.44
419.389	133.44
419.611	133.44
419.834	125.44
420.057	118.44
420.28	125.44
420.503	125.44
420.726	137.44
420.948	131.44
421.171	126.44
421.394	125.44
421.617	123.44
421.839	129.44
422.062	143.44
422.285	132.44
422.507	119.44
422.73	128.44
422.953	135.44
423.175	122.44
423.398	129.44
423.621	131.44
423.843	134.44
424.066	135.44
424.288	135.44
424.511	142.44
424.733	137.44
424.956	133.44
425.178	129.44
425.401	143.44
425.623	133.44
425.846	134.44
426.068	127.44
426.291	106.44
426.513	139.44
426.735	138.44
426.958	130.44
427.18	142.44
427.402	143.44
427.625	140.44
427.847	127.44
428.069	133.44
428.292	126.44
428.514	134.44
428.736	106.44
428.958	135.44
429.181	133.44
429.403	134.44
429.625	124.44
429.847	135.44
430.069	131.44
430.292	135.44
430.514	123.44
430.736	133.44
430.958	131.44
431.18	126.44
431.402	127.44
431.624	119.44
431.846	93.44
432.068	99.44
432.29	94.44
432.512	91.44
432.734	127.44
432.956	136.44
433.178	127.44
433.4	127.44
433.622	124.44
433.844	133.44
434.066	130.44
434.287	105.44
434.509	101.44
434.731	117.44
434.953	123.44
435.175	120.44
435.397	115.44
435.618	107.44
435.84	113.44
436.062	123.44
436.284	119.44
436.505	110.44
436.727	139.44
436.949	121.44
437.17	108.44
437.392	119.44
437.614	116.44
437.835	124.44
438.057	122.44
438.278	117.44
438.5	125.44
438.721	132.44
438.943	152.44
439.165	133.44
439.386	127.44
439.608	141.44
439.829	136.44
440.05	145.44
440.272	131.44
440.493	148.44
440.715	141.44
440.936	139.44
441.158	136.44
441.379	139.44
441.6	143.44
441.822	154.44
442.043	129.44
442.264	128.44
442.486	135.44
442.707	132.44
442.928	137.44
443.149	137.44
443.371	136.44
443.592	136.44
443.813	130.44
444.034	137.44
444.255	127.44
444.476	127.44
444.698	147.44
444.919	143.44
445.14	267.44
445.361	193.44
445.582	147.44
445.803	153.44
446.024	146.44
446.245	141.44
446.466	141.44
446.687	147.44
446.908	158.44
447.129	141.44
447.35	140.44
447.571	152.44
447.792	159.44
448.013	123.44
448.234	134.44
448.455	129.44
448.675	141.44
448.896	135.44
449.117	127.44
449.338	143.44
449.559	141.44
449.779	133.44
450	129.44
450.221	139.44
450.442	137.44
450.662	149.44
450.883	136.44
451.104	131.44
451.324	126.44
451.545	120.44
451.766	143.44
451.986	118.44
452.207	110.44
452.428	111.44
452.648	125.44
452.869	117.44
453.089	121.44
453.31	110.44
453.53	123.44
453.751	102.44
453.971	105.44
454.192	114.44
454.412	120.44
454.633	102.44
454.853	113.44
455.073	124.44
455.294	130.44
455.514	129.44
455.734	133.44
455.955	130.44
456.175	107.44
456.395	108.44
456.616	111.44
456.836	100.44
457.056	102.44
457.276	97.44
457.497	115.44
457.717	92.44
457.937	99.44
458.157	104.44
458.377	115.44
458.598	95.44
458.818	108.44
459.038	89.44
459.258	85.44
459.478	82.44
459.698	107.44
459.918	112.44
460.138	97.44
460.358	115.44
460.578	129.44
460.798	110.44
461.018	105.44
461.238	113.44
461.458	105.44
461.678	102.44
461.898	100.44
462.118	115.44
462.338	107.44
462.558	123.44
462.777	117.44
462.997	112.44
463.217	111.44
463.437	107.44
463.657	115.44
463.876	106.44
464.096	98.44
464.316	101.44
464.536	94.44
464.755	129.44
464.975	117.44
465.195	117.44
465.414	126.44
465.634	118.44
465.854	117.44
466.073	118.44
466.293	133.44
466.512	115.44
466.732	114.44
466.951	129.44
467.171	144.44
467.391	123.44
467.61	127.44
467.829	133.44
468.049	136.44
468.268	141.44
468.488	146.44
468.707	143.44
468.927	142.44
469.146	142.44
469.365	114.44
469.585	124.44
469.804	140.44
470.023	134.44
470.243	129.44
470.462	143.44
470.681	131.44
470.901	130.44
471.12	147.44
471.339	138.44
471.558	141.44
471.777	132.44
471.997	125.44
472.216	123.44
472.435	114.44
472.654	113.44
472.873	110.44
473.092	105.44
473.311	107.44
473.53	122.44
473.749	119.44
473.968	126.44
474.187	129.44
474.406	123.44
474.625	120.44
474.844	123.44
475.063	134.44
475.282	107.44
475.501	119.44
475.72	117.44
475.939	120.44
476.158	135.44
476.377	122.44
476.596	127.44
476.814	104.44
477.033	97.44
477.252	112.44
477.471	126.44
477.69	144.44
477.908	147.44
478.127	124.44
478.346	131.44
478.564	125.44
478.783	131.44
479.002	128.44
479.22	142.44
479.439	125.44
479.658	126.44
479.876	123.44
480.095	111.44
480.313	116.44
480.532	135.44
480.751	113.44
480.969	96.44
481.188	75.44
481.406	99.44
481.624	94.44
481.843	81.44
482.061	89.44
482.28	108.44
482.498	110.44
482.717	86.44
482.935	121.44
483.153	129.44
483.372	148.44
483.59	142.44
483.808	142.44
484.027	126.44
484.245	142.44
484.463	129.44
484.681	157.44
484.9	145.44
485.118	144.44
485.336	123.44
485.554	129.44
485.772	96.44
485.99	99.44
486.209	117.44
486.427	113.44
486.645	132.44
486.863	119.44
487.081	125.44
487.299	129.44
487.517	138.44
487.735	163.44
487.953	179.44
488.171	175.44
488.389	169.44
488.607	164.44
488.825	120.44
489.043	131.44
489.261	132.44
489.479	133.44
489.696	158.44
489.914	147.44
490.132	137.44
490.35	145.44
490.568	143.44
490.786	159.44
491.003	174.44
491.221	157.44
491.439	172.44
491.657	198.44
491.874	199.44
492.092	235.44
492.31	245.44
492.527	221.44
492.745	206.44
492.963	207.44
493.18	192.44
493.398	170.44
493.615	169.44
493.833	162.44
494.05	155.44
494.268	173.44
494.485	173.44
494.703	165.44
494.92	176.44
495.138	161.44
495.355	174.44
495.573	162.44
495.79	178.44
496.008	156.44
496.225	158.44
496.442	157.44
496.66	172.44
496.877	151.44
497.094	155.44
497.312	163.44
497.529	155.44
497.746	146.44
497.963	126.44
498.181	131.44
498.398	116.44
498.615	111.44
498.832	115.44
499.049	111.44
499.267	121.44
499.484	136.44
499.701	129.44
499.918	129.44
500.135	126.44
500.352	135.44
500.569	123.44
500.786	149.44
501.003	156.44
501.22	137.44
501.437	121.44
501.654	135.44
501.871	133.44
502.088	129.44
502.305	127.44
502.522	139.44
502.739	128.44
502.956	139.44
503.172	136.44
503.389	122.44
503.606	122.44
503.823	131.44
504.04	122.44
504.256	120.44
504.473	108.44
504.69	119.44
504.907	121.44
505.123	117.44
505.34	131.44
505.557	125.44
505.773	125.44
505.99	109.44
506.207	116.44
506.423	127.44
506.64	131.44
506.856	117.44
507.073	114.44
507.289	112.44
507.506	116.44
507.722	133.44
507.939	116.44
508.155	99.44
508.372	109.44
508.588	98.44
508.805	111.44
509.021	110.44
509.238	101.44
509.454	99.44
509.67	87.44
509.887	88.44
510.103	96.44
510.319	100.44
510.536	90.44
510.752	89.44
510.968	93.44
511.184	90.44
511.401	84.44
511.617	88.44
