Data from Location1.07152019.Energy5.Lamp.07192019.3%Agarose_HRD10591_14-32-31-016.txt Node
Date: Fri Jul 19 14:32:31 EDT 2019
User: cochatt
Spectrometer: HR+D1059
Trigger mode: 1
Integration Time (sec): 1.000000E-1
Scans to average: 1
Electric dark correction enabled: true
Nonlinearity correction enabled: false
Boxcar width: 0
XAxis mode: Wavelengths
Number of Pixels in Spectrum: 2048
>>>>>Begin Spectral Data<<<<<
223.165	-17.38
223.4	-17.38
223.635	-17.38
223.869	-15.38
224.104	-20.38
224.338	-18.38
224.573	-19.38
224.808	0.62
225.042	-8.38
225.277	-18.38
225.511	11.62
225.746	-1.38
225.98	12.62
226.215	3.62
226.449	17.62
226.683	18.62
226.918	23.62
227.152	30.62
227.387	23.62
227.621	39.62
227.856	45.62
228.09	33.62
228.324	63.62
228.559	62.62
228.793	45.62
229.027	61.62
229.262	81.62
229.496	71.62
229.73	77.62
229.964	69.62
230.199	63.62
230.433	71.62
230.667	78.62
230.901	70.62
231.136	86.62
231.37	75.62
231.604	87.62
231.838	93.62
232.072	79.62
232.306	97.62
232.541	84.62
232.775	85.62
233.009	82.62
233.243	78.62
233.477	88.62
233.711	79.62
233.945	97.62
234.179	80.62
234.413	94.62
234.647	90.62
234.881	88.62
235.115	81.62
235.349	75.62
235.583	84.62
235.817	86.62
236.051	65.62
236.285	81.62
236.519	79.62
236.753	78.62
236.987	83.62
237.221	87.62
237.455	99.62
237.689	82.62
237.922	89.62
238.156	85.62
238.39	83.62
238.624	79.62
238.858	93.62
239.091	95.62
239.325	74.62
239.559	68.62
239.793	80.62
240.027	75.62
240.26	76.62
240.494	94.62
240.728	78.62
240.961	74.62
241.195	80.62
241.429	86.62
241.662	77.62
241.896	79.62
242.13	88.62
242.363	77.62
242.597	83.62
242.83	82.62
243.064	85.62
243.298	64.62
243.531	66.62
243.765	76.62
243.998	75.62
244.232	86.62
244.465	82.62
244.699	75.62
244.932	83.62
245.166	98.62
245.399	63.62
245.633	77.62
245.866	62.62
246.099	72.62
246.333	65.62
246.566	75.62
246.8	63.62
247.033	76.62
247.266	76.62
247.5	69.62
247.733	69.62
247.966	69.62
248.2	76.62
248.433	95.62
248.666	83.62
248.899	73.62
249.133	83.62
249.366	83.62
249.599	68.62
249.832	78.62
250.066	81.62
250.299	79.62
250.532	79.62
250.765	85.62
250.998	77.62
251.231	83.62
251.465	76.62
251.698	93.62
251.931	86.62
252.164	89.62
252.397	81.62
252.63	90.62
252.863	85.62
253.096	86.62
253.329	86.62
253.562	75.62
253.795	90.62
254.028	79.62
254.261	78.62
254.494	82.62
254.727	77.62
254.96	81.62
255.193	88.62
255.426	72.62
255.659	82.62
255.892	88.62
256.124	88.62
256.357	87.62
256.59	76.62
256.823	73.62
257.056	82.62
257.289	79.62
257.521	81.62
257.754	81.62
257.987	87.62
258.22	97.62
258.452	72.62
258.685	74.62
258.918	77.62
259.151	81.62
259.383	77.62
259.616	86.62
259.849	90.62
260.081	80.62
260.314	77.62
260.547	80.62
260.779	81.62
261.012	101.62
261.244	71.62
261.477	85.62
261.71	78.62
261.942	84.62
262.175	101.62
262.407	84.62
262.64	91.62
262.872	89.62
263.105	88.62
263.337	79.62
263.57	83.62
263.802	93.62
264.035	72.62
264.267	77.62
264.499	99.62
264.732	74.62
264.964	80.62
265.197	80.62
265.429	76.62
265.661	87.62
265.894	82.62
266.126	87.62
266.358	78.62
266.591	84.62
266.823	86.62
267.055	71.62
267.287	92.62
267.52	86.62
267.752	86.62
267.984	94.62
268.216	88.62
268.448	91.62
268.681	71.62
268.913	66.62
269.145	69.62
269.377	81.62
269.609	87.62
269.841	87.62
270.073	82.62
270.306	74.62
270.538	88.62
270.77	84.62
271.002	80.62
271.234	84.62
271.466	94.62
271.698	96.62
271.93	88.62
272.162	92.62
272.394	90.62
272.626	96.62
272.858	95.62
273.09	91.62
273.322	102.62
273.553	88.62
273.785	88.62
274.017	88.62
274.249	75.62
274.481	87.62
274.713	90.62
274.945	75.62
275.176	89.62
275.408	80.62
275.64	96.62
275.872	77.62
276.104	79.62
276.335	86.62
276.567	82.62
276.799	80.62
277.031	75.62
277.262	89.62
277.494	86.62
277.726	90.62
277.957	87.62
278.189	89.62
278.421	82.62
278.652	89.62
278.884	90.62
279.115	92.62
279.347	79.62
279.579	88.62
279.81	83.62
280.042	87.62
280.273	73.62
280.505	80.62
280.736	79.62
280.968	82.62
281.199	86.62
281.431	83.62
281.662	75.62
281.894	71.62
282.125	90.62
282.356	88.62
282.588	75.62
282.819	99.62
283.051	89.62
283.282	90.62
283.513	89.62
283.745	77.62
283.976	72.62
284.207	90.62
284.439	96.62
284.67	79.62
284.901	90.62
285.132	70.62
285.364	90.62
285.595	78.62
285.826	88.62
286.057	69.62
286.288	85.62
286.52	83.62
286.751	94.62
286.982	86.62
287.213	95.62
287.444	91.62
287.675	77.62
287.906	98.62
288.138	89.62
288.369	85.62
288.6	99.62
288.831	87.62
289.062	82.62
289.293	85.62
289.524	78.62
289.755	90.62
289.986	95.62
290.217	74.62
290.448	79.62
290.679	86.62
290.91	91.62
291.141	81.62
291.371	90.62
291.602	83.62
291.833	75.62
292.064	75.62
292.295	87.62
292.526	85.62
292.757	83.62
292.987	79.62
293.218	86.62
293.449	89.62
293.68	92.62
293.91	86.62
294.141	99.62
294.372	93.62
294.603	93.62
294.833	88.62
295.064	105.62
295.295	80.62
295.525	72.62
295.756	97.62
295.987	84.62
296.217	103.62
296.448	83.62
296.679	77.62
296.909	88.62
297.14	93.62
297.37	82.62
297.601	91.62
297.831	88.62
298.062	102.62
298.292	85.62
298.523	84.62
298.753	91.62
298.984	79.62
299.214	83.62
299.445	101.62
299.675	90.62
299.905	82.62
300.136	84.62
300.366	86.62
300.597	91.62
300.827	87.62
301.057	85.62
301.288	79.62
301.518	75.62
301.748	88.62
301.979	95.62
302.209	92.62
302.439	85.62
302.669	82.62
302.9	83.62
303.13	96.62
303.36	90.62
303.59	84.62
303.82	95.62
304.051	89.62
304.281	91.62
304.511	99.62
304.741	80.62
304.971	89.62
305.201	74.62
305.431	77.62
305.661	89.62
305.891	102.62
306.121	98.62
306.352	85.62
306.582	80.62
306.812	80.62
307.042	83.62
307.272	82.62
307.502	87.62
307.731	99.62
307.961	78.62
308.191	90.62
308.421	77.62
308.651	77.62
308.881	90.62
309.111	87.62
309.341	84.62
309.571	103.62
309.8	81.62
310.03	82.62
310.26	76.62
310.49	88.62
310.72	101.62
310.949	103.62
311.179	90.62
311.409	86.62
311.639	98.62
311.868	87.62
312.098	84.62
312.328	66.62
312.557	101.62
312.787	78.62
313.017	94.62
313.246	90.62
313.476	93.62
313.706	86.62
313.935	84.62
314.165	87.62
314.394	85.62
314.624	85.62
314.853	81.62
315.083	94.62
315.312	83.62
315.542	94.62
315.771	78.62
316.001	88.62
316.23	100.62
316.46	90.62
316.689	96.62
316.919	95.62
317.148	91.62
317.377	96.62
317.607	81.62
317.836	82.62
318.065	82.62
318.295	87.62
318.524	87.62
318.753	91.62
318.983	83.62
319.212	96.62
319.441	91.62
319.67	91.62
319.9	81.62
320.129	97.62
320.358	111.62
320.587	78.62
320.816	90.62
321.046	90.62
321.275	92.62
321.504	83.62
321.733	89.62
321.962	81.62
322.191	99.62
322.42	79.62
322.649	82.62
322.878	85.62
323.108	94.62
323.337	82.62
323.566	82.62
323.795	88.62
324.024	90.62
324.253	87.62
324.482	102.62
324.71	94.62
324.939	81.62
325.168	73.62
325.397	97.62
325.626	92.62
325.855	86.62
326.084	76.62
326.313	91.62
326.542	80.62
326.77	85.62
326.999	77.62
327.228	86.62
327.457	83.62
327.686	91.62
327.914	79.62
328.143	72.62
328.372	81.62
328.6	83.62
328.829	89.62
329.058	92.62
329.287	84.62
329.515	87.62
329.744	93.62
329.972	80.62
330.201	85.62
330.43	91.62
330.658	103.62
330.887	79.62
331.115	81.62
331.344	86.62
331.572	91.62
331.801	80.62
332.03	93.62
332.258	73.62
332.486	77.62
332.715	84.62
332.943	87.62
333.172	90.62
333.4	97.62
333.629	86.62
333.857	88.62
334.085	90.62
334.314	86.62
334.542	73.62
334.771	81.62
334.999	83.62
335.227	90.62
335.455	88.62
335.684	81.62
335.912	104.62
336.14	88.62
336.369	76.62
336.597	92.62
336.825	97.62
337.053	91.62
337.281	91.62
337.51	89.62
337.738	75.62
337.966	91.62
338.194	98.62
338.422	93.62
338.65	83.62
338.878	88.62
339.106	87.62
339.334	90.62
339.562	98.62
339.79	84.62
340.018	96.62
340.246	83.62
340.474	90.62
340.702	79.62
340.93	77.62
341.158	84.62
341.386	75.62
341.614	81.62
341.842	86.62
342.07	101.62
342.298	91.62
342.526	87.62
342.754	95.62
342.981	87.62
343.209	91.62
343.437	84.62
343.665	92.62
343.893	88.62
344.12	99.62
344.348	89.62
344.576	98.62
344.804	83.62
345.031	82.62
345.259	82.62
345.487	87.62
345.714	85.62
345.942	93.62
346.17	98.62
346.397	80.62
346.625	93.62
346.853	94.62
347.08	83.62
347.308	89.62
347.535	96.62
347.763	81.62
347.99	91.62
348.218	89.62
348.445	86.62
348.673	90.62
348.9	87.62
349.128	86.62
349.355	77.62
349.583	83.62
349.81	92.62
350.037	86.62
350.265	82.62
350.492	75.62
350.72	97.62
350.947	91.62
351.174	76.62
351.402	92.62
351.629	93.62
351.856	90.62
352.083	89.62
352.311	91.62
352.538	89.62
352.765	92.62
352.992	85.62
353.22	88.62
353.447	84.62
353.674	88.62
353.901	106.62
354.128	98.62
354.355	81.62
354.583	88.62
354.81	83.62
355.037	97.62
355.264	78.62
355.491	102.62
355.718	94.62
355.945	88.62
356.172	87.62
356.399	82.62
356.626	93.62
356.853	79.62
357.08	81.62
357.307	72.62
357.534	78.62
357.761	83.62
357.988	98.62
358.215	78.62
358.441	76.62
358.668	85.62
358.895	91.62
359.122	85.62
359.349	96.62
359.576	85.62
359.802	94.62
360.029	91.62
360.256	100.62
360.483	87.62
360.709	87.62
360.936	89.62
361.163	96.62
361.39	94.62
361.616	77.62
361.843	89.62
362.07	77.62
362.296	87.62
362.523	91.62
362.749	84.62
362.976	90.62
363.203	80.62
363.429	89.62
363.656	89.62
363.882	91.62
364.109	84.62
364.335	82.62
364.562	96.62
364.788	87.62
365.015	70.62
365.241	86.62
365.468	94.62
365.694	87.62
365.92	97.62
366.147	64.62
366.373	92.62
366.599	86.62
366.826	98.62
367.052	87.62
367.278	89.62
367.505	88.62
367.731	80.62
367.957	98.62
368.184	87.62
368.41	93.62
368.636	87.62
368.862	87.62
369.089	87.62
369.315	73.62
369.541	93.62
369.767	93.62
369.993	95.62
370.219	97.62
370.445	88.62
370.672	102.62
370.898	101.62
371.124	100.62
371.35	94.62
371.576	98.62
371.802	80.62
372.028	98.62
372.254	103.62
372.48	98.62
372.706	84.62
372.932	96.62
373.158	93.62
373.384	89.62
373.61	105.62
373.835	103.62
374.061	82.62
374.287	105.62
374.513	87.62
374.739	92.62
374.965	93.62
375.191	83.62
375.416	81.62
375.642	98.62
375.868	93.62
376.094	98.62
376.319	90.62
376.545	87.62
376.771	83.62
376.997	95.62
377.222	78.62
377.448	80.62
377.674	92.62
377.899	91.62
378.125	105.62
378.35	100.62
378.576	91.62
378.802	96.62
379.027	94.62
379.253	106.62
379.478	96.62
379.704	89.62
379.929	97.62
380.155	114.62
380.38	87.62
380.606	99.62
380.831	112.62
381.057	103.62
381.282	91.62
381.507	97.62
381.733	104.62
381.958	111.62
382.184	90.62
382.409	91.62
382.634	105.62
382.86	105.62
383.085	92.62
383.31	93.62
383.535	102.62
383.761	89.62
383.986	94.62
384.211	88.62
384.436	93.62
384.662	109.62
384.887	98.62
385.112	106.62
385.337	97.62
385.562	106.62
385.787	90.62
386.013	99.62
386.238	109.62
386.463	102.62
386.688	110.62
386.913	95.62
387.138	99.62
387.363	111.62
387.588	96.62
387.813	101.62
388.038	108.62
388.263	117.62
388.488	114.62
388.713	89.62
388.938	114.62
389.163	111.62
389.387	114.62
389.612	103.62
389.837	114.62
390.062	106.62
390.287	102.62
390.512	106.62
390.736	95.62
390.961	92.62
391.186	105.62
391.411	113.62
391.636	105.62
391.86	105.62
392.085	102.62
392.31	108.62
392.534	91.62
392.759	105.62
392.984	115.62
393.208	109.62
393.433	104.62
393.658	105.62
393.882	117.62
394.107	102.62
394.331	106.62
394.556	118.62
394.78	120.62
395.005	119.62
395.229	111.62
395.454	101.62
395.678	113.62
395.903	103.62
396.127	114.62
396.352	109.62
396.576	108.62
396.801	118.62
397.025	111.62
397.249	118.62
397.474	117.62
397.698	100.62
397.922	109.62
398.147	105.62
398.371	111.62
398.595	102.62
398.82	126.62
399.044	113.62
399.268	107.62
399.492	96.62
399.717	95.62
399.941	127.62
400.165	115.62
400.389	105.62
400.613	125.62
400.837	125.62
401.062	101.62
401.286	113.62
401.51	112.62
401.734	111.62
401.958	127.62
402.182	112.62
402.406	105.62
402.63	117.62
402.854	109.62
403.078	108.62
403.302	126.62
403.526	125.62
403.75	125.62
403.974	126.62
404.198	124.62
404.422	109.62
404.645	115.62
404.869	126.62
405.093	126.62
405.317	102.62
405.541	124.62
405.765	131.62
405.988	120.62
406.212	113.62
406.436	124.62
406.66	121.62
406.883	114.62
407.107	120.62
407.331	114.62
407.555	113.62
407.778	126.62
408.002	129.62
408.226	110.62
408.449	128.62
408.673	114.62
408.896	128.62
409.12	131.62
409.344	115.62
409.567	107.62
409.791	123.62
410.014	122.62
410.238	132.62
410.461	121.62
410.685	133.62
410.908	120.62
411.132	125.62
411.355	127.62
411.578	123.62
411.802	116.62
412.025	127.62
412.249	122.62
412.472	106.62
412.695	121.62
412.919	130.62
413.142	133.62
413.365	135.62
413.589	137.62
413.812	121.62
414.035	125.62
414.258	108.62
414.482	104.62
414.705	113.62
414.928	104.62
415.151	121.62
415.374	122.62
415.597	128.62
415.821	121.62
416.044	124.62
416.267	120.62
416.49	119.62
416.713	119.62
416.936	112.62
417.159	126.62
417.382	137.62
417.605	127.62
417.828	121.62
418.051	112.62
418.274	143.62
418.497	137.62
418.72	131.62
418.943	128.62
419.166	146.62
419.389	127.62
419.611	149.62
419.834	143.62
420.057	133.62
420.28	145.62
420.503	134.62
420.726	137.62
420.948	130.62
421.171	127.62
421.394	128.62
421.617	134.62
421.839	146.62
422.062	148.62
422.285	136.62
422.507	119.62
422.73	129.62
422.953	135.62
423.175	127.62
423.398	135.62
423.621	126.62
423.843	133.62
424.066	136.62
424.288	134.62
424.511	147.62
424.733	149.62
424.956	141.62
425.178	137.62
425.401	136.62
425.623	145.62
425.846	138.62
426.068	123.62
426.291	131.62
426.513	132.62
426.735	109.62
426.958	112.62
427.18	126.62
427.402	138.62
427.625	137.62
427.847	126.62
428.069	125.62
428.292	131.62
428.514	132.62
428.736	137.62
428.958	125.62
429.181	134.62
429.403	143.62
429.625	139.62
429.847	121.62
430.069	138.62
430.292	127.62
430.514	139.62
430.736	129.62
430.958	132.62
431.18	131.62
431.402	139.62
431.624	114.62
431.846	104.62
432.068	119.62
432.29	98.62
432.512	125.62
432.734	125.62
432.956	128.62
433.178	147.62
433.4	150.62
433.622	133.62
433.844	153.62
434.066	118.62
434.287	105.62
434.509	111.62
434.731	90.62
434.953	117.62
435.175	120.62
435.397	117.62
435.618	120.62
435.84	109.62
436.062	129.62
436.284	117.62
436.505	125.62
436.727	130.62
436.949	137.62
437.17	144.62
437.392	124.62
437.614	131.62
437.835	128.62
438.057	112.62
438.278	108.62
438.5	113.62
438.721	136.62
438.943	140.62
439.165	148.62
439.386	145.62
439.608	160.62
439.829	139.62
440.05	141.62
440.272	149.62
440.493	155.62
440.715	157.62
440.936	145.62
441.158	153.62
441.379	138.62
441.6	140.62
441.822	159.62
442.043	154.62
442.264	137.62
442.486	125.62
442.707	144.62
442.928	134.62
443.149	134.62
443.371	136.62
443.592	162.62
443.813	142.62
444.034	149.62
444.255	133.62
444.476	147.62
444.698	140.62
444.919	142.62
445.14	265.62
445.361	184.62
445.582	153.62
445.803	147.62
446.024	141.62
446.245	159.62
446.466	160.62
446.687	148.62
446.908	148.62
447.129	162.62
447.35	158.62
447.571	145.62
447.792	144.62
448.013	147.62
448.234	134.62
448.455	146.62
448.675	150.62
448.896	146.62
449.117	135.62
449.338	127.62
449.559	132.62
449.779	148.62
450	128.62
450.221	143.62
450.442	137.62
450.662	133.62
450.883	118.62
451.104	145.62
451.324	138.62
451.545	128.62
451.766	133.62
451.986	129.62
452.207	127.62
452.428	134.62
452.648	121.62
452.869	129.62
453.089	142.62
453.31	110.62
453.53	114.62
453.751	99.62
453.971	107.62
454.192	110.62
454.412	120.62
454.633	108.62
454.853	125.62
455.073	118.62
455.294	137.62
455.514	111.62
455.734	117.62
455.955	116.62
456.175	122.62
456.395	126.62
456.616	108.62
456.836	101.62
457.056	110.62
457.276	114.62
457.497	108.62
457.717	114.62
457.937	103.62
458.157	104.62
458.377	101.62
458.598	109.62
458.818	104.62
459.038	103.62
459.258	92.62
459.478	96.62
459.698	85.62
459.918	105.62
460.138	109.62
460.358	120.62
460.578	130.62
460.798	136.62
461.018	117.62
461.238	111.62
461.458	106.62
461.678	114.62
461.898	125.62
462.118	119.62
462.338	114.62
462.558	123.62
462.777	118.62
462.997	122.62
463.217	106.62
463.437	97.62
463.657	114.62
463.876	110.62
464.096	106.62
464.316	114.62
464.536	111.62
464.755	101.62
464.975	116.62
465.195	113.62
465.414	133.62
465.634	118.62
465.854	120.62
466.073	121.62
466.293	122.62
466.512	128.62
466.732	138.62
466.951	139.62
467.171	133.62
467.391	137.62
467.61	128.62
467.829	139.62
468.049	135.62
468.268	139.62
468.488	141.62
468.707	131.62
468.927	142.62
469.146	148.62
469.365	154.62
469.585	136.62
469.804	135.62
470.023	138.62
470.243	127.62
470.462	141.62
470.681	145.62
470.901	137.62
471.12	136.62
471.339	158.62
471.558	147.62
471.777	147.62
471.997	149.62
472.216	123.62
472.435	119.62
472.654	120.62
472.873	122.62
473.092	129.62
473.311	134.62
473.53	131.62
473.749	133.62
473.968	129.62
474.187	140.62
474.406	111.62
474.625	131.62
474.844	146.62
475.063	111.62
475.282	127.62
475.501	114.62
475.72	125.62
475.939	115.62
476.158	139.62
476.377	125.62
476.596	125.62
476.814	108.62
477.033	115.62
477.252	106.62
477.471	114.62
477.69	128.62
477.908	145.62
478.127	145.62
478.346	120.62
478.564	126.62
478.783	133.62
479.002	132.62
479.22	126.62
479.439	113.62
479.658	121.62
479.876	122.62
480.095	92.62
480.313	125.62
480.532	112.62
480.751	124.62
480.969	81.62
481.188	98.62
481.406	105.62
481.624	88.62
481.843	90.62
482.061	106.62
482.28	103.62
482.498	128.62
482.717	101.62
482.935	121.62
483.153	147.62
483.372	157.62
483.59	152.62
483.808	145.62
484.027	146.62
484.245	139.62
484.463	153.62
484.681	162.62
484.9	145.62
485.118	129.62
485.336	138.62
485.554	132.62
485.772	115.62
485.99	87.62
486.209	106.62
486.427	103.62
486.645	119.62
486.863	151.62
487.081	132.62
487.299	117.62
487.517	137.62
487.735	160.62
487.953	191.62
488.171	191.62
488.389	190.62
488.607	152.62
488.825	150.62
489.043	140.62
489.261	136.62
489.479	126.62
489.696	146.62
489.914	145.62
490.132	141.62
490.35	147.62
490.568	150.62
490.786	166.62
491.003	171.62
491.221	177.62
491.439	188.62
491.657	190.62
491.874	219.62
492.092	213.62
492.31	238.62
492.527	220.62
492.745	198.62
492.963	187.62
493.18	175.62
493.398	189.62
493.615	177.62
493.833	173.62
494.05	181.62
494.268	161.62
494.485	170.62
494.703	158.62
494.92	178.62
495.138	171.62
495.355	168.62
495.573	168.62
495.79	171.62
496.008	180.62
496.225	176.62
496.442	171.62
496.66	162.62
496.877	165.62
497.094	167.62
497.312	161.62
497.529	156.62
497.746	156.62
497.963	139.62
498.181	125.62
498.398	140.62
498.615	135.62
498.832	103.62
499.049	116.62
499.267	117.62
499.484	126.62
499.701	122.62
499.918	148.62
500.135	142.62
500.352	145.62
500.569	126.62
500.786	137.62
501.003	132.62
501.22	135.62
501.437	148.62
501.654	151.62
501.871	147.62
502.088	133.62
502.305	132.62
502.522	123.62
502.739	123.62
502.956	134.62
503.172	126.62
503.389	129.62
503.606	119.62
503.823	126.62
504.04	135.62
504.256	122.62
504.473	118.62
504.69	122.62
504.907	136.62
505.123	121.62
505.34	131.62
505.557	129.62
505.773	112.62
505.99	119.62
506.207	108.62
506.423	110.62
506.64	125.62
506.856	133.62
507.073	128.62
507.289	121.62
507.506	123.62
507.722	110.62
507.939	108.62
508.155	121.62
508.372	107.62
508.588	113.62
508.805	113.62
509.021	108.62
509.238	88.62
509.454	110.62
509.67	102.62
509.887	105.62
510.103	102.62
510.319	102.62
510.536	107.62
510.752	87.62
510.968	94.62
511.184	88.62
