Data from Location1.07152019.Energy5.Lamp.07192019.3%Agarose_HRD10591_14-31-57-015.txt Node
Date: Fri Jul 19 14:31:57 EDT 2019
User: cochatt
Spectrometer: HR+D1059
Trigger mode: 1
Integration Time (sec): 1.000000E-1
Scans to average: 1
Electric dark correction enabled: true
Nonlinearity correction enabled: false
Boxcar width: 0
XAxis mode: Wavelengths
Number of Pixels in Spectrum: 2048
>>>>>Begin Spectral Data<<<<<
223.165	-18.19
223.4	-18.19
223.635	-18.19
223.869	-19.19
224.104	-20.19
224.338	-21.19
224.573	5.81
224.808	-19.19
225.042	-16.19
225.277	-16.19
225.511	-4.19
225.746	10.81
225.98	10.81
226.215	12.81
226.449	17.81
226.683	22.81
226.918	23.81
227.152	29.81
227.387	22.81
227.621	36.81
227.856	34.81
228.09	27.81
228.324	56.81
228.559	41.81
228.793	62.81
229.027	60.81
229.262	60.81
229.496	66.81
229.73	57.81
229.964	84.81
230.199	66.81
230.433	67.81
230.667	73.81
230.901	76.81
231.136	92.81
231.37	71.81
231.604	76.81
231.838	73.81
232.072	76.81
232.306	73.81
232.541	77.81
232.775	72.81
233.009	82.81
233.243	73.81
233.477	90.81
233.711	85.81
233.945	75.81
234.179	84.81
234.413	89.81
234.647	90.81
234.881	86.81
235.115	72.81
235.349	79.81
235.583	74.81
235.817	79.81
236.051	79.81
236.285	95.81
236.519	80.81
236.753	59.81
236.987	76.81
237.221	72.81
237.455	85.81
237.689	81.81
237.922	81.81
238.156	70.81
238.39	82.81
238.624	85.81
238.858	74.81
239.091	73.81
239.325	85.81
239.559	75.81
239.793	82.81
240.027	88.81
240.26	71.81
240.494	88.81
240.728	94.81
240.961	73.81
241.195	75.81
241.429	83.81
241.662	72.81
241.896	69.81
242.13	72.81
242.363	70.81
242.597	70.81
242.83	76.81
243.064	70.81
243.298	84.81
243.531	73.81
243.765	82.81
243.998	80.81
244.232	76.81
244.465	72.81
244.699	90.81
244.932	72.81
245.166	78.81
245.399	82.81
245.633	78.81
245.866	84.81
246.099	76.81
246.333	70.81
246.566	80.81
246.8	73.81
247.033	75.81
247.266	82.81
247.5	70.81
247.733	71.81
247.966	87.81
248.2	76.81
248.433	67.81
248.666	75.81
248.899	69.81
249.133	87.81
249.366	73.81
249.599	78.81
249.832	76.81
250.066	75.81
250.299	64.81
250.532	87.81
250.765	62.81
250.998	70.81
251.231	66.81
251.465	79.81
251.698	86.81
251.931	91.81
252.164	79.81
252.397	75.81
252.63	86.81
252.863	79.81
253.096	87.81
253.329	76.81
253.562	75.81
253.795	74.81
254.028	86.81
254.261	75.81
254.494	71.81
254.727	77.81
254.96	78.81
255.193	75.81
255.426	80.81
255.659	84.81
255.892	78.81
256.124	74.81
256.357	88.81
256.59	77.81
256.823	88.81
257.056	76.81
257.289	85.81
257.521	80.81
257.754	85.81
257.987	71.81
258.22	68.81
258.452	79.81
258.685	83.81
258.918	78.81
259.151	85.81
259.383	84.81
259.616	71.81
259.849	81.81
260.081	68.81
260.314	83.81
260.547	84.81
260.779	86.81
261.012	74.81
261.244	75.81
261.477	87.81
261.71	88.81
261.942	86.81
262.175	72.81
262.407	77.81
262.64	90.81
262.872	86.81
263.105	71.81
263.337	80.81
263.57	78.81
263.802	66.81
264.035	76.81
264.267	91.81
264.499	90.81
264.732	83.81
264.964	77.81
265.197	83.81
265.429	82.81
265.661	89.81
265.894	94.81
266.126	90.81
266.358	87.81
266.591	90.81
266.823	81.81
267.055	75.81
267.287	80.81
267.52	81.81
267.752	90.81
267.984	85.81
268.216	79.81
268.448	90.81
268.681	90.81
268.913	84.81
269.145	76.81
269.377	80.81
269.609	90.81
269.841	87.81
270.073	87.81
270.306	96.81
270.538	92.81
270.77	91.81
271.002	92.81
271.234	91.81
271.466	77.81
271.698	70.81
271.93	84.81
272.162	73.81
272.394	96.81
272.626	90.81
272.858	88.81
273.09	68.81
273.322	79.81
273.553	79.81
273.785	69.81
274.017	83.81
274.249	72.81
274.481	75.81
274.713	78.81
274.945	84.81
275.176	87.81
275.408	85.81
275.64	75.81
275.872	87.81
276.104	76.81
276.335	83.81
276.567	74.81
276.799	68.81
277.031	71.81
277.262	86.81
277.494	72.81
277.726	87.81
277.957	83.81
278.189	81.81
278.421	79.81
278.652	87.81
278.884	79.81
279.115	75.81
279.347	84.81
279.579	90.81
279.81	82.81
280.042	87.81
280.273	79.81
280.505	77.81
280.736	76.81
280.968	80.81
281.199	76.81
281.431	86.81
281.662	75.81
281.894	78.81
282.125	87.81
282.356	83.81
282.588	79.81
282.819	91.81
283.051	82.81
283.282	79.81
283.513	76.81
283.745	77.81
283.976	90.81
284.207	88.81
284.439	85.81
284.67	78.81
284.901	78.81
285.132	80.81
285.364	77.81
285.595	86.81
285.826	88.81
286.057	92.81
286.288	95.81
286.52	89.81
286.751	84.81
286.982	85.81
287.213	79.81
287.444	86.81
287.675	80.81
287.906	68.81
288.138	80.81
288.369	67.81
288.6	81.81
288.831	87.81
289.062	72.81
289.293	84.81
289.524	89.81
289.755	80.81
289.986	75.81
290.217	78.81
290.448	92.81
290.679	90.81
290.91	82.81
291.141	89.81
291.371	83.81
291.602	76.81
291.833	86.81
292.064	84.81
292.295	71.81
292.526	94.81
292.757	80.81
292.987	90.81
293.218	80.81
293.449	86.81
293.68	94.81
293.91	88.81
294.141	78.81
294.372	95.81
294.603	93.81
294.833	82.81
295.064	78.81
295.295	78.81
295.525	87.81
295.756	97.81
295.987	76.81
296.217	78.81
296.448	77.81
296.679	76.81
296.909	71.81
297.14	80.81
297.37	92.81
297.601	80.81
297.831	77.81
298.062	81.81
298.292	88.81
298.523	85.81
298.753	77.81
298.984	89.81
299.214	68.81
299.445	83.81
299.675	88.81
299.905	92.81
300.136	79.81
300.366	106.81
300.597	88.81
300.827	83.81
301.057	86.81
301.288	84.81
301.518	87.81
301.748	87.81
301.979	83.81
302.209	90.81
302.439	80.81
302.669	91.81
302.9	93.81
303.13	87.81
303.36	78.81
303.59	87.81
303.82	84.81
304.051	108.81
304.281	94.81
304.511	80.81
304.741	91.81
304.971	94.81
305.201	84.81
305.431	93.81
305.661	90.81
305.891	89.81
306.121	76.81
306.352	80.81
306.582	78.81
306.812	90.81
307.042	82.81
307.272	108.81
307.502	80.81
307.731	86.81
307.961	78.81
308.191	79.81
308.421	89.81
308.651	82.81
308.881	83.81
309.111	81.81
309.341	83.81
309.571	81.81
309.8	75.81
310.03	65.81
310.26	84.81
310.49	81.81
310.72	86.81
310.949	75.81
311.179	72.81
311.409	68.81
311.639	89.81
311.868	79.81
312.098	76.81
312.328	93.81
312.557	75.81
312.787	79.81
313.017	95.81
313.246	77.81
313.476	86.81
313.706	96.81
313.935	74.81
314.165	88.81
314.394	84.81
314.624	83.81
314.853	86.81
315.083	86.81
315.312	85.81
315.542	76.81
315.771	88.81
316.001	78.81
316.23	90.81
316.46	93.81
316.689	80.81
316.919	91.81
317.148	79.81
317.377	87.81
317.607	87.81
317.836	84.81
318.065	80.81
318.295	86.81
318.524	98.81
318.753	89.81
318.983	78.81
319.212	89.81
319.441	93.81
319.67	87.81
319.9	93.81
320.129	76.81
320.358	99.81
320.587	90.81
320.816	96.81
321.046	80.81
321.275	87.81
321.504	84.81
321.733	78.81
321.962	78.81
322.191	99.81
322.42	80.81
322.649	93.81
322.878	81.81
323.108	80.81
323.337	91.81
323.566	80.81
323.795	90.81
324.024	82.81
324.253	90.81
324.482	81.81
324.71	94.81
324.939	72.81
325.168	77.81
325.397	90.81
325.626	91.81
325.855	84.81
326.084	81.81
326.313	92.81
326.542	75.81
326.77	83.81
326.999	82.81
327.228	79.81
327.457	86.81
327.686	81.81
327.914	86.81
328.143	93.81
328.372	85.81
328.6	84.81
328.829	79.81
329.058	79.81
329.287	80.81
329.515	90.81
329.744	78.81
329.972	84.81
330.201	77.81
330.43	84.81
330.658	76.81
330.887	99.81
331.115	82.81
331.344	85.81
331.572	77.81
331.801	74.81
332.03	83.81
332.258	90.81
332.486	90.81
332.715	89.81
332.943	88.81
333.172	97.81
333.4	78.81
333.629	86.81
333.857	87.81
334.085	92.81
334.314	91.81
334.542	92.81
334.771	93.81
334.999	87.81
335.227	87.81
335.455	63.81
335.684	73.81
335.912	89.81
336.14	86.81
336.369	67.81
336.597	87.81
336.825	90.81
337.053	76.81
337.281	98.81
337.51	84.81
337.738	87.81
337.966	80.81
338.194	87.81
338.422	96.81
338.65	94.81
338.878	81.81
339.106	81.81
339.334	94.81
339.562	76.81
339.79	94.81
340.018	85.81
340.246	92.81
340.474	84.81
340.702	84.81
340.93	101.81
341.158	80.81
341.386	84.81
341.614	94.81
341.842	77.81
342.07	86.81
342.298	89.81
342.526	103.81
342.754	71.81
342.981	88.81
343.209	84.81
343.437	84.81
343.665	89.81
343.893	80.81
344.12	80.81
344.348	81.81
344.576	84.81
344.804	84.81
345.031	88.81
345.259	86.81
345.487	93.81
345.714	69.81
345.942	88.81
346.17	91.81
346.397	85.81
346.625	78.81
346.853	84.81
347.08	80.81
347.308	93.81
347.535	88.81
347.763	93.81
347.99	82.81
348.218	81.81
348.445	77.81
348.673	84.81
348.9	82.81
349.128	84.81
349.355	80.81
349.583	87.81
349.81	91.81
350.037	89.81
350.265	97.81
350.492	73.81
350.72	77.81
350.947	80.81
351.174	87.81
351.402	83.81
351.629	92.81
351.856	102.81
352.083	84.81
352.311	82.81
352.538	85.81
352.765	84.81
352.992	89.81
353.22	86.81
353.447	85.81
353.674	90.81
353.901	96.81
354.128	74.81
354.355	84.81
354.583	86.81
354.81	86.81
355.037	93.81
355.264	95.81
355.491	92.81
355.718	83.81
355.945	80.81
356.172	82.81
356.399	77.81
356.626	74.81
356.853	76.81
357.08	77.81
357.307	80.81
357.534	77.81
357.761	75.81
357.988	82.81
358.215	101.81
358.441	88.81
358.668	78.81
358.895	68.81
359.122	82.81
359.349	89.81
359.576	68.81
359.802	70.81
360.029	80.81
360.256	87.81
360.483	74.81
360.709	78.81
360.936	88.81
361.163	72.81
361.39	67.81
361.616	85.81
361.843	91.81
362.07	100.81
362.296	91.81
362.523	88.81
362.749	87.81
362.976	84.81
363.203	93.81
363.429	84.81
363.656	88.81
363.882	92.81
364.109	82.81
364.335	85.81
364.562	71.81
364.788	87.81
365.015	70.81
365.241	84.81
365.468	87.81
365.694	90.81
365.92	101.81
366.147	91.81
366.373	75.81
366.599	76.81
366.826	83.81
367.052	86.81
367.278	88.81
367.505	80.81
367.731	82.81
367.957	97.81
368.184	88.81
368.41	90.81
368.636	86.81
368.862	98.81
369.089	92.81
369.315	97.81
369.541	73.81
369.767	95.81
369.993	87.81
370.219	93.81
370.445	94.81
370.672	84.81
370.898	94.81
371.124	95.81
371.35	87.81
371.576	92.81
371.802	74.81
372.028	92.81
372.254	80.81
372.48	95.81
372.706	91.81
372.932	87.81
373.158	97.81
373.384	87.81
373.61	95.81
373.835	100.81
374.061	89.81
374.287	88.81
374.513	90.81
374.739	95.81
374.965	102.81
375.191	95.81
375.416	90.81
375.642	97.81
375.868	106.81
376.094	111.81
376.319	94.81
376.545	96.81
376.771	98.81
376.997	92.81
377.222	89.81
377.448	105.81
377.674	98.81
377.899	78.81
378.125	108.81
378.35	90.81
378.576	83.81
378.802	108.81
379.027	84.81
379.253	87.81
379.478	87.81
379.704	85.81
379.929	90.81
380.155	84.81
380.38	92.81
380.606	94.81
380.831	87.81
381.057	111.81
381.282	113.81
381.507	93.81
381.733	98.81
381.958	91.81
382.184	107.81
382.409	98.81
382.634	110.81
382.86	93.81
383.085	95.81
383.31	99.81
383.535	103.81
383.761	96.81
383.986	92.81
384.211	94.81
384.436	86.81
384.662	98.81
384.887	97.81
385.112	78.81
385.337	103.81
385.562	96.81
385.787	116.81
386.013	94.81
386.238	106.81
386.463	100.81
386.688	101.81
386.913	99.81
387.138	103.81
387.363	104.81
387.588	86.81
387.813	93.81
388.038	101.81
388.263	99.81
388.488	99.81
388.713	106.81
388.938	104.81
389.163	100.81
389.387	94.81
389.612	93.81
389.837	116.81
390.062	107.81
390.287	99.81
390.512	110.81
390.736	104.81
390.961	103.81
391.186	98.81
391.411	91.81
391.636	102.81
391.86	106.81
392.085	111.81
392.31	105.81
392.534	102.81
392.759	106.81
392.984	111.81
393.208	111.81
393.433	95.81
393.658	112.81
393.882	88.81
394.107	108.81
394.331	106.81
394.556	105.81
394.78	115.81
395.005	114.81
395.229	110.81
395.454	98.81
395.678	96.81
395.903	107.81
396.127	105.81
396.352	99.81
396.576	104.81
396.801	95.81
397.025	104.81
397.249	105.81
397.474	101.81
397.698	108.81
397.922	124.81
398.147	116.81
398.371	109.81
398.595	111.81
398.82	103.81
399.044	103.81
399.268	127.81
399.492	114.81
399.717	111.81
399.941	114.81
400.165	102.81
400.389	125.81
400.613	108.81
400.837	114.81
401.062	107.81
401.286	123.81
401.51	122.81
401.734	102.81
401.958	109.81
402.182	115.81
402.406	115.81
402.63	118.81
402.854	116.81
403.078	122.81
403.302	114.81
403.526	101.81
403.75	112.81
403.974	116.81
404.198	113.81
404.422	117.81
404.645	126.81
404.869	126.81
405.093	112.81
405.317	125.81
405.541	116.81
405.765	114.81
405.988	131.81
406.212	128.81
406.436	111.81
406.66	124.81
406.883	124.81
407.107	102.81
407.331	112.81
407.555	109.81
407.778	117.81
408.002	120.81
408.226	122.81
408.449	125.81
408.673	110.81
408.896	116.81
409.12	116.81
409.344	126.81
409.567	116.81
409.791	123.81
410.014	125.81
410.238	121.81
410.461	119.81
410.685	132.81
410.908	118.81
411.132	121.81
411.355	116.81
411.578	126.81
411.802	108.81
412.025	124.81
412.249	115.81
412.472	125.81
412.695	120.81
412.919	124.81
413.142	136.81
413.365	116.81
413.589	111.81
413.812	124.81
414.035	117.81
414.258	129.81
414.482	118.81
414.705	110.81
414.928	132.81
415.151	134.81
415.374	115.81
415.597	126.81
415.821	136.81
416.044	134.81
416.267	123.81
416.49	130.81
416.713	128.81
416.936	125.81
417.159	120.81
417.382	128.81
417.605	122.81
417.828	129.81
418.051	136.81
418.274	124.81
418.497	130.81
418.72	126.81
418.943	130.81
419.166	139.81
419.389	130.81
419.611	136.81
419.834	116.81
420.057	130.81
420.28	130.81
420.503	133.81
420.726	136.81
420.948	119.81
421.171	134.81
421.394	140.81
421.617	121.81
421.839	128.81
422.062	143.81
422.285	137.81
422.507	135.81
422.73	121.81
422.953	123.81
423.175	133.81
423.398	134.81
423.621	138.81
423.843	139.81
424.066	140.81
424.288	141.81
424.511	141.81
424.733	148.81
424.956	146.81
425.178	149.81
425.401	141.81
425.623	135.81
425.846	134.81
426.068	125.81
426.291	130.81
426.513	138.81
426.735	127.81
426.958	134.81
427.18	118.81
427.402	124.81
427.625	125.81
427.847	122.81
428.069	127.81
428.292	128.81
428.514	134.81
428.736	130.81
428.958	140.81
429.181	131.81
429.403	138.81
429.625	124.81
429.847	112.81
430.069	118.81
430.292	136.81
430.514	123.81
430.736	143.81
430.958	139.81
431.18	127.81
431.402	124.81
431.624	110.81
431.846	108.81
432.068	98.81
432.29	111.81
432.512	107.81
432.734	124.81
432.956	124.81
433.178	121.81
433.4	133.81
433.622	151.81
433.844	128.81
434.066	120.81
434.287	90.81
434.509	97.81
434.731	103.81
434.953	116.81
435.175	130.81
435.397	135.81
435.618	107.81
435.84	107.81
436.062	111.81
436.284	110.81
436.505	126.81
436.727	123.81
436.949	128.81
437.17	134.81
437.392	136.81
437.614	123.81
437.835	115.81
438.057	112.81
438.278	130.81
438.5	132.81
438.721	121.81
438.943	150.81
439.165	142.81
439.386	135.81
439.608	135.81
439.829	149.81
440.05	132.81
440.272	140.81
440.493	139.81
440.715	139.81
440.936	143.81
441.158	120.81
441.379	139.81
441.6	160.81
441.822	150.81
442.043	134.81
442.264	155.81
442.486	152.81
442.707	141.81
442.928	153.81
443.149	139.81
443.371	139.81
443.592	135.81
443.813	131.81
444.034	140.81
444.255	149.81
444.476	148.81
444.698	135.81
444.919	149.81
445.14	273.81
445.361	201.81
445.582	171.81
445.803	147.81
446.024	133.81
446.245	155.81
446.466	161.81
446.687	148.81
446.908	150.81
447.129	145.81
447.35	147.81
447.571	150.81
447.792	141.81
448.013	148.81
448.234	126.81
448.455	136.81
448.675	145.81
448.896	147.81
449.117	129.81
449.338	123.81
449.559	144.81
449.779	132.81
450	134.81
450.221	144.81
450.442	142.81
450.662	144.81
450.883	144.81
451.104	138.81
451.324	131.81
451.545	128.81
451.766	132.81
451.986	128.81
452.207	134.81
452.428	115.81
452.648	136.81
452.869	123.81
453.089	131.81
453.31	111.81
453.53	116.81
453.751	100.81
453.971	93.81
454.192	110.81
454.412	101.81
454.633	112.81
454.853	129.81
455.073	112.81
455.294	118.81
455.514	120.81
455.734	112.81
455.955	108.81
456.175	101.81
456.395	108.81
456.616	116.81
456.836	102.81
457.056	119.81
457.276	107.81
457.497	107.81
457.717	129.81
457.937	114.81
458.157	102.81
458.377	102.81
458.598	83.81
458.818	85.81
459.038	83.81
459.258	82.81
459.478	92.81
459.698	84.81
459.918	99.81
460.138	99.81
460.358	101.81
460.578	132.81
460.798	122.81
461.018	109.81
461.238	112.81
461.458	122.81
461.678	104.81
461.898	111.81
462.118	109.81
462.338	109.81
462.558	131.81
462.777	107.81
462.997	111.81
463.217	123.81
463.437	107.81
463.657	105.81
463.876	111.81
464.096	112.81
464.316	102.81
464.536	119.81
464.755	122.81
464.975	126.81
465.195	107.81
465.414	120.81
465.634	105.81
465.854	105.81
466.073	132.81
466.293	122.81
466.512	126.81
466.732	132.81
466.951	121.81
467.171	143.81
467.391	129.81
467.61	128.81
467.829	133.81
468.049	146.81
468.268	134.81
468.488	132.81
468.707	124.81
468.927	138.81
469.146	125.81
469.365	138.81
469.585	150.81
469.804	128.81
470.023	132.81
470.243	134.81
470.462	142.81
470.681	138.81
470.901	136.81
471.12	126.81
471.339	138.81
471.558	132.81
471.777	129.81
471.997	120.81
472.216	105.81
472.435	122.81
472.654	128.81
472.873	108.81
473.092	106.81
473.311	123.81
473.53	134.81
473.749	118.81
473.968	114.81
474.187	124.81
474.406	122.81
474.625	128.81
474.844	129.81
475.063	117.81
475.282	127.81
475.501	121.81
475.72	127.81
475.939	134.81
476.158	128.81
476.377	139.81
476.596	128.81
476.814	111.81
477.033	118.81
477.252	114.81
477.471	131.81
477.69	128.81
477.908	130.81
478.127	143.81
478.346	143.81
478.564	129.81
478.783	136.81
479.002	149.81
479.22	140.81
479.439	130.81
479.658	123.81
479.876	113.81
480.095	119.81
480.313	118.81
480.532	114.81
480.751	106.81
480.969	103.81
481.188	95.81
481.406	97.81
481.624	83.81
481.843	94.81
482.061	88.81
482.28	124.81
482.498	108.81
482.717	106.81
482.935	120.81
483.153	145.81
483.372	166.81
483.59	160.81
483.808	155.81
484.027	140.81
484.245	136.81
484.463	147.81
484.681	152.81
484.9	147.81
485.118	142.81
485.336	126.81
485.554	119.81
485.772	102.81
485.99	88.81
486.209	104.81
486.427	130.81
486.645	132.81
486.863	126.81
487.081	146.81
487.299	134.81
487.517	137.81
487.735	171.81
487.953	178.81
488.171	180.81
488.389	172.81
488.607	159.81
488.825	133.81
489.043	136.81
489.261	125.81
489.479	122.81
489.696	138.81
489.914	139.81
490.132	150.81
490.35	152.81
490.568	150.81
490.786	163.81
491.003	171.81
491.221	175.81
491.439	170.81
491.657	179.81
491.874	206.81
492.092	212.81
492.31	231.81
492.527	218.81
492.745	190.81
492.963	186.81
493.18	190.81
493.398	167.81
493.615	167.81
493.833	172.81
494.05	182.81
494.268	172.81
494.485	174.81
494.703	168.81
494.92	157.81
495.138	147.81
495.355	166.81
495.573	166.81
495.79	160.81
496.008	167.81
496.225	164.81
496.442	155.81
496.66	167.81
496.877	166.81
497.094	165.81
497.312	145.81
497.529	160.81
497.746	158.81
497.963	132.81
498.181	122.81
498.398	120.81
498.615	120.81
498.832	110.81
499.049	114.81
499.267	126.81
499.484	133.81
499.701	129.81
499.918	133.81
500.135	143.81
500.352	139.81
500.569	131.81
500.786	140.81
501.003	132.81
501.22	143.81
501.437	138.81
501.654	130.81
501.871	125.81
502.088	131.81
502.305	121.81
502.522	126.81
502.739	125.81
502.956	131.81
503.172	115.81
503.389	135.81
503.606	119.81
503.823	130.81
504.04	118.81
504.256	111.81
504.473	121.81
504.69	123.81
504.907	115.81
505.123	127.81
505.34	134.81
505.557	120.81
505.773	106.81
505.99	114.81
506.207	130.81
506.423	111.81
506.64	112.81
506.856	128.81
507.073	112.81
507.289	126.81
507.506	110.81
507.722	119.81
507.939	118.81
508.155	118.81
508.372	116.81
508.588	115.81
508.805	116.81
509.021	106.81
509.238	92.81
509.454	90.81
509.67	103.81
509.887	101.81
510.103	92.81
510.319	96.81
510.536	107.81
510.752	78.81
510.968	75.81
511.184	83.81
511.401	80.81
511.617	85.81
