Data from Location1.07152019.Energy5.Lamp.07192019.3%Agarose_HRD10591_14-31-07-015.txt Node
Date: Fri Jul 19 14:31:07 EDT 2019
User: cochatt
Spectrometer: HR+D1059
Trigger mode: 1
Integration Time (sec): 1.000000E-1
Scans to average: 1
Electric dark correction enabled: true
Nonlinearity correction enabled: false
Boxcar width: 0
XAxis mode: Wavelengths
Number of Pixels in Spectrum: 2048
>>>>>Begin Spectral Data<<<<<
223.165	-4.5
223.4	-4.5
223.635	-4.5
223.869	-18.5
224.104	-18.5
224.338	-6.5
224.573	-20.5
224.808	-22.5
225.042	-21.5
225.277	-7.5
225.511	-8.5
225.746	-5.5
225.98	3.5
226.215	34.5
226.449	14.5
226.683	22.5
226.918	26.5
227.152	32.5
227.387	30.5
227.621	39.5
227.856	46.5
228.09	43.5
228.324	46.5
228.559	57.5
228.793	48.5
229.027	53.5
229.262	60.5
229.496	59.5
229.73	57.5
229.964	77.5
230.199	75.5
230.433	82.5
230.667	85.5
230.901	84.5
231.136	74.5
231.37	70.5
231.604	86.5
231.838	82.5
232.072	80.5
232.306	71.5
232.541	78.5
232.775	94.5
233.009	88.5
233.243	93.5
233.477	90.5
233.711	77.5
233.945	84.5
234.179	79.5
234.413	92.5
234.647	80.5
234.881	93.5
235.115	85.5
235.349	65.5
235.583	90.5
235.817	76.5
236.051	88.5
236.285	76.5
236.519	76.5
236.753	74.5
236.987	75.5
237.221	88.5
237.455	85.5
237.689	80.5
237.922	90.5
238.156	64.5
238.39	82.5
238.624	73.5
238.858	72.5
239.091	74.5
239.325	78.5
239.559	89.5
239.793	95.5
240.027	80.5
240.26	74.5
240.494	73.5
240.728	64.5
240.961	88.5
241.195	77.5
241.429	78.5
241.662	84.5
241.896	74.5
242.13	77.5
242.363	76.5
242.597	78.5
242.83	73.5
243.064	69.5
243.298	70.5
243.531	70.5
243.765	61.5
243.998	89.5
244.232	78.5
244.465	74.5
244.699	82.5
244.932	84.5
245.166	70.5
245.399	93.5
245.633	72.5
245.866	78.5
246.099	89.5
246.333	82.5
246.566	100.5
246.8	94.5
247.033	70.5
247.266	76.5
247.5	84.5
247.733	84.5
247.966	66.5
248.2	71.5
248.433	65.5
248.666	86.5
248.899	81.5
249.133	79.5
249.366	85.5
249.599	87.5
249.832	82.5
250.066	69.5
250.299	85.5
250.532	66.5
250.765	78.5
250.998	86.5
251.231	77.5
251.465	93.5
251.698	69.5
251.931	70.5
252.164	76.5
252.397	77.5
252.63	71.5
252.863	91.5
253.096	108.5
253.329	84.5
253.562	81.5
253.795	68.5
254.028	92.5
254.261	76.5
254.494	86.5
254.727	79.5
254.96	84.5
255.193	78.5
255.426	83.5
255.659	84.5
255.892	79.5
256.124	86.5
256.357	69.5
256.59	69.5
256.823	70.5
257.056	70.5
257.289	95.5
257.521	86.5
257.754	72.5
257.987	80.5
258.22	91.5
258.452	87.5
258.685	78.5
258.918	83.5
259.151	75.5
259.383	73.5
259.616	77.5
259.849	83.5
260.081	85.5
260.314	84.5
260.547	83.5
260.779	81.5
261.012	74.5
261.244	88.5
261.477	76.5
261.71	79.5
261.942	67.5
262.175	87.5
262.407	73.5
262.64	87.5
262.872	83.5
263.105	73.5
263.337	71.5
263.57	88.5
263.802	76.5
264.035	76.5
264.267	84.5
264.499	78.5
264.732	86.5
264.964	79.5
265.197	84.5
265.429	85.5
265.661	85.5
265.894	76.5
266.126	81.5
266.358	81.5
266.591	86.5
266.823	72.5
267.055	75.5
267.287	84.5
267.52	87.5
267.752	83.5
267.984	83.5
268.216	86.5
268.448	71.5
268.681	85.5
268.913	87.5
269.145	91.5
269.377	74.5
269.609	92.5
269.841	85.5
270.073	90.5
270.306	87.5
270.538	71.5
270.77	93.5
271.002	79.5
271.234	86.5
271.466	74.5
271.698	96.5
271.93	90.5
272.162	83.5
272.394	85.5
272.626	79.5
272.858	77.5
273.09	82.5
273.322	84.5
273.553	92.5
273.785	76.5
274.017	77.5
274.249	88.5
274.481	100.5
274.713	87.5
274.945	87.5
275.176	78.5
275.408	70.5
275.64	73.5
275.872	77.5
276.104	79.5
276.335	81.5
276.567	80.5
276.799	87.5
277.031	100.5
277.262	86.5
277.494	87.5
277.726	73.5
277.957	74.5
278.189	76.5
278.421	72.5
278.652	91.5
278.884	77.5
279.115	82.5
279.347	83.5
279.579	90.5
279.81	85.5
280.042	78.5
280.273	87.5
280.505	92.5
280.736	84.5
280.968	96.5
281.199	92.5
281.431	91.5
281.662	86.5
281.894	71.5
282.125	94.5
282.356	89.5
282.588	72.5
282.819	89.5
283.051	81.5
283.282	82.5
283.513	90.5
283.745	78.5
283.976	88.5
284.207	89.5
284.439	86.5
284.67	89.5
284.901	87.5
285.132	79.5
285.364	87.5
285.595	88.5
285.826	77.5
286.057	101.5
286.288	85.5
286.52	73.5
286.751	81.5
286.982	87.5
287.213	84.5
287.444	75.5
287.675	80.5
287.906	80.5
288.138	82.5
288.369	79.5
288.6	83.5
288.831	94.5
289.062	75.5
289.293	90.5
289.524	85.5
289.755	75.5
289.986	85.5
290.217	87.5
290.448	89.5
290.679	93.5
290.91	76.5
291.141	81.5
291.371	86.5
291.602	99.5
291.833	77.5
292.064	81.5
292.295	83.5
292.526	84.5
292.757	77.5
292.987	80.5
293.218	92.5
293.449	75.5
293.68	98.5
293.91	87.5
294.141	72.5
294.372	85.5
294.603	84.5
294.833	82.5
295.064	78.5
295.295	85.5
295.525	83.5
295.756	82.5
295.987	94.5
296.217	78.5
296.448	84.5
296.679	81.5
296.909	87.5
297.14	101.5
297.37	90.5
297.601	86.5
297.831	89.5
298.062	81.5
298.292	96.5
298.523	94.5
298.753	84.5
298.984	82.5
299.214	87.5
299.445	94.5
299.675	86.5
299.905	90.5
300.136	80.5
300.366	68.5
300.597	75.5
300.827	73.5
301.057	81.5
301.288	74.5
301.518	85.5
301.748	83.5
301.979	85.5
302.209	82.5
302.439	75.5
302.669	81.5
302.9	67.5
303.13	69.5
303.36	82.5
303.59	87.5
303.82	88.5
304.051	94.5
304.281	103.5
304.511	85.5
304.741	80.5
304.971	84.5
305.201	91.5
305.431	91.5
305.661	78.5
305.891	76.5
306.121	101.5
306.352	95.5
306.582	87.5
306.812	74.5
307.042	74.5
307.272	76.5
307.502	94.5
307.731	74.5
307.961	102.5
308.191	94.5
308.421	73.5
308.651	83.5
308.881	84.5
309.111	86.5
309.341	85.5
309.571	79.5
309.8	70.5
310.03	83.5
310.26	78.5
310.49	95.5
310.72	87.5
310.949	87.5
311.179	93.5
311.409	78.5
311.639	83.5
311.868	85.5
312.098	79.5
312.328	102.5
312.557	90.5
312.787	88.5
313.017	88.5
313.246	95.5
313.476	81.5
313.706	92.5
313.935	97.5
314.165	85.5
314.394	81.5
314.624	79.5
314.853	89.5
315.083	76.5
315.312	82.5
315.542	89.5
315.771	88.5
316.001	74.5
316.23	81.5
316.46	79.5
316.689	72.5
316.919	97.5
317.148	94.5
317.377	90.5
317.607	96.5
317.836	80.5
318.065	95.5
318.295	83.5
318.524	73.5
318.753	86.5
318.983	88.5
319.212	85.5
319.441	92.5
319.67	79.5
319.9	77.5
320.129	85.5
320.358	90.5
320.587	78.5
320.816	91.5
321.046	79.5
321.275	80.5
321.504	76.5
321.733	86.5
321.962	88.5
322.191	87.5
322.42	75.5
322.649	79.5
322.878	85.5
323.108	88.5
323.337	82.5
323.566	88.5
323.795	87.5
324.024	94.5
324.253	80.5
324.482	85.5
324.71	101.5
324.939	82.5
325.168	83.5
325.397	96.5
325.626	79.5
325.855	90.5
326.084	90.5
326.313	77.5
326.542	90.5
326.77	92.5
326.999	83.5
327.228	72.5
327.457	74.5
327.686	84.5
327.914	67.5
328.143	79.5
328.372	91.5
328.6	99.5
328.829	75.5
329.058	92.5
329.287	77.5
329.515	77.5
329.744	88.5
329.972	78.5
330.201	79.5
330.43	81.5
330.658	99.5
330.887	73.5
331.115	85.5
331.344	84.5
331.572	96.5
331.801	91.5
332.03	69.5
332.258	73.5
332.486	79.5
332.715	84.5
332.943	89.5
333.172	84.5
333.4	78.5
333.629	77.5
333.857	94.5
334.085	81.5
334.314	90.5
334.542	89.5
334.771	89.5
334.999	77.5
335.227	75.5
335.455	82.5
335.684	75.5
335.912	98.5
336.14	92.5
336.369	73.5
336.597	93.5
336.825	91.5
337.053	86.5
337.281	86.5
337.51	86.5
337.738	80.5
337.966	79.5
338.194	79.5
338.422	72.5
338.65	81.5
338.878	85.5
339.106	89.5
339.334	103.5
339.562	76.5
339.79	73.5
340.018	69.5
340.246	77.5
340.474	70.5
340.702	96.5
340.93	81.5
341.158	79.5
341.386	77.5
341.614	79.5
341.842	103.5
342.07	84.5
342.298	71.5
342.526	83.5
342.754	85.5
342.981	86.5
343.209	88.5
343.437	86.5
343.665	79.5
343.893	80.5
344.12	91.5
344.348	94.5
344.576	89.5
344.804	81.5
345.031	86.5
345.259	80.5
345.487	92.5
345.714	80.5
345.942	88.5
346.17	82.5
346.397	75.5
346.625	75.5
346.853	79.5
347.08	91.5
347.308	89.5
347.535	86.5
347.763	87.5
347.99	80.5
348.218	75.5
348.445	84.5
348.673	87.5
348.9	90.5
349.128	88.5
349.355	94.5
349.583	89.5
349.81	81.5
350.037	85.5
350.265	84.5
350.492	89.5
350.72	81.5
350.947	84.5
351.174	89.5
351.402	76.5
351.629	67.5
351.856	74.5
352.083	85.5
352.311	77.5
352.538	87.5
352.765	58.5
352.992	96.5
353.22	98.5
353.447	78.5
353.674	86.5
353.901	84.5
354.128	86.5
354.355	78.5
354.583	75.5
354.81	73.5
355.037	87.5
355.264	76.5
355.491	78.5
355.718	86.5
355.945	79.5
356.172	97.5
356.399	87.5
356.626	83.5
356.853	90.5
357.08	73.5
357.307	97.5
357.534	102.5
357.761	82.5
357.988	89.5
358.215	82.5
358.441	80.5
358.668	87.5
358.895	76.5
359.122	79.5
359.349	76.5
359.576	86.5
359.802	78.5
360.029	71.5
360.256	95.5
360.483	84.5
360.709	72.5
360.936	102.5
361.163	92.5
361.39	82.5
361.616	83.5
361.843	80.5
362.07	83.5
362.296	81.5
362.523	82.5
362.749	83.5
362.976	93.5
363.203	84.5
363.429	72.5
363.656	79.5
363.882	96.5
364.109	82.5
364.335	77.5
364.562	82.5
364.788	93.5
365.015	87.5
365.241	79.5
365.468	94.5
365.694	93.5
365.92	79.5
366.147	91.5
366.373	93.5
366.599	75.5
366.826	83.5
367.052	81.5
367.278	92.5
367.505	74.5
367.731	84.5
367.957	95.5
368.184	89.5
368.41	91.5
368.636	68.5
368.862	89.5
369.089	78.5
369.315	86.5
369.541	93.5
369.767	82.5
369.993	99.5
370.219	88.5
370.445	101.5
370.672	75.5
370.898	84.5
371.124	85.5
371.35	79.5
371.576	93.5
371.802	91.5
372.028	92.5
372.254	77.5
372.48	87.5
372.706	97.5
372.932	92.5
373.158	87.5
373.384	111.5
373.61	94.5
373.835	100.5
374.061	90.5
374.287	86.5
374.513	90.5
374.739	84.5
374.965	90.5
375.191	99.5
375.416	95.5
375.642	86.5
375.868	90.5
376.094	87.5
376.319	95.5
376.545	92.5
376.771	83.5
376.997	85.5
377.222	91.5
377.448	93.5
377.674	97.5
377.899	108.5
378.125	99.5
378.35	93.5
378.576	98.5
378.802	86.5
379.027	94.5
379.253	102.5
379.478	91.5
379.704	100.5
379.929	92.5
380.155	85.5
380.38	97.5
380.606	101.5
380.831	105.5
381.057	94.5
381.282	86.5
381.507	88.5
381.733	111.5
381.958	100.5
382.184	93.5
382.409	88.5
382.634	98.5
382.86	111.5
383.085	94.5
383.31	90.5
383.535	102.5
383.761	92.5
383.986	95.5
384.211	93.5
384.436	93.5
384.662	99.5
384.887	95.5
385.112	92.5
385.337	95.5
385.562	92.5
385.787	100.5
386.013	110.5
386.238	94.5
386.463	77.5
386.688	98.5
386.913	102.5
387.138	109.5
387.363	103.5
387.588	102.5
387.813	99.5
388.038	96.5
388.263	106.5
388.488	81.5
388.713	113.5
388.938	86.5
389.163	97.5
389.387	90.5
389.612	108.5
389.837	118.5
390.062	105.5
390.287	94.5
390.512	90.5
390.736	101.5
390.961	97.5
391.186	94.5
391.411	98.5
391.636	98.5
391.86	105.5
392.085	110.5
392.31	89.5
392.534	107.5
392.759	108.5
392.984	99.5
393.208	100.5
393.433	99.5
393.658	109.5
393.882	97.5
394.107	110.5
394.331	95.5
394.556	114.5
394.78	105.5
395.005	103.5
395.229	106.5
395.454	96.5
395.678	100.5
395.903	108.5
396.127	110.5
396.352	109.5
396.576	105.5
396.801	102.5
397.025	110.5
397.249	101.5
397.474	112.5
397.698	111.5
397.922	96.5
398.147	109.5
398.371	105.5
398.595	117.5
398.82	106.5
399.044	109.5
399.268	94.5
399.492	109.5
399.717	116.5
399.941	113.5
400.165	108.5
400.389	99.5
400.613	109.5
400.837	117.5
401.062	106.5
401.286	113.5
401.51	107.5
401.734	106.5
401.958	114.5
402.182	93.5
402.406	117.5
402.63	105.5
402.854	109.5
403.078	125.5
403.302	114.5
403.526	102.5
403.75	112.5
403.974	113.5
404.198	120.5
404.422	117.5
404.645	110.5
404.869	114.5
405.093	108.5
405.317	105.5
405.541	121.5
405.765	115.5
405.988	114.5
406.212	128.5
406.436	118.5
406.66	114.5
406.883	113.5
407.107	121.5
407.331	116.5
407.555	117.5
407.778	104.5
408.002	116.5
408.226	118.5
408.449	114.5
408.673	119.5
408.896	113.5
409.12	111.5
409.344	113.5
409.567	120.5
409.791	104.5
410.014	98.5
410.238	106.5
410.461	107.5
410.685	111.5
410.908	118.5
411.132	145.5
411.355	115.5
411.578	110.5
411.802	122.5
412.025	122.5
412.249	115.5
412.472	124.5
412.695	125.5
412.919	115.5
413.142	107.5
413.365	111.5
413.589	107.5
413.812	123.5
414.035	117.5
414.258	117.5
414.482	125.5
414.705	115.5
414.928	125.5
415.151	111.5
415.374	121.5
415.597	124.5
415.821	120.5
416.044	141.5
416.267	127.5
416.49	125.5
416.713	130.5
416.936	131.5
417.159	119.5
417.382	114.5
417.605	120.5
417.828	128.5
418.051	122.5
418.274	130.5
418.497	131.5
418.72	130.5
418.943	118.5
419.166	122.5
419.389	125.5
419.611	123.5
419.834	132.5
420.057	132.5
420.28	135.5
420.503	121.5
420.726	125.5
420.948	132.5
421.171	131.5
421.394	133.5
421.617	138.5
421.839	147.5
422.062	129.5
422.285	113.5
422.507	124.5
422.73	118.5
422.953	129.5
423.175	115.5
423.398	129.5
423.621	126.5
423.843	130.5
424.066	150.5
424.288	135.5
424.511	130.5
424.733	131.5
424.956	144.5
425.178	134.5
425.401	133.5
425.623	141.5
425.846	141.5
426.068	121.5
426.291	117.5
426.513	127.5
426.735	122.5
426.958	115.5
427.18	118.5
427.402	134.5
427.625	123.5
427.847	124.5
428.069	111.5
428.292	120.5
428.514	121.5
428.736	117.5
428.958	123.5
429.181	126.5
429.403	102.5
429.625	119.5
429.847	137.5
430.069	131.5
430.292	144.5
430.514	121.5
430.736	123.5
430.958	133.5
431.18	127.5
431.402	120.5
431.624	119.5
431.846	98.5
432.068	103.5
432.29	98.5
432.512	121.5
432.734	109.5
432.956	125.5
433.178	125.5
433.4	147.5
433.622	141.5
433.844	136.5
434.066	121.5
434.287	106.5
434.509	97.5
434.731	99.5
434.953	104.5
435.175	114.5
435.397	115.5
435.618	103.5
435.84	123.5
436.062	105.5
436.284	123.5
436.505	115.5
436.727	129.5
436.949	128.5
437.17	125.5
437.392	118.5
437.614	124.5
437.835	115.5
438.057	100.5
438.278	104.5
438.5	123.5
438.721	123.5
438.943	131.5
439.165	126.5
439.386	131.5
439.608	144.5
439.829	150.5
440.05	155.5
440.272	141.5
440.493	139.5
440.715	140.5
440.936	138.5
441.158	150.5
441.379	138.5
441.6	144.5
441.822	143.5
442.043	141.5
442.264	138.5
442.486	143.5
442.707	128.5
442.928	129.5
443.149	130.5
443.371	154.5
443.592	116.5
443.813	129.5
444.034	138.5
444.255	149.5
444.476	135.5
444.698	141.5
444.919	154.5
445.14	246.5
445.361	198.5
445.582	165.5
445.803	137.5
446.024	141.5
446.245	145.5
446.466	156.5
446.687	143.5
446.908	170.5
447.129	145.5
447.35	153.5
447.571	158.5
447.792	125.5
448.013	148.5
448.234	135.5
448.455	147.5
448.675	142.5
448.896	143.5
449.117	133.5
449.338	115.5
449.559	143.5
449.779	136.5
450	140.5
450.221	118.5
450.442	133.5
450.662	129.5
450.883	137.5
451.104	123.5
451.324	121.5
451.545	120.5
451.766	118.5
451.986	122.5
452.207	130.5
452.428	130.5
452.648	126.5
452.869	117.5
453.089	121.5
453.31	123.5
453.53	103.5
453.751	100.5
453.971	103.5
454.192	97.5
454.412	121.5
454.633	121.5
454.853	124.5
455.073	124.5
455.294	115.5
455.514	126.5
455.734	123.5
455.955	130.5
456.175	107.5
456.395	115.5
456.616	97.5
456.836	105.5
457.056	109.5
457.276	99.5
457.497	99.5
457.717	95.5
457.937	109.5
458.157	107.5
458.377	118.5
458.598	93.5
458.818	96.5
459.038	96.5
459.258	88.5
459.478	88.5
459.698	76.5
459.918	113.5
460.138	99.5
460.358	114.5
460.578	123.5
460.798	125.5
461.018	113.5
461.238	125.5
461.458	129.5
461.678	114.5
461.898	97.5
462.118	121.5
462.338	99.5
462.558	115.5
462.777	116.5
462.997	101.5
463.217	114.5
463.437	115.5
463.657	95.5
463.876	106.5
464.096	112.5
464.316	113.5
464.536	111.5
464.755	114.5
464.975	117.5
465.195	99.5
465.414	115.5
465.634	114.5
465.854	114.5
466.073	107.5
466.293	116.5
466.512	109.5
466.732	117.5
466.951	125.5
467.171	122.5
467.391	144.5
467.61	146.5
467.829	138.5
468.049	135.5
468.268	121.5
468.488	130.5
468.707	131.5
468.927	123.5
469.146	133.5
469.365	126.5
469.585	133.5
469.804	134.5
470.023	122.5
470.243	127.5
470.462	150.5
470.681	138.5
470.901	144.5
471.12	133.5
471.339	138.5
471.558	136.5
471.777	146.5
471.997	141.5
472.216	113.5
472.435	117.5
472.654	106.5
472.873	109.5
473.092	109.5
473.311	99.5
473.53	134.5
473.749	114.5
473.968	125.5
474.187	115.5
474.406	96.5
474.625	117.5
474.844	145.5
475.063	135.5
475.282	127.5
475.501	125.5
475.72	110.5
475.939	131.5
476.158	129.5
476.377	110.5
476.596	126.5
476.814	115.5
477.033	99.5
477.252	110.5
477.471	144.5
477.69	126.5
477.908	125.5
478.127	135.5
478.346	123.5
478.564	150.5
478.783	136.5
479.002	137.5
479.22	135.5
479.439	124.5
479.658	137.5
479.876	128.5
480.095	106.5
480.313	113.5
480.532	121.5
480.751	118.5
480.969	98.5
481.188	90.5
481.406	83.5
481.624	85.5
481.843	84.5
482.061	87.5
482.28	125.5
482.498	129.5
482.717	123.5
482.935	124.5
483.153	137.5
483.372	146.5
483.59	137.5
483.808	147.5
484.027	137.5
484.245	121.5
484.463	135.5
484.681	155.5
484.9	145.5
485.118	129.5
485.336	121.5
485.554	119.5
485.772	104.5
485.99	107.5
486.209	118.5
486.427	121.5
486.645	115.5
486.863	133.5
487.081	127.5
487.299	129.5
487.517	127.5
487.735	155.5
487.953	172.5
488.171	190.5
488.389	164.5
488.607	154.5
488.825	119.5
489.043	127.5
489.261	136.5
489.479	142.5
489.696	128.5
489.914	146.5
490.132	140.5
490.35	132.5
490.568	167.5
490.786	161.5
491.003	174.5
491.221	188.5
491.439	187.5
491.657	188.5
491.874	213.5
492.092	204.5
492.31	226.5
492.527	215.5
492.745	197.5
492.963	191.5
493.18	189.5
493.398	178.5
493.615	177.5
493.833	173.5
494.05	168.5
494.268	165.5
494.485	162.5
494.703	173.5
494.92	159.5
495.138	151.5
495.355	166.5
495.573	163.5
495.79	151.5
496.008	183.5
496.225	160.5
496.442	174.5
496.66	161.5
496.877	163.5
497.094	179.5
497.312	160.5
497.529	150.5
497.746	155.5
497.963	146.5
498.181	125.5
498.398	120.5
498.615	110.5
498.832	120.5
499.049	123.5
499.267	123.5
499.484	113.5
499.701	127.5
499.918	141.5
500.135	136.5
500.352	144.5
500.569	137.5
500.786	119.5
501.003	135.5
501.22	141.5
501.437	139.5
501.654	126.5
501.871	132.5
502.088	130.5
502.305	121.5
502.522	131.5
502.739	145.5
502.956	134.5
503.172	115.5
503.389	127.5
503.606	121.5
503.823	122.5
504.04	119.5
504.256	120.5
504.473	123.5
504.69	117.5
504.907	114.5
505.123	117.5
505.34	118.5
505.557	122.5
505.773	109.5
505.99	117.5
506.207	136.5
506.423	128.5
506.64	122.5
506.856	95.5
507.073	121.5
507.289	126.5
507.506	125.5
507.722	100.5
507.939	119.5
508.155	132.5
508.372	129.5
508.588	100.5
508.805	106.5
509.021	113.5
509.238	107.5
509.454	107.5
509.67	111.5
509.887	100.5
510.103	99.5
510.319	114.5
510.536	92.5
510.752	83.5
510.968	87.5
511.184	90.5
511.401	98.5
511.617	79.5
511.833	91.5
512.049	71.5
512.265	110.5
512.481	116.5
512.698	96.5
512.914	98.5
513.13	91.5
513.346	85.5
513.562	98.5
513.778	102.5
513.994	92.5
514.21	82.5
514.426	89.5
514.642	84.5
514.858	100.5
515.074	96.5
515.29	98.5
515.506	93.5
515.721	83.5
515.937	91.5
516.153	92.5
516.369	85.5
516.585	95.5
516.801	86.5
517.016	94.5
517.232	81.5
517.448	92.5
517.664	92.5
517.879	81.5
518.095	100.5
518.311	98.5
518.527	101.5
518.742	95.5
518.958	107.5
519.173	113.5
519.389	111.5
519.605	118.5
519.82	105.5
520.036	112.5
520.251	110.5
520.467	110.5
520.682	89.5
520.898	109.5
521.113	107.5
521.329	88.5
521.544	89.5
521.76	93.5
521.975	76.5
522.19	100.5
522.406	91.5
522.621	92.5
522.836	88.5
523.052	90.5
523.267	116.5
523.482	113.5
523.698	99.5
523.913	120.5
524.128	111.5
524.343	118.5
524.559	106.5
524.774	101.5
524.989	122.5
525.204	117.5
525.419	119.5
525.634	120.5
525.849	102.5
526.064	117.5
526.28	104.5
526.495	100.5
526.71	97.5
526.925	95.5
527.14	77.5
527.355	76.5
527.57	78.5
527.785	76.5
527.999	84.5
528.214	108.5
528.429	106.5
528.644	123.5
528.859	143.5
529.074	141.5
529.289	152.5
529.503	148.5
529.718	132.5
529.933	129.5
530.148	102.5
530.363	94.5
530.577	79.5
530.792	84.5
531.007	88.5
