Data from Location1.07152019.Energy5.Lamp.07192019.3%Agarose_HRD10591_14-31-02-016.txt Node
Date: Fri Jul 19 14:31:02 EDT 2019
User: cochatt
Spectrometer: HR+D1059
Trigger mode: 1
Integration Time (sec): 1.000000E-1
Scans to average: 1
Electric dark correction enabled: true
Nonlinearity correction enabled: false
Boxcar width: 0
XAxis mode: Wavelengths
Number of Pixels in Spectrum: 2048
>>>>>Begin Spectral Data<<<<<
223.165	-10.81
223.4	-10.81
223.635	-10.81
223.869	-16.81
224.104	-22.81
224.338	-22.81
224.573	-23.81
224.808	-4.81
225.042	-0.81
225.277	-6.81
225.511	11.19
225.746	-4.81
225.98	7.19
226.215	21.19
226.449	13.19
226.683	16.19
226.918	26.19
227.152	19.19
227.387	39.19
227.621	44.19
227.856	41.19
228.09	49.19
228.324	44.19
228.559	67.19
228.793	57.19
229.027	66.19
229.262	61.19
229.496	63.19
229.73	59.19
229.964	60.19
230.199	74.19
230.433	94.19
230.667	71.19
230.901	70.19
231.136	78.19
231.37	78.19
231.604	82.19
231.838	80.19
232.072	73.19
232.306	73.19
232.541	94.19
232.775	77.19
233.009	80.19
233.243	89.19
233.477	75.19
233.711	92.19
233.945	82.19
234.179	82.19
234.413	74.19
234.647	79.19
234.881	70.19
235.115	81.19
235.349	81.19
235.583	83.19
235.817	96.19
236.051	79.19
236.285	73.19
236.519	94.19
236.753	76.19
236.987	75.19
237.221	88.19
237.455	76.19
237.689	78.19
237.922	81.19
238.156	89.19
238.39	78.19
238.624	73.19
238.858	81.19
239.091	86.19
239.325	93.19
239.559	78.19
239.793	59.19
240.027	60.19
240.26	82.19
240.494	89.19
240.728	74.19
240.961	69.19
241.195	84.19
241.429	81.19
241.662	72.19
241.896	89.19
242.13	86.19
242.363	72.19
242.597	89.19
242.83	96.19
243.064	95.19
243.298	89.19
243.531	71.19
243.765	80.19
243.998	70.19
244.232	84.19
244.465	73.19
244.699	71.19
244.932	94.19
245.166	92.19
245.399	77.19
245.633	84.19
245.866	82.19
246.099	65.19
246.333	73.19
246.566	77.19
246.8	74.19
247.033	81.19
247.266	78.19
247.5	72.19
247.733	78.19
247.966	80.19
248.2	89.19
248.433	73.19
248.666	72.19
248.899	80.19
249.133	80.19
249.366	77.19
249.599	84.19
249.832	70.19
250.066	91.19
250.299	81.19
250.532	85.19
250.765	82.19
250.998	66.19
251.231	72.19
251.465	84.19
251.698	84.19
251.931	85.19
252.164	83.19
252.397	82.19
252.63	74.19
252.863	76.19
253.096	68.19
253.329	88.19
253.562	77.19
253.795	81.19
254.028	76.19
254.261	76.19
254.494	81.19
254.727	90.19
254.96	102.19
255.193	92.19
255.426	78.19
255.659	92.19
255.892	78.19
256.124	93.19
256.357	82.19
256.59	70.19
256.823	84.19
257.056	65.19
257.289	80.19
257.521	81.19
257.754	92.19
257.987	82.19
258.22	79.19
258.452	92.19
258.685	88.19
258.918	79.19
259.151	70.19
259.383	73.19
259.616	86.19
259.849	77.19
260.081	75.19
260.314	68.19
260.547	78.19
260.779	82.19
261.012	96.19
261.244	89.19
261.477	85.19
261.71	84.19
261.942	87.19
262.175	77.19
262.407	84.19
262.64	84.19
262.872	78.19
263.105	94.19
263.337	75.19
263.57	86.19
263.802	74.19
264.035	88.19
264.267	88.19
264.499	86.19
264.732	92.19
264.964	83.19
265.197	77.19
265.429	88.19
265.661	95.19
265.894	88.19
266.126	77.19
266.358	80.19
266.591	77.19
266.823	91.19
267.055	82.19
267.287	92.19
267.52	82.19
267.752	94.19
267.984	70.19
268.216	63.19
268.448	89.19
268.681	87.19
268.913	92.19
269.145	97.19
269.377	93.19
269.609	86.19
269.841	96.19
270.073	88.19
270.306	90.19
270.538	80.19
270.77	84.19
271.002	94.19
271.234	73.19
271.466	104.19
271.698	91.19
271.93	89.19
272.162	91.19
272.394	89.19
272.626	92.19
272.858	76.19
273.09	87.19
273.322	86.19
273.553	86.19
273.785	86.19
274.017	76.19
274.249	70.19
274.481	77.19
274.713	82.19
274.945	93.19
275.176	92.19
275.408	92.19
275.64	85.19
275.872	80.19
276.104	80.19
276.335	84.19
276.567	88.19
276.799	90.19
277.031	91.19
277.262	86.19
277.494	100.19
277.726	92.19
277.957	71.19
278.189	76.19
278.421	88.19
278.652	70.19
278.884	82.19
279.115	93.19
279.347	94.19
279.579	72.19
279.81	80.19
280.042	94.19
280.273	81.19
280.505	83.19
280.736	85.19
280.968	83.19
281.199	97.19
281.431	82.19
281.662	100.19
281.894	82.19
282.125	95.19
282.356	74.19
282.588	95.19
282.819	80.19
283.051	74.19
283.282	91.19
283.513	78.19
283.745	83.19
283.976	97.19
284.207	86.19
284.439	77.19
284.67	79.19
284.901	97.19
285.132	86.19
285.364	81.19
285.595	80.19
285.826	92.19
286.057	77.19
286.288	65.19
286.52	83.19
286.751	87.19
286.982	78.19
287.213	101.19
287.444	84.19
287.675	88.19
287.906	97.19
288.138	84.19
288.369	86.19
288.6	81.19
288.831	85.19
289.062	90.19
289.293	92.19
289.524	94.19
289.755	94.19
289.986	75.19
290.217	82.19
290.448	89.19
290.679	84.19
290.91	81.19
291.141	82.19
291.371	85.19
291.602	69.19
291.833	85.19
292.064	90.19
292.295	89.19
292.526	80.19
292.757	95.19
292.987	93.19
293.218	97.19
293.449	102.19
293.68	99.19
293.91	82.19
294.141	78.19
294.372	87.19
294.603	86.19
294.833	85.19
295.064	86.19
295.295	75.19
295.525	92.19
295.756	91.19
295.987	86.19
296.217	81.19
296.448	94.19
296.679	88.19
296.909	74.19
297.14	91.19
297.37	95.19
297.601	84.19
297.831	105.19
298.062	88.19
298.292	79.19
298.523	97.19
298.753	88.19
298.984	78.19
299.214	81.19
299.445	88.19
299.675	88.19
299.905	91.19
300.136	89.19
300.366	88.19
300.597	84.19
300.827	83.19
301.057	87.19
301.288	85.19
301.518	85.19
301.748	93.19
301.979	85.19
302.209	78.19
302.439	81.19
302.669	93.19
302.9	84.19
303.13	108.19
303.36	89.19
303.59	84.19
303.82	90.19
304.051	81.19
304.281	79.19
304.511	99.19
304.741	80.19
304.971	80.19
305.201	85.19
305.431	95.19
305.661	86.19
305.891	92.19
306.121	88.19
306.352	103.19
306.582	79.19
306.812	78.19
307.042	93.19
307.272	85.19
307.502	82.19
307.731	89.19
307.961	87.19
308.191	84.19
308.421	80.19
308.651	89.19
308.881	79.19
309.111	92.19
309.341	100.19
309.571	88.19
309.8	81.19
310.03	97.19
310.26	89.19
310.49	85.19
310.72	75.19
310.949	76.19
311.179	93.19
311.409	93.19
311.639	91.19
311.868	84.19
312.098	87.19
312.328	89.19
312.557	89.19
312.787	80.19
313.017	85.19
313.246	76.19
313.476	85.19
313.706	83.19
313.935	80.19
314.165	93.19
314.394	97.19
314.624	90.19
314.853	91.19
315.083	86.19
315.312	81.19
315.542	92.19
315.771	82.19
316.001	100.19
316.23	82.19
316.46	80.19
316.689	83.19
316.919	108.19
317.148	84.19
317.377	93.19
317.607	86.19
317.836	88.19
318.065	86.19
318.295	85.19
318.524	90.19
318.753	89.19
318.983	86.19
319.212	89.19
319.441	77.19
319.67	88.19
319.9	75.19
320.129	74.19
320.358	80.19
320.587	93.19
320.816	81.19
321.046	76.19
321.275	86.19
321.504	88.19
321.733	86.19
321.962	91.19
322.191	87.19
322.42	83.19
322.649	102.19
322.878	93.19
323.108	100.19
323.337	87.19
323.566	79.19
323.795	104.19
324.024	71.19
324.253	83.19
324.482	78.19
324.71	91.19
324.939	81.19
325.168	86.19
325.397	93.19
325.626	107.19
325.855	80.19
326.084	98.19
326.313	84.19
326.542	97.19
326.77	82.19
326.999	87.19
327.228	102.19
327.457	90.19
327.686	92.19
327.914	88.19
328.143	94.19
328.372	83.19
328.6	97.19
328.829	95.19
329.058	88.19
329.287	100.19
329.515	91.19
329.744	91.19
329.972	97.19
330.201	86.19
330.43	94.19
330.658	88.19
330.887	70.19
331.115	75.19
331.344	76.19
331.572	87.19
331.801	81.19
332.03	86.19
332.258	87.19
332.486	78.19
332.715	71.19
332.943	85.19
333.172	88.19
333.4	82.19
333.629	79.19
333.857	81.19
334.085	83.19
334.314	94.19
334.542	92.19
334.771	82.19
334.999	82.19
335.227	79.19
335.455	79.19
335.684	81.19
335.912	85.19
336.14	87.19
336.369	92.19
336.597	89.19
336.825	76.19
337.053	103.19
337.281	84.19
337.51	85.19
337.738	81.19
337.966	77.19
338.194	87.19
338.422	76.19
338.65	91.19
338.878	76.19
339.106	91.19
339.334	94.19
339.562	89.19
339.79	74.19
340.018	90.19
340.246	91.19
340.474	91.19
340.702	80.19
340.93	84.19
341.158	89.19
341.386	84.19
341.614	76.19
341.842	100.19
342.07	85.19
342.298	82.19
342.526	94.19
342.754	90.19
342.981	87.19
343.209	83.19
343.437	96.19
343.665	90.19
343.893	88.19
344.12	87.19
344.348	78.19
344.576	83.19
344.804	88.19
345.031	85.19
345.259	76.19
345.487	78.19
345.714	87.19
345.942	79.19
346.17	85.19
346.397	85.19
346.625	81.19
346.853	92.19
347.08	84.19
347.308	73.19
347.535	81.19
347.763	97.19
347.99	83.19
348.218	93.19
348.445	75.19
348.673	85.19
348.9	104.19
349.128	91.19
349.355	88.19
349.583	71.19
349.81	97.19
350.037	84.19
350.265	93.19
350.492	97.19
350.72	77.19
350.947	98.19
351.174	89.19
351.402	85.19
351.629	93.19
351.856	72.19
352.083	90.19
352.311	92.19
352.538	84.19
352.765	86.19
352.992	88.19
353.22	69.19
353.447	98.19
353.674	84.19
353.901	91.19
354.128	86.19
354.355	86.19
354.583	80.19
354.81	84.19
355.037	76.19
355.264	97.19
355.491	88.19
355.718	92.19
355.945	82.19
356.172	99.19
356.399	81.19
356.626	82.19
356.853	88.19
357.08	97.19
357.307	83.19
357.534	83.19
357.761	90.19
357.988	94.19
358.215	90.19
358.441	77.19
358.668	94.19
358.895	70.19
359.122	76.19
359.349	94.19
359.576	89.19
359.802	82.19
360.029	96.19
360.256	87.19
360.483	81.19
360.709	92.19
360.936	97.19
361.163	92.19
361.39	91.19
361.616	84.19
361.843	80.19
362.07	72.19
362.296	88.19
362.523	92.19
362.749	79.19
362.976	97.19
363.203	95.19
363.429	87.19
363.656	83.19
363.882	82.19
364.109	91.19
364.335	104.19
364.562	99.19
364.788	80.19
365.015	85.19
365.241	92.19
365.468	86.19
365.694	74.19
365.92	81.19
366.147	98.19
366.373	81.19
366.599	101.19
366.826	73.19
367.052	90.19
367.278	91.19
367.505	90.19
367.731	88.19
367.957	86.19
368.184	95.19
368.41	93.19
368.636	90.19
368.862	85.19
369.089	96.19
369.315	77.19
369.541	82.19
369.767	98.19
369.993	92.19
370.219	85.19
370.445	97.19
370.672	94.19
370.898	94.19
371.124	88.19
371.35	97.19
371.576	97.19
371.802	88.19
372.028	76.19
372.254	80.19
372.48	88.19
372.706	104.19
372.932	101.19
373.158	90.19
373.384	98.19
373.61	93.19
373.835	98.19
374.061	100.19
374.287	98.19
374.513	106.19
374.739	97.19
374.965	88.19
375.191	109.19
375.416	95.19
375.642	104.19
375.868	110.19
376.094	97.19
376.319	92.19
376.545	88.19
376.771	95.19
376.997	98.19
377.222	110.19
377.448	94.19
377.674	86.19
377.899	78.19
378.125	93.19
378.35	87.19
378.576	95.19
378.802	106.19
379.027	92.19
379.253	98.19
379.478	93.19
379.704	102.19
379.929	88.19
380.155	96.19
380.38	101.19
380.606	87.19
380.831	103.19
381.057	89.19
381.282	109.19
381.507	100.19
381.733	76.19
381.958	79.19
382.184	87.19
382.409	94.19
382.634	91.19
382.86	113.19
383.085	107.19
383.31	97.19
383.535	84.19
383.761	88.19
383.986	109.19
384.211	104.19
384.436	86.19
384.662	97.19
384.887	98.19
385.112	108.19
385.337	119.19
385.562	100.19
385.787	93.19
386.013	117.19
386.238	90.19
386.463	106.19
386.688	89.19
386.913	104.19
387.138	89.19
387.363	94.19
387.588	100.19
387.813	87.19
388.038	105.19
388.263	100.19
388.488	111.19
388.713	119.19
388.938	101.19
389.163	96.19
389.387	111.19
389.612	95.19
389.837	100.19
390.062	90.19
390.287	96.19
390.512	102.19
390.736	115.19
390.961	100.19
391.186	102.19
391.411	108.19
391.636	108.19
391.86	96.19
392.085	108.19
392.31	103.19
392.534	116.19
392.759	101.19
392.984	113.19
393.208	109.19
393.433	106.19
393.658	125.19
393.882	104.19
394.107	120.19
394.331	107.19
394.556	111.19
394.78	100.19
395.005	104.19
395.229	103.19
395.454	103.19
395.678	105.19
395.903	97.19
396.127	102.19
396.352	118.19
396.576	92.19
396.801	118.19
397.025	111.19
397.249	101.19
397.474	112.19
397.698	107.19
397.922	111.19
398.147	113.19
398.371	113.19
398.595	104.19
398.82	110.19
399.044	99.19
399.268	113.19
399.492	110.19
399.717	112.19
399.941	102.19
400.165	106.19
400.389	118.19
400.613	114.19
400.837	112.19
401.062	118.19
401.286	114.19
401.51	108.19
401.734	108.19
401.958	114.19
402.182	134.19
402.406	105.19
402.63	106.19
402.854	105.19
403.078	124.19
403.302	124.19
403.526	110.19
403.75	111.19
403.974	111.19
404.198	104.19
404.422	128.19
404.645	121.19
404.869	125.19
405.093	105.19
405.317	111.19
405.541	111.19
405.765	135.19
405.988	117.19
406.212	110.19
406.436	116.19
406.66	119.19
406.883	119.19
407.107	122.19
407.331	132.19
407.555	111.19
407.778	128.19
408.002	118.19
408.226	125.19
408.449	125.19
408.673	118.19
408.896	119.19
409.12	104.19
409.344	119.19
409.567	113.19
409.791	132.19
410.014	121.19
410.238	128.19
410.461	131.19
410.685	117.19
410.908	122.19
411.132	120.19
411.355	104.19
411.578	121.19
411.802	111.19
412.025	130.19
412.249	130.19
412.472	125.19
412.695	122.19
412.919	113.19
413.142	119.19
413.365	125.19
413.589	138.19
413.812	128.19
414.035	119.19
414.258	136.19
414.482	112.19
414.705	129.19
414.928	132.19
415.151	114.19
415.374	122.19
415.597	129.19
415.821	121.19
416.044	127.19
416.267	124.19
416.49	127.19
416.713	130.19
416.936	138.19
417.159	151.19
417.382	106.19
417.605	119.19
417.828	133.19
418.051	140.19
418.274	126.19
418.497	133.19
418.72	130.19
418.943	132.19
419.166	134.19
419.389	136.19
419.611	129.19
419.834	137.19
420.057	125.19
420.28	125.19
420.503	134.19
420.726	126.19
420.948	124.19
421.171	124.19
421.394	135.19
421.617	143.19
421.839	147.19
422.062	136.19
422.285	129.19
422.507	131.19
422.73	132.19
422.953	100.19
423.175	130.19
423.398	129.19
423.621	127.19
423.843	111.19
424.066	132.19
424.288	134.19
424.511	143.19
424.733	138.19
424.956	133.19
425.178	142.19
425.401	130.19
425.623	127.19
425.846	125.19
426.068	133.19
426.291	136.19
426.513	130.19
426.735	122.19
426.958	126.19
427.18	145.19
427.402	141.19
427.625	129.19
427.847	124.19
428.069	138.19
428.292	127.19
428.514	144.19
428.736	137.19
428.958	122.19
429.181	122.19
429.403	116.19
429.625	124.19
429.847	117.19
430.069	131.19
430.292	117.19
430.514	125.19
430.736	114.19
430.958	137.19
431.18	134.19
431.402	112.19
431.624	111.19
431.846	113.19
432.068	95.19
432.29	97.19
432.512	117.19
432.734	116.19
432.956	146.19
433.178	142.19
433.4	127.19
433.622	130.19
433.844	136.19
434.066	108.19
434.287	111.19
434.509	101.19
434.731	113.19
434.953	108.19
435.175	125.19
435.397	128.19
435.618	116.19
435.84	123.19
436.062	116.19
436.284	130.19
436.505	116.19
436.727	138.19
436.949	129.19
437.17	134.19
437.392	128.19
437.614	127.19
437.835	110.19
438.057	119.19
438.278	120.19
438.5	118.19
438.721	132.19
438.943	130.19
439.165	139.19
439.386	130.19
439.608	143.19
439.829	159.19
440.05	150.19
440.272	132.19
440.493	142.19
440.715	145.19
440.936	133.19
441.158	150.19
441.379	137.19
441.6	154.19
441.822	156.19
442.043	140.19
442.264	139.19
442.486	139.19
442.707	146.19
442.928	148.19
443.149	129.19
443.371	134.19
443.592	137.19
443.813	134.19
444.034	150.19
444.255	142.19
444.476	135.19
444.698	142.19
444.919	132.19
445.14	256.19
445.361	192.19
445.582	166.19
445.803	155.19
446.024	135.19
446.245	154.19
446.466	154.19
446.687	151.19
446.908	158.19
447.129	141.19
447.35	150.19
447.571	138.19
447.792	142.19
448.013	141.19
448.234	132.19
448.455	138.19
448.675	150.19
448.896	144.19
449.117	124.19
449.338	130.19
449.559	146.19
449.779	144.19
450	137.19
450.221	132.19
450.442	131.19
450.662	133.19
450.883	137.19
451.104	130.19
451.324	123.19
451.545	132.19
451.766	136.19
451.986	126.19
452.207	116.19
452.428	130.19
452.648	130.19
452.869	117.19
453.089	124.19
453.31	103.19
453.53	110.19
453.751	119.19
453.971	103.19
454.192	104.19
454.412	107.19
454.633	114.19
454.853	130.19
455.073	116.19
455.294	128.19
455.514	120.19
455.734	121.19
455.955	124.19
456.175	107.19
456.395	101.19
456.616	123.19
456.836	118.19
457.056	97.19
457.276	116.19
457.497	102.19
457.717	103.19
457.937	118.19
458.157	111.19
458.377	95.19
458.598	96.19
458.818	94.19
459.038	75.19
459.258	83.19
459.478	91.19
459.698	89.19
459.918	102.19
460.138	106.19
460.358	121.19
460.578	115.19
460.798	111.19
461.018	104.19
461.238	121.19
461.458	107.19
461.678	111.19
461.898	105.19
462.118	116.19
462.338	112.19
462.558	105.19
462.777	105.19
462.997	125.19
463.217	101.19
463.437	100.19
463.657	92.19
463.876	107.19
464.096	116.19
464.316	102.19
464.536	111.19
464.755	121.19
464.975	115.19
465.195	108.19
465.414	128.19
465.634	132.19
465.854	120.19
466.073	116.19
466.293	130.19
466.512	129.19
466.732	120.19
466.951	128.19
467.171	131.19
467.391	126.19
467.61	129.19
467.829	133.19
468.049	143.19
468.268	137.19
468.488	144.19
468.707	116.19
468.927	149.19
469.146	128.19
469.365	142.19
469.585	134.19
469.804	134.19
470.023	152.19
470.243	138.19
470.462	136.19
470.681	144.19
470.901	147.19
471.12	131.19
471.339	155.19
471.558	125.19
471.777	129.19
471.997	146.19
472.216	129.19
472.435	123.19
472.654	105.19
472.873	119.19
473.092	121.19
473.311	128.19
473.53	120.19
473.749	128.19
473.968	138.19
474.187	124.19
474.406	132.19
474.625	123.19
474.844	142.19
475.063	128.19
475.282	140.19
475.501	127.19
475.72	125.19
475.939	119.19
476.158	133.19
476.377	111.19
476.596	115.19
476.814	121.19
477.033	105.19
477.252	102.19
477.471	117.19
477.69	136.19
477.908	150.19
478.127	144.19
478.346	146.19
478.564	130.19
478.783	126.19
479.002	136.19
479.22	141.19
479.439	117.19
479.658	131.19
479.876	110.19
480.095	102.19
480.313	119.19
480.532	125.19
480.751	119.19
480.969	97.19
481.188	95.19
481.406	95.19
481.624	88.19
481.843	103.19
482.061	102.19
482.28	128.19
482.498	110.19
482.717	109.19
482.935	124.19
483.153	153.19
483.372	152.19
483.59	164.19
483.808	145.19
484.027	144.19
484.245	139.19
484.463	158.19
484.681	166.19
484.9	148.19
485.118	143.19
485.336	135.19
485.554	127.19
485.772	113.19
485.99	112.19
486.209	108.19
486.427	104.19
486.645	117.19
486.863	156.19
487.081	149.19
487.299	141.19
487.517	127.19
487.735	180.19
487.953	185.19
488.171	184.19
488.389	165.19
488.607	168.19
488.825	155.19
489.043	133.19
489.261	136.19
489.479	134.19
489.696	132.19
489.914	130.19
490.132	136.19
490.35	151.19
490.568	144.19
490.786	173.19
491.003	173.19
491.221	178.19
491.439	176.19
491.657	177.19
491.874	191.19
492.092	223.19
492.31	229.19
492.527	218.19
492.745	186.19
492.963	177.19
493.18	176.19
493.398	190.19
493.615	187.19
493.833	169.19
494.05	172.19
494.268	165.19
494.485	176.19
494.703	184.19
494.92	171.19
495.138	178.19
495.355	166.19
495.573	162.19
495.79	164.19
496.008	155.19
496.225	166.19
496.442	158.19
496.66	166.19
496.877	172.19
497.094	169.19
497.312	169.19
497.529	158.19
497.746	166.19
497.963	141.19
498.181	138.19
498.398	117.19
498.615	108.19
498.832	113.19
499.049	112.19
499.267	127.19
499.484	122.19
499.701	122.19
499.918	130.19
500.135	145.19
500.352	146.19
500.569	136.19
500.786	134.19
501.003	152.19
501.22	150.19
501.437	142.19
501.654	133.19
501.871	137.19
502.088	138.19
502.305	131.19
502.522	134.19
502.739	126.19
502.956	119.19
503.172	121.19
503.389	133.19
503.606	126.19
503.823	118.19
504.04	113.19
504.256	132.19
504.473	132.19
504.69	120.19
504.907	125.19
505.123	137.19
505.34	132.19
505.557	126.19
505.773	132.19
505.99	112.19
506.207	120.19
506.423	121.19
506.64	135.19
506.856	122.19
507.073	120.19
507.289	110.19
507.506	118.19
507.722	121.19
507.939	120.19
508.155	114.19
508.372	96.19
508.588	118.19
508.805	126.19
509.021	112.19
509.238	119.19
509.454	101.19
509.67	104.19
509.887	87.19
510.103	91.19
510.319	94.19
510.536	82.19
510.752	78.19
510.968	92.19
511.184	72.19
