Data from Location1.07152019.Energy5.Lamp.07192019.3%Agarose_HRD10591_14-31-36-015.txt Node
Date: Fri Jul 19 14:31:36 EDT 2019
User: cochatt
Spectrometer: HR+D1059
Trigger mode: 1
Integration Time (sec): 1.000000E-1
Scans to average: 1
Electric dark correction enabled: true
Nonlinearity correction enabled: false
Boxcar width: 0
XAxis mode: Wavelengths
Number of Pixels in Spectrum: 2048
>>>>>Begin Spectral Data<<<<<
223.165	-23.38
223.4	-23.38
223.635	-23.38
223.869	-12.38
224.104	-13.38
224.338	-28.38
224.573	-19.38
224.808	1.62
225.042	-16.38
225.277	-1.38
225.511	1.62
225.746	-4.38
225.98	-0.38
226.215	12.62
226.449	26.62
226.683	26.62
226.918	21.62
227.152	28.62
227.387	45.62
227.621	45.62
227.856	49.62
228.09	40.62
228.324	59.62
228.559	67.62
228.793	68.62
229.027	51.62
229.262	54.62
229.496	60.62
229.73	75.62
229.964	80.62
230.199	78.62
230.433	80.62
230.667	87.62
230.901	78.62
231.136	100.62
231.37	82.62
231.604	73.62
231.838	90.62
232.072	96.62
232.306	94.62
232.541	81.62
232.775	85.62
233.009	85.62
233.243	89.62
233.477	83.62
233.711	91.62
233.945	85.62
234.179	89.62
234.413	91.62
234.647	80.62
234.881	79.62
235.115	90.62
235.349	97.62
235.583	89.62
235.817	67.62
236.051	78.62
236.285	84.62
236.519	83.62
236.753	83.62
236.987	84.62
237.221	75.62
237.455	76.62
237.689	78.62
237.922	94.62
238.156	69.62
238.39	76.62
238.624	82.62
238.858	74.62
239.091	74.62
239.325	63.62
239.559	81.62
239.793	87.62
240.027	87.62
240.26	90.62
240.494	79.62
240.728	92.62
240.961	64.62
241.195	71.62
241.429	94.62
241.662	80.62
241.896	66.62
242.13	77.62
242.363	82.62
242.597	76.62
242.83	62.62
243.064	76.62
243.298	63.62
243.531	78.62
243.765	71.62
243.998	90.62
244.232	71.62
244.465	84.62
244.699	74.62
244.932	87.62
245.166	85.62
245.399	95.62
245.633	79.62
245.866	91.62
246.099	87.62
246.333	82.62
246.566	78.62
246.8	80.62
247.033	90.62
247.266	72.62
247.5	87.62
247.733	78.62
247.966	92.62
248.2	74.62
248.433	84.62
248.666	95.62
248.899	87.62
249.133	80.62
249.366	78.62
249.599	85.62
249.832	95.62
250.066	91.62
250.299	91.62
250.532	84.62
250.765	76.62
250.998	83.62
251.231	82.62
251.465	83.62
251.698	83.62
251.931	78.62
252.164	81.62
252.397	93.62
252.63	84.62
252.863	86.62
253.096	89.62
253.329	78.62
253.562	86.62
253.795	103.62
254.028	89.62
254.261	79.62
254.494	94.62
254.727	86.62
254.96	74.62
255.193	83.62
255.426	82.62
255.659	90.62
255.892	83.62
256.124	83.62
256.357	80.62
256.59	83.62
256.823	107.62
257.056	83.62
257.289	87.62
257.521	87.62
257.754	74.62
257.987	72.62
258.22	87.62
258.452	77.62
258.685	78.62
258.918	81.62
259.151	86.62
259.383	98.62
259.616	79.62
259.849	65.62
260.081	90.62
260.314	86.62
260.547	93.62
260.779	81.62
261.012	84.62
261.244	81.62
261.477	83.62
261.71	80.62
261.942	85.62
262.175	81.62
262.407	92.62
262.64	83.62
262.872	85.62
263.105	92.62
263.337	78.62
263.57	95.62
263.802	79.62
264.035	93.62
264.267	84.62
264.499	88.62
264.732	102.62
264.964	88.62
265.197	87.62
265.429	96.62
265.661	85.62
265.894	94.62
266.126	92.62
266.358	88.62
266.591	84.62
266.823	82.62
267.055	86.62
267.287	78.62
267.52	83.62
267.752	86.62
267.984	82.62
268.216	94.62
268.448	83.62
268.681	85.62
268.913	89.62
269.145	82.62
269.377	75.62
269.609	87.62
269.841	102.62
270.073	101.62
270.306	83.62
270.538	89.62
270.77	95.62
271.002	87.62
271.234	82.62
271.466	100.62
271.698	83.62
271.93	89.62
272.162	94.62
272.394	92.62
272.626	106.62
272.858	91.62
273.09	85.62
273.322	91.62
273.553	87.62
273.785	96.62
274.017	84.62
274.249	78.62
274.481	85.62
274.713	94.62
274.945	95.62
275.176	92.62
275.408	82.62
275.64	91.62
275.872	85.62
276.104	86.62
276.335	98.62
276.567	80.62
276.799	91.62
277.031	83.62
277.262	100.62
277.494	108.62
277.726	81.62
277.957	95.62
278.189	82.62
278.421	93.62
278.652	95.62
278.884	83.62
279.115	88.62
279.347	96.62
279.579	92.62
279.81	82.62
280.042	89.62
280.273	81.62
280.505	90.62
280.736	93.62
280.968	90.62
281.199	81.62
281.431	98.62
281.662	72.62
281.894	97.62
282.125	98.62
282.356	82.62
282.588	88.62
282.819	87.62
283.051	71.62
283.282	92.62
283.513	74.62
283.745	100.62
283.976	92.62
284.207	81.62
284.439	83.62
284.67	92.62
284.901	88.62
285.132	97.62
285.364	90.62
285.595	67.62
285.826	79.62
286.057	85.62
286.288	94.62
286.52	87.62
286.751	86.62
286.982	82.62
287.213	102.62
287.444	91.62
287.675	78.62
287.906	88.62
288.138	91.62
288.369	94.62
288.6	100.62
288.831	86.62
289.062	92.62
289.293	92.62
289.524	105.62
289.755	109.62
289.986	80.62
290.217	85.62
290.448	82.62
290.679	86.62
290.91	85.62
291.141	88.62
291.371	93.62
291.602	96.62
291.833	98.62
292.064	82.62
292.295	103.62
292.526	88.62
292.757	92.62
292.987	95.62
293.218	85.62
293.449	91.62
293.68	88.62
293.91	84.62
294.141	79.62
294.372	67.62
294.603	74.62
294.833	88.62
295.064	95.62
295.295	86.62
295.525	91.62
295.756	85.62
295.987	98.62
296.217	89.62
296.448	67.62
296.679	98.62
296.909	90.62
297.14	83.62
297.37	86.62
297.601	90.62
297.831	89.62
298.062	100.62
298.292	89.62
298.523	92.62
298.753	90.62
298.984	88.62
299.214	81.62
299.445	97.62
299.675	89.62
299.905	98.62
300.136	91.62
300.366	86.62
300.597	92.62
300.827	95.62
301.057	74.62
301.288	81.62
301.518	89.62
301.748	92.62
301.979	107.62
302.209	102.62
302.439	84.62
302.669	88.62
302.9	92.62
303.13	87.62
303.36	86.62
303.59	89.62
303.82	82.62
304.051	87.62
304.281	80.62
304.511	97.62
304.741	94.62
304.971	73.62
305.201	90.62
305.431	91.62
305.661	97.62
305.891	97.62
306.121	88.62
306.352	80.62
306.582	90.62
306.812	96.62
307.042	86.62
307.272	98.62
307.502	85.62
307.731	97.62
307.961	91.62
308.191	90.62
308.421	98.62
308.651	79.62
308.881	79.62
309.111	86.62
309.341	86.62
309.571	103.62
309.8	92.62
310.03	104.62
310.26	75.62
310.49	100.62
310.72	96.62
310.949	89.62
311.179	81.62
311.409	75.62
311.639	84.62
311.868	86.62
312.098	90.62
312.328	91.62
312.557	97.62
312.787	86.62
313.017	89.62
313.246	83.62
313.476	91.62
313.706	86.62
313.935	78.62
314.165	97.62
314.394	87.62
314.624	84.62
314.853	105.62
315.083	95.62
315.312	83.62
315.542	76.62
315.771	82.62
316.001	72.62
316.23	83.62
316.46	91.62
316.689	79.62
316.919	84.62
317.148	74.62
317.377	73.62
317.607	90.62
317.836	87.62
318.065	94.62
318.295	92.62
318.524	84.62
318.753	91.62
318.983	91.62
319.212	98.62
319.441	91.62
319.67	92.62
319.9	84.62
320.129	89.62
320.358	87.62
320.587	93.62
320.816	102.62
321.046	88.62
321.275	102.62
321.504	86.62
321.733	79.62
321.962	101.62
322.191	99.62
322.42	108.62
322.649	93.62
322.878	94.62
323.108	90.62
323.337	80.62
323.566	77.62
323.795	74.62
324.024	97.62
324.253	83.62
324.482	88.62
324.71	88.62
324.939	101.62
325.168	106.62
325.397	100.62
325.626	91.62
325.855	93.62
326.084	89.62
326.313	75.62
326.542	76.62
326.77	78.62
326.999	100.62
327.228	91.62
327.457	99.62
327.686	86.62
327.914	90.62
328.143	90.62
328.372	82.62
328.6	91.62
328.829	94.62
329.058	86.62
329.287	105.62
329.515	88.62
329.744	103.62
329.972	94.62
330.201	96.62
330.43	89.62
330.658	77.62
330.887	79.62
331.115	86.62
331.344	81.62
331.572	88.62
331.801	84.62
332.03	96.62
332.258	104.62
332.486	73.62
332.715	92.62
332.943	86.62
333.172	90.62
333.4	103.62
333.629	95.62
333.857	86.62
334.085	88.62
334.314	103.62
334.542	84.62
334.771	70.62
334.999	76.62
335.227	79.62
335.455	97.62
335.684	86.62
335.912	92.62
336.14	81.62
336.369	85.62
336.597	85.62
336.825	76.62
337.053	82.62
337.281	77.62
337.51	88.62
337.738	81.62
337.966	95.62
338.194	88.62
338.422	97.62
338.65	96.62
338.878	95.62
339.106	92.62
339.334	91.62
339.562	82.62
339.79	81.62
340.018	80.62
340.246	84.62
340.474	77.62
340.702	95.62
340.93	94.62
341.158	95.62
341.386	80.62
341.614	85.62
341.842	84.62
342.07	103.62
342.298	88.62
342.526	75.62
342.754	95.62
342.981	94.62
343.209	78.62
343.437	84.62
343.665	86.62
343.893	88.62
344.12	95.62
344.348	69.62
344.576	102.62
344.804	84.62
345.031	100.62
345.259	96.62
345.487	86.62
345.714	90.62
345.942	84.62
346.17	84.62
346.397	81.62
346.625	90.62
346.853	87.62
347.08	82.62
347.308	76.62
347.535	88.62
347.763	95.62
347.99	75.62
348.218	80.62
348.445	88.62
348.673	89.62
348.9	91.62
349.128	103.62
349.355	96.62
349.583	81.62
349.81	101.62
350.037	96.62
350.265	85.62
350.492	89.62
350.72	96.62
350.947	78.62
351.174	106.62
351.402	88.62
351.629	98.62
351.856	85.62
352.083	90.62
352.311	89.62
352.538	92.62
352.765	96.62
352.992	82.62
353.22	82.62
353.447	82.62
353.674	100.62
353.901	94.62
354.128	81.62
354.355	90.62
354.583	80.62
354.81	80.62
355.037	81.62
355.264	89.62
355.491	88.62
355.718	94.62
355.945	95.62
356.172	85.62
356.399	92.62
356.626	75.62
356.853	91.62
357.08	85.62
357.307	88.62
357.534	97.62
357.761	86.62
357.988	83.62
358.215	98.62
358.441	77.62
358.668	84.62
358.895	82.62
359.122	95.62
359.349	79.62
359.576	85.62
359.802	90.62
360.029	85.62
360.256	98.62
360.483	82.62
360.709	95.62
360.936	98.62
361.163	98.62
361.39	86.62
361.616	83.62
361.843	85.62
362.07	81.62
362.296	84.62
362.523	83.62
362.749	94.62
362.976	82.62
363.203	90.62
363.429	75.62
363.656	92.62
363.882	83.62
364.109	86.62
364.335	72.62
364.562	90.62
364.788	84.62
365.015	99.62
365.241	83.62
365.468	95.62
365.694	82.62
365.92	97.62
366.147	96.62
366.373	96.62
366.599	78.62
366.826	92.62
367.052	80.62
367.278	90.62
367.505	87.62
367.731	104.62
367.957	96.62
368.184	95.62
368.41	89.62
368.636	87.62
368.862	93.62
369.089	79.62
369.315	90.62
369.541	79.62
369.767	88.62
369.993	99.62
370.219	84.62
370.445	82.62
370.672	96.62
370.898	85.62
371.124	92.62
371.35	108.62
371.576	102.62
371.802	84.62
372.028	90.62
372.254	104.62
372.48	111.62
372.706	92.62
372.932	94.62
373.158	103.62
373.384	110.62
373.61	92.62
373.835	92.62
374.061	100.62
374.287	88.62
374.513	96.62
374.739	108.62
374.965	103.62
375.191	99.62
375.416	97.62
375.642	100.62
375.868	100.62
376.094	103.62
376.319	87.62
376.545	103.62
376.771	96.62
376.997	88.62
377.222	85.62
377.448	103.62
377.674	96.62
377.899	101.62
378.125	101.62
378.35	91.62
378.576	70.62
378.802	93.62
379.027	111.62
379.253	85.62
379.478	94.62
379.704	95.62
379.929	103.62
380.155	92.62
380.38	97.62
380.606	84.62
380.831	110.62
381.057	110.62
381.282	98.62
381.507	81.62
381.733	100.62
381.958	108.62
382.184	107.62
382.409	109.62
382.634	86.62
382.86	90.62
383.085	103.62
383.31	98.62
383.535	96.62
383.761	107.62
383.986	90.62
384.211	104.62
384.436	107.62
384.662	104.62
384.887	94.62
385.112	99.62
385.337	93.62
385.562	100.62
385.787	93.62
386.013	99.62
386.238	98.62
386.463	96.62
386.688	94.62
386.913	113.62
387.138	87.62
387.363	94.62
387.588	107.62
387.813	107.62
388.038	119.62
388.263	111.62
388.488	89.62
388.713	85.62
388.938	106.62
389.163	113.62
389.387	95.62
389.612	102.62
389.837	107.62
390.062	110.62
390.287	102.62
390.512	119.62
390.736	88.62
390.961	110.62
391.186	112.62
391.411	107.62
391.636	111.62
391.86	95.62
392.085	107.62
392.31	100.62
392.534	121.62
392.759	106.62
392.984	110.62
393.208	109.62
393.433	110.62
393.658	109.62
393.882	104.62
394.107	89.62
394.331	109.62
394.556	101.62
394.78	106.62
395.005	127.62
395.229	113.62
395.454	118.62
395.678	99.62
395.903	104.62
396.127	111.62
396.352	112.62
396.576	110.62
396.801	119.62
397.025	124.62
397.249	117.62
397.474	106.62
397.698	112.62
397.922	113.62
398.147	108.62
398.371	119.62
398.595	115.62
398.82	100.62
399.044	118.62
399.268	104.62
399.492	114.62
399.717	124.62
399.941	129.62
400.165	102.62
400.389	119.62
400.613	113.62
400.837	118.62
401.062	119.62
401.286	119.62
401.51	104.62
401.734	113.62
401.958	124.62
402.182	103.62
402.406	120.62
402.63	109.62
402.854	127.62
403.078	120.62
403.302	121.62
403.526	130.62
403.75	123.62
403.974	106.62
404.198	124.62
404.422	123.62
404.645	130.62
404.869	123.62
405.093	120.62
405.317	127.62
405.541	123.62
405.765	110.62
405.988	124.62
406.212	106.62
406.436	122.62
406.66	120.62
406.883	132.62
407.107	106.62
407.331	112.62
407.555	107.62
407.778	123.62
408.002	131.62
408.226	110.62
408.449	121.62
408.673	105.62
408.896	116.62
409.12	117.62
409.344	124.62
409.567	117.62
409.791	126.62
410.014	122.62
410.238	107.62
410.461	113.62
410.685	134.62
410.908	126.62
411.132	128.62
411.355	122.62
411.578	115.62
411.802	118.62
412.025	130.62
412.249	136.62
412.472	134.62
412.695	128.62
412.919	135.62
413.142	121.62
413.365	131.62
413.589	124.62
413.812	125.62
414.035	116.62
414.258	120.62
414.482	118.62
414.705	124.62
414.928	129.62
415.151	135.62
415.374	124.62
415.597	120.62
415.821	131.62
416.044	127.62
416.267	108.62
416.49	123.62
416.713	116.62
416.936	129.62
417.159	127.62
417.382	115.62
417.605	125.62
417.828	118.62
418.051	112.62
418.274	121.62
418.497	122.62
418.72	138.62
418.943	140.62
419.166	141.62
419.389	130.62
419.611	145.62
419.834	136.62
420.057	136.62
420.28	145.62
420.503	127.62
420.726	139.62
420.948	141.62
421.171	148.62
421.394	148.62
421.617	141.62
421.839	148.62
422.062	138.62
422.285	151.62
422.507	154.62
422.73	129.62
422.953	133.62
423.175	126.62
423.398	126.62
423.621	137.62
423.843	137.62
424.066	128.62
424.288	142.62
424.511	146.62
424.733	139.62
424.956	124.62
425.178	134.62
425.401	135.62
425.623	154.62
425.846	140.62
426.068	131.62
426.291	145.62
426.513	129.62
426.735	134.62
426.958	128.62
427.18	132.62
427.402	128.62
427.625	135.62
427.847	132.62
428.069	124.62
428.292	137.62
428.514	140.62
428.736	140.62
428.958	133.62
429.181	139.62
429.403	140.62
429.625	134.62
429.847	132.62
430.069	120.62
430.292	143.62
430.514	136.62
430.736	145.62
430.958	135.62
431.18	134.62
431.402	122.62
431.624	123.62
431.846	124.62
432.068	100.62
432.29	92.62
432.512	112.62
432.734	137.62
432.956	134.62
433.178	131.62
433.4	132.62
433.622	144.62
433.844	144.62
434.066	119.62
434.287	129.62
434.509	115.62
434.731	102.62
434.953	102.62
435.175	132.62
435.397	127.62
435.618	122.62
435.84	131.62
436.062	113.62
436.284	125.62
436.505	133.62
436.727	127.62
436.949	127.62
437.17	131.62
437.392	126.62
437.614	132.62
437.835	113.62
438.057	107.62
438.278	126.62
438.5	130.62
438.721	139.62
438.943	143.62
439.165	158.62
439.386	142.62
439.608	143.62
439.829	138.62
440.05	158.62
440.272	157.62
440.493	160.62
440.715	151.62
440.936	131.62
441.158	147.62
441.379	152.62
441.6	150.62
441.822	152.62
442.043	153.62
442.264	134.62
442.486	138.62
442.707	127.62
442.928	139.62
443.149	132.62
443.371	138.62
443.592	138.62
443.813	143.62
444.034	145.62
444.255	153.62
444.476	138.62
444.698	139.62
444.919	140.62
445.14	242.62
445.361	205.62
445.582	145.62
445.803	154.62
446.024	150.62
446.245	146.62
446.466	158.62
446.687	165.62
446.908	154.62
447.129	160.62
447.35	163.62
447.571	156.62
447.792	149.62
448.013	148.62
448.234	142.62
448.455	140.62
448.675	144.62
448.896	155.62
449.117	147.62
449.338	142.62
449.559	144.62
449.779	137.62
450	133.62
450.221	139.62
450.442	137.62
450.662	135.62
450.883	133.62
451.104	121.62
451.324	131.62
451.545	121.62
451.766	132.62
451.986	133.62
452.207	134.62
452.428	114.62
452.648	134.62
452.869	141.62
453.089	122.62
453.31	123.62
453.53	116.62
453.751	100.62
453.971	124.62
454.192	108.62
454.412	116.62
454.633	119.62
454.853	112.62
455.073	116.62
455.294	131.62
455.514	119.62
455.734	130.62
455.955	110.62
456.175	123.62
456.395	109.62
456.616	122.62
456.836	108.62
457.056	116.62
457.276	107.62
457.497	109.62
457.717	123.62
457.937	111.62
458.157	120.62
458.377	111.62
458.598	103.62
458.818	99.62
459.038	109.62
459.258	87.62
459.478	98.62
459.698	94.62
459.918	93.62
460.138	107.62
460.358	115.62
460.578	108.62
460.798	121.62
461.018	119.62
461.238	128.62
461.458	114.62
461.678	127.62
461.898	114.62
462.118	116.62
462.338	114.62
462.558	123.62
462.777	131.62
462.997	127.62
463.217	111.62
463.437	115.62
463.657	127.62
463.876	118.62
464.096	128.62
464.316	122.62
464.536	112.62
464.755	122.62
464.975	121.62
465.195	115.62
465.414	130.62
465.634	110.62
465.854	130.62
466.073	119.62
466.293	115.62
466.512	134.62
466.732	132.62
466.951	130.62
467.171	115.62
467.391	133.62
467.61	137.62
467.829	135.62
468.049	141.62
468.268	139.62
468.488	155.62
468.707	149.62
468.927	141.62
469.146	136.62
469.365	135.62
469.585	136.62
469.804	142.62
470.023	135.62
470.243	139.62
470.462	145.62
470.681	140.62
470.901	136.62
471.12	148.62
471.339	140.62
471.558	148.62
471.777	134.62
471.997	144.62
472.216	142.62
472.435	111.62
472.654	102.62
472.873	121.62
473.092	103.62
473.311	126.62
473.53	129.62
473.749	130.62
473.968	128.62
474.187	136.62
474.406	129.62
474.625	118.62
474.844	122.62
475.063	121.62
475.282	140.62
475.501	122.62
475.72	123.62
475.939	128.62
476.158	137.62
476.377	141.62
476.596	132.62
476.814	124.62
477.033	103.62
477.252	122.62
477.471	118.62
477.69	117.62
477.908	128.62
478.127	142.62
478.346	141.62
478.564	127.62
478.783	132.62
479.002	138.62
479.22	134.62
479.439	125.62
479.658	125.62
479.876	107.62
480.095	118.62
480.313	130.62
480.532	112.62
480.751	109.62
480.969	89.62
481.188	93.62
481.406	83.62
481.624	95.62
481.843	94.62
482.061	97.62
482.28	124.62
482.498	106.62
482.717	111.62
482.935	136.62
483.153	138.62
483.372	140.62
483.59	146.62
483.808	147.62
484.027	146.62
484.245	148.62
484.463	148.62
484.681	166.62
484.9	140.62
485.118	132.62
485.336	131.62
485.554	111.62
485.772	99.62
485.99	113.62
486.209	115.62
486.427	122.62
486.645	142.62
486.863	137.62
487.081	138.62
487.299	152.62
487.517	136.62
487.735	175.62
487.953	182.62
488.171	194.62
488.389	168.62
488.607	166.62
488.825	155.62
489.043	137.62
489.261	126.62
489.479	140.62
489.696	139.62
489.914	128.62
490.132	155.62
490.35	154.62
490.568	163.62
490.786	153.62
491.003	174.62
491.221	176.62
491.439	180.62
491.657	194.62
491.874	213.62
492.092	212.62
492.31	233.62
492.527	218.62
492.745	206.62
492.963	202.62
493.18	187.62
493.398	184.62
493.615	177.62
493.833	186.62
494.05	172.62
494.268	187.62
494.485	173.62
494.703	165.62
494.92	182.62
495.138	165.62
495.355	188.62
495.573	176.62
495.79	179.62
496.008	158.62
496.225	173.62
496.442	159.62
496.66	168.62
496.877	162.62
497.094	176.62
497.312	175.62
497.529	170.62
497.746	140.62
497.963	137.62
498.181	146.62
498.398	129.62
498.615	126.62
498.832	113.62
499.049	125.62
499.267	126.62
499.484	123.62
499.701	140.62
499.918	147.62
500.135	127.62
500.352	156.62
500.569	138.62
500.786	142.62
501.003	143.62
501.22	147.62
501.437	143.62
501.654	123.62
501.871	135.62
502.088	129.62
502.305	131.62
502.522	146.62
502.739	127.62
502.956	121.62
503.172	116.62
503.389	136.62
503.606	115.62
503.823	139.62
504.04	116.62
504.256	121.62
504.473	120.62
504.69	119.62
504.907	121.62
505.123	117.62
505.34	128.62
505.557	126.62
505.773	121.62
505.99	129.62
506.207	133.62
506.423	126.62
506.64	121.62
506.856	123.62
507.073	121.62
507.289	138.62
507.506	131.62
507.722	126.62
507.939	120.62
508.155	125.62
508.372	119.62
508.588	121.62
508.805	114.62
509.021	125.62
509.238	109.62
509.454	115.62
509.67	117.62
509.887	114.62
510.103	95.62
510.319	90.62
510.536	98.62
510.752	99.62
