Data from Location1.07152019.Energy5.Lamp.07192019.3%Agarose_HRD10591_14-30-23-015.txt Node
Date: Fri Jul 19 14:30:23 EDT 2019
User: cochatt
Spectrometer: HR+D1059
Trigger mode: 1
Integration Time (sec): 1.000000E-1
Scans to average: 1
Electric dark correction enabled: true
Nonlinearity correction enabled: false
Boxcar width: 0
XAxis mode: Wavelengths
Number of Pixels in Spectrum: 2048
>>>>>Begin Spectral Data<<<<<
223.165	-5.81
223.4	-5.81
223.635	-5.81
223.869	-15.81
224.104	-7.81
224.338	-13.81
224.573	-21.81
224.808	-10.81
225.042	-1.81
225.277	8.19
225.511	-9.81
225.746	4.19
225.98	9.19
226.215	2.19
226.449	-7.81
226.683	10.19
226.918	28.19
227.152	33.19
227.387	27.19
227.621	30.19
227.856	35.19
228.09	42.19
228.324	40.19
228.559	37.19
228.793	52.19
229.027	64.19
229.262	54.19
229.496	48.19
229.73	68.19
229.964	72.19
230.199	73.19
230.433	65.19
230.667	84.19
230.901	71.19
231.136	76.19
231.37	82.19
231.604	73.19
231.838	91.19
232.072	73.19
232.306	62.19
232.541	83.19
232.775	86.19
233.009	74.19
233.243	85.19
233.477	66.19
233.711	77.19
233.945	76.19
234.179	86.19
234.413	83.19
234.647	71.19
234.881	73.19
235.115	75.19
235.349	79.19
235.583	74.19
235.817	89.19
236.051	81.19
236.285	86.19
236.519	64.19
236.753	75.19
236.987	73.19
237.221	59.19
237.455	77.19
237.689	76.19
237.922	58.19
238.156	75.19
238.39	74.19
238.624	82.19
238.858	75.19
239.091	82.19
239.325	67.19
239.559	76.19
239.793	86.19
240.027	73.19
240.26	73.19
240.494	64.19
240.728	74.19
240.961	59.19
241.195	72.19
241.429	79.19
241.662	70.19
241.896	76.19
242.13	76.19
242.363	66.19
242.597	86.19
242.83	77.19
243.064	71.19
243.298	83.19
243.531	72.19
243.765	82.19
243.998	66.19
244.232	83.19
244.465	65.19
244.699	72.19
244.932	71.19
245.166	75.19
245.399	76.19
245.633	85.19
245.866	76.19
246.099	67.19
246.333	66.19
246.566	66.19
246.8	73.19
247.033	80.19
247.266	80.19
247.5	74.19
247.733	67.19
247.966	65.19
248.2	77.19
248.433	62.19
248.666	94.19
248.899	64.19
249.133	70.19
249.366	79.19
249.599	95.19
249.832	54.19
250.066	75.19
250.299	67.19
250.532	76.19
250.765	72.19
250.998	73.19
251.231	59.19
251.465	76.19
251.698	79.19
251.931	74.19
252.164	78.19
252.397	66.19
252.63	71.19
252.863	82.19
253.096	73.19
253.329	73.19
253.562	77.19
253.795	81.19
254.028	70.19
254.261	83.19
254.494	85.19
254.727	76.19
254.96	84.19
255.193	82.19
255.426	67.19
255.659	70.19
255.892	89.19
256.124	76.19
256.357	78.19
256.59	84.19
256.823	76.19
257.056	88.19
257.289	71.19
257.521	82.19
257.754	83.19
257.987	83.19
258.22	88.19
258.452	77.19
258.685	80.19
258.918	79.19
259.151	84.19
259.383	84.19
259.616	76.19
259.849	87.19
260.081	68.19
260.314	52.19
260.547	71.19
260.779	77.19
261.012	71.19
261.244	85.19
261.477	87.19
261.71	84.19
261.942	81.19
262.175	71.19
262.407	78.19
262.64	81.19
262.872	79.19
263.105	89.19
263.337	78.19
263.57	74.19
263.802	75.19
264.035	95.19
264.267	85.19
264.499	87.19
264.732	93.19
264.964	63.19
265.197	74.19
265.429	88.19
265.661	82.19
265.894	82.19
266.126	87.19
266.358	80.19
266.591	78.19
266.823	88.19
267.055	72.19
267.287	82.19
267.52	67.19
267.752	85.19
267.984	82.19
268.216	70.19
268.448	84.19
268.681	80.19
268.913	78.19
269.145	85.19
269.377	82.19
269.609	91.19
269.841	71.19
270.073	83.19
270.306	71.19
270.538	76.19
270.77	72.19
271.002	66.19
271.234	79.19
271.466	97.19
271.698	75.19
271.93	92.19
272.162	81.19
272.394	72.19
272.626	73.19
272.858	69.19
273.09	86.19
273.322	84.19
273.553	78.19
273.785	72.19
274.017	70.19
274.249	76.19
274.481	95.19
274.713	67.19
274.945	87.19
275.176	83.19
275.408	73.19
275.64	89.19
275.872	86.19
276.104	72.19
276.335	82.19
276.567	70.19
276.799	74.19
277.031	63.19
277.262	83.19
277.494	85.19
277.726	86.19
277.957	69.19
278.189	73.19
278.421	82.19
278.652	95.19
278.884	94.19
279.115	91.19
279.347	69.19
279.579	86.19
279.81	80.19
280.042	75.19
280.273	96.19
280.505	79.19
280.736	80.19
280.968	81.19
281.199	70.19
281.431	87.19
281.662	90.19
281.894	82.19
282.125	96.19
282.356	98.19
282.588	65.19
282.819	89.19
283.051	79.19
283.282	83.19
283.513	96.19
283.745	84.19
283.976	82.19
284.207	81.19
284.439	72.19
284.67	84.19
284.901	78.19
285.132	72.19
285.364	75.19
285.595	84.19
285.826	84.19
286.057	87.19
286.288	77.19
286.52	86.19
286.751	98.19
286.982	69.19
287.213	73.19
287.444	82.19
287.675	66.19
287.906	81.19
288.138	74.19
288.369	80.19
288.6	76.19
288.831	87.19
289.062	76.19
289.293	82.19
289.524	84.19
289.755	80.19
289.986	88.19
290.217	84.19
290.448	86.19
290.679	80.19
290.91	74.19
291.141	70.19
291.371	84.19
291.602	90.19
291.833	83.19
292.064	84.19
292.295	85.19
292.526	85.19
292.757	94.19
292.987	85.19
293.218	75.19
293.449	75.19
293.68	94.19
293.91	87.19
294.141	82.19
294.372	73.19
294.603	93.19
294.833	70.19
295.064	86.19
295.295	76.19
295.525	76.19
295.756	83.19
295.987	89.19
296.217	80.19
296.448	66.19
296.679	88.19
296.909	71.19
297.14	71.19
297.37	83.19
297.601	80.19
297.831	80.19
298.062	79.19
298.292	82.19
298.523	82.19
298.753	69.19
298.984	80.19
299.214	85.19
299.445	96.19
299.675	89.19
299.905	84.19
300.136	101.19
300.366	83.19
300.597	82.19
300.827	79.19
301.057	80.19
301.288	84.19
301.518	69.19
301.748	70.19
301.979	83.19
302.209	70.19
302.439	83.19
302.669	83.19
302.9	73.19
303.13	77.19
303.36	85.19
303.59	89.19
303.82	74.19
304.051	81.19
304.281	91.19
304.511	88.19
304.741	81.19
304.971	93.19
305.201	86.19
305.431	76.19
305.661	91.19
305.891	87.19
306.121	85.19
306.352	88.19
306.582	84.19
306.812	75.19
307.042	79.19
307.272	96.19
307.502	89.19
307.731	91.19
307.961	82.19
308.191	77.19
308.421	86.19
308.651	80.19
308.881	71.19
309.111	91.19
309.341	87.19
309.571	80.19
309.8	77.19
310.03	93.19
310.26	100.19
310.49	76.19
310.72	70.19
310.949	75.19
311.179	79.19
311.409	80.19
311.639	81.19
311.868	95.19
312.098	80.19
312.328	80.19
312.557	84.19
312.787	78.19
313.017	81.19
313.246	88.19
313.476	76.19
313.706	78.19
313.935	74.19
314.165	82.19
314.394	83.19
314.624	77.19
314.853	97.19
315.083	84.19
315.312	80.19
315.542	82.19
315.771	75.19
316.001	82.19
316.23	78.19
316.46	76.19
316.689	86.19
316.919	80.19
317.148	84.19
317.377	89.19
317.607	80.19
317.836	69.19
318.065	79.19
318.295	90.19
318.524	68.19
318.753	76.19
318.983	90.19
319.212	78.19
319.441	78.19
319.67	77.19
319.9	88.19
320.129	75.19
320.358	84.19
320.587	84.19
320.816	90.19
321.046	80.19
321.275	87.19
321.504	77.19
321.733	82.19
321.962	75.19
322.191	70.19
322.42	73.19
322.649	88.19
322.878	79.19
323.108	91.19
323.337	69.19
323.566	86.19
323.795	72.19
324.024	76.19
324.253	98.19
324.482	87.19
324.71	73.19
324.939	85.19
325.168	83.19
325.397	71.19
325.626	70.19
325.855	88.19
326.084	86.19
326.313	85.19
326.542	89.19
326.77	81.19
326.999	80.19
327.228	72.19
327.457	86.19
327.686	82.19
327.914	98.19
328.143	94.19
328.372	83.19
328.6	76.19
328.829	80.19
329.058	86.19
329.287	82.19
329.515	83.19
329.744	74.19
329.972	78.19
330.201	71.19
330.43	68.19
330.658	87.19
330.887	75.19
331.115	86.19
331.344	86.19
331.572	87.19
331.801	87.19
332.03	74.19
332.258	93.19
332.486	82.19
332.715	91.19
332.943	79.19
333.172	79.19
333.4	84.19
333.629	91.19
333.857	77.19
334.085	71.19
334.314	74.19
334.542	87.19
334.771	92.19
334.999	83.19
335.227	71.19
335.455	81.19
335.684	90.19
335.912	76.19
336.14	90.19
336.369	83.19
336.597	83.19
336.825	91.19
337.053	69.19
337.281	85.19
337.51	84.19
337.738	84.19
337.966	77.19
338.194	75.19
338.422	77.19
338.65	71.19
338.878	91.19
339.106	83.19
339.334	73.19
339.562	82.19
339.79	69.19
340.018	88.19
340.246	79.19
340.474	90.19
340.702	81.19
340.93	79.19
341.158	72.19
341.386	72.19
341.614	79.19
341.842	90.19
342.07	73.19
342.298	87.19
342.526	74.19
342.754	75.19
342.981	91.19
343.209	83.19
343.437	82.19
343.665	79.19
343.893	80.19
344.12	83.19
344.348	83.19
344.576	67.19
344.804	87.19
345.031	82.19
345.259	84.19
345.487	72.19
345.714	85.19
345.942	72.19
346.17	76.19
346.397	73.19
346.625	98.19
346.853	76.19
347.08	86.19
347.308	89.19
347.535	73.19
347.763	87.19
347.99	83.19
348.218	83.19
348.445	80.19
348.673	86.19
348.9	86.19
349.128	83.19
349.355	81.19
349.583	71.19
349.81	88.19
350.037	88.19
350.265	79.19
350.492	73.19
350.72	72.19
350.947	79.19
351.174	75.19
351.402	91.19
351.629	89.19
351.856	88.19
352.083	62.19
352.311	86.19
352.538	95.19
352.765	73.19
352.992	83.19
353.22	80.19
353.447	79.19
353.674	82.19
353.901	82.19
354.128	79.19
354.355	82.19
354.583	87.19
354.81	82.19
355.037	80.19
355.264	79.19
355.491	86.19
355.718	79.19
355.945	72.19
356.172	91.19
356.399	86.19
356.626	76.19
356.853	82.19
357.08	86.19
357.307	82.19
357.534	90.19
357.761	83.19
357.988	86.19
358.215	88.19
358.441	73.19
358.668	81.19
358.895	81.19
359.122	77.19
359.349	82.19
359.576	75.19
359.802	89.19
360.029	85.19
360.256	90.19
360.483	80.19
360.709	82.19
360.936	92.19
361.163	84.19
361.39	98.19
361.616	82.19
361.843	63.19
362.07	78.19
362.296	86.19
362.523	70.19
362.749	74.19
362.976	68.19
363.203	80.19
363.429	82.19
363.656	75.19
363.882	71.19
364.109	78.19
364.335	84.19
364.562	76.19
364.788	71.19
365.015	78.19
365.241	79.19
365.468	86.19
365.694	91.19
365.92	76.19
366.147	76.19
366.373	75.19
366.599	94.19
366.826	89.19
367.052	90.19
367.278	83.19
367.505	97.19
367.731	92.19
367.957	88.19
368.184	102.19
368.41	66.19
368.636	80.19
368.862	74.19
369.089	96.19
369.315	80.19
369.541	87.19
369.767	84.19
369.993	84.19
370.219	86.19
370.445	81.19
370.672	92.19
370.898	91.19
371.124	71.19
371.35	79.19
371.576	81.19
371.802	94.19
372.028	85.19
372.254	83.19
372.48	83.19
372.706	77.19
372.932	86.19
373.158	94.19
373.384	96.19
373.61	93.19
373.835	94.19
374.061	103.19
374.287	83.19
374.513	96.19
374.739	85.19
374.965	76.19
375.191	73.19
375.416	90.19
375.642	89.19
375.868	102.19
376.094	90.19
376.319	99.19
376.545	84.19
376.771	98.19
376.997	87.19
377.222	87.19
377.448	81.19
377.674	73.19
377.899	87.19
378.125	100.19
378.35	103.19
378.576	98.19
378.802	79.19
379.027	83.19
379.253	99.19
379.478	99.19
379.704	83.19
379.929	94.19
380.155	99.19
380.38	90.19
380.606	100.19
380.831	94.19
381.057	107.19
381.282	90.19
381.507	86.19
381.733	107.19
381.958	97.19
382.184	90.19
382.409	103.19
382.634	106.19
382.86	84.19
383.085	90.19
383.31	83.19
383.535	88.19
383.761	83.19
383.986	99.19
384.211	91.19
384.436	80.19
384.662	90.19
384.887	83.19
385.112	98.19
385.337	102.19
385.562	91.19
385.787	102.19
386.013	96.19
386.238	92.19
386.463	100.19
386.688	106.19
386.913	100.19
387.138	77.19
387.363	105.19
387.588	101.19
387.813	102.19
388.038	111.19
388.263	95.19
388.488	88.19
388.713	94.19
388.938	97.19
389.163	98.19
389.387	95.19
389.612	100.19
389.837	89.19
390.062	96.19
390.287	99.19
390.512	95.19
390.736	85.19
390.961	99.19
391.186	100.19
391.411	92.19
391.636	87.19
391.86	95.19
392.085	96.19
392.31	96.19
392.534	97.19
392.759	102.19
392.984	91.19
393.208	95.19
393.433	99.19
393.658	94.19
393.882	105.19
394.107	99.19
394.331	88.19
394.556	105.19
394.78	98.19
395.005	110.19
395.229	98.19
395.454	99.19
395.678	110.19
395.903	102.19
396.127	100.19
396.352	113.19
396.576	97.19
396.801	96.19
397.025	101.19
397.249	106.19
397.474	101.19
397.698	97.19
397.922	110.19
398.147	111.19
398.371	108.19
398.595	121.19
398.82	95.19
399.044	103.19
399.268	102.19
399.492	102.19
399.717	103.19
399.941	112.19
400.165	98.19
400.389	111.19
400.613	100.19
400.837	95.19
401.062	119.19
401.286	90.19
401.51	115.19
401.734	130.19
401.958	103.19
402.182	86.19
402.406	98.19
402.63	107.19
402.854	101.19
403.078	103.19
403.302	107.19
403.526	108.19
403.75	110.19
403.974	98.19
404.198	105.19
404.422	116.19
404.645	99.19
404.869	102.19
405.093	116.19
405.317	105.19
405.541	105.19
405.765	123.19
405.988	111.19
406.212	124.19
406.436	115.19
406.66	130.19
406.883	116.19
407.107	119.19
407.331	98.19
407.555	117.19
407.778	112.19
408.002	123.19
408.226	102.19
408.449	112.19
408.673	121.19
408.896	122.19
409.12	120.19
409.344	128.19
409.567	132.19
409.791	129.19
410.014	115.19
410.238	111.19
410.461	100.19
410.685	126.19
410.908	112.19
411.132	116.19
411.355	112.19
411.578	102.19
411.802	114.19
412.025	118.19
412.249	104.19
412.472	114.19
412.695	104.19
412.919	113.19
413.142	124.19
413.365	115.19
413.589	112.19
413.812	118.19
414.035	96.19
414.258	114.19
414.482	126.19
414.705	122.19
414.928	101.19
415.151	113.19
415.374	120.19
415.597	126.19
415.821	118.19
416.044	113.19
416.267	131.19
416.49	127.19
416.713	100.19
416.936	112.19
417.159	116.19
417.382	123.19
417.605	114.19
417.828	112.19
418.051	144.19
418.274	132.19
418.497	125.19
418.72	112.19
418.943	118.19
419.166	128.19
419.389	134.19
419.611	123.19
419.834	129.19
420.057	129.19
420.28	137.19
420.503	132.19
420.726	134.19
420.948	129.19
421.171	124.19
421.394	140.19
421.617	142.19
421.839	144.19
422.062	141.19
422.285	128.19
422.507	128.19
422.73	137.19
422.953	128.19
423.175	131.19
423.398	136.19
423.621	124.19
423.843	117.19
424.066	147.19
424.288	139.19
424.511	134.19
424.733	144.19
424.956	142.19
425.178	139.19
425.401	130.19
425.623	126.19
425.846	128.19
426.068	132.19
426.291	122.19
426.513	133.19
426.735	135.19
426.958	131.19
427.18	127.19
427.402	124.19
427.625	131.19
427.847	106.19
428.069	134.19
428.292	117.19
428.514	126.19
428.736	133.19
428.958	116.19
429.181	133.19
429.403	136.19
429.625	135.19
429.847	122.19
430.069	128.19
430.292	130.19
430.514	148.19
430.736	135.19
430.958	113.19
431.18	122.19
431.402	114.19
431.624	118.19
431.846	106.19
432.068	91.19
432.29	100.19
432.512	103.19
432.734	120.19
432.956	137.19
433.178	140.19
433.4	134.19
433.622	146.19
433.844	126.19
434.066	122.19
434.287	111.19
434.509	85.19
434.731	100.19
434.953	107.19
435.175	114.19
435.397	119.19
435.618	105.19
435.84	95.19
436.062	119.19
436.284	106.19
436.505	114.19
436.727	132.19
436.949	118.19
437.17	123.19
437.392	135.19
437.614	137.19
437.835	126.19
438.057	107.19
438.278	110.19
438.5	128.19
438.721	128.19
438.943	123.19
439.165	129.19
439.386	143.19
439.608	132.19
439.829	134.19
440.05	151.19
440.272	144.19
440.493	134.19
440.715	130.19
440.936	143.19
441.158	146.19
441.379	134.19
441.6	136.19
441.822	131.19
442.043	133.19
442.264	139.19
442.486	129.19
442.707	125.19
442.928	120.19
443.149	130.19
443.371	132.19
443.592	139.19
443.813	137.19
444.034	133.19
444.255	122.19
444.476	143.19
444.698	146.19
444.919	142.19
445.14	278.19
445.361	209.19
445.582	134.19
445.803	129.19
446.024	147.19
446.245	147.19
446.466	145.19
446.687	138.19
446.908	154.19
447.129	160.19
447.35	141.19
447.571	148.19
447.792	150.19
448.013	127.19
448.234	130.19
448.455	132.19
448.675	127.19
448.896	137.19
449.117	136.19
449.338	130.19
449.559	117.19
449.779	135.19
450	125.19
450.221	146.19
450.442	126.19
450.662	131.19
450.883	134.19
451.104	119.19
451.324	98.19
451.545	118.19
451.766	132.19
451.986	132.19
452.207	117.19
452.428	126.19
452.648	112.19
452.869	115.19
453.089	107.19
453.31	97.19
453.53	101.19
453.751	106.19
453.971	82.19
454.192	97.19
454.412	107.19
454.633	116.19
454.853	130.19
455.073	121.19
455.294	129.19
455.514	121.19
455.734	117.19
455.955	115.19
456.175	114.19
456.395	101.19
456.616	116.19
456.836	98.19
457.056	111.19
457.276	99.19
457.497	111.19
457.717	94.19
457.937	101.19
458.157	104.19
458.377	101.19
458.598	101.19
458.818	87.19
459.038	96.19
459.258	86.19
459.478	84.19
459.698	95.19
459.918	111.19
460.138	107.19
460.358	123.19
460.578	117.19
460.798	93.19
461.018	105.19
461.238	113.19
461.458	118.19
461.678	104.19
461.898	104.19
462.118	105.19
462.338	103.19
462.558	104.19
462.777	104.19
462.997	111.19
463.217	114.19
463.437	103.19
463.657	92.19
463.876	113.19
464.096	118.19
464.316	94.19
464.536	108.19
464.755	107.19
464.975	110.19
465.195	113.19
465.414	120.19
465.634	108.19
465.854	108.19
466.073	115.19
466.293	116.19
466.512	113.19
466.732	132.19
466.951	118.19
467.171	123.19
467.391	120.19
467.61	138.19
467.829	136.19
468.049	140.19
468.268	127.19
468.488	119.19
468.707	133.19
468.927	135.19
469.146	138.19
469.365	143.19
469.585	129.19
469.804	150.19
470.023	139.19
470.243	152.19
470.462	138.19
470.681	154.19
470.901	128.19
471.12	144.19
471.339	126.19
471.558	130.19
471.777	120.19
471.997	148.19
472.216	117.19
472.435	118.19
472.654	105.19
472.873	118.19
473.092	122.19
473.311	137.19
473.53	138.19
473.749	118.19
473.968	120.19
474.187	120.19
474.406	105.19
474.625	119.19
474.844	128.19
475.063	119.19
475.282	124.19
475.501	116.19
475.72	113.19
475.939	107.19
476.158	101.19
476.377	115.19
476.596	129.19
476.814	118.19
477.033	110.19
477.252	112.19
477.471	122.19
477.69	116.19
477.908	124.19
478.127	126.19
478.346	126.19
478.564	143.19
478.783	114.19
479.002	126.19
479.22	138.19
479.439	138.19
479.658	118.19
479.876	115.19
480.095	99.19
480.313	120.19
480.532	110.19
480.751	123.19
480.969	105.19
481.188	91.19
481.406	97.19
481.624	104.19
481.843	79.19
482.061	93.19
482.28	101.19
482.498	115.19
482.717	111.19
482.935	125.19
483.153	130.19
483.372	151.19
483.59	143.19
483.808	149.19
484.027	134.19
484.245	133.19
484.463	134.19
484.681	146.19
484.9	125.19
485.118	146.19
485.336	128.19
485.554	115.19
485.772	92.19
485.99	103.19
486.209	105.19
486.427	98.19
486.645	116.19
486.863	143.19
487.081	131.19
487.299	145.19
487.517	135.19
487.735	163.19
487.953	193.19
488.171	180.19
488.389	172.19
488.607	158.19
488.825	129.19
489.043	134.19
489.261	126.19
489.479	140.19
489.696	136.19
489.914	123.19
490.132	145.19
490.35	145.19
490.568	164.19
490.786	158.19
491.003	154.19
491.221	167.19
491.439	172.19
491.657	196.19
491.874	206.19
492.092	219.19
492.31	239.19
492.527	208.19
492.745	192.19
492.963	195.19
493.18	177.19
493.398	182.19
493.615	170.19
493.833	176.19
494.05	169.19
494.268	171.19
494.485	157.19
494.703	169.19
494.92	179.19
495.138	153.19
495.355	166.19
495.573	164.19
495.79	145.19
496.008	158.19
496.225	167.19
496.442	141.19
496.66	153.19
496.877	151.19
497.094	160.19
497.312	153.19
497.529	150.19
497.746	154.19
497.963	125.19
498.181	125.19
498.398	107.19
498.615	120.19
498.832	104.19
499.049	116.19
499.267	132.19
499.484	115.19
499.701	128.19
499.918	136.19
500.135	119.19
500.352	142.19
500.569	133.19
500.786	137.19
501.003	139.19
501.22	135.19
501.437	134.19
501.654	128.19
501.871	140.19
502.088	134.19
502.305	120.19
502.522	134.19
502.739	121.19
502.956	122.19
503.172	113.19
503.389	109.19
503.606	112.19
503.823	128.19
504.04	132.19
504.256	119.19
504.473	118.19
504.69	117.19
504.907	119.19
505.123	123.19
505.34	107.19
505.557	123.19
505.773	117.19
505.99	120.19
506.207	106.19
506.423	115.19
506.64	118.19
506.856	124.19
507.073	122.19
507.289	120.19
507.506	105.19
507.722	120.19
507.939	125.19
508.155	114.19
508.372	107.19
508.588	117.19
508.805	97.19
509.021	100.19
509.238	107.19
509.454	96.19
509.67	101.19
509.887	99.19
510.103	100.19
510.319	81.19
510.536	86.19
510.752	85.19
510.968	95.19
511.184	79.19
511.401	92.19
511.617	79.19
511.833	86.19
512.049	86.19
512.265	88.19
