Data from Location1.07152019.Energy5.Lamp.07192019.3%Agarose_HRD10591_14-33-25-016.txt Node
Date: Fri Jul 19 14:33:25 EDT 2019
User: cochatt
Spectrometer: HR+D1059
Trigger mode: 1
Integration Time (sec): 1.000000E-1
Scans to average: 1
Electric dark correction enabled: true
Nonlinearity correction enabled: false
Boxcar width: 0
XAxis mode: Wavelengths
Number of Pixels in Spectrum: 2048
>>>>>Begin Spectral Data<<<<<
223.165	-4.44
223.4	-4.44
223.635	-4.44
223.869	-9.44
224.104	-22.44
224.338	-21.44
224.573	-17.44
224.808	-16.44
225.042	-9.44
225.277	-8.44
225.511	2.56
225.746	2.56
225.98	14.56
226.215	10.56
226.449	9.56
226.683	25.56
226.918	16.56
227.152	27.56
227.387	28.56
227.621	40.56
227.856	26.56
228.09	44.56
228.324	54.56
228.559	48.56
228.793	59.56
229.027	49.56
229.262	69.56
229.496	66.56
229.73	62.56
229.964	71.56
230.199	80.56
230.433	74.56
230.667	61.56
230.901	76.56
231.136	70.56
231.37	78.56
231.604	78.56
231.838	81.56
232.072	82.56
232.306	77.56
232.541	82.56
232.775	83.56
233.009	78.56
233.243	73.56
233.477	65.56
233.711	83.56
233.945	73.56
234.179	61.56
234.413	77.56
234.647	67.56
234.881	79.56
235.115	78.56
235.349	64.56
235.583	81.56
235.817	78.56
236.051	74.56
236.285	77.56
236.519	67.56
236.753	76.56
236.987	81.56
237.221	83.56
237.455	71.56
237.689	70.56
237.922	81.56
238.156	79.56
238.39	63.56
238.624	70.56
238.858	77.56
239.091	83.56
239.325	76.56
239.559	79.56
239.793	78.56
240.027	79.56
240.26	75.56
240.494	75.56
240.728	83.56
240.961	83.56
241.195	74.56
241.429	69.56
241.662	79.56
241.896	86.56
242.13	68.56
242.363	84.56
242.597	71.56
242.83	80.56
243.064	82.56
243.298	65.56
243.531	80.56
243.765	87.56
243.998	76.56
244.232	76.56
244.465	76.56
244.699	57.56
244.932	81.56
245.166	86.56
245.399	74.56
245.633	77.56
245.866	82.56
246.099	68.56
246.333	91.56
246.566	75.56
246.8	88.56
247.033	86.56
247.266	73.56
247.5	87.56
247.733	86.56
247.966	78.56
248.2	93.56
248.433	83.56
248.666	76.56
248.899	66.56
249.133	96.56
249.366	86.56
249.599	71.56
249.832	85.56
250.066	73.56
250.299	74.56
250.532	65.56
250.765	71.56
250.998	92.56
251.231	83.56
251.465	81.56
251.698	74.56
251.931	84.56
252.164	82.56
252.397	75.56
252.63	61.56
252.863	78.56
253.096	69.56
253.329	84.56
253.562	78.56
253.795	87.56
254.028	68.56
254.261	61.56
254.494	78.56
254.727	82.56
254.96	81.56
255.193	61.56
255.426	71.56
255.659	65.56
255.892	72.56
256.124	87.56
256.357	76.56
256.59	75.56
256.823	77.56
257.056	90.56
257.289	77.56
257.521	76.56
257.754	52.56
257.987	78.56
258.22	82.56
258.452	74.56
258.685	80.56
258.918	81.56
259.151	82.56
259.383	74.56
259.616	83.56
259.849	62.56
260.081	80.56
260.314	78.56
260.547	89.56
260.779	74.56
261.012	80.56
261.244	70.56
261.477	75.56
261.71	78.56
261.942	87.56
262.175	89.56
262.407	88.56
262.64	71.56
262.872	85.56
263.105	70.56
263.337	83.56
263.57	77.56
263.802	78.56
264.035	79.56
264.267	92.56
264.499	92.56
264.732	87.56
264.964	82.56
265.197	81.56
265.429	80.56
265.661	91.56
265.894	76.56
266.126	86.56
266.358	90.56
266.591	83.56
266.823	87.56
267.055	93.56
267.287	75.56
267.52	74.56
267.752	87.56
267.984	86.56
268.216	81.56
268.448	92.56
268.681	72.56
268.913	93.56
269.145	74.56
269.377	94.56
269.609	89.56
269.841	81.56
270.073	74.56
270.306	83.56
270.538	79.56
270.77	75.56
271.002	85.56
271.234	75.56
271.466	96.56
271.698	89.56
271.93	74.56
272.162	84.56
272.394	85.56
272.626	83.56
272.858	79.56
273.09	81.56
273.322	81.56
273.553	89.56
273.785	87.56
274.017	69.56
274.249	90.56
274.481	92.56
274.713	77.56
274.945	78.56
275.176	82.56
275.408	76.56
275.64	75.56
275.872	73.56
276.104	80.56
276.335	70.56
276.567	95.56
276.799	86.56
277.031	92.56
277.262	81.56
277.494	81.56
277.726	82.56
277.957	69.56
278.189	93.56
278.421	78.56
278.652	83.56
278.884	76.56
279.115	72.56
279.347	79.56
279.579	80.56
279.81	77.56
280.042	78.56
280.273	81.56
280.505	84.56
280.736	84.56
280.968	92.56
281.199	84.56
281.431	92.56
281.662	90.56
281.894	85.56
282.125	92.56
282.356	82.56
282.588	90.56
282.819	98.56
283.051	90.56
283.282	74.56
283.513	75.56
283.745	76.56
283.976	101.56
284.207	75.56
284.439	72.56
284.67	78.56
284.901	83.56
285.132	77.56
285.364	89.56
285.595	86.56
285.826	78.56
286.057	82.56
286.288	75.56
286.52	83.56
286.751	74.56
286.982	86.56
287.213	84.56
287.444	81.56
287.675	87.56
287.906	90.56
288.138	98.56
288.369	80.56
288.6	71.56
288.831	77.56
289.062	84.56
289.293	80.56
289.524	72.56
289.755	76.56
289.986	78.56
290.217	92.56
290.448	79.56
290.679	81.56
290.91	80.56
291.141	77.56
291.371	91.56
291.602	81.56
291.833	76.56
292.064	72.56
292.295	78.56
292.526	70.56
292.757	70.56
292.987	90.56
293.218	70.56
293.449	96.56
293.68	84.56
293.91	83.56
294.141	80.56
294.372	98.56
294.603	104.56
294.833	92.56
295.064	95.56
295.295	81.56
295.525	84.56
295.756	87.56
295.987	84.56
296.217	78.56
296.448	98.56
296.679	77.56
296.909	87.56
297.14	106.56
297.37	99.56
297.601	95.56
297.831	77.56
298.062	84.56
298.292	80.56
298.523	80.56
298.753	87.56
298.984	83.56
299.214	82.56
299.445	73.56
299.675	79.56
299.905	94.56
300.136	70.56
300.366	75.56
300.597	87.56
300.827	84.56
301.057	79.56
301.288	75.56
301.518	93.56
301.748	97.56
301.979	75.56
302.209	76.56
302.439	82.56
302.669	85.56
302.9	89.56
303.13	86.56
303.36	94.56
303.59	88.56
303.82	89.56
304.051	82.56
304.281	87.56
304.511	83.56
304.741	61.56
304.971	92.56
305.201	92.56
305.431	89.56
305.661	93.56
305.891	91.56
306.121	97.56
306.352	86.56
306.582	95.56
306.812	92.56
307.042	71.56
307.272	70.56
307.502	78.56
307.731	85.56
307.961	94.56
308.191	87.56
308.421	79.56
308.651	85.56
308.881	73.56
309.111	86.56
309.341	85.56
309.571	95.56
309.8	78.56
310.03	94.56
310.26	89.56
310.49	95.56
310.72	95.56
310.949	81.56
311.179	86.56
311.409	67.56
311.639	79.56
311.868	84.56
312.098	86.56
312.328	89.56
312.557	84.56
312.787	87.56
313.017	92.56
313.246	90.56
313.476	81.56
313.706	87.56
313.935	84.56
314.165	66.56
314.394	79.56
314.624	90.56
314.853	87.56
315.083	79.56
315.312	62.56
315.542	91.56
315.771	95.56
316.001	86.56
316.23	82.56
316.46	83.56
316.689	93.56
316.919	70.56
317.148	82.56
317.377	94.56
317.607	93.56
317.836	78.56
318.065	83.56
318.295	94.56
318.524	86.56
318.753	77.56
318.983	85.56
319.212	81.56
319.441	78.56
319.67	83.56
319.9	82.56
320.129	81.56
320.358	89.56
320.587	84.56
320.816	95.56
321.046	85.56
321.275	81.56
321.504	79.56
321.733	82.56
321.962	85.56
322.191	95.56
322.42	92.56
322.649	87.56
322.878	89.56
323.108	73.56
323.337	87.56
323.566	77.56
323.795	85.56
324.024	82.56
324.253	80.56
324.482	71.56
324.71	73.56
324.939	87.56
325.168	101.56
325.397	87.56
325.626	83.56
325.855	76.56
326.084	89.56
326.313	93.56
326.542	89.56
326.77	90.56
326.999	91.56
327.228	77.56
327.457	81.56
327.686	87.56
327.914	90.56
328.143	90.56
328.372	84.56
328.6	76.56
328.829	91.56
329.058	89.56
329.287	73.56
329.515	85.56
329.744	86.56
329.972	85.56
330.201	86.56
330.43	96.56
330.658	82.56
330.887	86.56
331.115	91.56
331.344	98.56
331.572	78.56
331.801	83.56
332.03	90.56
332.258	84.56
332.486	74.56
332.715	85.56
332.943	73.56
333.172	86.56
333.4	80.56
333.629	82.56
333.857	87.56
334.085	91.56
334.314	86.56
334.542	93.56
334.771	84.56
334.999	79.56
335.227	85.56
335.455	87.56
335.684	75.56
335.912	77.56
336.14	80.56
336.369	97.56
336.597	81.56
336.825	77.56
337.053	85.56
337.281	89.56
337.51	82.56
337.738	89.56
337.966	82.56
338.194	71.56
338.422	88.56
338.65	94.56
338.878	83.56
339.106	91.56
339.334	82.56
339.562	92.56
339.79	78.56
340.018	86.56
340.246	83.56
340.474	83.56
340.702	93.56
340.93	87.56
341.158	97.56
341.386	96.56
341.614	83.56
341.842	90.56
342.07	85.56
342.298	91.56
342.526	88.56
342.754	89.56
342.981	87.56
343.209	73.56
343.437	85.56
343.665	84.56
343.893	77.56
344.12	79.56
344.348	92.56
344.576	96.56
344.804	87.56
345.031	83.56
345.259	93.56
345.487	95.56
345.714	74.56
345.942	79.56
346.17	73.56
346.397	76.56
346.625	80.56
346.853	75.56
347.08	83.56
347.308	83.56
347.535	89.56
347.763	74.56
347.99	80.56
348.218	82.56
348.445	92.56
348.673	80.56
348.9	78.56
349.128	80.56
349.355	84.56
349.583	91.56
349.81	87.56
350.037	75.56
350.265	78.56
350.492	79.56
350.72	82.56
350.947	70.56
351.174	91.56
351.402	93.56
351.629	87.56
351.856	75.56
352.083	97.56
352.311	81.56
352.538	85.56
352.765	87.56
352.992	73.56
353.22	86.56
353.447	71.56
353.674	83.56
353.901	87.56
354.128	91.56
354.355	79.56
354.583	93.56
354.81	89.56
355.037	72.56
355.264	86.56
355.491	77.56
355.718	84.56
355.945	103.56
356.172	94.56
356.399	86.56
356.626	82.56
356.853	82.56
357.08	82.56
357.307	94.56
357.534	86.56
357.761	98.56
357.988	93.56
358.215	78.56
358.441	94.56
358.668	94.56
358.895	91.56
359.122	70.56
359.349	91.56
359.576	85.56
359.802	60.56
360.029	78.56
360.256	91.56
360.483	83.56
360.709	85.56
360.936	82.56
361.163	85.56
361.39	86.56
361.616	78.56
361.843	82.56
362.07	93.56
362.296	88.56
362.523	79.56
362.749	81.56
362.976	78.56
363.203	79.56
363.429	75.56
363.656	79.56
363.882	77.56
364.109	76.56
364.335	94.56
364.562	83.56
364.788	82.56
365.015	107.56
365.241	96.56
365.468	76.56
365.694	65.56
365.92	75.56
366.147	85.56
366.373	90.56
366.599	90.56
366.826	103.56
367.052	90.56
367.278	85.56
367.505	83.56
367.731	100.56
367.957	85.56
368.184	82.56
368.41	107.56
368.636	89.56
368.862	86.56
369.089	86.56
369.315	101.56
369.541	85.56
369.767	92.56
369.993	91.56
370.219	92.56
370.445	91.56
370.672	83.56
370.898	91.56
371.124	103.56
371.35	87.56
371.576	85.56
371.802	85.56
372.028	87.56
372.254	106.56
372.48	83.56
372.706	74.56
372.932	93.56
373.158	97.56
373.384	109.56
373.61	90.56
373.835	91.56
374.061	84.56
374.287	95.56
374.513	99.56
374.739	91.56
374.965	98.56
375.191	86.56
375.416	90.56
375.642	86.56
375.868	97.56
376.094	94.56
376.319	91.56
376.545	81.56
376.771	82.56
376.997	83.56
377.222	82.56
377.448	86.56
377.674	97.56
377.899	101.56
378.125	97.56
378.35	105.56
378.576	108.56
378.802	94.56
379.027	85.56
379.253	86.56
379.478	89.56
379.704	91.56
379.929	101.56
380.155	98.56
380.38	110.56
380.606	106.56
380.831	93.56
381.057	92.56
381.282	90.56
381.507	84.56
381.733	97.56
381.958	85.56
382.184	102.56
382.409	98.56
382.634	91.56
382.86	90.56
383.085	106.56
383.31	113.56
383.535	103.56
383.761	91.56
383.986	97.56
384.211	97.56
384.436	91.56
384.662	72.56
384.887	114.56
385.112	103.56
385.337	97.56
385.562	86.56
385.787	94.56
386.013	91.56
386.238	99.56
386.463	99.56
386.688	106.56
386.913	86.56
387.138	96.56
387.363	101.56
387.588	96.56
387.813	105.56
388.038	94.56
388.263	94.56
388.488	99.56
388.713	97.56
388.938	109.56
389.163	110.56
389.387	115.56
389.612	101.56
389.837	105.56
390.062	96.56
390.287	110.56
390.512	95.56
390.736	86.56
390.961	101.56
391.186	97.56
391.411	110.56
391.636	88.56
391.86	108.56
392.085	110.56
392.31	102.56
392.534	93.56
392.759	112.56
392.984	105.56
393.208	109.56
393.433	86.56
393.658	105.56
393.882	109.56
394.107	106.56
394.331	98.56
394.556	106.56
394.78	101.56
395.005	95.56
395.229	101.56
395.454	104.56
395.678	108.56
395.903	106.56
396.127	103.56
396.352	108.56
396.576	110.56
396.801	122.56
397.025	114.56
397.249	109.56
397.474	108.56
397.698	109.56
397.922	95.56
398.147	105.56
398.371	99.56
398.595	99.56
398.82	108.56
399.044	109.56
399.268	125.56
399.492	108.56
399.717	107.56
399.941	108.56
400.165	122.56
400.389	107.56
400.613	114.56
400.837	103.56
401.062	111.56
401.286	116.56
401.51	123.56
401.734	115.56
401.958	119.56
402.182	102.56
402.406	104.56
402.63	97.56
402.854	103.56
403.078	123.56
403.302	122.56
403.526	102.56
403.75	106.56
403.974	120.56
404.198	120.56
404.422	108.56
404.645	110.56
404.869	125.56
405.093	125.56
405.317	106.56
405.541	114.56
405.765	101.56
405.988	119.56
406.212	121.56
406.436	125.56
406.66	123.56
406.883	89.56
407.107	122.56
407.331	113.56
407.555	124.56
407.778	121.56
408.002	115.56
408.226	127.56
408.449	117.56
408.673	102.56
408.896	119.56
409.12	113.56
409.344	118.56
409.567	138.56
409.791	119.56
410.014	119.56
410.238	110.56
410.461	113.56
410.685	124.56
410.908	126.56
411.132	117.56
411.355	105.56
411.578	116.56
411.802	118.56
412.025	126.56
412.249	100.56
412.472	125.56
412.695	110.56
412.919	120.56
413.142	123.56
413.365	116.56
413.589	110.56
413.812	121.56
414.035	105.56
414.258	124.56
414.482	120.56
414.705	115.56
414.928	125.56
415.151	121.56
415.374	117.56
415.597	115.56
415.821	115.56
416.044	124.56
416.267	118.56
416.49	132.56
416.713	117.56
416.936	133.56
417.159	127.56
417.382	122.56
417.605	123.56
417.828	125.56
418.051	110.56
418.274	136.56
418.497	136.56
418.72	116.56
418.943	118.56
419.166	121.56
419.389	133.56
419.611	124.56
419.834	133.56
420.057	123.56
420.28	125.56
420.503	124.56
420.726	128.56
420.948	132.56
421.171	123.56
421.394	130.56
421.617	136.56
421.839	140.56
422.062	144.56
422.285	127.56
422.507	126.56
422.73	113.56
422.953	136.56
423.175	120.56
423.398	123.56
423.621	123.56
423.843	125.56
424.066	125.56
424.288	138.56
424.511	146.56
424.733	143.56
424.956	134.56
425.178	143.56
425.401	137.56
425.623	150.56
425.846	125.56
426.068	118.56
426.291	114.56
426.513	130.56
426.735	126.56
426.958	120.56
427.18	110.56
427.402	121.56
427.625	121.56
427.847	124.56
428.069	119.56
428.292	127.56
428.514	127.56
428.736	123.56
428.958	117.56
429.181	120.56
429.403	127.56
429.625	127.56
429.847	133.56
430.069	118.56
430.292	123.56
430.514	125.56
430.736	131.56
430.958	131.56
431.18	126.56
431.402	116.56
431.624	123.56
431.846	107.56
432.068	97.56
432.29	95.56
432.512	108.56
432.734	125.56
432.956	128.56
433.178	133.56
433.4	135.56
433.622	126.56
433.844	115.56
434.066	129.56
434.287	103.56
434.509	88.56
434.731	115.56
434.953	116.56
435.175	109.56
435.397	115.56
435.618	107.56
435.84	116.56
436.062	105.56
436.284	118.56
436.505	109.56
436.727	137.56
436.949	142.56
437.17	126.56
437.392	126.56
437.614	122.56
437.835	97.56
438.057	101.56
438.278	105.56
438.5	135.56
438.721	139.56
438.943	138.56
439.165	140.56
439.386	135.56
439.608	131.56
439.829	147.56
440.05	151.56
440.272	159.56
440.493	146.56
440.715	142.56
440.936	142.56
441.158	149.56
441.379	151.56
441.6	140.56
441.822	126.56
442.043	130.56
442.264	138.56
442.486	124.56
442.707	138.56
442.928	143.56
443.149	141.56
443.371	143.56
443.592	120.56
443.813	134.56
444.034	133.56
444.255	129.56
444.476	126.56
444.698	138.56
444.919	154.56
445.14	235.56
445.361	194.56
445.582	146.56
445.803	146.56
446.024	145.56
446.245	133.56
446.466	150.56
446.687	129.56
446.908	153.56
447.129	157.56
447.35	143.56
447.571	142.56
447.792	144.56
448.013	139.56
448.234	141.56
448.455	132.56
448.675	132.56
448.896	134.56
449.117	139.56
449.338	143.56
449.559	124.56
449.779	145.56
450	139.56
450.221	122.56
450.442	145.56
450.662	143.56
450.883	133.56
451.104	125.56
451.324	123.56
451.545	133.56
451.766	142.56
451.986	133.56
452.207	124.56
452.428	125.56
452.648	113.56
452.869	122.56
453.089	109.56
453.31	114.56
453.53	120.56
453.751	105.56
453.971	105.56
454.192	110.56
454.412	114.56
454.633	105.56
454.853	123.56
455.073	123.56
455.294	112.56
455.514	111.56
455.734	141.56
455.955	124.56
456.175	116.56
456.395	109.56
456.616	101.56
456.836	102.56
457.056	102.56
457.276	102.56
457.497	107.56
457.717	106.56
457.937	108.56
458.157	106.56
458.377	101.56
458.598	103.56
458.818	112.56
459.038	85.56
459.258	98.56
459.478	85.56
459.698	83.56
459.918	78.56
460.138	105.56
460.358	113.56
460.578	109.56
460.798	103.56
461.018	113.56
461.238	113.56
461.458	102.56
461.678	111.56
461.898	110.56
462.118	115.56
462.338	113.56
462.558	106.56
462.777	110.56
462.997	113.56
463.217	95.56
463.437	103.56
463.657	90.56
463.876	100.56
464.096	91.56
464.316	100.56
464.536	115.56
464.755	107.56
464.975	117.56
465.195	109.56
465.414	119.56
465.634	115.56
465.854	108.56
466.073	115.56
466.293	127.56
466.512	127.56
466.732	124.56
466.951	137.56
467.171	137.56
467.391	131.56
467.61	135.56
467.829	119.56
468.049	119.56
468.268	125.56
468.488	141.56
468.707	130.56
468.927	129.56
469.146	135.56
469.365	147.56
469.585	134.56
469.804	148.56
470.023	126.56
470.243	142.56
470.462	136.56
470.681	133.56
470.901	135.56
471.12	138.56
471.339	137.56
471.558	137.56
471.777	137.56
471.997	144.56
472.216	129.56
472.435	115.56
472.654	104.56
472.873	88.56
473.092	125.56
473.311	120.56
473.53	127.56
473.749	124.56
473.968	141.56
474.187	119.56
474.406	124.56
474.625	129.56
474.844	135.56
475.063	121.56
475.282	129.56
475.501	124.56
475.72	114.56
475.939	116.56
476.158	106.56
476.377	131.56
476.596	123.56
476.814	124.56
477.033	110.56
477.252	102.56
477.471	135.56
477.69	121.56
477.908	148.56
478.127	138.56
478.346	129.56
478.564	135.56
478.783	131.56
479.002	158.56
479.22	124.56
479.439	127.56
479.658	120.56
479.876	119.56
480.095	100.56
480.313	104.56
480.532	125.56
480.751	95.56
480.969	81.56
481.188	87.56
481.406	86.56
481.624	76.56
481.843	89.56
482.061	96.56
482.28	104.56
482.498	120.56
482.717	109.56
482.935	133.56
483.153	143.56
483.372	149.56
483.59	144.56
483.808	149.56
484.027	139.56
484.245	156.56
484.463	149.56
484.681	159.56
484.9	149.56
485.118	141.56
485.336	125.56
485.554	109.56
485.772	109.56
485.99	87.56
486.209	125.56
486.427	112.56
486.645	122.56
486.863	127.56
487.081	132.56
487.299	126.56
487.517	140.56
487.735	164.56
487.953	193.56
488.171	167.56
488.389	171.56
488.607	163.56
488.825	140.56
489.043	120.56
489.261	115.56
489.479	136.56
489.696	135.56
489.914	143.56
490.132	144.56
490.35	138.56
490.568	148.56
490.786	165.56
491.003	187.56
491.221	157.56
491.439	163.56
491.657	179.56
491.874	202.56
492.092	207.56
492.31	245.56
492.527	220.56
492.745	203.56
492.963	186.56
493.18	178.56
493.398	186.56
493.615	177.56
493.833	161.56
494.05	161.56
494.268	171.56
494.485	165.56
494.703	163.56
494.92	175.56
495.138	163.56
495.355	161.56
495.573	165.56
495.79	165.56
496.008	173.56
496.225	171.56
496.442	154.56
496.66	169.56
496.877	163.56
497.094	173.56
497.312	171.56
497.529	153.56
497.746	144.56
497.963	143.56
498.181	139.56
498.398	123.56
498.615	124.56
498.832	106.56
499.049	107.56
499.267	131.56
499.484	125.56
499.701	124.56
499.918	134.56
500.135	137.56
500.352	124.56
500.569	141.56
500.786	139.56
501.003	127.56
501.22	145.56
501.437	136.56
501.654	131.56
501.871	133.56
502.088	129.56
502.305	132.56
502.522	121.56
502.739	125.56
502.956	135.56
503.172	129.56
503.389	119.56
503.606	125.56
503.823	114.56
504.04	123.56
504.256	118.56
504.473	125.56
504.69	119.56
504.907	129.56
505.123	130.56
505.34	119.56
505.557	133.56
505.773	108.56
505.99	102.56
506.207	117.56
506.423	111.56
506.64	113.56
506.856	127.56
507.073	118.56
507.289	123.56
507.506	124.56
507.722	119.56
507.939	125.56
508.155	118.56
508.372	110.56
508.588	125.56
508.805	119.56
509.021	107.56
509.238	95.56
509.454	113.56
509.67	95.56
509.887	109.56
510.103	101.56
510.319	86.56
510.536	106.56
510.752	84.56
510.968	83.56
511.184	84.56
511.401	78.56
511.617	82.56
511.833	89.56
