Data from Location1.07152019.Energy5.Lamp.07192019.3%Agarose_HRD10591_14-31-30-015.txt Node
Date: Fri Jul 19 14:31:30 EDT 2019
User: cochatt
Spectrometer: HR+D1059
Trigger mode: 1
Integration Time (sec): 1.000000E-1
Scans to average: 1
Electric dark correction enabled: true
Nonlinearity correction enabled: false
Boxcar width: 0
XAxis mode: Wavelengths
Number of Pixels in Spectrum: 2048
>>>>>Begin Spectral Data<<<<<
223.165	-19.19
223.4	-19.19
223.635	-19.19
223.869	-20.19
224.104	-14.19
224.338	-11.19
224.573	-17.19
224.808	-13.19
225.042	-20.19
225.277	-1.19
225.511	-8.19
225.746	-3.19
225.98	11.81
226.215	8.81
226.449	31.81
226.683	25.81
226.918	17.81
227.152	31.81
227.387	43.81
227.621	41.81
227.856	41.81
228.09	55.81
228.324	39.81
228.559	52.81
228.793	57.81
229.027	74.81
229.262	59.81
229.496	59.81
229.73	54.81
229.964	61.81
230.199	57.81
230.433	72.81
230.667	70.81
230.901	75.81
231.136	71.81
231.37	79.81
231.604	75.81
231.838	78.81
232.072	78.81
232.306	75.81
232.541	73.81
232.775	70.81
233.009	64.81
233.243	84.81
233.477	75.81
233.711	74.81
233.945	67.81
234.179	72.81
234.413	86.81
234.647	81.81
234.881	70.81
235.115	79.81
235.349	72.81
235.583	67.81
235.817	70.81
236.051	83.81
236.285	70.81
236.519	72.81
236.753	72.81
236.987	84.81
237.221	71.81
237.455	68.81
237.689	80.81
237.922	78.81
238.156	78.81
238.39	55.81
238.624	67.81
238.858	69.81
239.091	75.81
239.325	75.81
239.559	84.81
239.793	63.81
240.027	69.81
240.26	71.81
240.494	86.81
240.728	81.81
240.961	66.81
241.195	78.81
241.429	81.81
241.662	77.81
241.896	72.81
242.13	75.81
242.363	59.81
242.597	85.81
242.83	67.81
243.064	87.81
243.298	79.81
243.531	80.81
243.765	69.81
243.998	66.81
244.232	81.81
244.465	73.81
244.699	78.81
244.932	72.81
245.166	70.81
245.399	87.81
245.633	82.81
245.866	69.81
246.099	76.81
246.333	77.81
246.566	86.81
246.8	62.81
247.033	69.81
247.266	72.81
247.5	77.81
247.733	78.81
247.966	72.81
248.2	80.81
248.433	73.81
248.666	62.81
248.899	68.81
249.133	74.81
249.366	81.81
249.599	82.81
249.832	80.81
250.066	84.81
250.299	65.81
250.532	80.81
250.765	75.81
250.998	84.81
251.231	89.81
251.465	72.81
251.698	75.81
251.931	68.81
252.164	74.81
252.397	77.81
252.63	83.81
252.863	83.81
253.096	78.81
253.329	73.81
253.562	55.81
253.795	78.81
254.028	74.81
254.261	78.81
254.494	66.81
254.727	86.81
254.96	72.81
255.193	85.81
255.426	76.81
255.659	75.81
255.892	80.81
256.124	85.81
256.357	80.81
256.59	85.81
256.823	78.81
257.056	79.81
257.289	80.81
257.521	67.81
257.754	88.81
257.987	91.81
258.22	79.81
258.452	79.81
258.685	70.81
258.918	86.81
259.151	83.81
259.383	71.81
259.616	72.81
259.849	73.81
260.081	66.81
260.314	81.81
260.547	85.81
260.779	82.81
261.012	71.81
261.244	73.81
261.477	75.81
261.71	72.81
261.942	76.81
262.175	74.81
262.407	73.81
262.64	76.81
262.872	80.81
263.105	78.81
263.337	84.81
263.57	72.81
263.802	101.81
264.035	97.81
264.267	75.81
264.499	83.81
264.732	80.81
264.964	81.81
265.197	81.81
265.429	78.81
265.661	71.81
265.894	82.81
266.126	80.81
266.358	78.81
266.591	70.81
266.823	80.81
267.055	80.81
267.287	65.81
267.52	81.81
267.752	81.81
267.984	77.81
268.216	80.81
268.448	74.81
268.681	85.81
268.913	65.81
269.145	58.81
269.377	79.81
269.609	75.81
269.841	79.81
270.073	87.81
270.306	61.81
270.538	91.81
270.77	93.81
271.002	87.81
271.234	81.81
271.466	69.81
271.698	82.81
271.93	95.81
272.162	82.81
272.394	69.81
272.626	86.81
272.858	86.81
273.09	81.81
273.322	75.81
273.553	66.81
273.785	81.81
274.017	82.81
274.249	78.81
274.481	78.81
274.713	83.81
274.945	73.81
275.176	75.81
275.408	76.81
275.64	84.81
275.872	80.81
276.104	87.81
276.335	86.81
276.567	86.81
276.799	79.81
277.031	73.81
277.262	81.81
277.494	87.81
277.726	83.81
277.957	76.81
278.189	70.81
278.421	71.81
278.652	76.81
278.884	73.81
279.115	76.81
279.347	85.81
279.579	79.81
279.81	72.81
280.042	76.81
280.273	86.81
280.505	84.81
280.736	96.81
280.968	77.81
281.199	76.81
281.431	82.81
281.662	80.81
281.894	96.81
282.125	80.81
282.356	66.81
282.588	75.81
282.819	79.81
283.051	96.81
283.282	86.81
283.513	69.81
283.745	87.81
283.976	80.81
284.207	79.81
284.439	71.81
284.67	85.81
284.901	86.81
285.132	79.81
285.364	68.81
285.595	83.81
285.826	77.81
286.057	78.81
286.288	85.81
286.52	85.81
286.751	94.81
286.982	80.81
287.213	91.81
287.444	86.81
287.675	66.81
287.906	95.81
288.138	85.81
288.369	72.81
288.6	72.81
288.831	89.81
289.062	93.81
289.293	85.81
289.524	90.81
289.755	87.81
289.986	78.81
290.217	78.81
290.448	80.81
290.679	70.81
290.91	86.81
291.141	86.81
291.371	75.81
291.602	82.81
291.833	80.81
292.064	94.81
292.295	73.81
292.526	79.81
292.757	85.81
292.987	87.81
293.218	87.81
293.449	73.81
293.68	79.81
293.91	89.81
294.141	61.81
294.372	80.81
294.603	86.81
294.833	80.81
295.064	81.81
295.295	72.81
295.525	87.81
295.756	81.81
295.987	84.81
296.217	77.81
296.448	80.81
296.679	74.81
296.909	91.81
297.14	82.81
297.37	82.81
297.601	70.81
297.831	81.81
298.062	80.81
298.292	81.81
298.523	86.81
298.753	74.81
298.984	85.81
299.214	83.81
299.445	84.81
299.675	70.81
299.905	86.81
300.136	90.81
300.366	86.81
300.597	84.81
300.827	86.81
301.057	75.81
301.288	83.81
301.518	75.81
301.748	77.81
301.979	73.81
302.209	82.81
302.439	74.81
302.669	76.81
302.9	91.81
303.13	82.81
303.36	86.81
303.59	80.81
303.82	76.81
304.051	80.81
304.281	78.81
304.511	80.81
304.741	90.81
304.971	79.81
305.201	89.81
305.431	68.81
305.661	79.81
305.891	89.81
306.121	81.81
306.352	70.81
306.582	94.81
306.812	80.81
307.042	81.81
307.272	81.81
307.502	80.81
307.731	69.81
307.961	88.81
308.191	76.81
308.421	81.81
308.651	85.81
308.881	82.81
309.111	90.81
309.341	86.81
309.571	87.81
309.8	82.81
310.03	85.81
310.26	74.81
310.49	87.81
310.72	92.81
310.949	78.81
311.179	68.81
311.409	84.81
311.639	74.81
311.868	81.81
312.098	83.81
312.328	84.81
312.557	84.81
312.787	84.81
313.017	80.81
313.246	100.81
313.476	76.81
313.706	95.81
313.935	88.81
314.165	73.81
314.394	82.81
314.624	86.81
314.853	81.81
315.083	91.81
315.312	83.81
315.542	78.81
315.771	93.81
316.001	85.81
316.23	89.81
316.46	81.81
316.689	89.81
316.919	86.81
317.148	89.81
317.377	72.81
317.607	83.81
317.836	80.81
318.065	73.81
318.295	80.81
318.524	86.81
318.753	89.81
318.983	82.81
319.212	87.81
319.441	81.81
319.67	82.81
319.9	69.81
320.129	74.81
320.358	83.81
320.587	74.81
320.816	74.81
321.046	85.81
321.275	90.81
321.504	92.81
321.733	87.81
321.962	76.81
322.191	70.81
322.42	65.81
322.649	82.81
322.878	82.81
323.108	95.81
323.337	76.81
323.566	82.81
323.795	88.81
324.024	76.81
324.253	86.81
324.482	86.81
324.71	71.81
324.939	87.81
325.168	75.81
325.397	80.81
325.626	77.81
325.855	62.81
326.084	74.81
326.313	85.81
326.542	81.81
326.77	85.81
326.999	88.81
327.228	73.81
327.457	77.81
327.686	71.81
327.914	86.81
328.143	96.81
328.372	83.81
328.6	79.81
328.829	86.81
329.058	85.81
329.287	69.81
329.515	91.81
329.744	83.81
329.972	76.81
330.201	91.81
330.43	79.81
330.658	84.81
330.887	81.81
331.115	81.81
331.344	73.81
331.572	74.81
331.801	88.81
332.03	75.81
332.258	76.81
332.486	61.81
332.715	77.81
332.943	89.81
333.172	78.81
333.4	81.81
333.629	86.81
333.857	75.81
334.085	79.81
334.314	85.81
334.542	81.81
334.771	80.81
334.999	78.81
335.227	86.81
335.455	74.81
335.684	86.81
335.912	80.81
336.14	94.81
336.369	83.81
336.597	94.81
336.825	67.81
337.053	77.81
337.281	79.81
337.51	79.81
337.738	80.81
337.966	82.81
338.194	89.81
338.422	70.81
338.65	75.81
338.878	76.81
339.106	75.81
339.334	87.81
339.562	83.81
339.79	87.81
340.018	84.81
340.246	77.81
340.474	80.81
340.702	80.81
340.93	70.81
341.158	69.81
341.386	82.81
341.614	81.81
341.842	82.81
342.07	80.81
342.298	80.81
342.526	83.81
342.754	75.81
342.981	69.81
343.209	82.81
343.437	83.81
343.665	86.81
343.893	88.81
344.12	89.81
344.348	88.81
344.576	84.81
344.804	82.81
345.031	101.81
345.259	80.81
345.487	98.81
345.714	75.81
345.942	85.81
346.17	85.81
346.397	76.81
346.625	87.81
346.853	94.81
347.08	81.81
347.308	82.81
347.535	74.81
347.763	74.81
347.99	83.81
348.218	76.81
348.445	78.81
348.673	80.81
348.9	98.81
349.128	88.81
349.355	73.81
349.583	75.81
349.81	93.81
350.037	97.81
350.265	82.81
350.492	75.81
350.72	75.81
350.947	82.81
351.174	99.81
351.402	75.81
351.629	83.81
351.856	83.81
352.083	72.81
352.311	77.81
352.538	75.81
352.765	82.81
352.992	68.81
353.22	70.81
353.447	74.81
353.674	69.81
353.901	73.81
354.128	65.81
354.355	83.81
354.583	84.81
354.81	72.81
355.037	80.81
355.264	79.81
355.491	94.81
355.718	77.81
355.945	70.81
356.172	70.81
356.399	73.81
356.626	68.81
356.853	90.81
357.08	81.81
357.307	82.81
357.534	88.81
357.761	78.81
357.988	72.81
358.215	88.81
358.441	84.81
358.668	63.81
358.895	81.81
359.122	79.81
359.349	82.81
359.576	79.81
359.802	80.81
360.029	71.81
360.256	83.81
360.483	87.81
360.709	94.81
360.936	72.81
361.163	75.81
361.39	88.81
361.616	93.81
361.843	79.81
362.07	82.81
362.296	81.81
362.523	66.81
362.749	75.81
362.976	72.81
363.203	79.81
363.429	88.81
363.656	80.81
363.882	73.81
364.109	91.81
364.335	79.81
364.562	84.81
364.788	78.81
365.015	86.81
365.241	78.81
365.468	83.81
365.694	79.81
365.92	75.81
366.147	65.81
366.373	82.81
366.599	73.81
366.826	78.81
367.052	85.81
367.278	78.81
367.505	81.81
367.731	74.81
367.957	85.81
368.184	80.81
368.41	88.81
368.636	91.81
368.862	93.81
369.089	85.81
369.315	85.81
369.541	82.81
369.767	84.81
369.993	97.81
370.219	95.81
370.445	89.81
370.672	88.81
370.898	72.81
371.124	100.81
371.35	91.81
371.576	78.81
371.802	79.81
372.028	99.81
372.254	88.81
372.48	88.81
372.706	91.81
372.932	78.81
373.158	96.81
373.384	99.81
373.61	86.81
373.835	80.81
374.061	85.81
374.287	78.81
374.513	83.81
374.739	79.81
374.965	76.81
375.191	99.81
375.416	83.81
375.642	104.81
375.868	85.81
376.094	87.81
376.319	87.81
376.545	95.81
376.771	94.81
376.997	88.81
377.222	98.81
377.448	86.81
377.674	89.81
377.899	88.81
378.125	94.81
378.35	97.81
378.576	80.81
378.802	99.81
379.027	92.81
379.253	91.81
379.478	88.81
379.704	106.81
379.929	100.81
380.155	91.81
380.38	79.81
380.606	90.81
380.831	96.81
381.057	98.81
381.282	102.81
381.507	86.81
381.733	82.81
381.958	93.81
382.184	80.81
382.409	99.81
382.634	102.81
382.86	91.81
383.085	101.81
383.31	90.81
383.535	94.81
383.761	84.81
383.986	84.81
384.211	86.81
384.436	96.81
384.662	89.81
384.887	85.81
385.112	82.81
385.337	104.81
385.562	86.81
385.787	97.81
386.013	92.81
386.238	106.81
386.463	93.81
386.688	93.81
386.913	103.81
387.138	90.81
387.363	84.81
387.588	111.81
387.813	93.81
388.038	96.81
388.263	88.81
388.488	89.81
388.713	104.81
388.938	96.81
389.163	90.81
389.387	94.81
389.612	101.81
389.837	90.81
390.062	95.81
390.287	102.81
390.512	89.81
390.736	97.81
390.961	103.81
391.186	87.81
391.411	96.81
391.636	95.81
391.86	101.81
392.085	103.81
392.31	93.81
392.534	86.81
392.759	114.81
392.984	103.81
393.208	103.81
393.433	98.81
393.658	95.81
393.882	95.81
394.107	97.81
394.331	90.81
394.556	99.81
394.78	105.81
395.005	91.81
395.229	102.81
395.454	108.81
395.678	105.81
395.903	114.81
396.127	109.81
396.352	119.81
396.576	111.81
396.801	95.81
397.025	105.81
397.249	105.81
397.474	112.81
397.698	107.81
397.922	106.81
398.147	112.81
398.371	104.81
398.595	104.81
398.82	94.81
399.044	100.81
399.268	109.81
399.492	113.81
399.717	110.81
399.941	118.81
400.165	106.81
400.389	99.81
400.613	109.81
400.837	106.81
401.062	105.81
401.286	99.81
401.51	111.81
401.734	103.81
401.958	110.81
402.182	104.81
402.406	97.81
402.63	98.81
402.854	123.81
403.078	111.81
403.302	118.81
403.526	112.81
403.75	106.81
403.974	117.81
404.198	122.81
404.422	113.81
404.645	114.81
404.869	95.81
405.093	113.81
405.317	115.81
405.541	88.81
405.765	111.81
405.988	111.81
406.212	120.81
406.436	113.81
406.66	126.81
406.883	119.81
407.107	116.81
407.331	121.81
407.555	99.81
407.778	109.81
408.002	121.81
408.226	111.81
408.449	115.81
408.673	119.81
408.896	112.81
409.12	91.81
409.344	105.81
409.567	93.81
409.791	110.81
410.014	117.81
410.238	109.81
410.461	113.81
410.685	114.81
410.908	125.81
411.132	103.81
411.355	107.81
411.578	120.81
411.802	124.81
412.025	106.81
412.249	105.81
412.472	121.81
412.695	102.81
412.919	114.81
413.142	111.81
413.365	106.81
413.589	124.81
413.812	120.81
414.035	124.81
414.258	109.81
414.482	120.81
414.705	118.81
414.928	125.81
415.151	122.81
415.374	107.81
415.597	111.81
415.821	117.81
416.044	122.81
416.267	133.81
416.49	112.81
416.713	98.81
416.936	123.81
417.159	125.81
417.382	115.81
417.605	125.81
417.828	119.81
418.051	109.81
418.274	132.81
418.497	117.81
418.72	125.81
418.943	127.81
419.166	127.81
419.389	132.81
419.611	135.81
419.834	127.81
420.057	137.81
420.28	120.81
420.503	130.81
420.726	134.81
420.948	129.81
421.171	127.81
421.394	125.81
421.617	122.81
421.839	128.81
422.062	132.81
422.285	118.81
422.507	129.81
422.73	111.81
422.953	121.81
423.175	123.81
423.398	120.81
423.621	119.81
423.843	120.81
424.066	133.81
424.288	143.81
424.511	137.81
424.733	153.81
424.956	127.81
425.178	134.81
425.401	117.81
425.623	125.81
425.846	107.81
426.068	143.81
426.291	122.81
426.513	121.81
426.735	122.81
426.958	138.81
427.18	133.81
427.402	122.81
427.625	114.81
427.847	126.81
428.069	123.81
428.292	126.81
428.514	120.81
428.736	120.81
428.958	127.81
429.181	125.81
429.403	126.81
429.625	121.81
429.847	127.81
430.069	121.81
430.292	135.81
430.514	127.81
430.736	132.81
430.958	118.81
431.18	113.81
431.402	139.81
431.624	115.81
431.846	102.81
432.068	97.81
432.29	91.81
432.512	106.81
432.734	126.81
432.956	119.81
433.178	142.81
433.4	119.81
433.622	131.81
433.844	127.81
434.066	114.81
434.287	106.81
434.509	87.81
434.731	86.81
434.953	114.81
435.175	125.81
435.397	126.81
435.618	123.81
435.84	115.81
436.062	102.81
436.284	127.81
436.505	117.81
436.727	130.81
436.949	118.81
437.17	121.81
437.392	121.81
437.614	130.81
437.835	97.81
438.057	95.81
438.278	114.81
438.5	125.81
438.721	125.81
438.943	137.81
439.165	128.81
439.386	134.81
439.608	131.81
439.829	145.81
440.05	137.81
440.272	140.81
440.493	127.81
440.715	136.81
440.936	134.81
441.158	136.81
441.379	127.81
441.6	138.81
441.822	143.81
442.043	156.81
442.264	130.81
442.486	129.81
442.707	132.81
442.928	139.81
443.149	148.81
443.371	121.81
443.592	145.81
443.813	114.81
444.034	121.81
444.255	125.81
444.476	138.81
444.698	129.81
444.919	136.81
445.14	249.81
445.361	207.81
445.582	141.81
445.803	143.81
446.024	156.81
446.245	141.81
446.466	137.81
446.687	141.81
446.908	166.81
447.129	161.81
447.35	153.81
447.571	135.81
447.792	134.81
448.013	127.81
448.234	146.81
448.455	135.81
448.675	133.81
448.896	137.81
449.117	134.81
449.338	116.81
449.559	144.81
449.779	125.81
450	137.81
450.221	126.81
450.442	117.81
450.662	124.81
450.883	122.81
451.104	123.81
451.324	126.81
451.545	132.81
451.766	121.81
451.986	125.81
452.207	129.81
452.428	122.81
452.648	137.81
452.869	117.81
453.089	120.81
453.31	121.81
453.53	99.81
453.751	103.81
453.971	107.81
454.192	116.81
454.412	116.81
454.633	106.81
454.853	115.81
455.073	110.81
455.294	136.81
455.514	131.81
455.734	107.81
455.955	113.81
456.175	114.81
456.395	120.81
456.616	110.81
456.836	121.81
457.056	109.81
457.276	117.81
457.497	102.81
457.717	114.81
457.937	116.81
458.157	99.81
458.377	101.81
458.598	94.81
458.818	94.81
459.038	80.81
459.258	85.81
459.478	74.81
459.698	95.81
459.918	99.81
460.138	106.81
460.358	101.81
460.578	107.81
460.798	121.81
461.018	114.81
461.238	111.81
461.458	101.81
461.678	104.81
461.898	124.81
462.118	104.81
462.338	112.81
462.558	106.81
462.777	113.81
462.997	95.81
463.217	97.81
463.437	101.81
463.657	100.81
463.876	98.81
464.096	111.81
464.316	103.81
464.536	122.81
464.755	113.81
464.975	110.81
465.195	101.81
465.414	109.81
465.634	95.81
465.854	119.81
466.073	122.81
466.293	114.81
466.512	122.81
466.732	128.81
466.951	121.81
467.171	135.81
467.391	133.81
467.61	123.81
467.829	134.81
468.049	114.81
468.268	150.81
468.488	126.81
468.707	123.81
468.927	129.81
469.146	130.81
469.365	146.81
469.585	140.81
469.804	135.81
470.023	122.81
470.243	146.81
470.462	145.81
470.681	145.81
470.901	132.81
471.12	129.81
471.339	135.81
471.558	141.81
471.777	147.81
471.997	136.81
472.216	114.81
472.435	126.81
472.654	120.81
472.873	113.81
473.092	111.81
473.311	120.81
473.53	121.81
473.749	104.81
473.968	139.81
474.187	126.81
474.406	130.81
474.625	121.81
474.844	142.81
475.063	129.81
475.282	109.81
475.501	99.81
475.72	137.81
475.939	125.81
476.158	121.81
476.377	131.81
476.596	122.81
476.814	114.81
477.033	113.81
477.252	115.81
477.471	100.81
477.69	120.81
477.908	132.81
478.127	142.81
478.346	127.81
478.564	145.81
478.783	143.81
479.002	132.81
479.22	122.81
479.439	131.81
479.658	118.81
479.876	105.81
480.095	103.81
480.313	104.81
480.532	106.81
480.751	102.81
480.969	89.81
481.188	68.81
481.406	103.81
481.624	84.81
481.843	81.81
482.061	101.81
482.28	91.81
482.498	111.81
482.717	103.81
482.935	121.81
483.153	131.81
483.372	144.81
483.59	137.81
483.808	131.81
484.027	137.81
484.245	131.81
484.463	147.81
484.681	155.81
484.9	127.81
485.118	141.81
485.336	125.81
485.554	113.81
485.772	114.81
485.99	103.81
486.209	91.81
486.427	102.81
486.645	130.81
486.863	139.81
487.081	129.81
487.299	126.81
487.517	151.81
487.735	159.81
487.953	177.81
488.171	169.81
488.389	149.81
488.607	150.81
488.825	125.81
489.043	111.81
489.261	128.81
489.479	140.81
489.696	127.81
489.914	131.81
490.132	128.81
490.35	162.81
490.568	163.81
490.786	162.81
491.003	178.81
491.221	165.81
491.439	185.81
491.657	195.81
491.874	205.81
492.092	223.81
492.31	228.81
492.527	220.81
492.745	204.81
492.963	161.81
493.18	182.81
493.398	177.81
493.615	175.81
493.833	178.81
494.05	162.81
494.268	161.81
494.485	154.81
494.703	159.81
494.92	170.81
495.138	169.81
495.355	187.81
495.573	157.81
495.79	151.81
496.008	175.81
496.225	152.81
496.442	149.81
496.66	168.81
496.877	161.81
497.094	161.81
497.312	155.81
497.529	139.81
497.746	136.81
497.963	146.81
498.181	124.81
498.398	138.81
498.615	127.81
498.832	114.81
499.049	113.81
499.267	118.81
499.484	107.81
499.701	126.81
499.918	133.81
500.135	146.81
500.352	146.81
500.569	143.81
500.786	145.81
501.003	129.81
501.22	139.81
501.437	135.81
501.654	124.81
501.871	111.81
502.088	127.81
502.305	139.81
502.522	127.81
502.739	141.81
502.956	125.81
503.172	122.81
503.389	119.81
503.606	130.81
503.823	113.81
504.04	116.81
504.256	115.81
504.473	114.81
504.69	119.81
504.907	126.81
505.123	100.81
505.34	119.81
505.557	112.81
505.773	116.81
505.99	130.81
506.207	112.81
506.423	134.81
506.64	133.81
506.856	117.81
507.073	93.81
507.289	121.81
507.506	105.81
507.722	107.81
507.939	118.81
508.155	118.81
508.372	95.81
508.588	113.81
508.805	113.81
509.021	113.81
509.238	103.81
509.454	99.81
509.67	96.81
509.887	85.81
510.103	91.81
510.319	88.81
510.536	92.81
510.752	92.81
510.968	91.81
511.184	80.81
511.401	87.81
511.617	97.81
511.833	78.81
512.049	86.81
512.265	105.81
