Data from Location1.07152019.Energy5.Lamp.07192019.3%Agarose_HRD10591_14-31-28-015.txt Node
Date: Fri Jul 19 14:31:28 EDT 2019
User: cochatt
Spectrometer: HR+D1059
Trigger mode: 1
Integration Time (sec): 1.000000E-1
Scans to average: 1
Electric dark correction enabled: true
Nonlinearity correction enabled: false
Boxcar width: 0
XAxis mode: Wavelengths
Number of Pixels in Spectrum: 2048
>>>>>Begin Spectral Data<<<<<
223.165	-1.19
223.4	-1.19
223.635	-1.19
223.869	-19.19
224.104	-18.19
224.338	-17.19
224.573	2.81
224.808	-14.19
225.042	7.81
225.277	-14.19
225.511	-6.19
225.746	-11.19
225.98	11.81
226.215	-3.19
226.449	1.81
226.683	24.81
226.918	28.81
227.152	26.81
227.387	32.81
227.621	41.81
227.856	51.81
228.09	55.81
228.324	48.81
228.559	52.81
228.793	65.81
229.027	74.81
229.262	71.81
229.496	66.81
229.73	53.81
229.964	74.81
230.199	65.81
230.433	86.81
230.667	91.81
230.901	77.81
231.136	84.81
231.37	83.81
231.604	68.81
231.838	81.81
232.072	85.81
232.306	91.81
232.541	90.81
232.775	74.81
233.009	89.81
233.243	70.81
233.477	66.81
233.711	73.81
233.945	82.81
234.179	77.81
234.413	85.81
234.647	73.81
234.881	74.81
235.115	73.81
235.349	71.81
235.583	80.81
235.817	79.81
236.051	79.81
236.285	89.81
236.519	84.81
236.753	77.81
236.987	81.81
237.221	70.81
237.455	77.81
237.689	74.81
237.922	75.81
238.156	79.81
238.39	55.81
238.624	83.81
238.858	66.81
239.091	85.81
239.325	87.81
239.559	72.81
239.793	96.81
240.027	74.81
240.26	74.81
240.494	83.81
240.728	84.81
240.961	75.81
241.195	84.81
241.429	75.81
241.662	89.81
241.896	79.81
242.13	79.81
242.363	86.81
242.597	58.81
242.83	69.81
243.064	86.81
243.298	83.81
243.531	69.81
243.765	73.81
243.998	78.81
244.232	76.81
244.465	75.81
244.699	90.81
244.932	83.81
245.166	87.81
245.399	78.81
245.633	83.81
245.866	80.81
246.099	83.81
246.333	81.81
246.566	83.81
246.8	66.81
247.033	76.81
247.266	86.81
247.5	78.81
247.733	75.81
247.966	88.81
248.2	93.81
248.433	90.81
248.666	85.81
248.899	74.81
249.133	68.81
249.366	76.81
249.599	78.81
249.832	82.81
250.066	79.81
250.299	75.81
250.532	81.81
250.765	77.81
250.998	77.81
251.231	79.81
251.465	78.81
251.698	70.81
251.931	70.81
252.164	82.81
252.397	72.81
252.63	84.81
252.863	75.81
253.096	83.81
253.329	70.81
253.562	82.81
253.795	78.81
254.028	79.81
254.261	88.81
254.494	86.81
254.727	88.81
254.96	81.81
255.193	87.81
255.426	82.81
255.659	81.81
255.892	78.81
256.124	79.81
256.357	89.81
256.59	74.81
256.823	74.81
257.056	72.81
257.289	85.81
257.521	106.81
257.754	84.81
257.987	80.81
258.22	82.81
258.452	83.81
258.685	84.81
258.918	90.81
259.151	79.81
259.383	86.81
259.616	84.81
259.849	75.81
260.081	87.81
260.314	82.81
260.547	86.81
260.779	87.81
261.012	68.81
261.244	92.81
261.477	92.81
261.71	68.81
261.942	88.81
262.175	84.81
262.407	78.81
262.64	84.81
262.872	74.81
263.105	82.81
263.337	62.81
263.57	96.81
263.802	82.81
264.035	96.81
264.267	80.81
264.499	87.81
264.732	77.81
264.964	88.81
265.197	84.81
265.429	76.81
265.661	79.81
265.894	85.81
266.126	92.81
266.358	82.81
266.591	83.81
266.823	91.81
267.055	84.81
267.287	92.81
267.52	81.81
267.752	98.81
267.984	69.81
268.216	77.81
268.448	81.81
268.681	85.81
268.913	86.81
269.145	93.81
269.377	77.81
269.609	75.81
269.841	82.81
270.073	76.81
270.306	98.81
270.538	78.81
270.77	76.81
271.002	89.81
271.234	88.81
271.466	75.81
271.698	79.81
271.93	68.81
272.162	82.81
272.394	80.81
272.626	85.81
272.858	76.81
273.09	86.81
273.322	82.81
273.553	84.81
273.785	91.81
274.017	77.81
274.249	80.81
274.481	75.81
274.713	80.81
274.945	83.81
275.176	90.81
275.408	92.81
275.64	90.81
275.872	76.81
276.104	78.81
276.335	98.81
276.567	93.81
276.799	90.81
277.031	76.81
277.262	90.81
277.494	91.81
277.726	82.81
277.957	84.81
278.189	78.81
278.421	97.81
278.652	85.81
278.884	85.81
279.115	81.81
279.347	86.81
279.579	85.81
279.81	80.81
280.042	69.81
280.273	80.81
280.505	78.81
280.736	82.81
280.968	69.81
281.199	92.81
281.431	76.81
281.662	86.81
281.894	82.81
282.125	90.81
282.356	95.81
282.588	79.81
282.819	87.81
283.051	88.81
283.282	87.81
283.513	77.81
283.745	88.81
283.976	82.81
284.207	90.81
284.439	91.81
284.67	79.81
284.901	81.81
285.132	76.81
285.364	78.81
285.595	87.81
285.826	76.81
286.057	80.81
286.288	83.81
286.52	80.81
286.751	81.81
286.982	75.81
287.213	78.81
287.444	94.81
287.675	80.81
287.906	96.81
288.138	79.81
288.369	79.81
288.6	85.81
288.831	77.81
289.062	98.81
289.293	84.81
289.524	80.81
289.755	70.81
289.986	85.81
290.217	79.81
290.448	77.81
290.679	92.81
290.91	84.81
291.141	85.81
291.371	102.81
291.602	82.81
291.833	90.81
292.064	83.81
292.295	79.81
292.526	79.81
292.757	91.81
292.987	92.81
293.218	91.81
293.449	89.81
293.68	78.81
293.91	80.81
294.141	67.81
294.372	76.81
294.603	77.81
294.833	83.81
295.064	84.81
295.295	70.81
295.525	88.81
295.756	101.81
295.987	86.81
296.217	69.81
296.448	88.81
296.679	93.81
296.909	98.81
297.14	91.81
297.37	85.81
297.601	89.81
297.831	82.81
298.062	76.81
298.292	88.81
298.523	68.81
298.753	77.81
298.984	73.81
299.214	74.81
299.445	74.81
299.675	79.81
299.905	89.81
300.136	81.81
300.366	93.81
300.597	94.81
300.827	80.81
301.057	87.81
301.288	88.81
301.518	79.81
301.748	78.81
301.979	80.81
302.209	78.81
302.439	78.81
302.669	80.81
302.9	69.81
303.13	78.81
303.36	90.81
303.59	86.81
303.82	86.81
304.051	71.81
304.281	74.81
304.511	85.81
304.741	98.81
304.971	77.81
305.201	105.81
305.431	80.81
305.661	90.81
305.891	86.81
306.121	89.81
306.352	95.81
306.582	89.81
306.812	91.81
307.042	92.81
307.272	86.81
307.502	84.81
307.731	90.81
307.961	85.81
308.191	72.81
308.421	80.81
308.651	92.81
308.881	90.81
309.111	84.81
309.341	92.81
309.571	83.81
309.8	82.81
310.03	93.81
310.26	81.81
310.49	75.81
310.72	91.81
310.949	82.81
311.179	83.81
311.409	83.81
311.639	92.81
311.868	81.81
312.098	83.81
312.328	76.81
312.557	79.81
312.787	84.81
313.017	91.81
313.246	87.81
313.476	79.81
313.706	87.81
313.935	78.81
314.165	85.81
314.394	86.81
314.624	89.81
314.853	81.81
315.083	73.81
315.312	72.81
315.542	81.81
315.771	94.81
316.001	82.81
316.23	89.81
316.46	78.81
316.689	85.81
316.919	97.81
317.148	79.81
317.377	91.81
317.607	77.81
317.836	85.81
318.065	85.81
318.295	98.81
318.524	85.81
318.753	90.81
318.983	81.81
319.212	90.81
319.441	88.81
319.67	83.81
319.9	81.81
320.129	86.81
320.358	86.81
320.587	75.81
320.816	93.81
321.046	83.81
321.275	91.81
321.504	73.81
321.733	89.81
321.962	83.81
322.191	82.81
322.42	90.81
322.649	77.81
322.878	94.81
323.108	73.81
323.337	84.81
323.566	86.81
323.795	86.81
324.024	78.81
324.253	87.81
324.482	81.81
324.71	90.81
324.939	102.81
325.168	82.81
325.397	79.81
325.626	86.81
325.855	83.81
326.084	79.81
326.313	80.81
326.542	92.81
326.77	97.81
326.999	91.81
327.228	74.81
327.457	91.81
327.686	102.81
327.914	95.81
328.143	100.81
328.372	91.81
328.6	87.81
328.829	89.81
329.058	95.81
329.287	89.81
329.515	91.81
329.744	91.81
329.972	83.81
330.201	85.81
330.43	89.81
330.658	90.81
330.887	76.81
331.115	78.81
331.344	98.81
331.572	87.81
331.801	85.81
332.03	91.81
332.258	83.81
332.486	84.81
332.715	82.81
332.943	98.81
333.172	80.81
333.4	91.81
333.629	69.81
333.857	84.81
334.085	87.81
334.314	77.81
334.542	75.81
334.771	85.81
334.999	75.81
335.227	83.81
335.455	91.81
335.684	84.81
335.912	85.81
336.14	76.81
336.369	93.81
336.597	90.81
336.825	97.81
337.053	87.81
337.281	86.81
337.51	75.81
337.738	78.81
337.966	79.81
338.194	92.81
338.422	95.81
338.65	87.81
338.878	85.81
339.106	96.81
339.334	77.81
339.562	84.81
339.79	97.81
340.018	85.81
340.246	76.81
340.474	75.81
340.702	78.81
340.93	91.81
341.158	75.81
341.386	87.81
341.614	93.81
341.842	85.81
342.07	77.81
342.298	85.81
342.526	85.81
342.754	85.81
342.981	76.81
343.209	75.81
343.437	85.81
343.665	87.81
343.893	101.81
344.12	81.81
344.348	80.81
344.576	90.81
344.804	81.81
345.031	83.81
345.259	94.81
345.487	92.81
345.714	103.81
345.942	90.81
346.17	90.81
346.397	89.81
346.625	101.81
346.853	74.81
347.08	94.81
347.308	76.81
347.535	78.81
347.763	93.81
347.99	90.81
348.218	89.81
348.445	91.81
348.673	90.81
348.9	76.81
349.128	92.81
349.355	68.81
349.583	91.81
349.81	74.81
350.037	78.81
350.265	89.81
350.492	83.81
350.72	88.81
350.947	86.81
351.174	92.81
351.402	83.81
351.629	74.81
351.856	83.81
352.083	87.81
352.311	90.81
352.538	89.81
352.765	89.81
352.992	92.81
353.22	79.81
353.447	80.81
353.674	106.81
353.901	94.81
354.128	87.81
354.355	95.81
354.583	87.81
354.81	83.81
355.037	98.81
355.264	98.81
355.491	89.81
355.718	94.81
355.945	89.81
356.172	79.81
356.399	95.81
356.626	75.81
356.853	78.81
357.08	82.81
357.307	81.81
357.534	81.81
357.761	78.81
357.988	95.81
358.215	82.81
358.441	78.81
358.668	88.81
358.895	89.81
359.122	86.81
359.349	88.81
359.576	92.81
359.802	80.81
360.029	82.81
360.256	90.81
360.483	78.81
360.709	87.81
360.936	87.81
361.163	85.81
361.39	102.81
361.616	95.81
361.843	84.81
362.07	78.81
362.296	84.81
362.523	79.81
362.749	79.81
362.976	89.81
363.203	84.81
363.429	90.81
363.656	102.81
363.882	68.81
364.109	93.81
364.335	99.81
364.562	77.81
364.788	80.81
365.015	85.81
365.241	81.81
365.468	71.81
365.694	83.81
365.92	94.81
366.147	94.81
366.373	80.81
366.599	83.81
366.826	71.81
367.052	89.81
367.278	84.81
367.505	86.81
367.731	95.81
367.957	94.81
368.184	79.81
368.41	102.81
368.636	95.81
368.862	100.81
369.089	105.81
369.315	94.81
369.541	90.81
369.767	91.81
369.993	86.81
370.219	102.81
370.445	81.81
370.672	101.81
370.898	99.81
371.124	84.81
371.35	94.81
371.576	94.81
371.802	102.81
372.028	86.81
372.254	79.81
372.48	89.81
372.706	80.81
372.932	101.81
373.158	101.81
373.384	90.81
373.61	90.81
373.835	97.81
374.061	94.81
374.287	79.81
374.513	87.81
374.739	109.81
374.965	91.81
375.191	89.81
375.416	98.81
375.642	98.81
375.868	87.81
376.094	85.81
376.319	102.81
376.545	98.81
376.771	100.81
376.997	98.81
377.222	96.81
377.448	100.81
377.674	92.81
377.899	102.81
378.125	93.81
378.35	96.81
378.576	86.81
378.802	84.81
379.027	94.81
379.253	103.81
379.478	94.81
379.704	93.81
379.929	89.81
380.155	101.81
380.38	96.81
380.606	86.81
380.831	96.81
381.057	104.81
381.282	99.81
381.507	98.81
381.733	88.81
381.958	98.81
382.184	96.81
382.409	98.81
382.634	109.81
382.86	96.81
383.085	105.81
383.31	92.81
383.535	109.81
383.761	97.81
383.986	107.81
384.211	101.81
384.436	90.81
384.662	99.81
384.887	100.81
385.112	96.81
385.337	106.81
385.562	99.81
385.787	103.81
386.013	97.81
386.238	87.81
386.463	97.81
386.688	117.81
386.913	99.81
387.138	90.81
387.363	111.81
387.588	92.81
387.813	116.81
388.038	108.81
388.263	93.81
388.488	102.81
388.713	88.81
388.938	99.81
389.163	104.81
389.387	104.81
389.612	81.81
389.837	87.81
390.062	100.81
390.287	99.81
390.512	94.81
390.736	91.81
390.961	91.81
391.186	91.81
391.411	104.81
391.636	89.81
391.86	101.81
392.085	100.81
392.31	114.81
392.534	102.81
392.759	108.81
392.984	101.81
393.208	100.81
393.433	92.81
393.658	107.81
393.882	114.81
394.107	106.81
394.331	109.81
394.556	109.81
394.78	94.81
395.005	97.81
395.229	103.81
395.454	101.81
395.678	102.81
395.903	103.81
396.127	114.81
396.352	123.81
396.576	100.81
396.801	113.81
397.025	108.81
397.249	103.81
397.474	101.81
397.698	122.81
397.922	100.81
398.147	107.81
398.371	103.81
398.595	90.81
398.82	94.81
399.044	95.81
399.268	97.81
399.492	114.81
399.717	100.81
399.941	110.81
400.165	99.81
400.389	126.81
400.613	107.81
400.837	105.81
401.062	105.81
401.286	94.81
401.51	106.81
401.734	101.81
401.958	111.81
402.182	114.81
402.406	108.81
402.63	105.81
402.854	119.81
403.078	119.81
403.302	105.81
403.526	118.81
403.75	129.81
403.974	108.81
404.198	117.81
404.422	118.81
404.645	129.81
404.869	119.81
405.093	123.81
405.317	113.81
405.541	123.81
405.765	122.81
405.988	117.81
406.212	104.81
406.436	119.81
406.66	111.81
406.883	119.81
407.107	123.81
407.331	130.81
407.555	110.81
407.778	113.81
408.002	126.81
408.226	116.81
408.449	119.81
408.673	112.81
408.896	113.81
409.12	126.81
409.344	120.81
409.567	111.81
409.791	118.81
410.014	107.81
410.238	119.81
410.461	132.81
410.685	125.81
410.908	130.81
411.132	131.81
411.355	111.81
411.578	128.81
411.802	120.81
412.025	119.81
412.249	124.81
412.472	130.81
412.695	117.81
412.919	119.81
413.142	117.81
413.365	132.81
413.589	122.81
413.812	120.81
414.035	102.81
414.258	119.81
414.482	116.81
414.705	123.81
414.928	114.81
415.151	138.81
415.374	132.81
415.597	108.81
415.821	116.81
416.044	131.81
416.267	124.81
416.49	130.81
416.713	119.81
416.936	126.81
417.159	132.81
417.382	133.81
417.605	130.81
417.828	114.81
418.051	131.81
418.274	132.81
418.497	129.81
418.72	133.81
418.943	123.81
419.166	117.81
419.389	133.81
419.611	123.81
419.834	128.81
420.057	129.81
420.28	141.81
420.503	117.81
420.726	118.81
420.948	125.81
421.171	149.81
421.394	130.81
421.617	135.81
421.839	134.81
422.062	152.81
422.285	153.81
422.507	144.81
422.73	118.81
422.953	117.81
423.175	115.81
423.398	121.81
423.621	125.81
423.843	138.81
424.066	123.81
424.288	137.81
424.511	141.81
424.733	143.81
424.956	134.81
425.178	139.81
425.401	139.81
425.623	145.81
425.846	117.81
426.068	126.81
426.291	113.81
426.513	129.81
426.735	131.81
426.958	129.81
427.18	131.81
427.402	122.81
427.625	148.81
427.847	137.81
428.069	141.81
428.292	138.81
428.514	126.81
428.736	127.81
428.958	136.81
429.181	124.81
429.403	131.81
429.625	128.81
429.847	113.81
430.069	133.81
430.292	122.81
430.514	122.81
430.736	116.81
430.958	127.81
431.18	130.81
431.402	121.81
431.624	118.81
431.846	103.81
432.068	95.81
432.29	105.81
432.512	115.81
432.734	121.81
432.956	147.81
433.178	123.81
433.4	132.81
433.622	140.81
433.844	121.81
434.066	133.81
434.287	120.81
434.509	109.81
434.731	89.81
434.953	112.81
435.175	133.81
435.397	126.81
435.618	108.81
435.84	108.81
436.062	109.81
436.284	109.81
436.505	121.81
436.727	129.81
436.949	124.81
437.17	128.81
437.392	147.81
437.614	113.81
437.835	103.81
438.057	125.81
438.278	105.81
438.5	123.81
438.721	133.81
438.943	143.81
439.165	139.81
439.386	146.81
439.608	138.81
439.829	131.81
440.05	137.81
440.272	149.81
440.493	143.81
440.715	140.81
440.936	132.81
441.158	146.81
441.379	133.81
441.6	147.81
441.822	131.81
442.043	152.81
442.264	146.81
442.486	134.81
442.707	139.81
442.928	146.81
443.149	133.81
443.371	131.81
443.592	146.81
443.813	129.81
444.034	139.81
444.255	139.81
444.476	131.81
444.698	134.81
444.919	139.81
445.14	241.81
445.361	204.81
445.582	141.81
445.803	141.81
446.024	135.81
446.245	147.81
446.466	147.81
446.687	148.81
446.908	167.81
447.129	150.81
447.35	161.81
447.571	146.81
447.792	169.81
448.013	144.81
448.234	137.81
448.455	148.81
448.675	131.81
448.896	156.81
449.117	126.81
449.338	148.81
449.559	133.81
449.779	141.81
450	130.81
450.221	126.81
450.442	145.81
450.662	131.81
450.883	128.81
451.104	141.81
451.324	128.81
451.545	134.81
451.766	116.81
451.986	121.81
452.207	129.81
452.428	133.81
452.648	126.81
452.869	125.81
453.089	132.81
453.31	108.81
453.53	92.81
453.751	118.81
453.971	106.81
454.192	99.81
454.412	103.81
454.633	101.81
454.853	109.81
455.073	138.81
455.294	119.81
455.514	125.81
455.734	119.81
455.955	117.81
456.175	110.81
456.395	103.81
456.616	116.81
456.836	116.81
457.056	116.81
457.276	121.81
457.497	123.81
457.717	113.81
457.937	120.81
458.157	113.81
458.377	100.81
458.598	97.81
458.818	105.81
459.038	82.81
459.258	90.81
459.478	96.81
459.698	82.81
459.918	86.81
460.138	93.81
460.358	114.81
460.578	117.81
460.798	108.81
461.018	101.81
461.238	113.81
461.458	122.81
461.678	124.81
461.898	102.81
462.118	117.81
462.338	104.81
462.558	95.81
462.777	113.81
462.997	107.81
463.217	107.81
463.437	109.81
463.657	92.81
463.876	117.81
464.096	113.81
464.316	103.81
464.536	95.81
464.755	95.81
464.975	111.81
465.195	115.81
465.414	129.81
465.634	126.81
465.854	110.81
466.073	125.81
466.293	131.81
466.512	123.81
466.732	128.81
466.951	133.81
467.171	126.81
467.391	129.81
467.61	124.81
467.829	128.81
468.049	127.81
468.268	130.81
468.488	139.81
468.707	126.81
468.927	126.81
469.146	120.81
469.365	133.81
469.585	130.81
469.804	157.81
470.023	140.81
470.243	146.81
470.462	142.81
470.681	139.81
470.901	140.81
471.12	140.81
471.339	145.81
471.558	142.81
471.777	143.81
471.997	134.81
472.216	127.81
472.435	117.81
472.654	105.81
472.873	105.81
473.092	117.81
473.311	137.81
473.53	124.81
473.749	140.81
473.968	130.81
474.187	110.81
474.406	124.81
474.625	127.81
474.844	131.81
475.063	124.81
475.282	129.81
475.501	116.81
475.72	127.81
475.939	122.81
476.158	137.81
476.377	118.81
476.596	113.81
476.814	121.81
477.033	103.81
477.252	113.81
477.471	127.81
477.69	122.81
477.908	143.81
478.127	149.81
478.346	135.81
478.564	143.81
478.783	140.81
479.002	135.81
479.22	129.81
479.439	133.81
479.658	129.81
479.876	113.81
480.095	96.81
480.313	113.81
480.532	125.81
480.751	122.81
480.969	87.81
481.188	91.81
481.406	91.81
481.624	95.81
481.843	82.81
482.061	102.81
482.28	103.81
482.498	103.81
482.717	114.81
482.935	123.81
483.153	124.81
483.372	151.81
483.59	158.81
483.808	119.81
484.027	145.81
484.245	138.81
484.463	139.81
484.681	165.81
484.9	146.81
485.118	134.81
485.336	127.81
485.554	108.81
485.772	94.81
485.99	109.81
486.209	114.81
486.427	108.81
486.645	121.81
486.863	139.81
487.081	140.81
487.299	141.81
487.517	136.81
487.735	163.81
487.953	181.81
488.171	191.81
488.389	179.81
488.607	159.81
488.825	139.81
489.043	134.81
489.261	139.81
489.479	138.81
489.696	126.81
489.914	131.81
490.132	136.81
490.35	167.81
490.568	155.81
490.786	166.81
491.003	181.81
491.221	172.81
491.439	172.81
491.657	193.81
491.874	223.81
492.092	226.81
492.31	233.81
492.527	210.81
492.745	187.81
492.963	197.81
493.18	183.81
493.398	187.81
493.615	173.81
493.833	165.81
494.05	178.81
494.268	171.81
494.485	170.81
494.703	186.81
494.92	187.81
495.138	177.81
495.355	182.81
495.573	171.81
495.79	179.81
496.008	179.81
496.225	166.81
496.442	173.81
496.66	173.81
496.877	157.81
497.094	150.81
497.312	168.81
497.529	161.81
497.746	152.81
497.963	131.81
498.181	129.81
498.398	137.81
498.615	120.81
498.832	116.81
499.049	120.81
499.267	120.81
499.484	134.81
499.701	122.81
499.918	122.81
500.135	122.81
500.352	126.81
500.569	152.81
500.786	146.81
501.003	154.81
501.22	154.81
501.437	146.81
501.654	124.81
501.871	131.81
502.088	133.81
502.305	129.81
502.522	131.81
502.739	138.81
502.956	126.81
503.172	129.81
503.389	126.81
503.606	133.81
503.823	131.81
504.04	118.81
504.256	128.81
504.473	122.81
504.69	127.81
504.907	123.81
505.123	107.81
505.34	113.81
505.557	117.81
505.773	130.81
505.99	125.81
506.207	108.81
506.423	141.81
506.64	130.81
506.856	123.81
507.073	123.81
507.289	123.81
507.506	111.81
507.722	122.81
507.939	110.81
508.155	109.81
508.372	123.81
508.588	120.81
508.805	134.81
509.021	108.81
509.238	106.81
509.454	103.81
509.67	95.81
509.887	84.81
510.103	102.81
510.319	97.81
510.536	92.81
510.752	96.81
510.968	89.81
511.184	73.81
511.401	78.81
511.617	91.81
