Data from Location1.07152019.Energy5.Lamp.07192019.3%Agarose_HRD10591_14-32-12-016.txt Node
Date: Fri Jul 19 14:32:12 EDT 2019
User: cochatt
Spectrometer: HR+D1059
Trigger mode: 1
Integration Time (sec): 1.000000E-1
Scans to average: 1
Electric dark correction enabled: true
Nonlinearity correction enabled: false
Boxcar width: 0
XAxis mode: Wavelengths
Number of Pixels in Spectrum: 2048
>>>>>Begin Spectral Data<<<<<
223.165	-18.12
223.4	-18.12
223.635	-18.12
223.869	-12.12
224.104	-20.12
224.338	-16.12
224.573	-11.12
224.808	-2.12
225.042	-21.12
225.277	-4.12
225.511	0.88
225.746	4.88
225.98	8.88
226.215	18.88
226.449	16.88
226.683	6.88
226.918	19.88
227.152	27.88
227.387	38.88
227.621	35.88
227.856	45.88
228.09	35.88
228.324	58.88
228.559	68.88
228.793	59.88
229.027	55.88
229.262	71.88
229.496	72.88
229.73	77.88
229.964	78.88
230.199	77.88
230.433	61.88
230.667	70.88
230.901	75.88
231.136	74.88
231.37	69.88
231.604	68.88
231.838	78.88
232.072	87.88
232.306	89.88
232.541	91.88
232.775	76.88
233.009	75.88
233.243	92.88
233.477	79.88
233.711	79.88
233.945	77.88
234.179	65.88
234.413	89.88
234.647	66.88
234.881	76.88
235.115	92.88
235.349	83.88
235.583	78.88
235.817	83.88
236.051	65.88
236.285	88.88
236.519	85.88
236.753	58.88
236.987	88.88
237.221	80.88
237.455	87.88
237.689	88.88
237.922	78.88
238.156	78.88
238.39	78.88
238.624	77.88
238.858	75.88
239.091	75.88
239.325	69.88
239.559	72.88
239.793	79.88
240.027	75.88
240.26	60.88
240.494	79.88
240.728	63.88
240.961	72.88
241.195	69.88
241.429	86.88
241.662	87.88
241.896	86.88
242.13	57.88
242.363	71.88
242.597	76.88
242.83	76.88
243.064	92.88
243.298	71.88
243.531	59.88
243.765	80.88
243.998	77.88
244.232	73.88
244.465	84.88
244.699	87.88
244.932	77.88
245.166	78.88
245.399	79.88
245.633	74.88
245.866	69.88
246.099	67.88
246.333	67.88
246.566	92.88
246.8	66.88
247.033	79.88
247.266	75.88
247.5	77.88
247.733	91.88
247.966	74.88
248.2	74.88
248.433	86.88
248.666	73.88
248.899	82.88
249.133	89.88
249.366	79.88
249.599	78.88
249.832	67.88
250.066	81.88
250.299	78.88
250.532	87.88
250.765	83.88
250.998	89.88
251.231	74.88
251.465	81.88
251.698	75.88
251.931	74.88
252.164	73.88
252.397	75.88
252.63	88.88
252.863	78.88
253.096	73.88
253.329	73.88
253.562	79.88
253.795	70.88
254.028	74.88
254.261	66.88
254.494	68.88
254.727	83.88
254.96	88.88
255.193	76.88
255.426	89.88
255.659	71.88
255.892	74.88
256.124	95.88
256.357	91.88
256.59	86.88
256.823	62.88
257.056	76.88
257.289	77.88
257.521	86.88
257.754	78.88
257.987	82.88
258.22	64.88
258.452	81.88
258.685	75.88
258.918	73.88
259.151	90.88
259.383	74.88
259.616	83.88
259.849	81.88
260.081	81.88
260.314	73.88
260.547	65.88
260.779	78.88
261.012	84.88
261.244	73.88
261.477	101.88
261.71	87.88
261.942	68.88
262.175	72.88
262.407	71.88
262.64	85.88
262.872	81.88
263.105	78.88
263.337	88.88
263.57	82.88
263.802	78.88
264.035	89.88
264.267	90.88
264.499	91.88
264.732	93.88
264.964	83.88
265.197	68.88
265.429	81.88
265.661	78.88
265.894	76.88
266.126	76.88
266.358	91.88
266.591	76.88
266.823	89.88
267.055	87.88
267.287	93.88
267.52	84.88
267.752	78.88
267.984	98.88
268.216	89.88
268.448	82.88
268.681	79.88
268.913	92.88
269.145	93.88
269.377	93.88
269.609	86.88
269.841	86.88
270.073	77.88
270.306	84.88
270.538	72.88
270.77	92.88
271.002	77.88
271.234	68.88
271.466	79.88
271.698	80.88
271.93	87.88
272.162	91.88
272.394	84.88
272.626	72.88
272.858	69.88
273.09	87.88
273.322	83.88
273.553	81.88
273.785	93.88
274.017	79.88
274.249	63.88
274.481	80.88
274.713	98.88
274.945	87.88
275.176	83.88
275.408	80.88
275.64	81.88
275.872	91.88
276.104	83.88
276.335	82.88
276.567	93.88
276.799	85.88
277.031	79.88
277.262	86.88
277.494	80.88
277.726	95.88
277.957	83.88
278.189	83.88
278.421	89.88
278.652	77.88
278.884	69.88
279.115	82.88
279.347	83.88
279.579	83.88
279.81	80.88
280.042	86.88
280.273	87.88
280.505	82.88
280.736	75.88
280.968	71.88
281.199	83.88
281.431	83.88
281.662	82.88
281.894	91.88
282.125	78.88
282.356	89.88
282.588	91.88
282.819	90.88
283.051	85.88
283.282	86.88
283.513	87.88
283.745	77.88
283.976	90.88
284.207	92.88
284.439	92.88
284.67	75.88
284.901	74.88
285.132	95.88
285.364	90.88
285.595	79.88
285.826	75.88
286.057	90.88
286.288	91.88
286.52	91.88
286.751	86.88
286.982	90.88
287.213	77.88
287.444	87.88
287.675	82.88
287.906	84.88
288.138	80.88
288.369	80.88
288.6	72.88
288.831	70.88
289.062	83.88
289.293	85.88
289.524	85.88
289.755	90.88
289.986	83.88
290.217	95.88
290.448	87.88
290.679	87.88
290.91	84.88
291.141	89.88
291.371	88.88
291.602	78.88
291.833	86.88
292.064	79.88
292.295	88.88
292.526	61.88
292.757	76.88
292.987	78.88
293.218	85.88
293.449	91.88
293.68	101.88
293.91	95.88
294.141	76.88
294.372	74.88
294.603	78.88
294.833	95.88
295.064	98.88
295.295	91.88
295.525	85.88
295.756	91.88
295.987	95.88
296.217	87.88
296.448	94.88
296.679	83.88
296.909	82.88
297.14	83.88
297.37	88.88
297.601	79.88
297.831	78.88
298.062	70.88
298.292	86.88
298.523	97.88
298.753	85.88
298.984	79.88
299.214	86.88
299.445	85.88
299.675	94.88
299.905	92.88
300.136	82.88
300.366	84.88
300.597	70.88
300.827	84.88
301.057	87.88
301.288	94.88
301.518	89.88
301.748	91.88
301.979	84.88
302.209	89.88
302.439	92.88
302.669	93.88
302.9	81.88
303.13	80.88
303.36	82.88
303.59	73.88
303.82	89.88
304.051	80.88
304.281	82.88
304.511	79.88
304.741	96.88
304.971	99.88
305.201	84.88
305.431	91.88
305.661	74.88
305.891	82.88
306.121	88.88
306.352	99.88
306.582	99.88
306.812	93.88
307.042	90.88
307.272	89.88
307.502	74.88
307.731	88.88
307.961	85.88
308.191	74.88
308.421	85.88
308.651	97.88
308.881	89.88
309.111	88.88
309.341	92.88
309.571	103.88
309.8	84.88
310.03	90.88
310.26	77.88
310.49	94.88
310.72	91.88
310.949	97.88
311.179	83.88
311.409	79.88
311.639	91.88
311.868	92.88
312.098	85.88
312.328	89.88
312.557	90.88
312.787	94.88
313.017	69.88
313.246	85.88
313.476	87.88
313.706	75.88
313.935	66.88
314.165	92.88
314.394	87.88
314.624	86.88
314.853	74.88
315.083	82.88
315.312	94.88
315.542	86.88
315.771	82.88
316.001	96.88
316.23	93.88
316.46	75.88
316.689	82.88
316.919	87.88
317.148	75.88
317.377	90.88
317.607	84.88
317.836	66.88
318.065	78.88
318.295	88.88
318.524	88.88
318.753	76.88
318.983	97.88
319.212	75.88
319.441	91.88
319.67	70.88
319.9	87.88
320.129	92.88
320.358	82.88
320.587	72.88
320.816	82.88
321.046	79.88
321.275	97.88
321.504	83.88
321.733	76.88
321.962	85.88
322.191	81.88
322.42	80.88
322.649	91.88
322.878	85.88
323.108	89.88
323.337	85.88
323.566	91.88
323.795	82.88
324.024	87.88
324.253	95.88
324.482	75.88
324.71	84.88
324.939	92.88
325.168	83.88
325.397	105.88
325.626	94.88
325.855	95.88
326.084	73.88
326.313	85.88
326.542	76.88
326.77	89.88
326.999	85.88
327.228	71.88
327.457	89.88
327.686	95.88
327.914	87.88
328.143	85.88
328.372	83.88
328.6	94.88
328.829	81.88
329.058	98.88
329.287	90.88
329.515	86.88
329.744	92.88
329.972	79.88
330.201	96.88
330.43	81.88
330.658	79.88
330.887	79.88
331.115	96.88
331.344	80.88
331.572	88.88
331.801	87.88
332.03	90.88
332.258	81.88
332.486	68.88
332.715	85.88
332.943	88.88
333.172	88.88
333.4	83.88
333.629	91.88
333.857	88.88
334.085	84.88
334.314	107.88
334.542	90.88
334.771	82.88
334.999	86.88
335.227	76.88
335.455	89.88
335.684	92.88
335.912	98.88
336.14	89.88
336.369	86.88
336.597	87.88
336.825	97.88
337.053	97.88
337.281	89.88
337.51	78.88
337.738	80.88
337.966	86.88
338.194	87.88
338.422	80.88
338.65	90.88
338.878	83.88
339.106	94.88
339.334	79.88
339.562	74.88
339.79	91.88
340.018	87.88
340.246	87.88
340.474	84.88
340.702	87.88
340.93	87.88
341.158	88.88
341.386	80.88
341.614	95.88
341.842	80.88
342.07	86.88
342.298	83.88
342.526	86.88
342.754	85.88
342.981	81.88
343.209	72.88
343.437	87.88
343.665	79.88
343.893	80.88
344.12	92.88
344.348	89.88
344.576	77.88
344.804	81.88
345.031	87.88
345.259	93.88
345.487	90.88
345.714	84.88
345.942	73.88
346.17	90.88
346.397	91.88
346.625	84.88
346.853	89.88
347.08	80.88
347.308	81.88
347.535	93.88
347.763	80.88
347.99	70.88
348.218	76.88
348.445	93.88
348.673	79.88
348.9	93.88
349.128	101.88
349.355	90.88
349.583	85.88
349.81	96.88
350.037	89.88
350.265	84.88
350.492	93.88
350.72	85.88
350.947	85.88
351.174	89.88
351.402	82.88
351.629	87.88
351.856	83.88
352.083	76.88
352.311	82.88
352.538	73.88
352.765	82.88
352.992	73.88
353.22	83.88
353.447	91.88
353.674	92.88
353.901	88.88
354.128	80.88
354.355	87.88
354.583	76.88
354.81	91.88
355.037	88.88
355.264	91.88
355.491	99.88
355.718	87.88
355.945	91.88
356.172	83.88
356.399	87.88
356.626	83.88
356.853	88.88
357.08	85.88
357.307	72.88
357.534	72.88
357.761	93.88
357.988	81.88
358.215	94.88
358.441	71.88
358.668	84.88
358.895	90.88
359.122	83.88
359.349	87.88
359.576	85.88
359.802	82.88
360.029	88.88
360.256	83.88
360.483	90.88
360.709	85.88
360.936	81.88
361.163	76.88
361.39	76.88
361.616	71.88
361.843	100.88
362.07	77.88
362.296	86.88
362.523	96.88
362.749	90.88
362.976	74.88
363.203	99.88
363.429	79.88
363.656	79.88
363.882	91.88
364.109	86.88
364.335	87.88
364.562	86.88
364.788	78.88
365.015	86.88
365.241	70.88
365.468	89.88
365.694	87.88
365.92	88.88
366.147	80.88
366.373	90.88
366.599	82.88
366.826	87.88
367.052	89.88
367.278	98.88
367.505	91.88
367.731	81.88
367.957	73.88
368.184	78.88
368.41	88.88
368.636	76.88
368.862	85.88
369.089	76.88
369.315	95.88
369.541	99.88
369.767	87.88
369.993	88.88
370.219	99.88
370.445	95.88
370.672	87.88
370.898	90.88
371.124	83.88
371.35	86.88
371.576	78.88
371.802	92.88
372.028	94.88
372.254	77.88
372.48	96.88
372.706	85.88
372.932	76.88
373.158	80.88
373.384	98.88
373.61	86.88
373.835	90.88
374.061	76.88
374.287	82.88
374.513	89.88
374.739	95.88
374.965	87.88
375.191	87.88
375.416	89.88
375.642	89.88
375.868	101.88
376.094	101.88
376.319	89.88
376.545	89.88
376.771	99.88
376.997	94.88
377.222	90.88
377.448	88.88
377.674	91.88
377.899	89.88
378.125	98.88
378.35	92.88
378.576	85.88
378.802	102.88
379.027	91.88
379.253	91.88
379.478	87.88
379.704	97.88
379.929	98.88
380.155	75.88
380.38	100.88
380.606	102.88
380.831	88.88
381.057	93.88
381.282	91.88
381.507	96.88
381.733	93.88
381.958	84.88
382.184	86.88
382.409	97.88
382.634	98.88
382.86	98.88
383.085	100.88
383.31	79.88
383.535	99.88
383.761	96.88
383.986	101.88
384.211	100.88
384.436	85.88
384.662	87.88
384.887	95.88
385.112	102.88
385.337	81.88
385.562	95.88
385.787	117.88
386.013	105.88
386.238	97.88
386.463	89.88
386.688	97.88
386.913	92.88
387.138	93.88
387.363	101.88
387.588	112.88
387.813	103.88
388.038	97.88
388.263	101.88
388.488	105.88
388.713	88.88
388.938	97.88
389.163	101.88
389.387	92.88
389.612	105.88
389.837	105.88
390.062	105.88
390.287	84.88
390.512	98.88
390.736	113.88
390.961	113.88
391.186	111.88
391.411	115.88
391.636	97.88
391.86	100.88
392.085	97.88
392.31	106.88
392.534	106.88
392.759	99.88
392.984	99.88
393.208	98.88
393.433	96.88
393.658	107.88
393.882	110.88
394.107	119.88
394.331	115.88
394.556	100.88
394.78	115.88
395.005	97.88
395.229	117.88
395.454	128.88
395.678	103.88
395.903	105.88
396.127	93.88
396.352	103.88
396.576	100.88
396.801	106.88
397.025	113.88
397.249	101.88
397.474	106.88
397.698	116.88
397.922	109.88
398.147	120.88
398.371	102.88
398.595	118.88
398.82	123.88
399.044	98.88
399.268	89.88
399.492	105.88
399.717	117.88
399.941	108.88
400.165	110.88
400.389	106.88
400.613	113.88
400.837	114.88
401.062	111.88
401.286	108.88
401.51	106.88
401.734	100.88
401.958	104.88
402.182	107.88
402.406	112.88
402.63	107.88
402.854	116.88
403.078	114.88
403.302	115.88
403.526	110.88
403.75	129.88
403.974	105.88
404.198	117.88
404.422	107.88
404.645	116.88
404.869	128.88
405.093	122.88
405.317	122.88
405.541	103.88
405.765	128.88
405.988	113.88
406.212	104.88
406.436	131.88
406.66	126.88
406.883	131.88
407.107	119.88
407.331	110.88
407.555	119.88
407.778	111.88
408.002	118.88
408.226	110.88
408.449	117.88
408.673	111.88
408.896	124.88
409.12	113.88
409.344	118.88
409.567	112.88
409.791	118.88
410.014	115.88
410.238	120.88
410.461	125.88
410.685	127.88
410.908	118.88
411.132	117.88
411.355	118.88
411.578	122.88
411.802	107.88
412.025	129.88
412.249	122.88
412.472	120.88
412.695	116.88
412.919	118.88
413.142	115.88
413.365	134.88
413.589	104.88
413.812	120.88
414.035	130.88
414.258	125.88
414.482	125.88
414.705	129.88
414.928	134.88
415.151	113.88
415.374	129.88
415.597	135.88
415.821	134.88
416.044	123.88
416.267	124.88
416.49	110.88
416.713	125.88
416.936	134.88
417.159	121.88
417.382	121.88
417.605	119.88
417.828	128.88
418.051	129.88
418.274	136.88
418.497	141.88
418.72	141.88
418.943	133.88
419.166	130.88
419.389	122.88
419.611	144.88
419.834	137.88
420.057	123.88
420.28	129.88
420.503	127.88
420.726	132.88
420.948	141.88
421.171	130.88
421.394	129.88
421.617	142.88
421.839	139.88
422.062	131.88
422.285	127.88
422.507	135.88
422.73	117.88
422.953	121.88
423.175	135.88
423.398	129.88
423.621	150.88
423.843	124.88
424.066	135.88
424.288	150.88
424.511	151.88
424.733	146.88
424.956	138.88
425.178	140.88
425.401	130.88
425.623	130.88
425.846	122.88
426.068	127.88
426.291	126.88
426.513	125.88
426.735	130.88
426.958	126.88
427.18	125.88
427.402	124.88
427.625	154.88
427.847	132.88
428.069	121.88
428.292	133.88
428.514	132.88
428.736	115.88
428.958	129.88
429.181	132.88
429.403	141.88
429.625	124.88
429.847	109.88
430.069	106.88
430.292	136.88
430.514	125.88
430.736	123.88
430.958	132.88
431.18	124.88
431.402	118.88
431.624	104.88
431.846	115.88
432.068	105.88
432.29	115.88
432.512	107.88
432.734	115.88
432.956	120.88
433.178	132.88
433.4	130.88
433.622	126.88
433.844	129.88
434.066	120.88
434.287	114.88
434.509	89.88
434.731	103.88
434.953	113.88
435.175	110.88
435.397	129.88
435.618	119.88
435.84	100.88
436.062	107.88
436.284	119.88
436.505	124.88
436.727	122.88
436.949	122.88
437.17	118.88
437.392	126.88
437.614	118.88
437.835	129.88
438.057	109.88
438.278	120.88
438.5	118.88
438.721	130.88
438.943	145.88
439.165	136.88
439.386	141.88
439.608	137.88
439.829	126.88
440.05	126.88
440.272	141.88
440.493	134.88
440.715	138.88
440.936	142.88
441.158	148.88
441.379	148.88
441.6	148.88
441.822	154.88
442.043	137.88
442.264	134.88
442.486	147.88
442.707	153.88
442.928	144.88
443.149	139.88
443.371	148.88
443.592	140.88
443.813	132.88
444.034	134.88
444.255	142.88
444.476	143.88
444.698	133.88
444.919	139.88
445.14	272.88
445.361	186.88
445.582	149.88
445.803	136.88
446.024	139.88
446.245	154.88
446.466	144.88
446.687	147.88
446.908	155.88
447.129	142.88
447.35	152.88
447.571	143.88
447.792	127.88
448.013	116.88
448.234	136.88
448.455	153.88
448.675	131.88
448.896	155.88
449.117	130.88
449.338	119.88
449.559	131.88
449.779	141.88
450	140.88
450.221	131.88
450.442	140.88
450.662	142.88
450.883	129.88
451.104	135.88
451.324	133.88
451.545	126.88
451.766	122.88
451.986	130.88
452.207	121.88
452.428	118.88
452.648	134.88
452.869	124.88
453.089	109.88
453.31	109.88
453.53	103.88
453.751	101.88
453.971	107.88
454.192	94.88
454.412	96.88
454.633	116.88
454.853	119.88
455.073	129.88
455.294	127.88
455.514	118.88
455.734	115.88
455.955	111.88
456.175	119.88
456.395	111.88
456.616	116.88
456.836	122.88
457.056	111.88
457.276	113.88
457.497	109.88
457.717	110.88
457.937	100.88
458.157	107.88
458.377	108.88
458.598	101.88
458.818	99.88
459.038	88.88
459.258	90.88
459.478	99.88
459.698	90.88
459.918	89.88
460.138	108.88
460.358	109.88
460.578	126.88
460.798	114.88
461.018	108.88
461.238	127.88
461.458	115.88
461.678	115.88
461.898	103.88
462.118	121.88
462.338	114.88
462.558	119.88
462.777	115.88
462.997	111.88
463.217	108.88
463.437	116.88
463.657	109.88
463.876	96.88
464.096	104.88
464.316	111.88
464.536	115.88
464.755	118.88
464.975	117.88
465.195	125.88
465.414	120.88
465.634	111.88
465.854	107.88
466.073	107.88
466.293	116.88
466.512	121.88
466.732	126.88
466.951	147.88
467.171	113.88
467.391	137.88
467.61	131.88
467.829	133.88
468.049	151.88
468.268	126.88
468.488	133.88
468.707	120.88
468.927	117.88
469.146	134.88
469.365	133.88
469.585	150.88
469.804	124.88
470.023	131.88
470.243	123.88
470.462	131.88
470.681	160.88
470.901	144.88
471.12	131.88
471.339	137.88
471.558	150.88
471.777	143.88
471.997	127.88
472.216	141.88
472.435	123.88
472.654	110.88
472.873	125.88
473.092	123.88
473.311	116.88
473.53	119.88
473.749	120.88
473.968	120.88
474.187	121.88
474.406	117.88
474.625	132.88
474.844	146.88
475.063	131.88
475.282	129.88
475.501	120.88
475.72	125.88
475.939	111.88
476.158	123.88
476.377	119.88
476.596	119.88
476.814	116.88
477.033	100.88
477.252	109.88
477.471	118.88
477.69	117.88
477.908	121.88
478.127	141.88
478.346	116.88
478.564	133.88
478.783	143.88
479.002	124.88
479.22	155.88
479.439	131.88
479.658	129.88
479.876	105.88
480.095	103.88
480.313	115.88
480.532	119.88
480.751	100.88
480.969	90.88
481.188	85.88
481.406	93.88
481.624	83.88
481.843	98.88
482.061	89.88
482.28	110.88
482.498	116.88
482.717	110.88
482.935	127.88
483.153	129.88
483.372	147.88
483.59	147.88
483.808	137.88
484.027	140.88
484.245	140.88
484.463	140.88
484.681	163.88
484.9	139.88
485.118	147.88
485.336	131.88
485.554	115.88
485.772	106.88
485.99	104.88
486.209	107.88
486.427	103.88
486.645	131.88
486.863	118.88
487.081	131.88
487.299	126.88
487.517	133.88
487.735	143.88
487.953	183.88
488.171	177.88
488.389	155.88
488.607	171.88
488.825	131.88
489.043	139.88
489.261	131.88
489.479	126.88
489.696	136.88
489.914	148.88
490.132	130.88
490.35	153.88
490.568	163.88
490.786	186.88
491.003	182.88
491.221	168.88
491.439	173.88
491.657	186.88
491.874	198.88
492.092	215.88
492.31	231.88
492.527	226.88
492.745	215.88
492.963	182.88
493.18	169.88
493.398	173.88
493.615	168.88
493.833	170.88
494.05	158.88
494.268	185.88
494.485	161.88
494.703	168.88
494.92	158.88
495.138	154.88
495.355	157.88
495.573	176.88
495.79	163.88
496.008	174.88
496.225	160.88
496.442	154.88
496.66	163.88
496.877	170.88
497.094	166.88
497.312	161.88
497.529	159.88
497.746	151.88
497.963	131.88
498.181	135.88
498.398	111.88
498.615	120.88
498.832	110.88
499.049	122.88
499.267	116.88
499.484	128.88
499.701	134.88
499.918	139.88
500.135	127.88
500.352	150.88
500.569	135.88
500.786	150.88
501.003	122.88
501.22	135.88
501.437	138.88
501.654	130.88
501.871	123.88
502.088	120.88
502.305	120.88
502.522	120.88
502.739	139.88
502.956	139.88
503.172	122.88
503.389	120.88
503.606	115.88
503.823	120.88
504.04	111.88
504.256	117.88
504.473	101.88
504.69	110.88
504.907	115.88
505.123	123.88
505.34	127.88
505.557	125.88
505.773	135.88
505.99	113.88
506.207	100.88
506.423	106.88
506.64	115.88
506.856	126.88
507.073	118.88
507.289	123.88
507.506	119.88
507.722	118.88
507.939	116.88
508.155	115.88
508.372	120.88
508.588	107.88
508.805	94.88
509.021	93.88
509.238	109.88
509.454	107.88
509.67	94.88
509.887	93.88
510.103	94.88
510.319	91.88
510.536	87.88
510.752	92.88
510.968	89.88
511.184	84.88
511.401	75.88
511.617	95.88
511.833	90.88
