Data from Location1.07152019.Energy5.Lamp.07192019.3%Agarose_HRD10591_14-30-54-015.txt Node
Date: Fri Jul 19 14:30:54 EDT 2019
User: cochatt
Spectrometer: HR+D1059
Trigger mode: 1
Integration Time (sec): 1.000000E-1
Scans to average: 1
Electric dark correction enabled: true
Nonlinearity correction enabled: false
Boxcar width: 0
XAxis mode: Wavelengths
Number of Pixels in Spectrum: 2048
>>>>>Begin Spectral Data<<<<<
223.165	-20.81
223.4	-20.81
223.635	-20.81
223.869	-16.81
224.104	-20.81
224.338	-18.81
224.573	-3.81
224.808	-18.81
225.042	-1.81
225.277	-12.81
225.511	-0.81
225.746	21.19
225.98	-12.81
226.215	15.19
226.449	12.19
226.683	20.19
226.918	24.19
227.152	35.19
227.387	28.19
227.621	46.19
227.856	55.19
228.09	45.19
228.324	46.19
228.559	56.19
228.793	62.19
229.027	71.19
229.262	74.19
229.496	62.19
229.73	83.19
229.964	74.19
230.199	57.19
230.433	68.19
230.667	76.19
230.901	96.19
231.136	80.19
231.37	85.19
231.604	71.19
231.838	78.19
232.072	65.19
232.306	85.19
232.541	98.19
232.775	84.19
233.009	82.19
233.243	81.19
233.477	99.19
233.711	83.19
233.945	74.19
234.179	90.19
234.413	87.19
234.647	76.19
234.881	79.19
235.115	78.19
235.349	76.19
235.583	78.19
235.817	92.19
236.051	69.19
236.285	96.19
236.519	95.19
236.753	76.19
236.987	80.19
237.221	80.19
237.455	95.19
237.689	81.19
237.922	82.19
238.156	80.19
238.39	72.19
238.624	72.19
238.858	68.19
239.091	90.19
239.325	87.19
239.559	80.19
239.793	77.19
240.027	87.19
240.26	88.19
240.494	67.19
240.728	75.19
240.961	77.19
241.195	88.19
241.429	77.19
241.662	77.19
241.896	75.19
242.13	75.19
242.363	79.19
242.597	81.19
242.83	80.19
243.064	89.19
243.298	70.19
243.531	83.19
243.765	87.19
243.998	81.19
244.232	70.19
244.465	77.19
244.699	91.19
244.932	93.19
245.166	106.19
245.399	83.19
245.633	77.19
245.866	83.19
246.099	75.19
246.333	77.19
246.566	74.19
246.8	71.19
247.033	82.19
247.266	85.19
247.5	71.19
247.733	84.19
247.966	95.19
248.2	80.19
248.433	98.19
248.666	81.19
248.899	78.19
249.133	73.19
249.366	81.19
249.599	79.19
249.832	93.19
250.066	91.19
250.299	64.19
250.532	76.19
250.765	93.19
250.998	88.19
251.231	84.19
251.465	82.19
251.698	83.19
251.931	77.19
252.164	84.19
252.397	88.19
252.63	79.19
252.863	79.19
253.096	87.19
253.329	73.19
253.562	73.19
253.795	91.19
254.028	79.19
254.261	86.19
254.494	78.19
254.727	95.19
254.96	73.19
255.193	77.19
255.426	88.19
255.659	75.19
255.892	84.19
256.124	86.19
256.357	79.19
256.59	89.19
256.823	75.19
257.056	80.19
257.289	76.19
257.521	85.19
257.754	93.19
257.987	86.19
258.22	84.19
258.452	80.19
258.685	83.19
258.918	100.19
259.151	91.19
259.383	96.19
259.616	83.19
259.849	73.19
260.081	93.19
260.314	94.19
260.547	76.19
260.779	88.19
261.012	70.19
261.244	91.19
261.477	92.19
261.71	94.19
261.942	82.19
262.175	81.19
262.407	85.19
262.64	93.19
262.872	81.19
263.105	98.19
263.337	86.19
263.57	64.19
263.802	83.19
264.035	78.19
264.267	81.19
264.499	74.19
264.732	86.19
264.964	71.19
265.197	87.19
265.429	84.19
265.661	80.19
265.894	93.19
266.126	95.19
266.358	79.19
266.591	72.19
266.823	96.19
267.055	78.19
267.287	92.19
267.52	78.19
267.752	86.19
267.984	85.19
268.216	89.19
268.448	84.19
268.681	97.19
268.913	80.19
269.145	84.19
269.377	77.19
269.609	83.19
269.841	92.19
270.073	105.19
270.306	86.19
270.538	78.19
270.77	82.19
271.002	75.19
271.234	85.19
271.466	95.19
271.698	85.19
271.93	106.19
272.162	80.19
272.394	103.19
272.626	94.19
272.858	76.19
273.09	88.19
273.322	89.19
273.553	80.19
273.785	95.19
274.017	82.19
274.249	82.19
274.481	79.19
274.713	86.19
274.945	86.19
275.176	85.19
275.408	77.19
275.64	68.19
275.872	77.19
276.104	87.19
276.335	78.19
276.567	87.19
276.799	107.19
277.031	87.19
277.262	85.19
277.494	74.19
277.726	87.19
277.957	92.19
278.189	83.19
278.421	93.19
278.652	86.19
278.884	89.19
279.115	88.19
279.347	71.19
279.579	103.19
279.81	86.19
280.042	69.19
280.273	81.19
280.505	82.19
280.736	87.19
280.968	69.19
281.199	84.19
281.431	95.19
281.662	77.19
281.894	73.19
282.125	79.19
282.356	96.19
282.588	64.19
282.819	79.19
283.051	72.19
283.282	82.19
283.513	92.19
283.745	89.19
283.976	83.19
284.207	87.19
284.439	90.19
284.67	81.19
284.901	81.19
285.132	73.19
285.364	88.19
285.595	102.19
285.826	83.19
286.057	95.19
286.288	92.19
286.52	90.19
286.751	94.19
286.982	81.19
287.213	84.19
287.444	77.19
287.675	92.19
287.906	91.19
288.138	93.19
288.369	93.19
288.6	90.19
288.831	72.19
289.062	88.19
289.293	93.19
289.524	85.19
289.755	96.19
289.986	92.19
290.217	98.19
290.448	81.19
290.679	88.19
290.91	90.19
291.141	76.19
291.371	89.19
291.602	99.19
291.833	93.19
292.064	86.19
292.295	75.19
292.526	83.19
292.757	83.19
292.987	78.19
293.218	91.19
293.449	88.19
293.68	87.19
293.91	89.19
294.141	90.19
294.372	86.19
294.603	91.19
294.833	86.19
295.064	91.19
295.295	100.19
295.525	82.19
295.756	78.19
295.987	95.19
296.217	92.19
296.448	84.19
296.679	88.19
296.909	79.19
297.14	80.19
297.37	90.19
297.601	83.19
297.831	93.19
298.062	78.19
298.292	97.19
298.523	96.19
298.753	94.19
298.984	93.19
299.214	86.19
299.445	95.19
299.675	81.19
299.905	92.19
300.136	98.19
300.366	89.19
300.597	85.19
300.827	86.19
301.057	92.19
301.288	99.19
301.518	90.19
301.748	85.19
301.979	98.19
302.209	96.19
302.439	75.19
302.669	80.19
302.9	94.19
303.13	95.19
303.36	89.19
303.59	84.19
303.82	96.19
304.051	84.19
304.281	92.19
304.511	73.19
304.741	90.19
304.971	89.19
305.201	91.19
305.431	92.19
305.661	76.19
305.891	85.19
306.121	91.19
306.352	94.19
306.582	81.19
306.812	80.19
307.042	90.19
307.272	90.19
307.502	73.19
307.731	99.19
307.961	89.19
308.191	83.19
308.421	79.19
308.651	80.19
308.881	77.19
309.111	69.19
309.341	72.19
309.571	73.19
309.8	91.19
310.03	85.19
310.26	84.19
310.49	91.19
310.72	78.19
310.949	83.19
311.179	77.19
311.409	76.19
311.639	102.19
311.868	81.19
312.098	91.19
312.328	80.19
312.557	92.19
312.787	97.19
313.017	100.19
313.246	90.19
313.476	78.19
313.706	89.19
313.935	84.19
314.165	87.19
314.394	86.19
314.624	88.19
314.853	80.19
315.083	84.19
315.312	96.19
315.542	79.19
315.771	87.19
316.001	101.19
316.23	90.19
316.46	96.19
316.689	60.19
316.919	81.19
317.148	91.19
317.377	101.19
317.607	102.19
317.836	88.19
318.065	88.19
318.295	88.19
318.524	77.19
318.753	95.19
318.983	88.19
319.212	88.19
319.441	96.19
319.67	93.19
319.9	93.19
320.129	89.19
320.358	97.19
320.587	84.19
320.816	98.19
321.046	88.19
321.275	84.19
321.504	90.19
321.733	73.19
321.962	68.19
322.191	71.19
322.42	89.19
322.649	77.19
322.878	86.19
323.108	77.19
323.337	81.19
323.566	93.19
323.795	101.19
324.024	88.19
324.253	96.19
324.482	84.19
324.71	92.19
324.939	97.19
325.168	88.19
325.397	95.19
325.626	81.19
325.855	92.19
326.084	95.19
326.313	104.19
326.542	77.19
326.77	87.19
326.999	91.19
327.228	89.19
327.457	96.19
327.686	96.19
327.914	78.19
328.143	93.19
328.372	84.19
328.6	96.19
328.829	102.19
329.058	69.19
329.287	81.19
329.515	99.19
329.744	86.19
329.972	76.19
330.201	88.19
330.43	88.19
330.658	87.19
330.887	92.19
331.115	72.19
331.344	97.19
331.572	81.19
331.801	96.19
332.03	99.19
332.258	80.19
332.486	88.19
332.715	84.19
332.943	80.19
333.172	84.19
333.4	91.19
333.629	90.19
333.857	90.19
334.085	87.19
334.314	84.19
334.542	91.19
334.771	93.19
334.999	92.19
335.227	74.19
335.455	97.19
335.684	92.19
335.912	91.19
336.14	80.19
336.369	89.19
336.597	84.19
336.825	85.19
337.053	92.19
337.281	85.19
337.51	76.19
337.738	87.19
337.966	101.19
338.194	99.19
338.422	78.19
338.65	107.19
338.878	98.19
339.106	79.19
339.334	83.19
339.562	94.19
339.79	89.19
340.018	84.19
340.246	76.19
340.474	84.19
340.702	91.19
340.93	76.19
341.158	87.19
341.386	86.19
341.614	79.19
341.842	87.19
342.07	96.19
342.298	76.19
342.526	82.19
342.754	88.19
342.981	76.19
343.209	76.19
343.437	90.19
343.665	83.19
343.893	91.19
344.12	79.19
344.348	82.19
344.576	83.19
344.804	79.19
345.031	90.19
345.259	93.19
345.487	102.19
345.714	86.19
345.942	84.19
346.17	81.19
346.397	85.19
346.625	62.19
346.853	91.19
347.08	93.19
347.308	91.19
347.535	89.19
347.763	96.19
347.99	81.19
348.218	77.19
348.445	83.19
348.673	82.19
348.9	85.19
349.128	92.19
349.355	86.19
349.583	85.19
349.81	96.19
350.037	99.19
350.265	69.19
350.492	92.19
350.72	76.19
350.947	90.19
351.174	76.19
351.402	83.19
351.629	86.19
351.856	94.19
352.083	84.19
352.311	93.19
352.538	87.19
352.765	86.19
352.992	77.19
353.22	87.19
353.447	85.19
353.674	94.19
353.901	81.19
354.128	98.19
354.355	95.19
354.583	81.19
354.81	91.19
355.037	99.19
355.264	101.19
355.491	81.19
355.718	105.19
355.945	100.19
356.172	80.19
356.399	83.19
356.626	92.19
356.853	89.19
357.08	92.19
357.307	85.19
357.534	77.19
357.761	100.19
357.988	76.19
358.215	71.19
358.441	85.19
358.668	80.19
358.895	98.19
359.122	80.19
359.349	90.19
359.576	88.19
359.802	89.19
360.029	96.19
360.256	96.19
360.483	95.19
360.709	84.19
360.936	94.19
361.163	86.19
361.39	98.19
361.616	80.19
361.843	78.19
362.07	103.19
362.296	86.19
362.523	79.19
362.749	83.19
362.976	86.19
363.203	89.19
363.429	92.19
363.656	96.19
363.882	84.19
364.109	95.19
364.335	88.19
364.562	91.19
364.788	80.19
365.015	83.19
365.241	89.19
365.468	97.19
365.694	93.19
365.92	78.19
366.147	91.19
366.373	88.19
366.599	85.19
366.826	83.19
367.052	99.19
367.278	84.19
367.505	96.19
367.731	86.19
367.957	104.19
368.184	103.19
368.41	103.19
368.636	89.19
368.862	92.19
369.089	86.19
369.315	87.19
369.541	81.19
369.767	88.19
369.993	87.19
370.219	81.19
370.445	89.19
370.672	97.19
370.898	94.19
371.124	99.19
371.35	88.19
371.576	88.19
371.802	94.19
372.028	91.19
372.254	89.19
372.48	99.19
372.706	98.19
372.932	93.19
373.158	90.19
373.384	100.19
373.61	92.19
373.835	105.19
374.061	104.19
374.287	103.19
374.513	96.19
374.739	88.19
374.965	98.19
375.191	91.19
375.416	86.19
375.642	110.19
375.868	85.19
376.094	96.19
376.319	79.19
376.545	99.19
376.771	95.19
376.997	101.19
377.222	102.19
377.448	85.19
377.674	91.19
377.899	99.19
378.125	98.19
378.35	88.19
378.576	107.19
378.802	92.19
379.027	92.19
379.253	102.19
379.478	85.19
379.704	100.19
379.929	93.19
380.155	103.19
380.38	95.19
380.606	86.19
380.831	95.19
381.057	108.19
381.282	112.19
381.507	101.19
381.733	98.19
381.958	81.19
382.184	92.19
382.409	87.19
382.634	92.19
382.86	89.19
383.085	95.19
383.31	93.19
383.535	120.19
383.761	97.19
383.986	101.19
384.211	95.19
384.436	99.19
384.662	94.19
384.887	104.19
385.112	105.19
385.337	87.19
385.562	107.19
385.787	113.19
386.013	107.19
386.238	94.19
386.463	106.19
386.688	91.19
386.913	91.19
387.138	103.19
387.363	103.19
387.588	97.19
387.813	101.19
388.038	99.19
388.263	85.19
388.488	102.19
388.713	109.19
388.938	97.19
389.163	113.19
389.387	117.19
389.612	97.19
389.837	104.19
390.062	109.19
390.287	100.19
390.512	100.19
390.736	89.19
390.961	84.19
391.186	104.19
391.411	100.19
391.636	92.19
391.86	105.19
392.085	110.19
392.31	98.19
392.534	98.19
392.759	110.19
392.984	107.19
393.208	107.19
393.433	101.19
393.658	99.19
393.882	97.19
394.107	89.19
394.331	105.19
394.556	101.19
394.78	103.19
395.005	115.19
395.229	86.19
395.454	101.19
395.678	120.19
395.903	107.19
396.127	109.19
396.352	109.19
396.576	120.19
396.801	111.19
397.025	111.19
397.249	111.19
397.474	99.19
397.698	108.19
397.922	121.19
398.147	96.19
398.371	101.19
398.595	115.19
398.82	113.19
399.044	104.19
399.268	101.19
399.492	112.19
399.717	99.19
399.941	101.19
400.165	104.19
400.389	117.19
400.613	111.19
400.837	114.19
401.062	106.19
401.286	105.19
401.51	118.19
401.734	119.19
401.958	112.19
402.182	128.19
402.406	119.19
402.63	115.19
402.854	116.19
403.078	103.19
403.302	109.19
403.526	117.19
403.75	119.19
403.974	93.19
404.198	119.19
404.422	113.19
404.645	124.19
404.869	123.19
405.093	113.19
405.317	115.19
405.541	124.19
405.765	120.19
405.988	125.19
406.212	127.19
406.436	110.19
406.66	110.19
406.883	115.19
407.107	121.19
407.331	103.19
407.555	124.19
407.778	129.19
408.002	122.19
408.226	119.19
408.449	127.19
408.673	117.19
408.896	124.19
409.12	120.19
409.344	121.19
409.567	124.19
409.791	130.19
410.014	120.19
410.238	121.19
410.461	126.19
410.685	133.19
410.908	149.19
411.132	123.19
411.355	112.19
411.578	121.19
411.802	117.19
412.025	103.19
412.249	122.19
412.472	127.19
412.695	124.19
412.919	108.19
413.142	124.19
413.365	119.19
413.589	132.19
413.812	115.19
414.035	122.19
414.258	133.19
414.482	125.19
414.705	132.19
414.928	96.19
415.151	122.19
415.374	103.19
415.597	122.19
415.821	124.19
416.044	121.19
416.267	109.19
416.49	107.19
416.713	131.19
416.936	131.19
417.159	127.19
417.382	142.19
417.605	127.19
417.828	124.19
418.051	131.19
418.274	140.19
418.497	137.19
418.72	139.19
418.943	132.19
419.166	125.19
419.389	119.19
419.611	131.19
419.834	113.19
420.057	137.19
420.28	129.19
420.503	138.19
420.726	136.19
420.948	136.19
421.171	132.19
421.394	132.19
421.617	126.19
421.839	128.19
422.062	140.19
422.285	133.19
422.507	126.19
422.73	136.19
422.953	125.19
423.175	124.19
423.398	133.19
423.621	136.19
423.843	136.19
424.066	132.19
424.288	128.19
424.511	132.19
424.733	141.19
424.956	143.19
425.178	139.19
425.401	143.19
425.623	143.19
425.846	143.19
426.068	118.19
426.291	131.19
426.513	132.19
426.735	132.19
426.958	130.19
427.18	133.19
427.402	135.19
427.625	130.19
427.847	125.19
428.069	122.19
428.292	127.19
428.514	133.19
428.736	106.19
428.958	147.19
429.181	139.19
429.403	114.19
429.625	120.19
429.847	111.19
430.069	109.19
430.292	144.19
430.514	124.19
430.736	123.19
430.958	117.19
431.18	118.19
431.402	130.19
431.624	123.19
431.846	93.19
432.068	105.19
432.29	102.19
432.512	110.19
432.734	113.19
432.956	141.19
433.178	145.19
433.4	142.19
433.622	140.19
433.844	127.19
434.066	118.19
434.287	117.19
434.509	91.19
434.731	108.19
434.953	126.19
435.175	138.19
435.397	137.19
435.618	134.19
435.84	107.19
436.062	124.19
436.284	124.19
436.505	132.19
436.727	127.19
436.949	128.19
437.17	150.19
437.392	121.19
437.614	132.19
437.835	117.19
438.057	106.19
438.278	121.19
438.5	103.19
438.721	131.19
438.943	142.19
439.165	130.19
439.386	118.19
439.608	144.19
439.829	134.19
440.05	137.19
440.272	140.19
440.493	145.19
440.715	132.19
440.936	128.19
441.158	155.19
441.379	148.19
441.6	149.19
441.822	144.19
442.043	139.19
442.264	128.19
442.486	143.19
442.707	140.19
442.928	139.19
443.149	132.19
443.371	138.19
443.592	142.19
443.813	147.19
444.034	138.19
444.255	127.19
444.476	131.19
444.698	149.19
444.919	132.19
445.14	260.19
445.361	189.19
445.582	144.19
445.803	151.19
446.024	127.19
446.245	156.19
446.466	160.19
446.687	161.19
446.908	165.19
447.129	163.19
447.35	163.19
447.571	155.19
447.792	133.19
448.013	140.19
448.234	150.19
448.455	141.19
448.675	150.19
448.896	141.19
449.117	125.19
449.338	135.19
449.559	136.19
449.779	143.19
450	141.19
450.221	117.19
450.442	135.19
450.662	133.19
450.883	129.19
451.104	139.19
451.324	112.19
451.545	141.19
451.766	126.19
451.986	133.19
452.207	131.19
452.428	130.19
452.648	136.19
452.869	131.19
453.089	117.19
453.31	111.19
453.53	123.19
453.751	99.19
453.971	108.19
454.192	106.19
454.412	108.19
454.633	125.19
454.853	96.19
455.073	124.19
455.294	115.19
455.514	121.19
455.734	127.19
455.955	129.19
456.175	120.19
456.395	117.19
456.616	112.19
456.836	121.19
457.056	106.19
457.276	105.19
457.497	102.19
457.717	124.19
457.937	127.19
458.157	109.19
458.377	109.19
458.598	90.19
458.818	105.19
459.038	85.19
459.258	82.19
459.478	91.19
459.698	85.19
459.918	115.19
460.138	100.19
460.358	100.19
460.578	119.19
460.798	126.19
461.018	115.19
461.238	123.19
461.458	118.19
461.678	99.19
461.898	112.19
462.118	126.19
462.338	107.19
462.558	122.19
462.777	118.19
462.997	97.19
463.217	102.19
463.437	104.19
463.657	102.19
463.876	114.19
464.096	108.19
464.316	122.19
464.536	116.19
464.755	109.19
464.975	97.19
465.195	119.19
465.414	124.19
465.634	111.19
465.854	116.19
466.073	108.19
466.293	128.19
466.512	131.19
466.732	135.19
466.951	125.19
467.171	147.19
467.391	137.19
467.61	134.19
467.829	133.19
468.049	137.19
468.268	143.19
468.488	125.19
468.707	125.19
468.927	129.19
469.146	134.19
469.365	133.19
469.585	133.19
469.804	125.19
470.023	129.19
470.243	145.19
470.462	130.19
470.681	145.19
470.901	130.19
471.12	128.19
471.339	139.19
471.558	136.19
471.777	151.19
471.997	130.19
472.216	152.19
472.435	128.19
472.654	122.19
472.873	108.19
473.092	109.19
473.311	129.19
473.53	130.19
473.749	131.19
473.968	123.19
474.187	122.19
474.406	110.19
474.625	128.19
474.844	135.19
475.063	128.19
475.282	132.19
475.501	128.19
475.72	136.19
475.939	122.19
476.158	139.19
476.377	126.19
476.596	122.19
476.814	125.19
477.033	108.19
477.252	104.19
477.471	118.19
477.69	139.19
477.908	128.19
478.127	151.19
478.346	135.19
478.564	141.19
478.783	135.19
479.002	139.19
479.22	146.19
479.439	113.19
479.658	117.19
479.876	116.19
480.095	115.19
480.313	103.19
480.532	107.19
480.751	119.19
480.969	100.19
481.188	90.19
481.406	105.19
481.624	91.19
481.843	97.19
482.061	91.19
482.28	116.19
482.498	116.19
482.717	105.19
482.935	117.19
483.153	143.19
483.372	146.19
483.59	143.19
483.808	147.19
484.027	129.19
484.245	127.19
484.463	131.19
484.681	179.19
484.9	152.19
485.118	137.19
485.336	132.19
485.554	102.19
485.772	103.19
485.99	99.19
486.209	109.19
486.427	115.19
486.645	117.19
486.863	153.19
487.081	131.19
487.299	139.19
487.517	128.19
487.735	158.19
487.953	175.19
488.171	188.19
488.389	204.19
488.607	172.19
488.825	133.19
489.043	135.19
489.261	132.19
489.479	151.19
489.696	149.19
489.914	156.19
490.132	137.19
490.35	137.19
490.568	159.19
490.786	168.19
491.003	172.19
491.221	154.19
491.439	182.19
491.657	188.19
491.874	191.19
492.092	229.19
492.31	238.19
492.527	220.19
492.745	219.19
492.963	199.19
493.18	186.19
493.398	160.19
493.615	198.19
493.833	149.19
494.05	163.19
494.268	170.19
494.485	182.19
494.703	171.19
494.92	165.19
495.138	166.19
495.355	168.19
495.573	180.19
495.79	167.19
496.008	166.19
496.225	158.19
496.442	163.19
496.66	169.19
496.877	174.19
497.094	161.19
497.312	167.19
497.529	168.19
497.746	148.19
497.963	140.19
498.181	130.19
498.398	137.19
498.615	129.19
498.832	115.19
499.049	123.19
499.267	118.19
499.484	125.19
499.701	143.19
499.918	128.19
500.135	139.19
500.352	151.19
500.569	137.19
500.786	138.19
501.003	139.19
501.22	147.19
501.437	146.19
501.654	141.19
501.871	133.19
502.088	134.19
502.305	134.19
502.522	136.19
502.739	129.19
502.956	131.19
503.172	128.19
503.389	113.19
503.606	113.19
503.823	122.19
504.04	131.19
504.256	112.19
504.473	118.19
504.69	111.19
504.907	139.19
505.123	110.19
505.34	120.19
505.557	125.19
505.773	112.19
505.99	135.19
506.207	120.19
506.423	122.19
506.64	137.19
506.856	127.19
507.073	119.19
507.289	123.19
507.506	113.19
507.722	115.19
507.939	123.19
508.155	128.19
508.372	126.19
508.588	98.19
508.805	109.19
509.021	114.19
509.238	102.19
509.454	107.19
509.67	94.19
509.887	110.19
510.103	95.19
510.319	103.19
510.536	102.19
510.752	90.19
510.968	100.19
511.184	94.19
