Data from Location1.07152019.Energy5.Lamp.07192019.3%Agarose_HRD10591_14-31-21-016.txt Node
Date: Fri Jul 19 14:31:21 EDT 2019
User: cochatt
Spectrometer: HR+D1059
Trigger mode: 1
Integration Time (sec): 1.000000E-1
Scans to average: 1
Electric dark correction enabled: true
Nonlinearity correction enabled: false
Boxcar width: 0
XAxis mode: Wavelengths
Number of Pixels in Spectrum: 2048
>>>>>Begin Spectral Data<<<<<
223.165	-18.62
223.4	-18.62
223.635	-18.62
223.869	-15.62
224.104	-27.62
224.338	-10.62
224.573	-12.62
224.808	-8.62
225.042	-21.62
225.277	-13.62
225.511	6.38
225.746	8.38
225.98	5.38
226.215	9.38
226.449	24.38
226.683	17.38
226.918	26.38
227.152	31.38
227.387	23.38
227.621	35.38
227.856	44.38
228.09	47.38
228.324	44.38
228.559	51.38
228.793	41.38
229.027	43.38
229.262	60.38
229.496	55.38
229.73	58.38
229.964	78.38
230.199	60.38
230.433	61.38
230.667	72.38
230.901	72.38
231.136	70.38
231.37	74.38
231.604	81.38
231.838	92.38
232.072	79.38
232.306	78.38
232.541	78.38
232.775	83.38
233.009	74.38
233.243	70.38
233.477	79.38
233.711	79.38
233.945	87.38
234.179	83.38
234.413	81.38
234.647	68.38
234.881	76.38
235.115	78.38
235.349	84.38
235.583	83.38
235.817	72.38
236.051	73.38
236.285	72.38
236.519	70.38
236.753	69.38
236.987	76.38
237.221	67.38
237.455	72.38
237.689	68.38
237.922	80.38
238.156	89.38
238.39	72.38
238.624	67.38
238.858	71.38
239.091	64.38
239.325	81.38
239.559	88.38
239.793	67.38
240.027	82.38
240.26	70.38
240.494	72.38
240.728	65.38
240.961	69.38
241.195	72.38
241.429	79.38
241.662	76.38
241.896	75.38
242.13	88.38
242.363	77.38
242.597	79.38
242.83	59.38
243.064	82.38
243.298	71.38
243.531	77.38
243.765	75.38
243.998	88.38
244.232	87.38
244.465	65.38
244.699	74.38
244.932	68.38
245.166	87.38
245.399	84.38
245.633	70.38
245.866	62.38
246.099	71.38
246.333	79.38
246.566	74.38
246.8	69.38
247.033	72.38
247.266	69.38
247.5	62.38
247.733	77.38
247.966	68.38
248.2	76.38
248.433	80.38
248.666	68.38
248.899	63.38
249.133	67.38
249.366	78.38
249.599	76.38
249.832	90.38
250.066	90.38
250.299	80.38
250.532	72.38
250.765	74.38
250.998	63.38
251.231	58.38
251.465	84.38
251.698	63.38
251.931	75.38
252.164	85.38
252.397	75.38
252.63	80.38
252.863	83.38
253.096	79.38
253.329	79.38
253.562	87.38
253.795	80.38
254.028	67.38
254.261	60.38
254.494	67.38
254.727	83.38
254.96	86.38
255.193	68.38
255.426	91.38
255.659	68.38
255.892	82.38
256.124	74.38
256.357	67.38
256.59	73.38
256.823	82.38
257.056	80.38
257.289	85.38
257.521	75.38
257.754	78.38
257.987	69.38
258.22	72.38
258.452	75.38
258.685	71.38
258.918	80.38
259.151	82.38
259.383	79.38
259.616	70.38
259.849	79.38
260.081	85.38
260.314	79.38
260.547	67.38
260.779	75.38
261.012	72.38
261.244	63.38
261.477	87.38
261.71	65.38
261.942	73.38
262.175	80.38
262.407	74.38
262.64	76.38
262.872	75.38
263.105	78.38
263.337	75.38
263.57	66.38
263.802	75.38
264.035	80.38
264.267	89.38
264.499	88.38
264.732	79.38
264.964	89.38
265.197	77.38
265.429	84.38
265.661	73.38
265.894	67.38
266.126	81.38
266.358	76.38
266.591	77.38
266.823	86.38
267.055	78.38
267.287	80.38
267.52	90.38
267.752	90.38
267.984	75.38
268.216	82.38
268.448	91.38
268.681	77.38
268.913	80.38
269.145	90.38
269.377	84.38
269.609	76.38
269.841	75.38
270.073	89.38
270.306	81.38
270.538	82.38
270.77	78.38
271.002	80.38
271.234	75.38
271.466	75.38
271.698	77.38
271.93	83.38
272.162	79.38
272.394	83.38
272.626	72.38
272.858	85.38
273.09	86.38
273.322	72.38
273.553	98.38
273.785	93.38
274.017	78.38
274.249	92.38
274.481	75.38
274.713	77.38
274.945	81.38
275.176	73.38
275.408	80.38
275.64	68.38
275.872	77.38
276.104	85.38
276.335	77.38
276.567	73.38
276.799	72.38
277.031	86.38
277.262	88.38
277.494	85.38
277.726	83.38
277.957	81.38
278.189	85.38
278.421	82.38
278.652	76.38
278.884	90.38
279.115	79.38
279.347	78.38
279.579	75.38
279.81	69.38
280.042	85.38
280.273	81.38
280.505	68.38
280.736	77.38
280.968	80.38
281.199	78.38
281.431	89.38
281.662	89.38
281.894	77.38
282.125	84.38
282.356	84.38
282.588	81.38
282.819	77.38
283.051	84.38
283.282	81.38
283.513	89.38
283.745	81.38
283.976	87.38
284.207	87.38
284.439	86.38
284.67	84.38
284.901	90.38
285.132	87.38
285.364	74.38
285.595	81.38
285.826	79.38
286.057	96.38
286.288	85.38
286.52	85.38
286.751	75.38
286.982	67.38
287.213	71.38
287.444	86.38
287.675	71.38
287.906	84.38
288.138	87.38
288.369	87.38
288.6	88.38
288.831	80.38
289.062	106.38
289.293	89.38
289.524	89.38
289.755	86.38
289.986	74.38
290.217	80.38
290.448	91.38
290.679	72.38
290.91	78.38
291.141	73.38
291.371	79.38
291.602	80.38
291.833	74.38
292.064	107.38
292.295	81.38
292.526	75.38
292.757	89.38
292.987	88.38
293.218	86.38
293.449	87.38
293.68	73.38
293.91	75.38
294.141	82.38
294.372	90.38
294.603	71.38
294.833	74.38
295.064	83.38
295.295	84.38
295.525	80.38
295.756	85.38
295.987	74.38
296.217	97.38
296.448	83.38
296.679	85.38
296.909	84.38
297.14	75.38
297.37	82.38
297.601	77.38
297.831	95.38
298.062	87.38
298.292	86.38
298.523	92.38
298.753	92.38
298.984	85.38
299.214	84.38
299.445	89.38
299.675	72.38
299.905	76.38
300.136	99.38
300.366	81.38
300.597	77.38
300.827	86.38
301.057	74.38
301.288	100.38
301.518	79.38
301.748	91.38
301.979	91.38
302.209	81.38
302.439	76.38
302.669	99.38
302.9	79.38
303.13	77.38
303.36	82.38
303.59	74.38
303.82	61.38
304.051	83.38
304.281	90.38
304.511	87.38
304.741	79.38
304.971	78.38
305.201	79.38
305.431	85.38
305.661	64.38
305.891	89.38
306.121	82.38
306.352	85.38
306.582	75.38
306.812	86.38
307.042	82.38
307.272	73.38
307.502	87.38
307.731	83.38
307.961	83.38
308.191	85.38
308.421	84.38
308.651	84.38
308.881	85.38
309.111	85.38
309.341	77.38
309.571	81.38
309.8	68.38
310.03	86.38
310.26	67.38
310.49	75.38
310.72	88.38
310.949	81.38
311.179	84.38
311.409	86.38
311.639	78.38
311.868	83.38
312.098	84.38
312.328	74.38
312.557	81.38
312.787	79.38
313.017	93.38
313.246	81.38
313.476	99.38
313.706	75.38
313.935	89.38
314.165	72.38
314.394	78.38
314.624	76.38
314.853	77.38
315.083	71.38
315.312	82.38
315.542	86.38
315.771	73.38
316.001	86.38
316.23	82.38
316.46	88.38
316.689	79.38
316.919	76.38
317.148	90.38
317.377	89.38
317.607	77.38
317.836	89.38
318.065	85.38
318.295	89.38
318.524	89.38
318.753	78.38
318.983	92.38
319.212	95.38
319.441	80.38
319.67	79.38
319.9	76.38
320.129	83.38
320.358	81.38
320.587	84.38
320.816	74.38
321.046	76.38
321.275	82.38
321.504	65.38
321.733	82.38
321.962	77.38
322.191	88.38
322.42	91.38
322.649	77.38
322.878	83.38
323.108	79.38
323.337	85.38
323.566	81.38
323.795	75.38
324.024	71.38
324.253	83.38
324.482	79.38
324.71	93.38
324.939	93.38
325.168	84.38
325.397	66.38
325.626	87.38
325.855	90.38
326.084	80.38
326.313	85.38
326.542	88.38
326.77	87.38
326.999	79.38
327.228	85.38
327.457	67.38
327.686	76.38
327.914	67.38
328.143	90.38
328.372	97.38
328.6	83.38
328.829	68.38
329.058	87.38
329.287	79.38
329.515	89.38
329.744	89.38
329.972	85.38
330.201	92.38
330.43	81.38
330.658	77.38
330.887	86.38
331.115	87.38
331.344	76.38
331.572	89.38
331.801	82.38
332.03	79.38
332.258	77.38
332.486	91.38
332.715	74.38
332.943	71.38
333.172	87.38
333.4	81.38
333.629	82.38
333.857	79.38
334.085	80.38
334.314	81.38
334.542	88.38
334.771	88.38
334.999	88.38
335.227	68.38
335.455	84.38
335.684	76.38
335.912	75.38
336.14	83.38
336.369	89.38
336.597	70.38
336.825	81.38
337.053	71.38
337.281	63.38
337.51	87.38
337.738	83.38
337.966	86.38
338.194	84.38
338.422	65.38
338.65	72.38
338.878	83.38
339.106	81.38
339.334	80.38
339.562	84.38
339.79	85.38
340.018	82.38
340.246	85.38
340.474	82.38
340.702	85.38
340.93	85.38
341.158	81.38
341.386	81.38
341.614	83.38
341.842	69.38
342.07	83.38
342.298	68.38
342.526	71.38
342.754	90.38
342.981	84.38
343.209	92.38
343.437	92.38
343.665	72.38
343.893	79.38
344.12	81.38
344.348	81.38
344.576	77.38
344.804	86.38
345.031	96.38
345.259	79.38
345.487	92.38
345.714	93.38
345.942	90.38
346.17	83.38
346.397	88.38
346.625	78.38
346.853	76.38
347.08	84.38
347.308	79.38
347.535	74.38
347.763	84.38
347.99	78.38
348.218	87.38
348.445	89.38
348.673	95.38
348.9	88.38
349.128	71.38
349.355	84.38
349.583	84.38
349.81	82.38
350.037	80.38
350.265	82.38
350.492	73.38
350.72	92.38
350.947	78.38
351.174	96.38
351.402	87.38
351.629	91.38
351.856	75.38
352.083	79.38
352.311	91.38
352.538	87.38
352.765	83.38
352.992	93.38
353.22	84.38
353.447	70.38
353.674	85.38
353.901	85.38
354.128	74.38
354.355	86.38
354.583	88.38
354.81	64.38
355.037	96.38
355.264	80.38
355.491	87.38
355.718	71.38
355.945	90.38
356.172	89.38
356.399	78.38
356.626	65.38
356.853	93.38
357.08	93.38
357.307	81.38
357.534	72.38
357.761	77.38
357.988	79.38
358.215	85.38
358.441	88.38
358.668	78.38
358.895	85.38
359.122	93.38
359.349	78.38
359.576	72.38
359.802	76.38
360.029	67.38
360.256	83.38
360.483	80.38
360.709	87.38
360.936	78.38
361.163	84.38
361.39	77.38
361.616	84.38
361.843	83.38
362.07	88.38
362.296	83.38
362.523	66.38
362.749	75.38
362.976	74.38
363.203	72.38
363.429	79.38
363.656	88.38
363.882	86.38
364.109	75.38
364.335	96.38
364.562	77.38
364.788	70.38
365.015	89.38
365.241	79.38
365.468	87.38
365.694	90.38
365.92	79.38
366.147	89.38
366.373	71.38
366.599	87.38
366.826	78.38
367.052	83.38
367.278	85.38
367.505	82.38
367.731	74.38
367.957	87.38
368.184	87.38
368.41	77.38
368.636	74.38
368.862	81.38
369.089	83.38
369.315	80.38
369.541	92.38
369.767	75.38
369.993	108.38
370.219	90.38
370.445	77.38
370.672	92.38
370.898	86.38
371.124	80.38
371.35	87.38
371.576	89.38
371.802	100.38
372.028	90.38
372.254	91.38
372.48	80.38
372.706	83.38
372.932	89.38
373.158	83.38
373.384	94.38
373.61	94.38
373.835	87.38
374.061	77.38
374.287	75.38
374.513	83.38
374.739	90.38
374.965	84.38
375.191	75.38
375.416	86.38
375.642	95.38
375.868	93.38
376.094	92.38
376.319	92.38
376.545	85.38
376.771	87.38
376.997	85.38
377.222	78.38
377.448	77.38
377.674	89.38
377.899	79.38
378.125	89.38
378.35	81.38
378.576	96.38
378.802	90.38
379.027	106.38
379.253	103.38
379.478	87.38
379.704	102.38
379.929	95.38
380.155	88.38
380.38	75.38
380.606	92.38
380.831	93.38
381.057	101.38
381.282	102.38
381.507	87.38
381.733	78.38
381.958	104.38
382.184	93.38
382.409	114.38
382.634	93.38
382.86	100.38
383.085	101.38
383.31	99.38
383.535	96.38
383.761	84.38
383.986	93.38
384.211	97.38
384.436	92.38
384.662	92.38
384.887	80.38
385.112	96.38
385.337	82.38
385.562	90.38
385.787	104.38
386.013	105.38
386.238	97.38
386.463	87.38
386.688	82.38
386.913	88.38
387.138	92.38
387.363	107.38
387.588	90.38
387.813	102.38
388.038	95.38
388.263	99.38
388.488	91.38
388.713	88.38
388.938	105.38
389.163	92.38
389.387	96.38
389.612	113.38
389.837	98.38
390.062	99.38
390.287	106.38
390.512	97.38
390.736	107.38
390.961	82.38
391.186	112.38
391.411	114.38
391.636	111.38
391.86	86.38
392.085	100.38
392.31	102.38
392.534	96.38
392.759	106.38
392.984	98.38
393.208	100.38
393.433	99.38
393.658	92.38
393.882	108.38
394.107	122.38
394.331	103.38
394.556	100.38
394.78	106.38
395.005	101.38
395.229	99.38
395.454	94.38
395.678	113.38
395.903	122.38
396.127	104.38
396.352	101.38
396.576	108.38
396.801	111.38
397.025	102.38
397.249	114.38
397.474	91.38
397.698	98.38
397.922	116.38
398.147	100.38
398.371	106.38
398.595	113.38
398.82	106.38
399.044	123.38
399.268	93.38
399.492	98.38
399.717	109.38
399.941	102.38
400.165	89.38
400.389	101.38
400.613	110.38
400.837	101.38
401.062	102.38
401.286	116.38
401.51	104.38
401.734	105.38
401.958	111.38
402.182	106.38
402.406	111.38
402.63	117.38
402.854	108.38
403.078	116.38
403.302	118.38
403.526	119.38
403.75	112.38
403.974	117.38
404.198	122.38
404.422	124.38
404.645	101.38
404.869	116.38
405.093	118.38
405.317	117.38
405.541	115.38
405.765	113.38
405.988	115.38
406.212	125.38
406.436	113.38
406.66	111.38
406.883	133.38
407.107	111.38
407.331	108.38
407.555	108.38
407.778	116.38
408.002	100.38
408.226	115.38
408.449	93.38
408.673	123.38
408.896	127.38
409.12	103.38
409.344	119.38
409.567	116.38
409.791	112.38
410.014	123.38
410.238	133.38
410.461	125.38
410.685	130.38
410.908	107.38
411.132	134.38
411.355	119.38
411.578	105.38
411.802	108.38
412.025	104.38
412.249	117.38
412.472	114.38
412.695	123.38
412.919	111.38
413.142	119.38
413.365	105.38
413.589	118.38
413.812	112.38
414.035	116.38
414.258	124.38
414.482	116.38
414.705	124.38
414.928	129.38
415.151	123.38
415.374	111.38
415.597	126.38
415.821	113.38
416.044	109.38
416.267	107.38
416.49	110.38
416.713	124.38
416.936	125.38
417.159	121.38
417.382	107.38
417.605	114.38
417.828	111.38
418.051	123.38
418.274	120.38
418.497	119.38
418.72	136.38
418.943	108.38
419.166	132.38
419.389	147.38
419.611	126.38
419.834	121.38
420.057	117.38
420.28	124.38
420.503	110.38
420.726	112.38
420.948	128.38
421.171	125.38
421.394	137.38
421.617	146.38
421.839	133.38
422.062	132.38
422.285	137.38
422.507	119.38
422.73	127.38
422.953	131.38
423.175	121.38
423.398	126.38
423.621	125.38
423.843	127.38
424.066	136.38
424.288	137.38
424.511	155.38
424.733	147.38
424.956	138.38
425.178	129.38
425.401	131.38
425.623	145.38
425.846	122.38
426.068	143.38
426.291	108.38
426.513	104.38
426.735	125.38
426.958	111.38
427.18	120.38
427.402	126.38
427.625	126.38
427.847	125.38
428.069	125.38
428.292	121.38
428.514	119.38
428.736	110.38
428.958	123.38
429.181	125.38
429.403	117.38
429.625	131.38
429.847	131.38
430.069	131.38
430.292	128.38
430.514	127.38
430.736	129.38
430.958	127.38
431.18	121.38
431.402	124.38
431.624	116.38
431.846	108.38
432.068	96.38
432.29	109.38
432.512	107.38
432.734	129.38
432.956	129.38
433.178	145.38
433.4	127.38
433.622	127.38
433.844	120.38
434.066	124.38
434.287	101.38
434.509	88.38
434.731	95.38
434.953	95.38
435.175	108.38
435.397	118.38
435.618	104.38
435.84	105.38
436.062	122.38
436.284	117.38
436.505	135.38
436.727	117.38
436.949	117.38
437.17	131.38
437.392	131.38
437.614	119.38
437.835	113.38
438.057	103.38
438.278	105.38
438.5	117.38
438.721	143.38
438.943	136.38
439.165	135.38
439.386	141.38
439.608	140.38
439.829	147.38
440.05	143.38
440.272	140.38
440.493	137.38
440.715	131.38
440.936	121.38
441.158	145.38
441.379	151.38
441.6	143.38
441.822	136.38
442.043	148.38
442.264	136.38
442.486	141.38
442.707	137.38
442.928	150.38
443.149	114.38
443.371	133.38
443.592	132.38
443.813	142.38
444.034	140.38
444.255	116.38
444.476	138.38
444.698	135.38
444.919	144.38
445.14	257.38
445.361	183.38
445.582	139.38
445.803	139.38
446.024	146.38
446.245	142.38
446.466	158.38
446.687	163.38
446.908	149.38
447.129	147.38
447.35	152.38
447.571	159.38
447.792	133.38
448.013	135.38
448.234	133.38
448.455	127.38
448.675	130.38
448.896	126.38
449.117	131.38
449.338	120.38
449.559	129.38
449.779	144.38
450	132.38
450.221	128.38
450.442	142.38
450.662	135.38
450.883	127.38
451.104	111.38
451.324	137.38
451.545	123.38
451.766	124.38
451.986	128.38
452.207	128.38
452.428	120.38
452.648	123.38
452.869	111.38
453.089	127.38
453.31	120.38
453.53	112.38
453.751	98.38
453.971	96.38
454.192	114.38
454.412	115.38
454.633	109.38
454.853	111.38
455.073	125.38
455.294	131.38
455.514	124.38
455.734	119.38
455.955	115.38
456.175	113.38
456.395	106.38
456.616	104.38
456.836	113.38
457.056	101.38
457.276	96.38
457.497	123.38
457.717	113.38
457.937	104.38
458.157	106.38
458.377	106.38
458.598	92.38
458.818	73.38
459.038	76.38
459.258	76.38
459.478	71.38
459.698	95.38
459.918	94.38
460.138	103.38
460.358	123.38
460.578	115.38
460.798	108.38
461.018	124.38
461.238	115.38
461.458	102.38
461.678	100.38
461.898	108.38
462.118	114.38
462.338	112.38
462.558	116.38
462.777	112.38
462.997	118.38
463.217	108.38
463.437	99.38
463.657	103.38
463.876	107.38
464.096	90.38
464.316	93.38
464.536	109.38
464.755	122.38
464.975	123.38
465.195	100.38
465.414	111.38
465.634	127.38
465.854	121.38
466.073	117.38
466.293	125.38
466.512	117.38
466.732	126.38
466.951	120.38
467.171	127.38
467.391	129.38
467.61	161.38
467.829	149.38
468.049	126.38
468.268	115.38
468.488	141.38
468.707	135.38
468.927	130.38
469.146	122.38
469.365	148.38
469.585	145.38
469.804	130.38
470.023	119.38
470.243	128.38
470.462	138.38
470.681	134.38
470.901	142.38
471.12	141.38
471.339	134.38
471.558	124.38
471.777	143.38
471.997	132.38
472.216	122.38
472.435	115.38
472.654	95.38
472.873	106.38
473.092	116.38
473.311	121.38
473.53	117.38
473.749	123.38
473.968	115.38
474.187	132.38
474.406	124.38
474.625	112.38
474.844	140.38
475.063	116.38
475.282	128.38
475.501	121.38
475.72	121.38
475.939	112.38
476.158	108.38
476.377	127.38
476.596	131.38
476.814	117.38
477.033	101.38
477.252	107.38
477.471	120.38
477.69	135.38
477.908	135.38
478.127	148.38
478.346	144.38
478.564	124.38
478.783	135.38
479.002	140.38
479.22	124.38
479.439	121.38
479.658	130.38
479.876	117.38
480.095	102.38
480.313	121.38
480.532	108.38
480.751	112.38
480.969	98.38
481.188	81.38
481.406	97.38
481.624	98.38
481.843	91.38
482.061	86.38
482.28	105.38
482.498	99.38
482.717	98.38
482.935	104.38
483.153	133.38
483.372	129.38
483.59	134.38
483.808	124.38
484.027	135.38
484.245	121.38
484.463	131.38
484.681	147.38
484.9	163.38
485.118	145.38
485.336	112.38
485.554	104.38
485.772	100.38
485.99	102.38
486.209	105.38
486.427	109.38
486.645	125.38
486.863	124.38
487.081	120.38
487.299	132.38
487.517	125.38
487.735	157.38
487.953	178.38
488.171	184.38
488.389	180.38
488.607	173.38
488.825	134.38
489.043	133.38
489.261	128.38
489.479	137.38
489.696	129.38
489.914	136.38
490.132	137.38
490.35	147.38
490.568	163.38
490.786	171.38
491.003	165.38
491.221	183.38
491.439	173.38
491.657	181.38
491.874	190.38
492.092	201.38
492.31	239.38
492.527	204.38
492.745	199.38
492.963	183.38
493.18	175.38
493.398	169.38
493.615	172.38
493.833	152.38
494.05	176.38
494.268	166.38
494.485	160.38
494.703	178.38
494.92	178.38
495.138	165.38
495.355	156.38
495.573	155.38
495.79	159.38
496.008	149.38
496.225	164.38
496.442	160.38
496.66	150.38
496.877	171.38
497.094	161.38
497.312	160.38
497.529	156.38
497.746	142.38
497.963	141.38
498.181	125.38
498.398	119.38
498.615	102.38
498.832	109.38
499.049	123.38
499.267	111.38
499.484	131.38
499.701	131.38
499.918	141.38
500.135	127.38
500.352	135.38
500.569	136.38
500.786	132.38
501.003	137.38
501.22	133.38
501.437	130.38
501.654	135.38
501.871	133.38
502.088	137.38
502.305	129.38
502.522	130.38
502.739	140.38
502.956	115.38
503.172	122.38
503.389	122.38
503.606	131.38
503.823	117.38
504.04	118.38
504.256	121.38
504.473	117.38
504.69	109.38
504.907	134.38
505.123	105.38
505.34	116.38
505.557	112.38
505.773	120.38
505.99	112.38
506.207	128.38
506.423	116.38
506.64	123.38
506.856	115.38
507.073	99.38
507.289	118.38
507.506	112.38
507.722	117.38
507.939	102.38
508.155	134.38
508.372	109.38
508.588	113.38
508.805	111.38
509.021	96.38
509.238	102.38
509.454	98.38
509.67	97.38
509.887	97.38
510.103	93.38
510.319	106.38
510.536	98.38
510.752	88.38
510.968	87.38
511.184	96.38
511.401	78.38
511.617	94.38
511.833	95.38
512.049	92.38
