Data from Location1.07152019.Energy5.Lamp.07192019.3%Agarose_HRD10591_14-32-07-016.txt Node
Date: Fri Jul 19 14:32:07 EDT 2019
User: cochatt
Spectrometer: HR+D1059
Trigger mode: 1
Integration Time (sec): 1.000000E-1
Scans to average: 1
Electric dark correction enabled: true
Nonlinearity correction enabled: false
Boxcar width: 0
XAxis mode: Wavelengths
Number of Pixels in Spectrum: 2048
>>>>>Begin Spectral Data<<<<<
223.165	-8.25
223.4	-8.25
223.635	-8.25
223.869	-8.25
224.104	-16.25
224.338	-21.25
224.573	-25.25
224.808	-14.25
225.042	-0.25
225.277	-11.25
225.511	-0.25
225.746	3.75
225.98	-4.25
226.215	1.75
226.449	24.75
226.683	21.75
226.918	17.75
227.152	39.75
227.387	24.75
227.621	29.75
227.856	51.75
228.09	51.75
228.324	52.75
228.559	52.75
228.793	51.75
229.027	63.75
229.262	59.75
229.496	68.75
229.73	66.75
229.964	64.75
230.199	71.75
230.433	66.75
230.667	66.75
230.901	85.75
231.136	82.75
231.37	66.75
231.604	73.75
231.838	76.75
232.072	77.75
232.306	80.75
232.541	89.75
232.775	83.75
233.009	74.75
233.243	85.75
233.477	79.75
233.711	70.75
233.945	87.75
234.179	75.75
234.413	77.75
234.647	71.75
234.881	83.75
235.115	67.75
235.349	81.75
235.583	75.75
235.817	77.75
236.051	79.75
236.285	87.75
236.519	82.75
236.753	81.75
236.987	96.75
237.221	71.75
237.455	64.75
237.689	80.75
237.922	82.75
238.156	67.75
238.39	76.75
238.624	76.75
238.858	74.75
239.091	71.75
239.325	84.75
239.559	67.75
239.793	66.75
240.027	85.75
240.26	70.75
240.494	73.75
240.728	77.75
240.961	77.75
241.195	67.75
241.429	80.75
241.662	68.75
241.896	76.75
242.13	72.75
242.363	89.75
242.597	74.75
242.83	76.75
243.064	66.75
243.298	79.75
243.531	72.75
243.765	71.75
243.998	82.75
244.232	79.75
244.465	75.75
244.699	81.75
244.932	69.75
245.166	72.75
245.399	70.75
245.633	67.75
245.866	79.75
246.099	79.75
246.333	73.75
246.566	66.75
246.8	67.75
247.033	67.75
247.266	73.75
247.5	73.75
247.733	68.75
247.966	64.75
248.2	68.75
248.433	62.75
248.666	62.75
248.899	66.75
249.133	64.75
249.366	85.75
249.599	76.75
249.832	81.75
250.066	86.75
250.299	82.75
250.532	80.75
250.765	78.75
250.998	84.75
251.231	80.75
251.465	79.75
251.698	68.75
251.931	79.75
252.164	77.75
252.397	80.75
252.63	84.75
252.863	80.75
253.096	82.75
253.329	74.75
253.562	74.75
253.795	87.75
254.028	70.75
254.261	82.75
254.494	79.75
254.727	80.75
254.96	83.75
255.193	84.75
255.426	76.75
255.659	73.75
255.892	68.75
256.124	77.75
256.357	81.75
256.59	73.75
256.823	62.75
257.056	74.75
257.289	69.75
257.521	73.75
257.754	76.75
257.987	71.75
258.22	74.75
258.452	82.75
258.685	74.75
258.918	64.75
259.151	91.75
259.383	70.75
259.616	87.75
259.849	66.75
260.081	69.75
260.314	76.75
260.547	66.75
260.779	76.75
261.012	73.75
261.244	72.75
261.477	83.75
261.71	72.75
261.942	82.75
262.175	93.75
262.407	77.75
262.64	67.75
262.872	78.75
263.105	71.75
263.337	74.75
263.57	100.75
263.802	74.75
264.035	76.75
264.267	77.75
264.499	75.75
264.732	69.75
264.964	81.75
265.197	58.75
265.429	79.75
265.661	72.75
265.894	84.75
266.126	86.75
266.358	70.75
266.591	66.75
266.823	64.75
267.055	82.75
267.287	88.75
267.52	82.75
267.752	88.75
267.984	75.75
268.216	79.75
268.448	82.75
268.681	79.75
268.913	78.75
269.145	76.75
269.377	77.75
269.609	79.75
269.841	67.75
270.073	85.75
270.306	77.75
270.538	73.75
270.77	74.75
271.002	76.75
271.234	87.75
271.466	70.75
271.698	85.75
271.93	73.75
272.162	81.75
272.394	73.75
272.626	77.75
272.858	92.75
273.09	78.75
273.322	88.75
273.553	80.75
273.785	84.75
274.017	77.75
274.249	85.75
274.481	81.75
274.713	86.75
274.945	75.75
275.176	71.75
275.408	83.75
275.64	67.75
275.872	81.75
276.104	62.75
276.335	80.75
276.567	85.75
276.799	65.75
277.031	95.75
277.262	71.75
277.494	86.75
277.726	73.75
277.957	73.75
278.189	70.75
278.421	87.75
278.652	79.75
278.884	87.75
279.115	76.75
279.347	70.75
279.579	81.75
279.81	61.75
280.042	75.75
280.273	67.75
280.505	88.75
280.736	75.75
280.968	71.75
281.199	67.75
281.431	83.75
281.662	60.75
281.894	76.75
282.125	82.75
282.356	94.75
282.588	78.75
282.819	82.75
283.051	89.75
283.282	80.75
283.513	82.75
283.745	85.75
283.976	69.75
284.207	86.75
284.439	82.75
284.67	83.75
284.901	90.75
285.132	81.75
285.364	83.75
285.595	75.75
285.826	83.75
286.057	91.75
286.288	75.75
286.52	82.75
286.751	74.75
286.982	94.75
287.213	68.75
287.444	84.75
287.675	70.75
287.906	81.75
288.138	87.75
288.369	91.75
288.6	66.75
288.831	77.75
289.062	89.75
289.293	81.75
289.524	82.75
289.755	78.75
289.986	91.75
290.217	84.75
290.448	73.75
290.679	80.75
290.91	79.75
291.141	78.75
291.371	90.75
291.602	91.75
291.833	82.75
292.064	84.75
292.295	89.75
292.526	66.75
292.757	76.75
292.987	86.75
293.218	80.75
293.449	90.75
293.68	83.75
293.91	87.75
294.141	85.75
294.372	67.75
294.603	66.75
294.833	91.75
295.064	76.75
295.295	77.75
295.525	84.75
295.756	82.75
295.987	74.75
296.217	69.75
296.448	78.75
296.679	80.75
296.909	87.75
297.14	84.75
297.37	71.75
297.601	81.75
297.831	84.75
298.062	83.75
298.292	73.75
298.523	100.75
298.753	90.75
298.984	79.75
299.214	85.75
299.445	93.75
299.675	72.75
299.905	83.75
300.136	85.75
300.366	94.75
300.597	77.75
300.827	78.75
301.057	90.75
301.288	68.75
301.518	84.75
301.748	90.75
301.979	76.75
302.209	83.75
302.439	70.75
302.669	82.75
302.9	80.75
303.13	86.75
303.36	61.75
303.59	95.75
303.82	90.75
304.051	93.75
304.281	92.75
304.511	69.75
304.741	73.75
304.971	77.75
305.201	77.75
305.431	93.75
305.661	81.75
305.891	81.75
306.121	78.75
306.352	69.75
306.582	75.75
306.812	73.75
307.042	82.75
307.272	90.75
307.502	77.75
307.731	88.75
307.961	79.75
308.191	80.75
308.421	84.75
308.651	79.75
308.881	91.75
309.111	72.75
309.341	77.75
309.571	68.75
309.8	92.75
310.03	70.75
310.26	86.75
310.49	71.75
310.72	71.75
310.949	85.75
311.179	83.75
311.409	79.75
311.639	87.75
311.868	79.75
312.098	86.75
312.328	79.75
312.557	83.75
312.787	85.75
313.017	80.75
313.246	86.75
313.476	80.75
313.706	82.75
313.935	62.75
314.165	72.75
314.394	73.75
314.624	77.75
314.853	80.75
315.083	83.75
315.312	89.75
315.542	86.75
315.771	83.75
316.001	71.75
316.23	80.75
316.46	81.75
316.689	76.75
316.919	82.75
317.148	71.75
317.377	92.75
317.607	92.75
317.836	84.75
318.065	83.75
318.295	74.75
318.524	72.75
318.753	68.75
318.983	75.75
319.212	90.75
319.441	83.75
319.67	87.75
319.9	82.75
320.129	80.75
320.358	84.75
320.587	87.75
320.816	80.75
321.046	86.75
321.275	82.75
321.504	87.75
321.733	75.75
321.962	84.75
322.191	85.75
322.42	67.75
322.649	99.75
322.878	89.75
323.108	85.75
323.337	83.75
323.566	76.75
323.795	71.75
324.024	92.75
324.253	74.75
324.482	82.75
324.71	84.75
324.939	70.75
325.168	93.75
325.397	88.75
325.626	81.75
325.855	77.75
326.084	75.75
326.313	83.75
326.542	75.75
326.77	81.75
326.999	86.75
327.228	83.75
327.457	67.75
327.686	73.75
327.914	68.75
328.143	99.75
328.372	88.75
328.6	94.75
328.829	72.75
329.058	81.75
329.287	87.75
329.515	77.75
329.744	84.75
329.972	87.75
330.201	80.75
330.43	83.75
330.658	79.75
330.887	81.75
331.115	98.75
331.344	81.75
331.572	99.75
331.801	72.75
332.03	83.75
332.258	95.75
332.486	82.75
332.715	72.75
332.943	90.75
333.172	72.75
333.4	80.75
333.629	87.75
333.857	73.75
334.085	83.75
334.314	83.75
334.542	87.75
334.771	68.75
334.999	88.75
335.227	74.75
335.455	65.75
335.684	79.75
335.912	77.75
336.14	76.75
336.369	86.75
336.597	84.75
336.825	82.75
337.053	71.75
337.281	81.75
337.51	78.75
337.738	86.75
337.966	76.75
338.194	86.75
338.422	90.75
338.65	89.75
338.878	87.75
339.106	82.75
339.334	90.75
339.562	80.75
339.79	95.75
340.018	79.75
340.246	75.75
340.474	75.75
340.702	88.75
340.93	85.75
341.158	87.75
341.386	77.75
341.614	86.75
341.842	82.75
342.07	75.75
342.298	92.75
342.526	94.75
342.754	99.75
342.981	93.75
343.209	82.75
343.437	88.75
343.665	78.75
343.893	88.75
344.12	84.75
344.348	82.75
344.576	70.75
344.804	81.75
345.031	77.75
345.259	70.75
345.487	72.75
345.714	75.75
345.942	73.75
346.17	87.75
346.397	95.75
346.625	58.75
346.853	67.75
347.08	73.75
347.308	74.75
347.535	89.75
347.763	97.75
347.99	72.75
348.218	74.75
348.445	76.75
348.673	83.75
348.9	82.75
349.128	76.75
349.355	91.75
349.583	77.75
349.81	93.75
350.037	85.75
350.265	82.75
350.492	74.75
350.72	88.75
350.947	90.75
351.174	91.75
351.402	79.75
351.629	77.75
351.856	88.75
352.083	90.75
352.311	68.75
352.538	69.75
352.765	80.75
352.992	82.75
353.22	69.75
353.447	75.75
353.674	81.75
353.901	88.75
354.128	82.75
354.355	82.75
354.583	91.75
354.81	71.75
355.037	76.75
355.264	91.75
355.491	88.75
355.718	83.75
355.945	88.75
356.172	84.75
356.399	65.75
356.626	83.75
356.853	85.75
357.08	77.75
357.307	77.75
357.534	83.75
357.761	83.75
357.988	72.75
358.215	72.75
358.441	80.75
358.668	82.75
358.895	91.75
359.122	80.75
359.349	87.75
359.576	88.75
359.802	89.75
360.029	84.75
360.256	88.75
360.483	75.75
360.709	83.75
360.936	76.75
361.163	77.75
361.39	81.75
361.616	81.75
361.843	93.75
362.07	81.75
362.296	85.75
362.523	82.75
362.749	64.75
362.976	81.75
363.203	91.75
363.429	70.75
363.656	93.75
363.882	76.75
364.109	73.75
364.335	89.75
364.562	96.75
364.788	81.75
365.015	89.75
365.241	88.75
365.468	83.75
365.694	79.75
365.92	96.75
366.147	84.75
366.373	87.75
366.599	73.75
366.826	77.75
367.052	87.75
367.278	92.75
367.505	86.75
367.731	90.75
367.957	86.75
368.184	93.75
368.41	91.75
368.636	75.75
368.862	96.75
369.089	86.75
369.315	68.75
369.541	86.75
369.767	77.75
369.993	78.75
370.219	90.75
370.445	84.75
370.672	80.75
370.898	98.75
371.124	92.75
371.35	75.75
371.576	91.75
371.802	86.75
372.028	85.75
372.254	86.75
372.48	87.75
372.706	71.75
372.932	83.75
373.158	83.75
373.384	88.75
373.61	95.75
373.835	88.75
374.061	73.75
374.287	88.75
374.513	88.75
374.739	85.75
374.965	83.75
375.191	91.75
375.416	90.75
375.642	91.75
375.868	81.75
376.094	86.75
376.319	89.75
376.545	85.75
376.771	92.75
376.997	81.75
377.222	72.75
377.448	100.75
377.674	83.75
377.899	89.75
378.125	83.75
378.35	90.75
378.576	91.75
378.802	87.75
379.027	98.75
379.253	95.75
379.478	94.75
379.704	77.75
379.929	112.75
380.155	92.75
380.38	81.75
380.606	95.75
380.831	88.75
381.057	92.75
381.282	87.75
381.507	77.75
381.733	87.75
381.958	77.75
382.184	98.75
382.409	94.75
382.634	83.75
382.86	101.75
383.085	85.75
383.31	91.75
383.535	82.75
383.761	88.75
383.986	95.75
384.211	91.75
384.436	95.75
384.662	95.75
384.887	85.75
385.112	116.75
385.337	92.75
385.562	85.75
385.787	87.75
386.013	111.75
386.238	86.75
386.463	76.75
386.688	80.75
386.913	105.75
387.138	86.75
387.363	100.75
387.588	105.75
387.813	94.75
388.038	87.75
388.263	100.75
388.488	92.75
388.713	106.75
388.938	108.75
389.163	103.75
389.387	90.75
389.612	99.75
389.837	101.75
390.062	97.75
390.287	92.75
390.512	96.75
390.736	105.75
390.961	81.75
391.186	85.75
391.411	95.75
391.636	87.75
391.86	99.75
392.085	93.75
392.31	99.75
392.534	99.75
392.759	108.75
392.984	108.75
393.208	93.75
393.433	100.75
393.658	100.75
393.882	105.75
394.107	102.75
394.331	96.75
394.556	104.75
394.78	105.75
395.005	104.75
395.229	98.75
395.454	100.75
395.678	115.75
395.903	103.75
396.127	92.75
396.352	93.75
396.576	114.75
396.801	103.75
397.025	107.75
397.249	113.75
397.474	116.75
397.698	96.75
397.922	106.75
398.147	99.75
398.371	108.75
398.595	113.75
398.82	89.75
399.044	111.75
399.268	91.75
399.492	111.75
399.717	125.75
399.941	125.75
400.165	114.75
400.389	111.75
400.613	115.75
400.837	107.75
401.062	108.75
401.286	98.75
401.51	98.75
401.734	116.75
401.958	106.75
402.182	94.75
402.406	105.75
402.63	96.75
402.854	108.75
403.078	112.75
403.302	107.75
403.526	121.75
403.75	121.75
403.974	99.75
404.198	115.75
404.422	110.75
404.645	112.75
404.869	112.75
405.093	119.75
405.317	100.75
405.541	124.75
405.765	105.75
405.988	111.75
406.212	112.75
406.436	108.75
406.66	94.75
406.883	106.75
407.107	117.75
407.331	109.75
407.555	127.75
407.778	119.75
408.002	135.75
408.226	134.75
408.449	121.75
408.673	117.75
408.896	122.75
409.12	103.75
409.344	109.75
409.567	107.75
409.791	121.75
410.014	102.75
410.238	103.75
410.461	114.75
410.685	113.75
410.908	112.75
411.132	107.75
411.355	102.75
411.578	135.75
411.802	103.75
412.025	120.75
412.249	117.75
412.472	107.75
412.695	118.75
412.919	107.75
413.142	107.75
413.365	127.75
413.589	116.75
413.812	110.75
414.035	121.75
414.258	113.75
414.482	117.75
414.705	109.75
414.928	123.75
415.151	100.75
415.374	111.75
415.597	123.75
415.821	123.75
416.044	126.75
416.267	117.75
416.49	115.75
416.713	119.75
416.936	125.75
417.159	136.75
417.382	129.75
417.605	122.75
417.828	124.75
418.051	120.75
418.274	117.75
418.497	119.75
418.72	119.75
418.943	127.75
419.166	129.75
419.389	134.75
419.611	120.75
419.834	119.75
420.057	124.75
420.28	144.75
420.503	119.75
420.726	124.75
420.948	134.75
421.171	122.75
421.394	141.75
421.617	129.75
421.839	127.75
422.062	129.75
422.285	129.75
422.507	125.75
422.73	120.75
422.953	124.75
423.175	142.75
423.398	129.75
423.621	134.75
423.843	132.75
424.066	122.75
424.288	123.75
424.511	134.75
424.733	143.75
424.956	113.75
425.178	124.75
425.401	121.75
425.623	127.75
425.846	131.75
426.068	130.75
426.291	138.75
426.513	125.75
426.735	121.75
426.958	134.75
427.18	113.75
427.402	125.75
427.625	118.75
427.847	124.75
428.069	118.75
428.292	125.75
428.514	128.75
428.736	129.75
428.958	109.75
429.181	121.75
429.403	129.75
429.625	123.75
429.847	111.75
430.069	119.75
430.292	121.75
430.514	117.75
430.736	122.75
430.958	116.75
431.18	118.75
431.402	120.75
431.624	118.75
431.846	121.75
432.068	97.75
432.29	99.75
432.512	118.75
432.734	142.75
432.956	133.75
433.178	149.75
433.4	122.75
433.622	139.75
433.844	105.75
434.066	113.75
434.287	107.75
434.509	97.75
434.731	74.75
434.953	102.75
435.175	122.75
435.397	116.75
435.618	110.75
435.84	115.75
436.062	103.75
436.284	127.75
436.505	131.75
436.727	135.75
436.949	127.75
437.17	132.75
437.392	128.75
437.614	108.75
437.835	113.75
438.057	95.75
438.278	123.75
438.5	109.75
438.721	133.75
438.943	119.75
439.165	119.75
439.386	132.75
439.608	131.75
439.829	152.75
440.05	139.75
440.272	145.75
440.493	149.75
440.715	142.75
440.936	123.75
441.158	131.75
441.379	134.75
441.6	124.75
441.822	128.75
442.043	137.75
442.264	139.75
442.486	126.75
442.707	125.75
442.928	131.75
443.149	120.75
443.371	131.75
443.592	135.75
443.813	137.75
444.034	147.75
444.255	135.75
444.476	120.75
444.698	124.75
444.919	134.75
445.14	283.75
445.361	198.75
445.582	149.75
445.803	142.75
446.024	131.75
446.245	147.75
446.466	153.75
446.687	142.75
446.908	150.75
447.129	142.75
447.35	141.75
447.571	155.75
447.792	133.75
448.013	135.75
448.234	134.75
448.455	133.75
448.675	135.75
448.896	135.75
449.117	129.75
449.338	134.75
449.559	141.75
449.779	123.75
450	133.75
450.221	136.75
450.442	141.75
450.662	127.75
450.883	140.75
451.104	125.75
451.324	117.75
451.545	111.75
451.766	127.75
451.986	120.75
452.207	127.75
452.428	132.75
452.648	108.75
452.869	119.75
453.089	119.75
453.31	105.75
453.53	101.75
453.751	100.75
453.971	96.75
454.192	102.75
454.412	101.75
454.633	103.75
454.853	119.75
455.073	115.75
455.294	100.75
455.514	104.75
455.734	132.75
455.955	120.75
456.175	117.75
456.395	104.75
456.616	96.75
456.836	111.75
457.056	101.75
457.276	98.75
457.497	100.75
457.717	85.75
457.937	99.75
458.157	93.75
458.377	106.75
458.598	113.75
458.818	91.75
459.038	97.75
459.258	86.75
459.478	72.75
459.698	87.75
459.918	105.75
460.138	88.75
460.358	93.75
460.578	112.75
460.798	113.75
461.018	115.75
461.238	122.75
461.458	108.75
461.678	120.75
461.898	112.75
462.118	112.75
462.338	106.75
462.558	108.75
462.777	95.75
462.997	99.75
463.217	119.75
463.437	98.75
463.657	99.75
463.876	115.75
464.096	113.75
464.316	107.75
464.536	107.75
464.755	130.75
464.975	104.75
465.195	105.75
465.414	106.75
465.634	111.75
465.854	105.75
466.073	105.75
466.293	121.75
466.512	127.75
466.732	128.75
466.951	130.75
467.171	128.75
467.391	131.75
467.61	135.75
467.829	134.75
468.049	126.75
468.268	128.75
468.488	124.75
468.707	108.75
468.927	132.75
469.146	125.75
469.365	134.75
469.585	135.75
469.804	137.75
470.023	127.75
470.243	126.75
470.462	124.75
470.681	139.75
470.901	136.75
471.12	124.75
471.339	146.75
471.558	142.75
471.777	129.75
471.997	124.75
472.216	128.75
472.435	127.75
472.654	99.75
472.873	91.75
473.092	104.75
473.311	124.75
473.53	131.75
473.749	127.75
473.968	136.75
474.187	122.75
474.406	109.75
474.625	116.75
474.844	123.75
475.063	126.75
475.282	116.75
475.501	124.75
475.72	121.75
475.939	119.75
476.158	127.75
476.377	117.75
476.596	118.75
476.814	121.75
477.033	109.75
477.252	108.75
477.471	113.75
477.69	111.75
477.908	122.75
478.127	138.75
478.346	124.75
478.564	131.75
478.783	122.75
479.002	138.75
479.22	115.75
479.439	143.75
479.658	126.75
479.876	109.75
480.095	96.75
480.313	98.75
480.532	108.75
480.751	102.75
480.969	98.75
481.188	90.75
481.406	79.75
481.624	77.75
481.843	88.75
482.061	100.75
482.28	103.75
482.498	116.75
482.717	115.75
482.935	103.75
483.153	129.75
483.372	142.75
483.59	152.75
483.808	123.75
484.027	121.75
484.245	134.75
484.463	136.75
484.681	168.75
484.9	151.75
485.118	134.75
485.336	115.75
485.554	107.75
485.772	99.75
485.99	84.75
486.209	93.75
486.427	108.75
486.645	112.75
486.863	124.75
487.081	138.75
487.299	129.75
487.517	129.75
487.735	141.75
487.953	175.75
488.171	173.75
488.389	146.75
488.607	161.75
488.825	134.75
489.043	139.75
489.261	118.75
489.479	155.75
489.696	137.75
489.914	131.75
490.132	140.75
490.35	151.75
490.568	158.75
490.786	156.75
491.003	168.75
491.221	186.75
491.439	168.75
491.657	189.75
491.874	196.75
492.092	216.75
492.31	235.75
492.527	216.75
492.745	181.75
492.963	183.75
493.18	175.75
493.398	182.75
493.615	181.75
493.833	170.75
494.05	169.75
494.268	151.75
494.485	165.75
494.703	168.75
494.92	176.75
495.138	167.75
495.355	165.75
495.573	172.75
495.79	164.75
496.008	154.75
496.225	179.75
496.442	167.75
496.66	162.75
496.877	155.75
497.094	160.75
497.312	158.75
497.529	160.75
497.746	138.75
497.963	121.75
498.181	137.75
498.398	126.75
498.615	114.75
498.832	123.75
499.049	100.75
499.267	114.75
499.484	119.75
499.701	128.75
499.918	125.75
500.135	131.75
500.352	129.75
500.569	132.75
500.786	138.75
501.003	136.75
501.22	117.75
501.437	127.75
501.654	121.75
501.871	128.75
502.088	123.75
502.305	129.75
502.522	129.75
502.739	122.75
502.956	127.75
503.172	124.75
503.389	99.75
503.606	119.75
503.823	115.75
504.04	119.75
504.256	113.75
504.473	116.75
504.69	110.75
504.907	124.75
505.123	129.75
505.34	123.75
505.557	116.75
505.773	116.75
505.99	120.75
506.207	113.75
506.423	115.75
506.64	130.75
506.856	130.75
507.073	113.75
507.289	106.75
507.506	122.75
507.722	119.75
507.939	121.75
508.155	136.75
508.372	107.75
508.588	106.75
508.805	107.75
509.021	96.75
509.238	93.75
509.454	97.75
509.67	103.75
509.887	106.75
510.103	86.75
510.319	97.75
510.536	113.75
510.752	76.75
510.968	75.75
511.184	69.75
511.401	76.75
511.617	75.75
511.833	100.75
512.049	94.75
512.265	91.75
512.481	87.75
