Data from Location1.07152019.Energy5.Lamp.07192019.3%Agarose_HRD10591_14-30-29-015.txt Node
Date: Fri Jul 19 14:30:29 EDT 2019
User: cochatt
Spectrometer: HR+D1059
Trigger mode: 1
Integration Time (sec): 1.000000E-1
Scans to average: 1
Electric dark correction enabled: true
Nonlinearity correction enabled: false
Boxcar width: 0
XAxis mode: Wavelengths
Number of Pixels in Spectrum: 2048
>>>>>Begin Spectral Data<<<<<
223.165	-22
223.4	-22
223.635	-22
223.869	-18
224.104	-20
224.338	-3
224.573	-22
224.808	-11
225.042	-13
225.277	-11
225.511	-2
225.746	15
225.98	10
226.215	22
226.449	5
226.683	15
226.918	31
227.152	24
227.387	31
227.621	51
227.856	29
228.09	50
228.324	41
228.559	43
228.793	68
229.027	79
229.262	50
229.496	57
229.73	54
229.964	69
230.199	78
230.433	76
230.667	85
230.901	77
231.136	78
231.37	79
231.604	66
231.838	77
232.072	83
232.306	81
232.541	71
232.775	88
233.009	84
233.243	72
233.477	81
233.711	83
233.945	74
234.179	76
234.413	85
234.647	71
234.881	82
235.115	77
235.349	78
235.583	85
235.817	79
236.051	66
236.285	77
236.519	85
236.753	72
236.987	70
237.221	73
237.455	80
237.689	82
237.922	75
238.156	77
238.39	63
238.624	63
238.858	82
239.091	70
239.325	78
239.559	70
239.793	77
240.027	74
240.26	81
240.494	80
240.728	73
240.961	83
241.195	68
241.429	84
241.662	69
241.896	75
242.13	83
242.363	62
242.597	73
242.83	89
243.064	85
243.298	70
243.531	85
243.765	75
243.998	72
244.232	72
244.465	87
244.699	87
244.932	69
245.166	83
245.399	74
245.633	84
245.866	90
246.099	66
246.333	71
246.566	75
246.8	76
247.033	78
247.266	87
247.5	75
247.733	84
247.966	79
248.2	74
248.433	72
248.666	62
248.899	80
249.133	84
249.366	90
249.599	85
249.832	84
250.066	74
250.299	94
250.532	76
250.765	87
250.998	81
251.231	70
251.465	85
251.698	83
251.931	67
252.164	85
252.397	87
252.63	79
252.863	84
253.096	76
253.329	84
253.562	68
253.795	61
254.028	79
254.261	78
254.494	72
254.727	75
254.96	76
255.193	82
255.426	87
255.659	89
255.892	75
256.124	77
256.357	85
256.59	90
256.823	76
257.056	72
257.289	85
257.521	73
257.754	85
257.987	71
258.22	74
258.452	76
258.685	92
258.918	82
259.151	79
259.383	74
259.616	78
259.849	90
260.081	84
260.314	69
260.547	77
260.779	85
261.012	70
261.244	78
261.477	64
261.71	78
261.942	79
262.175	67
262.407	75
262.64	67
262.872	73
263.105	86
263.337	92
263.57	71
263.802	68
264.035	84
264.267	78
264.499	84
264.732	90
264.964	89
265.197	67
265.429	69
265.661	81
265.894	79
266.126	93
266.358	83
266.591	86
266.823	80
267.055	67
267.287	66
267.52	69
267.752	72
267.984	73
268.216	90
268.448	80
268.681	85
268.913	78
269.145	91
269.377	83
269.609	91
269.841	83
270.073	80
270.306	82
270.538	88
270.77	79
271.002	76
271.234	82
271.466	88
271.698	87
271.93	74
272.162	67
272.394	80
272.626	86
272.858	76
273.09	89
273.322	79
273.553	81
273.785	78
274.017	87
274.249	90
274.481	101
274.713	71
274.945	78
275.176	83
275.408	77
275.64	80
275.872	86
276.104	88
276.335	85
276.567	97
276.799	75
277.031	91
277.262	75
277.494	83
277.726	83
277.957	72
278.189	83
278.421	75
278.652	63
278.884	85
279.115	86
279.347	74
279.579	83
279.81	76
280.042	81
280.273	81
280.505	96
280.736	85
280.968	78
281.199	79
281.431	77
281.662	89
281.894	86
282.125	85
282.356	91
282.588	82
282.819	87
283.051	78
283.282	83
283.513	89
283.745	85
283.976	78
284.207	81
284.439	73
284.67	95
284.901	95
285.132	91
285.364	69
285.595	87
285.826	95
286.057	96
286.288	94
286.52	79
286.751	98
286.982	90
287.213	82
287.444	89
287.675	84
287.906	70
288.138	70
288.369	85
288.6	96
288.831	99
289.062	95
289.293	89
289.524	84
289.755	86
289.986	94
290.217	85
290.448	75
290.679	77
290.91	105
291.141	94
291.371	86
291.602	84
291.833	80
292.064	105
292.295	82
292.526	84
292.757	91
292.987	85
293.218	80
293.449	91
293.68	84
293.91	87
294.141	74
294.372	77
294.603	83
294.833	86
295.064	80
295.295	83
295.525	78
295.756	101
295.987	94
296.217	78
296.448	97
296.679	82
296.909	84
297.14	77
297.37	83
297.601	98
297.831	82
298.062	88
298.292	86
298.523	89
298.753	84
298.984	79
299.214	85
299.445	100
299.675	72
299.905	73
300.136	81
300.366	83
300.597	100
300.827	86
301.057	79
301.288	103
301.518	101
301.748	74
301.979	75
302.209	75
302.439	96
302.669	84
302.9	81
303.13	71
303.36	94
303.59	92
303.82	81
304.051	83
304.281	76
304.511	89
304.741	86
304.971	70
305.201	84
305.431	82
305.661	82
305.891	72
306.121	97
306.352	80
306.582	89
306.812	79
307.042	92
307.272	110
307.502	94
307.731	94
307.961	83
308.191	102
308.421	78
308.651	81
308.881	91
309.111	87
309.341	85
309.571	73
309.8	94
310.03	74
310.26	90
310.49	91
310.72	86
310.949	87
311.179	86
311.409	83
311.639	91
311.868	102
312.098	70
312.328	88
312.557	89
312.787	74
313.017	83
313.246	66
313.476	74
313.706	87
313.935	90
314.165	95
314.394	76
314.624	88
314.853	77
315.083	96
315.312	74
315.542	92
315.771	90
316.001	81
316.23	74
316.46	73
316.689	85
316.919	81
317.148	84
317.377	86
317.607	83
317.836	85
318.065	79
318.295	78
318.524	79
318.753	85
318.983	87
319.212	88
319.441	87
319.67	86
319.9	82
320.129	91
320.358	81
320.587	82
320.816	91
321.046	85
321.275	98
321.504	78
321.733	74
321.962	86
322.191	85
322.42	74
322.649	86
322.878	84
323.108	88
323.337	83
323.566	82
323.795	100
324.024	94
324.253	77
324.482	73
324.71	87
324.939	85
325.168	93
325.397	84
325.626	92
325.855	94
326.084	98
326.313	83
326.542	76
326.77	71
326.999	87
327.228	81
327.457	84
327.686	79
327.914	83
328.143	88
328.372	97
328.6	80
328.829	90
329.058	72
329.287	84
329.515	82
329.744	93
329.972	88
330.201	77
330.43	84
330.658	73
330.887	91
331.115	90
331.344	81
331.572	86
331.801	80
332.03	85
332.258	85
332.486	84
332.715	97
332.943	86
333.172	88
333.4	75
333.629	82
333.857	93
334.085	84
334.314	82
334.542	79
334.771	86
334.999	90
335.227	95
335.455	78
335.684	78
335.912	88
336.14	95
336.369	94
336.597	84
336.825	90
337.053	69
337.281	94
337.51	90
337.738	85
337.966	88
338.194	82
338.422	74
338.65	84
338.878	85
339.106	97
339.334	87
339.562	94
339.79	76
340.018	78
340.246	76
340.474	77
340.702	79
340.93	86
341.158	91
341.386	83
341.614	92
341.842	101
342.07	64
342.298	84
342.526	88
342.754	88
342.981	93
343.209	89
343.437	82
343.665	96
343.893	86
344.12	85
344.348	106
344.576	85
344.804	85
345.031	94
345.259	94
345.487	85
345.714	83
345.942	89
346.17	74
346.397	89
346.625	74
346.853	90
347.08	85
347.308	82
347.535	81
347.763	86
347.99	81
348.218	74
348.445	71
348.673	83
348.9	86
349.128	98
349.355	84
349.583	75
349.81	77
350.037	85
350.265	87
350.492	98
350.72	86
350.947	100
351.174	86
351.402	71
351.629	85
351.856	102
352.083	90
352.311	87
352.538	79
352.765	91
352.992	85
353.22	84
353.447	83
353.674	66
353.901	101
354.128	85
354.355	87
354.583	107
354.81	65
355.037	86
355.264	88
355.491	87
355.718	85
355.945	96
356.172	74
356.399	74
356.626	79
356.853	87
357.08	90
357.307	84
357.534	68
357.761	77
357.988	89
358.215	78
358.441	77
358.668	86
358.895	81
359.122	82
359.349	75
359.576	89
359.802	80
360.029	94
360.256	72
360.483	89
360.709	94
360.936	99
361.163	97
361.39	84
361.616	88
361.843	82
362.07	89
362.296	70
362.523	90
362.749	92
362.976	87
363.203	94
363.429	83
363.656	90
363.882	72
364.109	94
364.335	75
364.562	74
364.788	81
365.015	84
365.241	86
365.468	76
365.694	88
365.92	93
366.147	86
366.373	95
366.599	91
366.826	80
367.052	78
367.278	85
367.505	90
367.731	92
367.957	82
368.184	82
368.41	92
368.636	92
368.862	86
369.089	96
369.315	83
369.541	102
369.767	80
369.993	94
370.219	85
370.445	99
370.672	78
370.898	97
371.124	86
371.35	100
371.576	97
371.802	92
372.028	87
372.254	91
372.48	94
372.706	83
372.932	87
373.158	93
373.384	84
373.61	101
373.835	92
374.061	78
374.287	87
374.513	97
374.739	102
374.965	94
375.191	94
375.416	86
375.642	103
375.868	96
376.094	105
376.319	88
376.545	92
376.771	102
376.997	85
377.222	109
377.448	95
377.674	88
377.899	82
378.125	115
378.35	93
378.576	106
378.802	96
379.027	75
379.253	109
379.478	99
379.704	85
379.929	93
380.155	94
380.38	88
380.606	94
380.831	92
381.057	89
381.282	91
381.507	91
381.733	101
381.958	97
382.184	103
382.409	91
382.634	103
382.86	90
383.085	108
383.31	92
383.535	99
383.761	98
383.986	88
384.211	110
384.436	96
384.662	102
384.887	106
385.112	95
385.337	96
385.562	92
385.787	108
386.013	104
386.238	108
386.463	99
386.688	94
386.913	90
387.138	102
387.363	104
387.588	102
387.813	94
388.038	86
388.263	101
388.488	85
388.713	104
388.938	113
389.163	96
389.387	92
389.612	93
389.837	93
390.062	108
390.287	108
390.512	86
390.736	97
390.961	117
391.186	94
391.411	85
391.636	95
391.86	106
392.085	106
392.31	104
392.534	105
392.759	106
392.984	113
393.208	115
393.433	98
393.658	97
393.882	110
394.107	107
394.331	98
394.556	101
394.78	109
395.005	106
395.229	99
395.454	106
395.678	126
395.903	101
396.127	93
396.352	101
396.576	100
396.801	101
397.025	111
397.249	113
397.474	101
397.698	108
397.922	122
398.147	102
398.371	106
398.595	113
398.82	97
399.044	97
399.268	112
399.492	97
399.717	100
399.941	115
400.165	119
400.389	127
400.613	111
400.837	114
401.062	115
401.286	103
401.51	113
401.734	105
401.958	108
402.182	108
402.406	128
402.63	119
402.854	103
403.078	115
403.302	107
403.526	127
403.75	123
403.974	103
404.198	110
404.422	126
404.645	111
404.869	106
405.093	122
405.317	120
405.541	105
405.765	116
405.988	122
406.212	123
406.436	127
406.66	116
406.883	105
407.107	131
407.331	120
407.555	108
407.778	114
408.002	133
408.226	119
408.449	107
408.673	110
408.896	120
409.12	114
409.344	104
409.567	139
409.791	126
410.014	119
410.238	122
410.461	133
410.685	108
410.908	113
411.132	130
411.355	132
411.578	114
411.802	119
412.025	116
412.249	119
412.472	113
412.695	126
412.919	108
413.142	121
413.365	139
413.589	117
413.812	124
414.035	120
414.258	119
414.482	125
414.705	122
414.928	107
415.151	137
415.374	128
415.597	102
415.821	130
416.044	127
416.267	130
416.49	124
416.713	142
416.936	111
417.159	118
417.382	138
417.605	112
417.828	121
418.051	140
418.274	142
418.497	126
418.72	129
418.943	127
419.166	130
419.389	133
419.611	134
419.834	146
420.057	129
420.28	125
420.503	139
420.726	132
420.948	130
421.171	131
421.394	133
421.617	149
421.839	147
422.062	141
422.285	124
422.507	134
422.73	124
422.953	122
423.175	126
423.398	137
423.621	118
423.843	134
424.066	130
424.288	150
424.511	141
424.733	133
424.956	138
425.178	141
425.401	121
425.623	130
425.846	134
426.068	119
426.291	145
426.513	129
426.735	120
426.958	125
427.18	133
427.402	132
427.625	130
427.847	123
428.069	138
428.292	122
428.514	143
428.736	141
428.958	139
429.181	138
429.403	129
429.625	115
429.847	136
430.069	141
430.292	133
430.514	135
430.736	132
430.958	136
431.18	127
431.402	118
431.624	118
431.846	103
432.068	100
432.29	99
432.512	104
432.734	118
432.956	141
433.178	134
433.4	138
433.622	119
433.844	133
434.066	122
434.287	105
434.509	101
434.731	98
434.953	91
435.175	121
435.397	133
435.618	120
435.84	122
436.062	117
436.284	129
436.505	114
436.727	137
436.949	125
437.17	127
437.392	125
437.614	135
437.835	116
438.057	117
438.278	115
438.5	113
438.721	135
438.943	146
439.165	148
439.386	136
439.608	139
439.829	132
440.05	153
440.272	161
440.493	143
440.715	144
440.936	163
441.158	126
441.379	147
441.6	162
441.822	135
442.043	151
442.264	139
442.486	129
442.707	130
442.928	140
443.149	136
443.371	142
443.592	141
443.813	134
444.034	140
444.255	139
444.476	133
444.698	134
444.919	137
445.14	258
445.361	190
445.582	156
445.803	146
446.024	162
446.245	149
446.466	163
446.687	148
446.908	144
447.129	136
447.35	139
447.571	153
447.792	151
448.013	151
448.234	142
448.455	155
448.675	139
448.896	129
449.117	131
449.338	140
449.559	141
449.779	130
450	130
450.221	130
450.442	132
450.662	131
450.883	123
451.104	126
451.324	133
451.545	122
451.766	131
451.986	130
452.207	119
452.428	120
452.648	114
452.869	115
453.089	117
453.31	116
453.53	107
453.751	104
453.971	115
454.192	119
454.412	116
454.633	123
454.853	121
455.073	108
455.294	106
455.514	118
455.734	125
455.955	130
456.175	120
456.395	98
456.616	109
456.836	121
457.056	108
457.276	97
457.497	110
457.717	92
457.937	114
458.157	110
458.377	106
458.598	102
458.818	99
459.038	100
459.258	82
459.478	99
459.698	103
459.918	95
460.138	88
460.358	102
460.578	115
460.798	113
461.018	109
461.238	115
461.458	115
461.678	118
461.898	120
462.118	93
462.338	113
462.558	106
462.777	110
462.997	98
463.217	117
463.437	129
463.657	109
463.876	113
464.096	105
464.316	104
464.536	102
464.755	112
464.975	123
465.195	123
465.414	122
465.634	113
465.854	122
466.073	114
466.293	125
466.512	107
466.732	127
466.951	126
467.171	129
467.391	135
467.61	121
467.829	122
468.049	143
468.268	134
468.488	120
468.707	131
468.927	135
469.146	136
469.365	136
469.585	146
469.804	135
470.023	138
470.243	128
470.462	138
470.681	140
470.901	140
471.12	122
471.339	136
471.558	139
471.777	148
471.997	138
472.216	145
472.435	113
472.654	109
472.873	109
473.092	119
473.311	129
473.53	141
473.749	134
473.968	125
474.187	119
474.406	130
474.625	108
474.844	130
475.063	133
475.282	123
475.501	115
475.72	124
475.939	128
476.158	126
476.377	131
476.596	121
476.814	126
477.033	106
477.252	115
477.471	123
477.69	126
477.908	135
478.127	135
478.346	143
478.564	138
478.783	134
479.002	135
479.22	126
479.439	135
479.658	142
479.876	113
480.095	113
480.313	119
480.532	123
480.751	108
480.969	101
481.188	98
481.406	79
481.624	81
481.843	82
482.061	81
482.28	118
482.498	110
482.717	129
482.935	120
483.153	140
483.372	163
483.59	146
483.808	147
484.027	129
484.245	140
484.463	148
484.681	148
484.9	152
485.118	140
485.336	142
485.554	123
485.772	93
485.99	95
486.209	108
486.427	112
486.645	115
486.863	118
487.081	146
487.299	129
487.517	141
487.735	159
487.953	189
488.171	195
488.389	173
488.607	163
488.825	143
489.043	119
489.261	152
489.479	129
489.696	137
489.914	142
490.132	129
490.35	144
490.568	161
490.786	163
491.003	184
491.221	186
491.439	177
491.657	173
491.874	194
492.092	216
492.31	246
492.527	229
492.745	208
492.963	196
493.18	194
493.398	180
493.615	185
493.833	182
494.05	163
494.268	161
494.485	179
494.703	178
494.92	183
495.138	188
495.355	179
495.573	172
495.79	171
496.008	171
496.225	175
496.442	173
496.66	174
496.877	156
497.094	165
497.312	149
497.529	141
497.746	154
497.963	150
498.181	125
498.398	121
498.615	122
498.832	119
499.049	125
499.267	120
499.484	116
499.701	133
499.918	129
500.135	135
500.352	131
500.569	127
500.786	137
501.003	125
501.22	146
501.437	131
501.654	135
501.871	120
502.088	129
502.305	141
502.522	129
502.739	131
502.956	124
503.172	117
503.389	125
503.606	123
503.823	121
504.04	114
504.256	123
504.473	109
504.69	119
504.907	117
505.123	129
505.34	116
505.557	116
505.773	125
505.99	125
506.207	114
506.423	113
506.64	118
506.856	127
507.073	113
507.289	120
507.506	111
507.722	110
507.939	114
508.155	115
508.372	102
508.588	113
508.805	104
509.021	101
509.238	104
509.454	113
509.67	105
509.887	99
510.103	84
510.319	93
510.536	102
510.752	108
510.968	76
511.184	86
511.401	99
511.617	95
511.833	78
512.049	77
512.265	99
512.481	104
512.698	79
512.914	90
513.13	85
513.346	97
513.562	93
513.778	89
513.994	85
514.21	85
514.426	82
514.642	87
514.858	72
515.074	91
515.29	84
515.506	89
515.721	94
515.937	89
516.153	84
516.369	91
516.585	82
516.801	93
517.016	84
517.232	83
517.448	100
517.664	90
517.879	78
518.095	86
518.311	72
518.527	101
518.742	92
518.958	106
519.173	105
519.389	109
519.605	103
519.82	105
520.036	101
520.251	96
520.467	97
520.682	101
520.898	96
521.113	102
521.329	80
521.544	83
521.76	98
521.975	83
522.19	90
522.406	102
522.621	104
522.836	89
523.052	106
523.267	97
523.482	119
523.698	115
523.913	114
524.128	100
524.343	112
524.559	115
524.774	107
524.989	120
525.204	121
525.419	112
525.634	120
525.849	109
526.064	109
526.28	104
526.495	77
526.71	93
526.925	85
527.14	76
527.355	84
527.57	86
527.785	85
527.999	85
528.214	98
528.429	111
528.644	113
528.859	137
529.074	144
529.289	168
529.503	159
529.718	155
529.933	123
530.148	116
530.363	100
530.577	97
530.792	95
531.007	87
531.221	88
531.436	77
531.651	89
531.865	83
532.08	102
532.295	97
532.509	94
532.724	81
532.938	83
533.153	90
533.367	98
533.582	127
533.796	144
534.011	108
534.225	108
534.44	102
534.654	101
534.868	89
535.083	98
535.297	100
535.511	95
535.726	103
535.94	107
536.154	90
536.369	75
536.583	77
536.797	97
537.011	98
537.225	106
537.44	87
537.654	74
537.868	89
538.082	92
538.296	89
538.51	98
538.724	105
538.938	110
539.153	134
539.367	129
539.581	120
539.795	106
540.009	85
540.222	113
540.436	95
540.65	107
540.864	125
541.078	134
541.292	142
541.506	169
541.72	192
541.934	183
542.147	194
542.361	183
542.575	155
542.789	148
543.002	123
543.216	121
543.43	125
543.644	121
543.857	144
544.071	146
544.285	155
544.498	151
544.712	159
544.925	165
545.139	155
545.352	159
545.566	167
545.779	149
545.993	173
546.206	168
546.42	173
546.633	168
546.847	162
547.06	170
547.274	147
547.487	177
547.7	175
547.914	170
548.127	165
548.34	149
548.554	152
548.767	152
548.98	147
549.193	157
549.407	142
549.62	160
549.833	151
550.046	159
550.259	163
550.473	153
550.686	143
550.899	137
551.112	161
551.325	144
551.538	135
551.751	117
551.964	119
552.177	149
552.39	127
552.603	131
552.816	142
553.029	159
553.242	164
553.455	170
553.667	157
553.88	165
554.093	148
554.306	153
554.519	136
554.732	147
554.944	143
555.157	137
555.37	134
555.583	137
555.795	139
556.008	120
556.221	131
556.433	113
556.646	132
556.859	126
557.071	135
557.284	139
557.496	139
557.709	124
557.921	136
558.134	134
558.346	132
558.559	126
558.771	120
558.984	123
559.196	129
559.409	133
559.621	122
559.833	123
560.046	131
560.258	118
560.47	116
560.683	133
560.895	120
561.107	117
561.32	129
561.532	135
561.744	152
561.956	135
562.168	140
562.381	124
562.593	129
562.805	125
563.017	122
563.229	118
563.441	114
563.653	119
563.865	118
564.077	119
564.289	134
564.501	137
564.713	133
564.925	116
565.137	111
565.349	100
565.561	123
565.773	125
565.985	113
566.197	117
566.408	125
566.62	123
566.832	125
567.044	122
567.255	101
567.467	112
567.679	113
567.891	113
568.102	93
568.314	101
568.526	93
568.737	100
568.949	91
569.161	75
569.372	75
569.584	86
569.795	94
570.007	91
570.218	88
570.43	86
570.641	102
570.853	91
571.064	104
571.276	90
571.487	100
571.698	111
571.91	102
572.121	109
572.333	99
572.544	104
572.755	96
572.966	106
573.178	94
573.389	72
573.6	85
573.811	93
574.023	90
574.234	83
574.445	86
574.656	101
574.867	86
575.078	72
575.289	90
575.501	82
575.712	93
575.923	101
576.134	98
576.345	95
576.556	92
576.767	113
