Data from Location1.07152019.Energy5.Lamp.07192019.3%Agarose_HRD10591_14-32-24-015.txt Node
Date: Fri Jul 19 14:32:24 EDT 2019
User: cochatt
Spectrometer: HR+D1059
Trigger mode: 1
Integration Time (sec): 1.000000E-1
Scans to average: 1
Electric dark correction enabled: true
Nonlinearity correction enabled: false
Boxcar width: 0
XAxis mode: Wavelengths
Number of Pixels in Spectrum: 2048
>>>>>Begin Spectral Data<<<<<
223.165	1.75
223.4	1.75
223.635	1.75
223.869	-28.25
224.104	-9.25
224.338	-10.25
224.573	-5.25
224.808	-8.25
225.042	-16.25
225.277	-26.25
225.511	1.75
225.746	1.75
225.98	12.75
226.215	13.75
226.449	21.75
226.683	0.75
226.918	22.75
227.152	26.75
227.387	44.75
227.621	38.75
227.856	58.75
228.09	54.75
228.324	51.75
228.559	61.75
228.793	47.75
229.027	61.75
229.262	63.75
229.496	78.75
229.73	48.75
229.964	76.75
230.199	66.75
230.433	70.75
230.667	94.75
230.901	61.75
231.136	82.75
231.37	72.75
231.604	79.75
231.838	75.75
232.072	71.75
232.306	95.75
232.541	83.75
232.775	83.75
233.009	92.75
233.243	77.75
233.477	95.75
233.711	89.75
233.945	82.75
234.179	86.75
234.413	81.75
234.647	86.75
234.881	84.75
235.115	79.75
235.349	86.75
235.583	87.75
235.817	74.75
236.051	74.75
236.285	87.75
236.519	76.75
236.753	87.75
236.987	70.75
237.221	72.75
237.455	73.75
237.689	72.75
237.922	87.75
238.156	86.75
238.39	79.75
238.624	71.75
238.858	81.75
239.091	79.75
239.325	76.75
239.559	75.75
239.793	61.75
240.027	81.75
240.26	71.75
240.494	74.75
240.728	75.75
240.961	78.75
241.195	97.75
241.429	71.75
241.662	85.75
241.896	83.75
242.13	74.75
242.363	72.75
242.597	78.75
242.83	79.75
243.064	87.75
243.298	81.75
243.531	80.75
243.765	70.75
243.998	78.75
244.232	68.75
244.465	79.75
244.699	70.75
244.932	79.75
245.166	80.75
245.399	89.75
245.633	77.75
245.866	65.75
246.099	87.75
246.333	74.75
246.566	75.75
246.8	88.75
247.033	83.75
247.266	70.75
247.5	90.75
247.733	74.75
247.966	76.75
248.2	87.75
248.433	89.75
248.666	86.75
248.899	78.75
249.133	80.75
249.366	79.75
249.599	70.75
249.832	78.75
250.066	88.75
250.299	68.75
250.532	84.75
250.765	78.75
250.998	88.75
251.231	75.75
251.465	102.75
251.698	69.75
251.931	63.75
252.164	79.75
252.397	68.75
252.63	94.75
252.863	79.75
253.096	83.75
253.329	77.75
253.562	85.75
253.795	88.75
254.028	77.75
254.261	73.75
254.494	89.75
254.727	64.75
254.96	90.75
255.193	82.75
255.426	81.75
255.659	81.75
255.892	85.75
256.124	83.75
256.357	80.75
256.59	76.75
256.823	84.75
257.056	84.75
257.289	77.75
257.521	77.75
257.754	78.75
257.987	87.75
258.22	70.75
258.452	88.75
258.685	92.75
258.918	78.75
259.151	83.75
259.383	85.75
259.616	73.75
259.849	84.75
260.081	94.75
260.314	83.75
260.547	77.75
260.779	77.75
261.012	71.75
261.244	85.75
261.477	89.75
261.71	70.75
261.942	80.75
262.175	86.75
262.407	92.75
262.64	92.75
262.872	71.75
263.105	77.75
263.337	71.75
263.57	81.75
263.802	83.75
264.035	86.75
264.267	74.75
264.499	85.75
264.732	88.75
264.964	82.75
265.197	77.75
265.429	79.75
265.661	88.75
265.894	87.75
266.126	94.75
266.358	81.75
266.591	78.75
266.823	83.75
267.055	94.75
267.287	83.75
267.52	97.75
267.752	83.75
267.984	91.75
268.216	92.75
268.448	78.75
268.681	91.75
268.913	88.75
269.145	85.75
269.377	76.75
269.609	89.75
269.841	77.75
270.073	83.75
270.306	85.75
270.538	68.75
270.77	101.75
271.002	71.75
271.234	81.75
271.466	86.75
271.698	78.75
271.93	79.75
272.162	79.75
272.394	83.75
272.626	93.75
272.858	86.75
273.09	95.75
273.322	74.75
273.553	94.75
273.785	99.75
274.017	91.75
274.249	85.75
274.481	87.75
274.713	91.75
274.945	89.75
275.176	91.75
275.408	78.75
275.64	85.75
275.872	92.75
276.104	94.75
276.335	77.75
276.567	80.75
276.799	87.75
277.031	70.75
277.262	87.75
277.494	87.75
277.726	96.75
277.957	86.75
278.189	82.75
278.421	86.75
278.652	70.75
278.884	87.75
279.115	73.75
279.347	78.75
279.579	91.75
279.81	70.75
280.042	84.75
280.273	89.75
280.505	65.75
280.736	95.75
280.968	86.75
281.199	71.75
281.431	83.75
281.662	79.75
281.894	78.75
282.125	100.75
282.356	87.75
282.588	94.75
282.819	83.75
283.051	79.75
283.282	87.75
283.513	77.75
283.745	101.75
283.976	85.75
284.207	74.75
284.439	82.75
284.67	87.75
284.901	100.75
285.132	89.75
285.364	85.75
285.595	87.75
285.826	73.75
286.057	94.75
286.288	93.75
286.52	86.75
286.751	84.75
286.982	77.75
287.213	84.75
287.444	80.75
287.675	79.75
287.906	83.75
288.138	73.75
288.369	74.75
288.6	81.75
288.831	96.75
289.062	84.75
289.293	75.75
289.524	93.75
289.755	74.75
289.986	91.75
290.217	98.75
290.448	82.75
290.679	84.75
290.91	77.75
291.141	75.75
291.371	79.75
291.602	96.75
291.833	92.75
292.064	95.75
292.295	78.75
292.526	90.75
292.757	89.75
292.987	94.75
293.218	94.75
293.449	95.75
293.68	83.75
293.91	81.75
294.141	86.75
294.372	79.75
294.603	85.75
294.833	89.75
295.064	97.75
295.295	84.75
295.525	72.75
295.756	83.75
295.987	95.75
296.217	87.75
296.448	92.75
296.679	76.75
296.909	75.75
297.14	84.75
297.37	81.75
297.601	73.75
297.831	93.75
298.062	91.75
298.292	91.75
298.523	96.75
298.753	87.75
298.984	82.75
299.214	81.75
299.445	91.75
299.675	85.75
299.905	74.75
300.136	87.75
300.366	85.75
300.597	89.75
300.827	67.75
301.057	77.75
301.288	99.75
301.518	88.75
301.748	72.75
301.979	85.75
302.209	98.75
302.439	87.75
302.669	94.75
302.9	76.75
303.13	88.75
303.36	90.75
303.59	86.75
303.82	77.75
304.051	90.75
304.281	94.75
304.511	87.75
304.741	67.75
304.971	95.75
305.201	79.75
305.431	87.75
305.661	84.75
305.891	92.75
306.121	87.75
306.352	91.75
306.582	92.75
306.812	70.75
307.042	68.75
307.272	85.75
307.502	80.75
307.731	68.75
307.961	74.75
308.191	80.75
308.421	95.75
308.651	77.75
308.881	89.75
309.111	100.75
309.341	84.75
309.571	90.75
309.8	96.75
310.03	85.75
310.26	93.75
310.49	78.75
310.72	98.75
310.949	67.75
311.179	90.75
311.409	92.75
311.639	84.75
311.868	88.75
312.098	109.75
312.328	93.75
312.557	94.75
312.787	97.75
313.017	85.75
313.246	86.75
313.476	83.75
313.706	101.75
313.935	99.75
314.165	85.75
314.394	68.75
314.624	94.75
314.853	80.75
315.083	87.75
315.312	81.75
315.542	74.75
315.771	90.75
316.001	99.75
316.23	88.75
316.46	69.75
316.689	82.75
316.919	85.75
317.148	94.75
317.377	86.75
317.607	92.75
317.836	82.75
318.065	93.75
318.295	85.75
318.524	96.75
318.753	80.75
318.983	76.75
319.212	99.75
319.441	88.75
319.67	94.75
319.9	93.75
320.129	70.75
320.358	70.75
320.587	96.75
320.816	91.75
321.046	83.75
321.275	79.75
321.504	75.75
321.733	95.75
321.962	74.75
322.191	81.75
322.42	86.75
322.649	101.75
322.878	89.75
323.108	83.75
323.337	90.75
323.566	93.75
323.795	83.75
324.024	81.75
324.253	96.75
324.482	96.75
324.71	89.75
324.939	102.75
325.168	98.75
325.397	84.75
325.626	87.75
325.855	84.75
326.084	87.75
326.313	85.75
326.542	83.75
326.77	80.75
326.999	79.75
327.228	87.75
327.457	95.75
327.686	87.75
327.914	87.75
328.143	76.75
328.372	88.75
328.6	80.75
328.829	77.75
329.058	91.75
329.287	83.75
329.515	87.75
329.744	90.75
329.972	80.75
330.201	83.75
330.43	84.75
330.658	76.75
330.887	79.75
331.115	89.75
331.344	79.75
331.572	87.75
331.801	97.75
332.03	85.75
332.258	85.75
332.486	87.75
332.715	82.75
332.943	92.75
333.172	78.75
333.4	93.75
333.629	78.75
333.857	76.75
334.085	77.75
334.314	82.75
334.542	89.75
334.771	87.75
334.999	93.75
335.227	92.75
335.455	96.75
335.684	105.75
335.912	77.75
336.14	92.75
336.369	80.75
336.597	81.75
336.825	90.75
337.053	79.75
337.281	77.75
337.51	75.75
337.738	83.75
337.966	88.75
338.194	90.75
338.422	86.75
338.65	78.75
338.878	77.75
339.106	95.75
339.334	80.75
339.562	75.75
339.79	77.75
340.018	84.75
340.246	74.75
340.474	86.75
340.702	81.75
340.93	72.75
341.158	86.75
341.386	106.75
341.614	99.75
341.842	81.75
342.07	89.75
342.298	78.75
342.526	83.75
342.754	77.75
342.981	91.75
343.209	92.75
343.437	83.75
343.665	84.75
343.893	81.75
344.12	100.75
344.348	95.75
344.576	84.75
344.804	80.75
345.031	85.75
345.259	97.75
345.487	96.75
345.714	77.75
345.942	88.75
346.17	96.75
346.397	80.75
346.625	96.75
346.853	77.75
347.08	89.75
347.308	84.75
347.535	61.75
347.763	86.75
347.99	79.75
348.218	93.75
348.445	79.75
348.673	80.75
348.9	79.75
349.128	86.75
349.355	96.75
349.583	104.75
349.81	89.75
350.037	73.75
350.265	82.75
350.492	75.75
350.72	82.75
350.947	85.75
351.174	80.75
351.402	90.75
351.629	76.75
351.856	99.75
352.083	71.75
352.311	84.75
352.538	86.75
352.765	80.75
352.992	93.75
353.22	94.75
353.447	80.75
353.674	89.75
353.901	86.75
354.128	82.75
354.355	84.75
354.583	87.75
354.81	83.75
355.037	89.75
355.264	95.75
355.491	81.75
355.718	86.75
355.945	81.75
356.172	84.75
356.399	87.75
356.626	88.75
356.853	87.75
357.08	76.75
357.307	83.75
357.534	94.75
357.761	84.75
357.988	81.75
358.215	68.75
358.441	75.75
358.668	79.75
358.895	82.75
359.122	63.75
359.349	82.75
359.576	72.75
359.802	84.75
360.029	93.75
360.256	90.75
360.483	86.75
360.709	78.75
360.936	86.75
361.163	80.75
361.39	79.75
361.616	92.75
361.843	76.75
362.07	79.75
362.296	86.75
362.523	82.75
362.749	84.75
362.976	90.75
363.203	98.75
363.429	73.75
363.656	73.75
363.882	91.75
364.109	83.75
364.335	82.75
364.562	84.75
364.788	86.75
365.015	73.75
365.241	85.75
365.468	75.75
365.694	73.75
365.92	90.75
366.147	86.75
366.373	72.75
366.599	78.75
366.826	79.75
367.052	88.75
367.278	81.75
367.505	83.75
367.731	103.75
367.957	87.75
368.184	97.75
368.41	91.75
368.636	87.75
368.862	95.75
369.089	76.75
369.315	81.75
369.541	95.75
369.767	83.75
369.993	84.75
370.219	85.75
370.445	75.75
370.672	95.75
370.898	96.75
371.124	89.75
371.35	91.75
371.576	64.75
371.802	92.75
372.028	94.75
372.254	84.75
372.48	82.75
372.706	88.75
372.932	99.75
373.158	79.75
373.384	91.75
373.61	103.75
373.835	96.75
374.061	86.75
374.287	78.75
374.513	101.75
374.739	114.75
374.965	104.75
375.191	84.75
375.416	92.75
375.642	106.75
375.868	103.75
376.094	83.75
376.319	87.75
376.545	87.75
376.771	77.75
376.997	86.75
377.222	106.75
377.448	91.75
377.674	108.75
377.899	86.75
378.125	85.75
378.35	92.75
378.576	96.75
378.802	92.75
379.027	81.75
379.253	101.75
379.478	95.75
379.704	92.75
379.929	94.75
380.155	96.75
380.38	93.75
380.606	87.75
380.831	106.75
381.057	104.75
381.282	97.75
381.507	90.75
381.733	103.75
381.958	90.75
382.184	79.75
382.409	114.75
382.634	107.75
382.86	100.75
383.085	97.75
383.31	98.75
383.535	101.75
383.761	112.75
383.986	98.75
384.211	97.75
384.436	93.75
384.662	89.75
384.887	110.75
385.112	105.75
385.337	83.75
385.562	95.75
385.787	104.75
386.013	103.75
386.238	104.75
386.463	98.75
386.688	106.75
386.913	97.75
387.138	91.75
387.363	88.75
387.588	115.75
387.813	99.75
388.038	84.75
388.263	97.75
388.488	100.75
388.713	116.75
388.938	101.75
389.163	77.75
389.387	99.75
389.612	102.75
389.837	87.75
390.062	103.75
390.287	91.75
390.512	108.75
390.736	84.75
390.961	109.75
391.186	102.75
391.411	95.75
391.636	96.75
391.86	117.75
392.085	91.75
392.31	116.75
392.534	107.75
392.759	93.75
392.984	104.75
393.208	103.75
393.433	102.75
393.658	91.75
393.882	98.75
394.107	100.75
394.331	109.75
394.556	107.75
394.78	119.75
395.005	97.75
395.229	91.75
395.454	100.75
395.678	112.75
395.903	101.75
396.127	113.75
396.352	103.75
396.576	95.75
396.801	114.75
397.025	117.75
397.249	122.75
397.474	106.75
397.698	111.75
397.922	112.75
398.147	98.75
398.371	106.75
398.595	110.75
398.82	114.75
399.044	108.75
399.268	109.75
399.492	116.75
399.717	100.75
399.941	109.75
400.165	118.75
400.389	102.75
400.613	99.75
400.837	126.75
401.062	100.75
401.286	114.75
401.51	100.75
401.734	116.75
401.958	117.75
402.182	116.75
402.406	112.75
402.63	118.75
402.854	110.75
403.078	123.75
403.302	99.75
403.526	121.75
403.75	118.75
403.974	120.75
404.198	125.75
404.422	127.75
404.645	104.75
404.869	126.75
405.093	109.75
405.317	106.75
405.541	110.75
405.765	118.75
405.988	108.75
406.212	107.75
406.436	112.75
406.66	110.75
406.883	123.75
407.107	120.75
407.331	122.75
407.555	118.75
407.778	119.75
408.002	123.75
408.226	116.75
408.449	99.75
408.673	118.75
408.896	125.75
409.12	105.75
409.344	128.75
409.567	118.75
409.791	119.75
410.014	123.75
410.238	139.75
410.461	138.75
410.685	133.75
410.908	122.75
411.132	112.75
411.355	110.75
411.578	115.75
411.802	116.75
412.025	124.75
412.249	130.75
412.472	132.75
412.695	128.75
412.919	113.75
413.142	119.75
413.365	126.75
413.589	99.75
413.812	113.75
414.035	116.75
414.258	127.75
414.482	139.75
414.705	120.75
414.928	110.75
415.151	106.75
415.374	116.75
415.597	116.75
415.821	129.75
416.044	125.75
416.267	137.75
416.49	121.75
416.713	131.75
416.936	124.75
417.159	141.75
417.382	126.75
417.605	111.75
417.828	126.75
418.051	130.75
418.274	124.75
418.497	126.75
418.72	123.75
418.943	118.75
419.166	116.75
419.389	118.75
419.611	126.75
419.834	114.75
420.057	134.75
420.28	138.75
420.503	138.75
420.726	132.75
420.948	130.75
421.171	133.75
421.394	139.75
421.617	146.75
421.839	123.75
422.062	140.75
422.285	131.75
422.507	130.75
422.73	126.75
422.953	130.75
423.175	136.75
423.398	136.75
423.621	122.75
423.843	122.75
424.066	128.75
424.288	152.75
424.511	158.75
424.733	126.75
424.956	136.75
425.178	132.75
425.401	131.75
425.623	133.75
425.846	143.75
426.068	135.75
426.291	115.75
426.513	122.75
426.735	121.75
426.958	121.75
427.18	124.75
427.402	124.75
427.625	110.75
427.847	132.75
428.069	127.75
428.292	124.75
428.514	131.75
428.736	127.75
428.958	126.75
429.181	131.75
429.403	131.75
429.625	143.75
429.847	119.75
430.069	125.75
430.292	130.75
430.514	132.75
430.736	132.75
430.958	123.75
431.18	135.75
431.402	120.75
431.624	119.75
431.846	107.75
432.068	97.75
432.29	95.75
432.512	123.75
432.734	112.75
432.956	128.75
433.178	132.75
433.4	122.75
433.622	134.75
433.844	138.75
434.066	113.75
434.287	116.75
434.509	95.75
434.731	107.75
434.953	107.75
435.175	121.75
435.397	125.75
435.618	116.75
435.84	100.75
436.062	111.75
436.284	122.75
436.505	123.75
436.727	111.75
436.949	116.75
437.17	136.75
437.392	132.75
437.614	123.75
437.835	103.75
438.057	103.75
438.278	95.75
438.5	121.75
438.721	124.75
438.943	125.75
439.165	116.75
439.386	118.75
439.608	138.75
439.829	141.75
440.05	156.75
440.272	144.75
440.493	138.75
440.715	141.75
440.936	145.75
441.158	149.75
441.379	135.75
441.6	139.75
441.822	147.75
442.043	145.75
442.264	139.75
442.486	136.75
442.707	132.75
442.928	149.75
443.149	134.75
443.371	124.75
443.592	149.75
443.813	145.75
444.034	134.75
444.255	148.75
444.476	126.75
444.698	139.75
444.919	140.75
445.14	260.75
445.361	203.75
445.582	148.75
445.803	141.75
446.024	156.75
446.245	144.75
446.466	167.75
446.687	158.75
446.908	166.75
447.129	151.75
447.35	147.75
447.571	143.75
447.792	140.75
448.013	133.75
448.234	156.75
448.455	140.75
448.675	148.75
448.896	145.75
449.117	132.75
449.338	127.75
449.559	138.75
449.779	140.75
450	143.75
450.221	151.75
450.442	137.75
450.662	123.75
450.883	138.75
451.104	124.75
451.324	136.75
451.545	122.75
451.766	132.75
451.986	116.75
452.207	111.75
452.428	116.75
452.648	125.75
452.869	112.75
453.089	106.75
453.31	115.75
453.53	110.75
453.751	116.75
453.971	94.75
454.192	109.75
454.412	116.75
454.633	120.75
454.853	110.75
455.073	110.75
455.294	123.75
455.514	132.75
455.734	123.75
455.955	102.75
456.175	120.75
456.395	102.75
456.616	114.75
456.836	99.75
457.056	117.75
457.276	107.75
457.497	109.75
457.717	105.75
457.937	115.75
458.157	108.75
458.377	119.75
458.598	101.75
458.818	96.75
459.038	92.75
459.258	93.75
459.478	97.75
459.698	84.75
459.918	84.75
460.138	110.75
460.358	130.75
460.578	118.75
460.798	112.75
461.018	122.75
461.238	123.75
461.458	127.75
461.678	121.75
461.898	101.75
462.118	104.75
462.338	121.75
462.558	109.75
462.777	98.75
462.997	106.75
463.217	116.75
463.437	96.75
463.657	116.75
463.876	102.75
464.096	105.75
464.316	106.75
464.536	115.75
464.755	128.75
464.975	112.75
465.195	122.75
465.414	116.75
465.634	110.75
465.854	114.75
466.073	112.75
466.293	129.75
466.512	118.75
466.732	131.75
466.951	127.75
467.171	124.75
467.391	130.75
467.61	149.75
467.829	131.75
468.049	136.75
468.268	146.75
468.488	133.75
468.707	131.75
468.927	134.75
469.146	138.75
469.365	139.75
469.585	142.75
469.804	135.75
470.023	156.75
470.243	141.75
470.462	137.75
470.681	144.75
470.901	145.75
471.12	149.75
471.339	146.75
471.558	142.75
471.777	120.75
471.997	121.75
472.216	123.75
472.435	116.75
472.654	104.75
472.873	120.75
473.092	120.75
473.311	126.75
473.53	114.75
473.749	136.75
473.968	124.75
474.187	112.75
474.406	97.75
474.625	121.75
474.844	125.75
475.063	125.75
475.282	123.75
475.501	122.75
475.72	118.75
475.939	139.75
476.158	126.75
476.377	120.75
476.596	118.75
476.814	118.75
477.033	126.75
477.252	129.75
477.471	122.75
477.69	132.75
477.908	137.75
478.127	151.75
478.346	142.75
478.564	132.75
478.783	128.75
479.002	131.75
479.22	126.75
479.439	139.75
479.658	133.75
479.876	120.75
480.095	102.75
480.313	130.75
480.532	114.75
480.751	106.75
480.969	115.75
481.188	94.75
481.406	106.75
481.624	103.75
481.843	100.75
482.061	95.75
482.28	115.75
482.498	126.75
482.717	105.75
482.935	126.75
483.153	144.75
483.372	137.75
483.59	153.75
483.808	140.75
484.027	118.75
484.245	139.75
484.463	132.75
484.681	154.75
484.9	146.75
485.118	134.75
485.336	130.75
485.554	117.75
485.772	102.75
485.99	114.75
486.209	104.75
486.427	116.75
486.645	118.75
486.863	136.75
487.081	144.75
487.299	131.75
487.517	144.75
487.735	156.75
487.953	189.75
488.171	208.75
488.389	187.75
488.607	160.75
488.825	144.75
489.043	141.75
489.261	137.75
489.479	146.75
489.696	152.75
489.914	152.75
490.132	140.75
490.35	152.75
490.568	168.75
490.786	163.75
491.003	183.75
491.221	179.75
491.439	180.75
491.657	206.75
491.874	199.75
492.092	223.75
492.31	236.75
492.527	210.75
492.745	201.75
492.963	183.75
493.18	175.75
493.398	174.75
493.615	186.75
493.833	182.75
494.05	167.75
494.268	181.75
494.485	162.75
494.703	181.75
494.92	184.75
495.138	167.75
495.355	176.75
495.573	157.75
495.79	174.75
496.008	169.75
496.225	166.75
496.442	148.75
496.66	170.75
496.877	163.75
497.094	162.75
497.312	165.75
497.529	156.75
497.746	149.75
497.963	124.75
498.181	120.75
498.398	115.75
498.615	111.75
498.832	122.75
499.049	122.75
499.267	120.75
499.484	130.75
499.701	131.75
499.918	135.75
500.135	129.75
500.352	146.75
500.569	138.75
500.786	143.75
501.003	146.75
501.22	136.75
501.437	129.75
501.654	139.75
501.871	127.75
502.088	136.75
502.305	137.75
502.522	130.75
502.739	129.75
502.956	132.75
503.172	130.75
503.389	127.75
503.606	118.75
503.823	124.75
504.04	112.75
504.256	132.75
504.473	125.75
504.69	116.75
504.907	122.75
505.123	115.75
505.34	134.75
505.557	115.75
505.773	120.75
505.99	121.75
506.207	121.75
506.423	115.75
506.64	107.75
506.856	121.75
507.073	116.75
507.289	111.75
507.506	126.75
507.722	116.75
507.939	130.75
508.155	116.75
508.372	102.75
508.588	111.75
508.805	119.75
509.021	111.75
509.238	112.75
509.454	116.75
509.67	106.75
509.887	107.75
510.103	108.75
510.319	96.75
510.536	89.75
510.752	100.75
510.968	87.75
511.184	92.75
511.401	99.75
511.617	97.75
