Data from Location1.07152019.Energy5.Lamp.07192019.3%Agarose_HRD10591_14-31-04-015.txt Node
Date: Fri Jul 19 14:31:04 EDT 2019
User: cochatt
Spectrometer: HR+D1059
Trigger mode: 1
Integration Time (sec): 1.000000E-1
Scans to average: 1
Electric dark correction enabled: true
Nonlinearity correction enabled: false
Boxcar width: 0
XAxis mode: Wavelengths
Number of Pixels in Spectrum: 2048
>>>>>Begin Spectral Data<<<<<
223.165	-11.06
223.4	-11.06
223.635	-11.06
223.869	-22.06
224.104	-22.06
224.338	-20.06
224.573	-0.06
224.808	-11.06
225.042	-11.06
225.277	-0.06
225.511	0.94
225.746	-9.06
225.98	6.94
226.215	7.94
226.449	14.94
226.683	17.94
226.918	23.94
227.152	33.94
227.387	28.94
227.621	41.94
227.856	29.94
228.09	37.94
228.324	55.94
228.559	56.94
228.793	55.94
229.027	51.94
229.262	68.94
229.496	62.94
229.73	67.94
229.964	76.94
230.199	74.94
230.433	73.94
230.667	70.94
230.901	69.94
231.136	71.94
231.37	84.94
231.604	93.94
231.838	79.94
232.072	91.94
232.306	82.94
232.541	83.94
232.775	78.94
233.009	73.94
233.243	78.94
233.477	91.94
233.711	104.94
233.945	86.94
234.179	74.94
234.413	75.94
234.647	78.94
234.881	84.94
235.115	79.94
235.349	92.94
235.583	82.94
235.817	85.94
236.051	87.94
236.285	83.94
236.519	86.94
236.753	75.94
236.987	84.94
237.221	77.94
237.455	78.94
237.689	82.94
237.922	74.94
238.156	78.94
238.39	88.94
238.624	73.94
238.858	78.94
239.091	77.94
239.325	73.94
239.559	62.94
239.793	81.94
240.027	77.94
240.26	76.94
240.494	83.94
240.728	71.94
240.961	80.94
241.195	90.94
241.429	72.94
241.662	95.94
241.896	76.94
242.13	70.94
242.363	52.94
242.597	85.94
242.83	74.94
243.064	65.94
243.298	84.94
243.531	81.94
243.765	65.94
243.998	75.94
244.232	62.94
244.465	71.94
244.699	86.94
244.932	76.94
245.166	81.94
245.399	70.94
245.633	66.94
245.866	71.94
246.099	78.94
246.333	71.94
246.566	67.94
246.8	84.94
247.033	72.94
247.266	75.94
247.5	78.94
247.733	82.94
247.966	84.94
248.2	77.94
248.433	74.94
248.666	90.94
248.899	78.94
249.133	77.94
249.366	69.94
249.599	68.94
249.832	86.94
250.066	85.94
250.299	76.94
250.532	78.94
250.765	90.94
250.998	81.94
251.231	68.94
251.465	82.94
251.698	62.94
251.931	84.94
252.164	89.94
252.397	81.94
252.63	82.94
252.863	88.94
253.096	76.94
253.329	77.94
253.562	82.94
253.795	80.94
254.028	74.94
254.261	68.94
254.494	76.94
254.727	74.94
254.96	86.94
255.193	76.94
255.426	87.94
255.659	76.94
255.892	84.94
256.124	75.94
256.357	80.94
256.59	92.94
256.823	82.94
257.056	77.94
257.289	81.94
257.521	78.94
257.754	73.94
257.987	71.94
258.22	85.94
258.452	78.94
258.685	74.94
258.918	83.94
259.151	74.94
259.383	84.94
259.616	74.94
259.849	83.94
260.081	89.94
260.314	80.94
260.547	82.94
260.779	89.94
261.012	73.94
261.244	84.94
261.477	84.94
261.71	87.94
261.942	92.94
262.175	80.94
262.407	70.94
262.64	75.94
262.872	73.94
263.105	88.94
263.337	88.94
263.57	82.94
263.802	73.94
264.035	84.94
264.267	78.94
264.499	74.94
264.732	84.94
264.964	80.94
265.197	81.94
265.429	73.94
265.661	87.94
265.894	82.94
266.126	92.94
266.358	87.94
266.591	87.94
266.823	82.94
267.055	81.94
267.287	77.94
267.52	80.94
267.752	88.94
267.984	90.94
268.216	77.94
268.448	87.94
268.681	77.94
268.913	75.94
269.145	85.94
269.377	84.94
269.609	74.94
269.841	83.94
270.073	73.94
270.306	83.94
270.538	82.94
270.77	76.94
271.002	72.94
271.234	85.94
271.466	92.94
271.698	91.94
271.93	75.94
272.162	71.94
272.394	91.94
272.626	80.94
272.858	84.94
273.09	93.94
273.322	82.94
273.553	88.94
273.785	77.94
274.017	83.94
274.249	84.94
274.481	77.94
274.713	74.94
274.945	90.94
275.176	88.94
275.408	96.94
275.64	88.94
275.872	74.94
276.104	83.94
276.335	93.94
276.567	87.94
276.799	98.94
277.031	97.94
277.262	96.94
277.494	85.94
277.726	84.94
277.957	86.94
278.189	95.94
278.421	70.94
278.652	90.94
278.884	84.94
279.115	80.94
279.347	79.94
279.579	78.94
279.81	70.94
280.042	87.94
280.273	74.94
280.505	88.94
280.736	75.94
280.968	80.94
281.199	87.94
281.431	78.94
281.662	88.94
281.894	90.94
282.125	95.94
282.356	72.94
282.588	89.94
282.819	88.94
283.051	73.94
283.282	95.94
283.513	83.94
283.745	88.94
283.976	92.94
284.207	84.94
284.439	91.94
284.67	80.94
284.901	91.94
285.132	97.94
285.364	83.94
285.595	68.94
285.826	77.94
286.057	89.94
286.288	73.94
286.52	95.94
286.751	68.94
286.982	82.94
287.213	87.94
287.444	92.94
287.675	87.94
287.906	91.94
288.138	86.94
288.369	86.94
288.6	92.94
288.831	73.94
289.062	91.94
289.293	69.94
289.524	76.94
289.755	77.94
289.986	73.94
290.217	74.94
290.448	84.94
290.679	81.94
290.91	85.94
291.141	77.94
291.371	89.94
291.602	77.94
291.833	85.94
292.064	75.94
292.295	84.94
292.526	76.94
292.757	69.94
292.987	77.94
293.218	84.94
293.449	86.94
293.68	75.94
293.91	73.94
294.141	85.94
294.372	83.94
294.603	84.94
294.833	85.94
295.064	88.94
295.295	69.94
295.525	83.94
295.756	69.94
295.987	79.94
296.217	77.94
296.448	82.94
296.679	86.94
296.909	73.94
297.14	90.94
297.37	92.94
297.601	80.94
297.831	93.94
298.062	85.94
298.292	80.94
298.523	78.94
298.753	86.94
298.984	72.94
299.214	88.94
299.445	84.94
299.675	91.94
299.905	93.94
300.136	75.94
300.366	70.94
300.597	96.94
300.827	85.94
301.057	71.94
301.288	86.94
301.518	79.94
301.748	71.94
301.979	78.94
302.209	85.94
302.439	82.94
302.669	81.94
302.9	69.94
303.13	87.94
303.36	77.94
303.59	92.94
303.82	76.94
304.051	87.94
304.281	74.94
304.511	85.94
304.741	72.94
304.971	60.94
305.201	83.94
305.431	78.94
305.661	91.94
305.891	88.94
306.121	81.94
306.352	83.94
306.582	75.94
306.812	96.94
307.042	96.94
307.272	86.94
307.502	82.94
307.731	85.94
307.961	86.94
308.191	95.94
308.421	83.94
308.651	78.94
308.881	88.94
309.111	82.94
309.341	80.94
309.571	80.94
309.8	91.94
310.03	76.94
310.26	78.94
310.49	82.94
310.72	80.94
310.949	77.94
311.179	81.94
311.409	76.94
311.639	92.94
311.868	90.94
312.098	94.94
312.328	98.94
312.557	79.94
312.787	87.94
313.017	88.94
313.246	85.94
313.476	96.94
313.706	93.94
313.935	89.94
314.165	98.94
314.394	92.94
314.624	88.94
314.853	87.94
315.083	94.94
315.312	68.94
315.542	75.94
315.771	96.94
316.001	74.94
316.23	76.94
316.46	85.94
316.689	83.94
316.919	83.94
317.148	77.94
317.377	92.94
317.607	76.94
317.836	85.94
318.065	74.94
318.295	76.94
318.524	81.94
318.753	84.94
318.983	90.94
319.212	89.94
319.441	88.94
319.67	79.94
319.9	84.94
320.129	85.94
320.358	75.94
320.587	83.94
320.816	78.94
321.046	76.94
321.275	90.94
321.504	88.94
321.733	83.94
321.962	74.94
322.191	80.94
322.42	91.94
322.649	88.94
322.878	71.94
323.108	86.94
323.337	77.94
323.566	75.94
323.795	71.94
324.024	74.94
324.253	85.94
324.482	90.94
324.71	99.94
324.939	83.94
325.168	88.94
325.397	87.94
325.626	83.94
325.855	81.94
326.084	79.94
326.313	68.94
326.542	79.94
326.77	88.94
326.999	82.94
327.228	90.94
327.457	79.94
327.686	91.94
327.914	94.94
328.143	75.94
328.372	78.94
328.6	69.94
328.829	65.94
329.058	81.94
329.287	82.94
329.515	84.94
329.744	88.94
329.972	71.94
330.201	102.94
330.43	77.94
330.658	89.94
330.887	89.94
331.115	75.94
331.344	81.94
331.572	81.94
331.801	86.94
332.03	85.94
332.258	72.94
332.486	76.94
332.715	80.94
332.943	108.94
333.172	88.94
333.4	70.94
333.629	81.94
333.857	81.94
334.085	75.94
334.314	85.94
334.542	87.94
334.771	76.94
334.999	68.94
335.227	87.94
335.455	73.94
335.684	94.94
335.912	102.94
336.14	100.94
336.369	85.94
336.597	84.94
336.825	85.94
337.053	82.94
337.281	87.94
337.51	84.94
337.738	75.94
337.966	83.94
338.194	87.94
338.422	88.94
338.65	81.94
338.878	86.94
339.106	95.94
339.334	83.94
339.562	81.94
339.79	72.94
340.018	70.94
340.246	68.94
340.474	85.94
340.702	82.94
340.93	86.94
341.158	84.94
341.386	78.94
341.614	77.94
341.842	89.94
342.07	92.94
342.298	84.94
342.526	90.94
342.754	89.94
342.981	74.94
343.209	77.94
343.437	82.94
343.665	80.94
343.893	82.94
344.12	95.94
344.348	84.94
344.576	80.94
344.804	77.94
345.031	86.94
345.259	86.94
345.487	92.94
345.714	81.94
345.942	76.94
346.17	75.94
346.397	86.94
346.625	69.94
346.853	89.94
347.08	86.94
347.308	83.94
347.535	81.94
347.763	75.94
347.99	84.94
348.218	80.94
348.445	74.94
348.673	72.94
348.9	71.94
349.128	92.94
349.355	80.94
349.583	94.94
349.81	78.94
350.037	82.94
350.265	84.94
350.492	89.94
350.72	77.94
350.947	97.94
351.174	89.94
351.402	94.94
351.629	89.94
351.856	76.94
352.083	103.94
352.311	87.94
352.538	80.94
352.765	83.94
352.992	80.94
353.22	94.94
353.447	83.94
353.674	80.94
353.901	93.94
354.128	77.94
354.355	90.94
354.583	92.94
354.81	74.94
355.037	72.94
355.264	78.94
355.491	82.94
355.718	75.94
355.945	78.94
356.172	88.94
356.399	74.94
356.626	86.94
356.853	78.94
357.08	93.94
357.307	78.94
357.534	84.94
357.761	88.94
357.988	81.94
358.215	82.94
358.441	70.94
358.668	90.94
358.895	83.94
359.122	79.94
359.349	75.94
359.576	92.94
359.802	64.94
360.029	82.94
360.256	86.94
360.483	89.94
360.709	76.94
360.936	85.94
361.163	74.94
361.39	92.94
361.616	87.94
361.843	77.94
362.07	86.94
362.296	91.94
362.523	80.94
362.749	76.94
362.976	81.94
363.203	84.94
363.429	85.94
363.656	80.94
363.882	78.94
364.109	85.94
364.335	105.94
364.562	82.94
364.788	101.94
365.015	78.94
365.241	92.94
365.468	79.94
365.694	87.94
365.92	73.94
366.147	89.94
366.373	84.94
366.599	84.94
366.826	70.94
367.052	88.94
367.278	70.94
367.505	84.94
367.731	83.94
367.957	90.94
368.184	71.94
368.41	85.94
368.636	96.94
368.862	82.94
369.089	90.94
369.315	79.94
369.541	96.94
369.767	90.94
369.993	88.94
370.219	97.94
370.445	77.94
370.672	87.94
370.898	80.94
371.124	89.94
371.35	86.94
371.576	73.94
371.802	102.94
372.028	96.94
372.254	104.94
372.48	90.94
372.706	99.94
372.932	78.94
373.158	89.94
373.384	82.94
373.61	86.94
373.835	81.94
374.061	89.94
374.287	84.94
374.513	91.94
374.739	94.94
374.965	84.94
375.191	86.94
375.416	92.94
375.642	80.94
375.868	96.94
376.094	104.94
376.319	102.94
376.545	99.94
376.771	100.94
376.997	108.94
377.222	90.94
377.448	105.94
377.674	105.94
377.899	78.94
378.125	77.94
378.35	99.94
378.576	92.94
378.802	83.94
379.027	89.94
379.253	93.94
379.478	89.94
379.704	86.94
379.929	87.94
380.155	97.94
380.38	93.94
380.606	89.94
380.831	90.94
381.057	100.94
381.282	91.94
381.507	99.94
381.733	97.94
381.958	98.94
382.184	90.94
382.409	92.94
382.634	101.94
382.86	106.94
383.085	85.94
383.31	82.94
383.535	93.94
383.761	92.94
383.986	78.94
384.211	91.94
384.436	87.94
384.662	105.94
384.887	105.94
385.112	90.94
385.337	93.94
385.562	90.94
385.787	88.94
386.013	115.94
386.238	94.94
386.463	92.94
386.688	99.94
386.913	96.94
387.138	95.94
387.363	93.94
387.588	98.94
387.813	104.94
388.038	90.94
388.263	102.94
388.488	116.94
388.713	98.94
388.938	112.94
389.163	87.94
389.387	98.94
389.612	100.94
389.837	100.94
390.062	107.94
390.287	111.94
390.512	100.94
390.736	97.94
390.961	92.94
391.186	99.94
391.411	104.94
391.636	93.94
391.86	96.94
392.085	108.94
392.31	104.94
392.534	117.94
392.759	104.94
392.984	110.94
393.208	108.94
393.433	100.94
393.658	100.94
393.882	107.94
394.107	93.94
394.331	104.94
394.556	112.94
394.78	110.94
395.005	107.94
395.229	92.94
395.454	113.94
395.678	102.94
395.903	96.94
396.127	115.94
396.352	103.94
396.576	98.94
396.801	117.94
397.025	120.94
397.249	101.94
397.474	122.94
397.698	108.94
397.922	104.94
398.147	105.94
398.371	114.94
398.595	107.94
398.82	135.94
399.044	93.94
399.268	97.94
399.492	101.94
399.717	108.94
399.941	103.94
400.165	104.94
400.389	110.94
400.613	97.94
400.837	102.94
401.062	116.94
401.286	114.94
401.51	125.94
401.734	109.94
401.958	129.94
402.182	114.94
402.406	115.94
402.63	116.94
402.854	110.94
403.078	108.94
403.302	114.94
403.526	98.94
403.75	100.94
403.974	106.94
404.198	115.94
404.422	128.94
404.645	118.94
404.869	116.94
405.093	100.94
405.317	125.94
405.541	116.94
405.765	114.94
405.988	122.94
406.212	122.94
406.436	107.94
406.66	122.94
406.883	113.94
407.107	114.94
407.331	128.94
407.555	121.94
407.778	105.94
408.002	109.94
408.226	123.94
408.449	121.94
408.673	117.94
408.896	115.94
409.12	121.94
409.344	119.94
409.567	115.94
409.791	121.94
410.014	122.94
410.238	118.94
410.461	120.94
410.685	117.94
410.908	129.94
411.132	123.94
411.355	122.94
411.578	113.94
411.802	120.94
412.025	112.94
412.249	115.94
412.472	118.94
412.695	118.94
412.919	109.94
413.142	120.94
413.365	126.94
413.589	130.94
413.812	124.94
414.035	117.94
414.258	123.94
414.482	116.94
414.705	122.94
414.928	124.94
415.151	119.94
415.374	119.94
415.597	143.94
415.821	121.94
416.044	126.94
416.267	124.94
416.49	123.94
416.713	127.94
416.936	129.94
417.159	124.94
417.382	118.94
417.605	130.94
417.828	128.94
418.051	116.94
418.274	123.94
418.497	131.94
418.72	128.94
418.943	132.94
419.166	129.94
419.389	122.94
419.611	116.94
419.834	128.94
420.057	121.94
420.28	109.94
420.503	122.94
420.726	142.94
420.948	128.94
421.171	120.94
421.394	133.94
421.617	144.94
421.839	128.94
422.062	148.94
422.285	127.94
422.507	107.94
422.73	117.94
422.953	128.94
423.175	112.94
423.398	127.94
423.621	136.94
423.843	122.94
424.066	136.94
424.288	131.94
424.511	142.94
424.733	146.94
424.956	145.94
425.178	125.94
425.401	120.94
425.623	142.94
425.846	128.94
426.068	130.94
426.291	133.94
426.513	131.94
426.735	123.94
426.958	122.94
427.18	128.94
427.402	115.94
427.625	130.94
427.847	118.94
428.069	132.94
428.292	129.94
428.514	120.94
428.736	131.94
428.958	124.94
429.181	135.94
429.403	108.94
429.625	134.94
429.847	119.94
430.069	128.94
430.292	131.94
430.514	137.94
430.736	129.94
430.958	126.94
431.18	122.94
431.402	122.94
431.624	115.94
431.846	106.94
432.068	83.94
432.29	89.94
432.512	107.94
432.734	124.94
432.956	133.94
433.178	136.94
433.4	154.94
433.622	134.94
433.844	134.94
434.066	118.94
434.287	107.94
434.509	96.94
434.731	92.94
434.953	126.94
435.175	123.94
435.397	130.94
435.618	114.94
435.84	119.94
436.062	113.94
436.284	124.94
436.505	130.94
436.727	133.94
436.949	131.94
437.17	126.94
437.392	125.94
437.614	128.94
437.835	113.94
438.057	106.94
438.278	98.94
438.5	127.94
438.721	122.94
438.943	136.94
439.165	128.94
439.386	135.94
439.608	150.94
439.829	148.94
440.05	146.94
440.272	148.94
440.493	156.94
440.715	131.94
440.936	125.94
441.158	141.94
441.379	154.94
441.6	141.94
441.822	145.94
442.043	134.94
442.264	138.94
442.486	122.94
442.707	131.94
442.928	145.94
443.149	126.94
443.371	135.94
443.592	120.94
443.813	143.94
444.034	148.94
444.255	143.94
444.476	130.94
444.698	123.94
444.919	128.94
445.14	255.94
445.361	189.94
445.582	132.94
445.803	143.94
446.024	140.94
446.245	150.94
446.466	133.94
446.687	146.94
446.908	143.94
447.129	139.94
447.35	137.94
447.571	157.94
447.792	141.94
448.013	131.94
448.234	140.94
448.455	137.94
448.675	143.94
448.896	132.94
449.117	142.94
449.338	136.94
449.559	139.94
449.779	121.94
450	130.94
450.221	144.94
450.442	137.94
450.662	125.94
450.883	136.94
451.104	130.94
451.324	122.94
451.545	127.94
451.766	122.94
451.986	137.94
452.207	148.94
452.428	134.94
452.648	132.94
452.869	104.94
453.089	124.94
453.31	117.94
453.53	94.94
453.751	107.94
453.971	101.94
454.192	99.94
454.412	109.94
454.633	108.94
454.853	107.94
455.073	125.94
455.294	132.94
455.514	106.94
455.734	128.94
455.955	119.94
456.175	128.94
456.395	106.94
456.616	102.94
456.836	116.94
457.056	118.94
457.276	106.94
457.497	111.94
457.717	104.94
457.937	117.94
458.157	93.94
458.377	106.94
458.598	95.94
458.818	105.94
459.038	92.94
459.258	80.94
459.478	90.94
459.698	96.94
459.918	85.94
460.138	100.94
460.358	99.94
460.578	109.94
460.798	109.94
461.018	121.94
461.238	115.94
461.458	114.94
461.678	114.94
461.898	114.94
462.118	114.94
462.338	120.94
462.558	111.94
462.777	103.94
462.997	109.94
463.217	106.94
463.437	118.94
463.657	99.94
463.876	94.94
464.096	100.94
464.316	96.94
464.536	92.94
464.755	114.94
464.975	113.94
465.195	124.94
465.414	114.94
465.634	108.94
465.854	105.94
466.073	116.94
466.293	138.94
466.512	125.94
466.732	110.94
466.951	130.94
467.171	140.94
467.391	149.94
467.61	128.94
467.829	142.94
468.049	152.94
468.268	134.94
468.488	124.94
468.707	132.94
468.927	136.94
469.146	129.94
469.365	135.94
469.585	136.94
469.804	138.94
470.023	137.94
470.243	126.94
470.462	140.94
470.681	130.94
470.901	124.94
471.12	132.94
471.339	131.94
471.558	138.94
471.777	142.94
471.997	124.94
472.216	119.94
472.435	116.94
472.654	113.94
472.873	105.94
473.092	107.94
473.311	119.94
473.53	120.94
473.749	120.94
473.968	129.94
474.187	108.94
474.406	114.94
474.625	132.94
474.844	122.94
475.063	136.94
475.282	137.94
475.501	118.94
475.72	132.94
475.939	133.94
476.158	130.94
476.377	124.94
476.596	119.94
476.814	112.94
477.033	108.94
477.252	98.94
477.471	112.94
477.69	132.94
477.908	120.94
478.127	137.94
478.346	136.94
478.564	128.94
478.783	150.94
479.002	140.94
479.22	128.94
479.439	123.94
479.658	142.94
479.876	117.94
480.095	107.94
480.313	124.94
480.532	128.94
480.751	110.94
480.969	99.94
481.188	101.94
481.406	78.94
481.624	87.94
481.843	77.94
482.061	90.94
482.28	120.94
482.498	108.94
482.717	103.94
482.935	116.94
483.153	143.94
483.372	140.94
483.59	147.94
483.808	135.94
484.027	129.94
484.245	141.94
484.463	125.94
484.681	149.94
484.9	155.94
485.118	133.94
485.336	127.94
485.554	117.94
485.772	90.94
485.99	96.94
486.209	103.94
486.427	105.94
486.645	101.94
486.863	132.94
487.081	131.94
487.299	129.94
487.517	145.94
487.735	162.94
487.953	172.94
488.171	187.94
488.389	178.94
488.607	154.94
488.825	150.94
489.043	150.94
489.261	136.94
489.479	134.94
489.696	134.94
489.914	153.94
490.132	130.94
490.35	148.94
490.568	156.94
490.786	174.94
491.003	158.94
491.221	174.94
491.439	178.94
491.657	197.94
491.874	211.94
492.092	226.94
492.31	240.94
492.527	200.94
492.745	187.94
492.963	185.94
493.18	186.94
493.398	192.94
493.615	184.94
493.833	178.94
494.05	181.94
494.268	164.94
494.485	172.94
494.703	169.94
494.92	163.94
495.138	164.94
495.355	184.94
495.573	156.94
495.79	172.94
496.008	157.94
496.225	168.94
496.442	166.94
496.66	164.94
496.877	153.94
497.094	154.94
497.312	156.94
497.529	157.94
497.746	155.94
497.963	140.94
498.181	130.94
498.398	113.94
498.615	123.94
498.832	102.94
499.049	116.94
499.267	115.94
499.484	124.94
499.701	153.94
499.918	130.94
500.135	125.94
500.352	130.94
500.569	150.94
500.786	142.94
501.003	143.94
501.22	133.94
501.437	135.94
501.654	135.94
501.871	119.94
502.088	127.94
502.305	132.94
502.522	128.94
502.739	144.94
502.956	132.94
503.172	131.94
503.389	134.94
503.606	124.94
503.823	121.94
504.04	125.94
504.256	121.94
504.473	129.94
504.69	117.94
504.907	112.94
505.123	126.94
505.34	114.94
505.557	127.94
505.773	123.94
505.99	101.94
506.207	134.94
506.423	122.94
506.64	130.94
506.856	113.94
507.073	120.94
507.289	125.94
507.506	114.94
507.722	120.94
507.939	122.94
508.155	117.94
508.372	124.94
508.588	123.94
508.805	95.94
509.021	100.94
509.238	97.94
509.454	105.94
509.67	116.94
509.887	92.94
510.103	99.94
510.319	87.94
510.536	101.94
510.752	84.94
510.968	87.94
511.184	88.94
511.401	83.94
511.617	90.94
511.833	90.94
