Data from Location1.07152019.Energy5.Lamp.07192019.3%Agarose_HRD10591_14-32-29-016.txt Node
Date: Fri Jul 19 14:32:29 EDT 2019
User: cochatt
Spectrometer: HR+D1059
Trigger mode: 1
Integration Time (sec): 1.000000E-1
Scans to average: 1
Electric dark correction enabled: true
Nonlinearity correction enabled: false
Boxcar width: 0
XAxis mode: Wavelengths
Number of Pixels in Spectrum: 2048
>>>>>Begin Spectral Data<<<<<
223.165	-26.38
223.4	-26.38
223.635	-26.38
223.869	-19.38
224.104	-29.38
224.338	-21.38
224.573	-14.38
224.808	-21.38
225.042	-3.38
225.277	4.62
225.511	-1.38
225.746	15.62
225.98	5.62
226.215	11.62
226.449	14.62
226.683	24.62
226.918	29.62
227.152	30.62
227.387	19.62
227.621	29.62
227.856	49.62
228.09	41.62
228.324	44.62
228.559	43.62
228.793	57.62
229.027	52.62
229.262	67.62
229.496	55.62
229.73	66.62
229.964	70.62
230.199	63.62
230.433	71.62
230.667	100.62
230.901	81.62
231.136	80.62
231.37	89.62
231.604	69.62
231.838	76.62
232.072	84.62
232.306	64.62
232.541	68.62
232.775	85.62
233.009	71.62
233.243	74.62
233.477	83.62
233.711	83.62
233.945	74.62
234.179	83.62
234.413	88.62
234.647	88.62
234.881	80.62
235.115	85.62
235.349	68.62
235.583	83.62
235.817	70.62
236.051	83.62
236.285	68.62
236.519	84.62
236.753	86.62
236.987	64.62
237.221	65.62
237.455	81.62
237.689	73.62
237.922	62.62
238.156	66.62
238.39	68.62
238.624	77.62
238.858	69.62
239.091	74.62
239.325	67.62
239.559	73.62
239.793	71.62
240.027	80.62
240.26	84.62
240.494	66.62
240.728	87.62
240.961	77.62
241.195	74.62
241.429	75.62
241.662	87.62
241.896	62.62
242.13	69.62
242.363	75.62
242.597	74.62
242.83	79.62
243.064	76.62
243.298	75.62
243.531	85.62
243.765	84.62
243.998	82.62
244.232	76.62
244.465	65.62
244.699	87.62
244.932	78.62
245.166	76.62
245.399	87.62
245.633	69.62
245.866	85.62
246.099	63.62
246.333	63.62
246.566	65.62
246.8	79.62
247.033	75.62
247.266	77.62
247.5	68.62
247.733	74.62
247.966	87.62
248.2	73.62
248.433	61.62
248.666	64.62
248.899	72.62
249.133	66.62
249.366	77.62
249.599	95.62
249.832	72.62
250.066	81.62
250.299	85.62
250.532	76.62
250.765	85.62
250.998	79.62
251.231	70.62
251.465	76.62
251.698	66.62
251.931	90.62
252.164	83.62
252.397	72.62
252.63	78.62
252.863	84.62
253.096	80.62
253.329	75.62
253.562	78.62
253.795	85.62
254.028	79.62
254.261	77.62
254.494	80.62
254.727	69.62
254.96	74.62
255.193	70.62
255.426	74.62
255.659	92.62
255.892	85.62
256.124	74.62
256.357	80.62
256.59	77.62
256.823	73.62
257.056	85.62
257.289	84.62
257.521	97.62
257.754	81.62
257.987	84.62
258.22	73.62
258.452	81.62
258.685	68.62
258.918	92.62
259.151	80.62
259.383	89.62
259.616	87.62
259.849	69.62
260.081	82.62
260.314	74.62
260.547	83.62
260.779	73.62
261.012	76.62
261.244	84.62
261.477	84.62
261.71	84.62
261.942	68.62
262.175	89.62
262.407	82.62
262.64	77.62
262.872	70.62
263.105	79.62
263.337	84.62
263.57	78.62
263.802	77.62
264.035	71.62
264.267	81.62
264.499	75.62
264.732	86.62
264.964	91.62
265.197	78.62
265.429	76.62
265.661	78.62
265.894	93.62
266.126	98.62
266.358	79.62
266.591	70.62
266.823	84.62
267.055	85.62
267.287	90.62
267.52	90.62
267.752	84.62
267.984	90.62
268.216	88.62
268.448	98.62
268.681	77.62
268.913	84.62
269.145	81.62
269.377	89.62
269.609	92.62
269.841	93.62
270.073	60.62
270.306	87.62
270.538	86.62
270.77	77.62
271.002	84.62
271.234	76.62
271.466	83.62
271.698	72.62
271.93	81.62
272.162	74.62
272.394	84.62
272.626	67.62
272.858	57.62
273.09	70.62
273.322	90.62
273.553	91.62
273.785	88.62
274.017	84.62
274.249	74.62
274.481	74.62
274.713	88.62
274.945	81.62
275.176	84.62
275.408	92.62
275.64	84.62
275.872	89.62
276.104	78.62
276.335	89.62
276.567	86.62
276.799	67.62
277.031	81.62
277.262	89.62
277.494	88.62
277.726	86.62
277.957	93.62
278.189	95.62
278.421	76.62
278.652	88.62
278.884	85.62
279.115	71.62
279.347	70.62
279.579	77.62
279.81	71.62
280.042	84.62
280.273	82.62
280.505	81.62
280.736	84.62
280.968	77.62
281.199	82.62
281.431	76.62
281.662	77.62
281.894	81.62
282.125	75.62
282.356	80.62
282.588	96.62
282.819	87.62
283.051	77.62
283.282	82.62
283.513	79.62
283.745	66.62
283.976	81.62
284.207	79.62
284.439	84.62
284.67	76.62
284.901	93.62
285.132	90.62
285.364	80.62
285.595	82.62
285.826	64.62
286.057	73.62
286.288	89.62
286.52	76.62
286.751	83.62
286.982	77.62
287.213	85.62
287.444	91.62
287.675	88.62
287.906	79.62
288.138	82.62
288.369	78.62
288.6	87.62
288.831	83.62
289.062	74.62
289.293	87.62
289.524	91.62
289.755	78.62
289.986	72.62
290.217	95.62
290.448	80.62
290.679	78.62
290.91	97.62
291.141	61.62
291.371	82.62
291.602	90.62
291.833	86.62
292.064	89.62
292.295	88.62
292.526	94.62
292.757	84.62
292.987	84.62
293.218	88.62
293.449	77.62
293.68	73.62
293.91	87.62
294.141	89.62
294.372	85.62
294.603	75.62
294.833	77.62
295.064	83.62
295.295	86.62
295.525	97.62
295.756	77.62
295.987	80.62
296.217	85.62
296.448	89.62
296.679	83.62
296.909	91.62
297.14	85.62
297.37	84.62
297.601	92.62
297.831	67.62
298.062	76.62
298.292	83.62
298.523	105.62
298.753	84.62
298.984	88.62
299.214	75.62
299.445	76.62
299.675	68.62
299.905	90.62
300.136	90.62
300.366	81.62
300.597	91.62
300.827	76.62
301.057	77.62
301.288	97.62
301.518	88.62
301.748	90.62
301.979	75.62
302.209	75.62
302.439	80.62
302.669	79.62
302.9	84.62
303.13	90.62
303.36	90.62
303.59	81.62
303.82	82.62
304.051	78.62
304.281	102.62
304.511	77.62
304.741	83.62
304.971	90.62
305.201	94.62
305.431	102.62
305.661	91.62
305.891	82.62
306.121	80.62
306.352	83.62
306.582	91.62
306.812	80.62
307.042	77.62
307.272	84.62
307.502	89.62
307.731	84.62
307.961	91.62
308.191	76.62
308.421	73.62
308.651	79.62
308.881	86.62
309.111	92.62
309.341	91.62
309.571	82.62
309.8	93.62
310.03	73.62
310.26	98.62
310.49	84.62
310.72	85.62
310.949	83.62
311.179	77.62
311.409	78.62
311.639	92.62
311.868	79.62
312.098	77.62
312.328	79.62
312.557	74.62
312.787	97.62
313.017	96.62
313.246	90.62
313.476	96.62
313.706	89.62
313.935	85.62
314.165	76.62
314.394	87.62
314.624	88.62
314.853	92.62
315.083	76.62
315.312	83.62
315.542	94.62
315.771	82.62
316.001	85.62
316.23	104.62
316.46	85.62
316.689	78.62
316.919	88.62
317.148	92.62
317.377	90.62
317.607	86.62
317.836	87.62
318.065	80.62
318.295	86.62
318.524	80.62
318.753	78.62
318.983	72.62
319.212	92.62
319.441	79.62
319.67	73.62
319.9	85.62
320.129	69.62
320.358	80.62
320.587	83.62
320.816	86.62
321.046	73.62
321.275	106.62
321.504	81.62
321.733	88.62
321.962	92.62
322.191	91.62
322.42	82.62
322.649	88.62
322.878	76.62
323.108	77.62
323.337	81.62
323.566	90.62
323.795	94.62
324.024	87.62
324.253	83.62
324.482	74.62
324.71	85.62
324.939	92.62
325.168	88.62
325.397	86.62
325.626	89.62
325.855	79.62
326.084	79.62
326.313	77.62
326.542	82.62
326.77	80.62
326.999	81.62
327.228	83.62
327.457	86.62
327.686	87.62
327.914	83.62
328.143	78.62
328.372	80.62
328.6	92.62
328.829	93.62
329.058	81.62
329.287	74.62
329.515	91.62
329.744	89.62
329.972	82.62
330.201	82.62
330.43	88.62
330.658	73.62
330.887	75.62
331.115	84.62
331.344	81.62
331.572	86.62
331.801	73.62
332.03	75.62
332.258	80.62
332.486	87.62
332.715	81.62
332.943	82.62
333.172	86.62
333.4	76.62
333.629	84.62
333.857	83.62
334.085	84.62
334.314	93.62
334.542	74.62
334.771	86.62
334.999	88.62
335.227	85.62
335.455	76.62
335.684	87.62
335.912	82.62
336.14	76.62
336.369	78.62
336.597	71.62
336.825	81.62
337.053	97.62
337.281	88.62
337.51	78.62
337.738	82.62
337.966	81.62
338.194	84.62
338.422	101.62
338.65	89.62
338.878	78.62
339.106	81.62
339.334	83.62
339.562	89.62
339.79	95.62
340.018	69.62
340.246	90.62
340.474	77.62
340.702	99.62
340.93	73.62
341.158	80.62
341.386	74.62
341.614	91.62
341.842	82.62
342.07	68.62
342.298	96.62
342.526	89.62
342.754	82.62
342.981	97.62
343.209	76.62
343.437	90.62
343.665	73.62
343.893	72.62
344.12	81.62
344.348	88.62
344.576	89.62
344.804	78.62
345.031	84.62
345.259	82.62
345.487	82.62
345.714	78.62
345.942	80.62
346.17	89.62
346.397	77.62
346.625	77.62
346.853	81.62
347.08	82.62
347.308	75.62
347.535	77.62
347.763	96.62
347.99	92.62
348.218	70.62
348.445	83.62
348.673	83.62
348.9	88.62
349.128	72.62
349.355	83.62
349.583	88.62
349.81	77.62
350.037	75.62
350.265	88.62
350.492	89.62
350.72	75.62
350.947	88.62
351.174	76.62
351.402	89.62
351.629	82.62
351.856	88.62
352.083	88.62
352.311	74.62
352.538	70.62
352.765	84.62
352.992	74.62
353.22	95.62
353.447	81.62
353.674	79.62
353.901	91.62
354.128	83.62
354.355	74.62
354.583	93.62
354.81	89.62
355.037	77.62
355.264	73.62
355.491	79.62
355.718	88.62
355.945	88.62
356.172	99.62
356.399	88.62
356.626	71.62
356.853	68.62
357.08	84.62
357.307	84.62
357.534	71.62
357.761	84.62
357.988	83.62
358.215	90.62
358.441	76.62
358.668	79.62
358.895	75.62
359.122	83.62
359.349	78.62
359.576	83.62
359.802	85.62
360.029	77.62
360.256	81.62
360.483	92.62
360.709	76.62
360.936	92.62
361.163	100.62
361.39	70.62
361.616	90.62
361.843	67.62
362.07	68.62
362.296	76.62
362.523	81.62
362.749	83.62
362.976	76.62
363.203	85.62
363.429	58.62
363.656	70.62
363.882	76.62
364.109	91.62
364.335	80.62
364.562	82.62
364.788	78.62
365.015	85.62
365.241	94.62
365.468	84.62
365.694	74.62
365.92	80.62
366.147	76.62
366.373	88.62
366.599	101.62
366.826	81.62
367.052	91.62
367.278	85.62
367.505	92.62
367.731	75.62
367.957	63.62
368.184	94.62
368.41	75.62
368.636	77.62
368.862	99.62
369.089	98.62
369.315	88.62
369.541	86.62
369.767	95.62
369.993	81.62
370.219	81.62
370.445	85.62
370.672	83.62
370.898	92.62
371.124	82.62
371.35	98.62
371.576	86.62
371.802	89.62
372.028	88.62
372.254	79.62
372.48	83.62
372.706	95.62
372.932	88.62
373.158	65.62
373.384	90.62
373.61	90.62
373.835	82.62
374.061	93.62
374.287	83.62
374.513	92.62
374.739	88.62
374.965	88.62
375.191	96.62
375.416	90.62
375.642	89.62
375.868	87.62
376.094	87.62
376.319	90.62
376.545	84.62
376.771	98.62
376.997	89.62
377.222	86.62
377.448	82.62
377.674	97.62
377.899	88.62
378.125	105.62
378.35	104.62
378.576	108.62
378.802	84.62
379.027	83.62
379.253	102.62
379.478	104.62
379.704	97.62
379.929	100.62
380.155	90.62
380.38	74.62
380.606	96.62
380.831	102.62
381.057	96.62
381.282	86.62
381.507	93.62
381.733	94.62
381.958	89.62
382.184	95.62
382.409	84.62
382.634	88.62
382.86	86.62
383.085	84.62
383.31	92.62
383.535	83.62
383.761	96.62
383.986	96.62
384.211	104.62
384.436	108.62
384.662	94.62
384.887	105.62
385.112	87.62
385.337	81.62
385.562	105.62
385.787	94.62
386.013	98.62
386.238	98.62
386.463	103.62
386.688	92.62
386.913	90.62
387.138	105.62
387.363	88.62
387.588	99.62
387.813	97.62
388.038	104.62
388.263	98.62
388.488	95.62
388.713	105.62
388.938	97.62
389.163	94.62
389.387	92.62
389.612	98.62
389.837	106.62
390.062	121.62
390.287	111.62
390.512	92.62
390.736	82.62
390.961	92.62
391.186	110.62
391.411	89.62
391.636	88.62
391.86	84.62
392.085	110.62
392.31	108.62
392.534	103.62
392.759	92.62
392.984	108.62
393.208	85.62
393.433	96.62
393.658	108.62
393.882	107.62
394.107	112.62
394.331	107.62
394.556	110.62
394.78	105.62
395.005	124.62
395.229	108.62
395.454	104.62
395.678	103.62
395.903	93.62
396.127	97.62
396.352	110.62
396.576	103.62
396.801	96.62
397.025	96.62
397.249	101.62
397.474	110.62
397.698	91.62
397.922	112.62
398.147	102.62
398.371	110.62
398.595	113.62
398.82	105.62
399.044	109.62
399.268	114.62
399.492	102.62
399.717	109.62
399.941	107.62
400.165	104.62
400.389	92.62
400.613	107.62
400.837	104.62
401.062	101.62
401.286	113.62
401.51	118.62
401.734	109.62
401.958	108.62
402.182	114.62
402.406	118.62
402.63	105.62
402.854	117.62
403.078	117.62
403.302	121.62
403.526	107.62
403.75	107.62
403.974	105.62
404.198	120.62
404.422	113.62
404.645	124.62
404.869	117.62
405.093	99.62
405.317	114.62
405.541	109.62
405.765	120.62
405.988	109.62
406.212	120.62
406.436	116.62
406.66	125.62
406.883	117.62
407.107	111.62
407.331	112.62
407.555	120.62
407.778	109.62
408.002	118.62
408.226	122.62
408.449	124.62
408.673	124.62
408.896	113.62
409.12	129.62
409.344	126.62
409.567	116.62
409.791	108.62
410.014	118.62
410.238	115.62
410.461	99.62
410.685	104.62
410.908	130.62
411.132	127.62
411.355	121.62
411.578	129.62
411.802	132.62
412.025	126.62
412.249	114.62
412.472	119.62
412.695	102.62
412.919	127.62
413.142	127.62
413.365	113.62
413.589	123.62
413.812	109.62
414.035	120.62
414.258	112.62
414.482	127.62
414.705	117.62
414.928	93.62
415.151	126.62
415.374	126.62
415.597	119.62
415.821	121.62
416.044	133.62
416.267	122.62
416.49	116.62
416.713	124.62
416.936	130.62
417.159	118.62
417.382	125.62
417.605	135.62
417.828	125.62
418.051	123.62
418.274	134.62
418.497	136.62
418.72	136.62
418.943	132.62
419.166	145.62
419.389	134.62
419.611	124.62
419.834	136.62
420.057	115.62
420.28	138.62
420.503	112.62
420.726	123.62
420.948	131.62
421.171	132.62
421.394	131.62
421.617	125.62
421.839	142.62
422.062	116.62
422.285	128.62
422.507	126.62
422.73	116.62
422.953	123.62
423.175	140.62
423.398	126.62
423.621	144.62
423.843	122.62
424.066	153.62
424.288	131.62
424.511	150.62
424.733	150.62
424.956	149.62
425.178	131.62
425.401	137.62
425.623	126.62
425.846	135.62
426.068	132.62
426.291	122.62
426.513	132.62
426.735	128.62
426.958	126.62
427.18	136.62
427.402	139.62
427.625	130.62
427.847	139.62
428.069	129.62
428.292	130.62
428.514	134.62
428.736	124.62
428.958	127.62
429.181	128.62
429.403	118.62
429.625	122.62
429.847	120.62
430.069	137.62
430.292	132.62
430.514	125.62
430.736	110.62
430.958	128.62
431.18	130.62
431.402	120.62
431.624	115.62
431.846	104.62
432.068	92.62
432.29	99.62
432.512	107.62
432.734	105.62
432.956	122.62
433.178	135.62
433.4	129.62
433.622	127.62
433.844	134.62
434.066	123.62
434.287	117.62
434.509	103.62
434.731	96.62
434.953	118.62
435.175	106.62
435.397	123.62
435.618	122.62
435.84	102.62
436.062	126.62
436.284	124.62
436.505	140.62
436.727	128.62
436.949	144.62
437.17	125.62
437.392	116.62
437.614	125.62
437.835	103.62
438.057	96.62
438.278	128.62
438.5	130.62
438.721	115.62
438.943	134.62
439.165	129.62
439.386	125.62
439.608	149.62
439.829	143.62
440.05	148.62
440.272	150.62
440.493	138.62
440.715	149.62
440.936	127.62
441.158	137.62
441.379	131.62
441.6	131.62
441.822	149.62
442.043	139.62
442.264	136.62
442.486	137.62
442.707	143.62
442.928	124.62
443.149	134.62
443.371	142.62
443.592	132.62
443.813	131.62
444.034	144.62
444.255	130.62
444.476	133.62
444.698	140.62
444.919	146.62
445.14	254.62
445.361	187.62
445.582	148.62
445.803	147.62
446.024	137.62
446.245	143.62
446.466	148.62
446.687	149.62
446.908	154.62
447.129	150.62
447.35	153.62
447.571	134.62
447.792	132.62
448.013	134.62
448.234	135.62
448.455	142.62
448.675	133.62
448.896	139.62
449.117	153.62
449.338	140.62
449.559	146.62
449.779	149.62
450	149.62
450.221	134.62
450.442	118.62
450.662	131.62
450.883	133.62
451.104	125.62
451.324	137.62
451.545	132.62
451.766	132.62
451.986	128.62
452.207	132.62
452.428	131.62
452.648	116.62
452.869	123.62
453.089	102.62
453.31	115.62
453.53	109.62
453.751	105.62
453.971	110.62
454.192	106.62
454.412	115.62
454.633	106.62
454.853	110.62
455.073	129.62
455.294	132.62
455.514	121.62
455.734	121.62
455.955	109.62
456.175	112.62
456.395	108.62
456.616	106.62
456.836	111.62
457.056	110.62
457.276	110.62
457.497	117.62
457.717	112.62
457.937	126.62
458.157	115.62
458.377	100.62
458.598	105.62
458.818	85.62
459.038	93.62
459.258	91.62
459.478	88.62
459.698	96.62
459.918	105.62
460.138	110.62
460.358	105.62
460.578	116.62
460.798	120.62
461.018	125.62
461.238	121.62
461.458	110.62
461.678	110.62
461.898	110.62
462.118	115.62
462.338	110.62
462.558	116.62
462.777	106.62
462.997	107.62
463.217	100.62
463.437	98.62
463.657	97.62
463.876	112.62
464.096	102.62
464.316	105.62
464.536	86.62
464.755	105.62
464.975	120.62
465.195	104.62
465.414	118.62
465.634	119.62
465.854	118.62
466.073	104.62
466.293	114.62
466.512	136.62
466.732	124.62
466.951	126.62
467.171	135.62
467.391	124.62
467.61	129.62
467.829	120.62
468.049	141.62
468.268	131.62
468.488	133.62
468.707	126.62
468.927	140.62
469.146	143.62
469.365	121.62
469.585	138.62
469.804	144.62
470.023	136.62
470.243	138.62
470.462	133.62
470.681	136.62
470.901	128.62
471.12	146.62
471.339	144.62
471.558	127.62
471.777	131.62
471.997	118.62
472.216	122.62
472.435	104.62
472.654	106.62
472.873	103.62
473.092	119.62
473.311	105.62
473.53	114.62
473.749	132.62
473.968	137.62
474.187	123.62
474.406	108.62
474.625	134.62
474.844	120.62
475.063	143.62
475.282	132.62
475.501	125.62
475.72	121.62
475.939	120.62
476.158	133.62
476.377	125.62
476.596	121.62
476.814	115.62
477.033	107.62
477.252	112.62
477.471	120.62
477.69	136.62
477.908	138.62
478.127	144.62
478.346	123.62
478.564	140.62
478.783	135.62
479.002	148.62
479.22	136.62
479.439	130.62
479.658	127.62
479.876	118.62
480.095	101.62
480.313	116.62
480.532	116.62
480.751	103.62
480.969	83.62
481.188	96.62
481.406	71.62
481.624	82.62
481.843	79.62
482.061	105.62
482.28	115.62
482.498	102.62
482.717	112.62
482.935	128.62
483.153	137.62
483.372	164.62
483.59	142.62
483.808	134.62
484.027	139.62
484.245	125.62
484.463	156.62
484.681	157.62
484.9	138.62
485.118	132.62
485.336	131.62
485.554	124.62
485.772	100.62
485.99	102.62
486.209	106.62
486.427	117.62
486.645	132.62
486.863	139.62
487.081	160.62
487.299	122.62
487.517	125.62
487.735	162.62
487.953	174.62
488.171	190.62
488.389	165.62
488.607	165.62
488.825	132.62
489.043	134.62
489.261	121.62
489.479	137.62
489.696	140.62
489.914	126.62
490.132	142.62
490.35	153.62
490.568	149.62
490.786	155.62
491.003	170.62
491.221	162.62
491.439	176.62
491.657	187.62
491.874	188.62
492.092	216.62
492.31	219.62
492.527	230.62
492.745	206.62
492.963	195.62
493.18	193.62
493.398	186.62
493.615	162.62
493.833	164.62
494.05	170.62
494.268	170.62
494.485	169.62
494.703	168.62
494.92	161.62
495.138	153.62
495.355	143.62
495.573	168.62
495.79	146.62
496.008	156.62
496.225	155.62
496.442	158.62
496.66	158.62
496.877	171.62
497.094	163.62
497.312	156.62
497.529	162.62
497.746	134.62
497.963	121.62
498.181	118.62
498.398	123.62
498.615	114.62
498.832	109.62
499.049	109.62
499.267	117.62
499.484	119.62
499.701	129.62
499.918	125.62
500.135	152.62
500.352	142.62
500.569	134.62
500.786	146.62
501.003	132.62
501.22	145.62
501.437	142.62
501.654	137.62
501.871	150.62
502.088	140.62
502.305	128.62
502.522	137.62
502.739	128.62
502.956	117.62
503.172	119.62
503.389	116.62
503.606	105.62
503.823	120.62
504.04	115.62
504.256	114.62
504.473	124.62
504.69	109.62
504.907	112.62
505.123	123.62
505.34	132.62
505.557	115.62
505.773	130.62
505.99	122.62
506.207	138.62
506.423	117.62
506.64	108.62
506.856	112.62
507.073	118.62
507.289	129.62
507.506	118.62
507.722	120.62
507.939	120.62
508.155	118.62
508.372	124.62
508.588	113.62
508.805	103.62
509.021	109.62
509.238	103.62
509.454	105.62
509.67	102.62
509.887	91.62
510.103	87.62
510.319	95.62
510.536	91.62
510.752	67.62
510.968	95.62
511.184	83.62
511.401	87.62
511.617	93.62
511.833	99.62
