Data from Location1.07152019.Energy5.Lamp.07192019.3%Agarose_HRD10591_14-32-47-017.txt Node
Date: Fri Jul 19 14:32:47 EDT 2019
User: cochatt
Spectrometer: HR+D1059
Trigger mode: 1
Integration Time (sec): 1.000000E-1
Scans to average: 1
Electric dark correction enabled: true
Nonlinearity correction enabled: false
Boxcar width: 0
XAxis mode: Wavelengths
Number of Pixels in Spectrum: 2048
>>>>>Begin Spectral Data<<<<<
223.165	-21.69
223.4	-21.69
223.635	-21.69
223.869	-25.69
224.104	-18.69
224.338	-28.69
224.573	-15.69
224.808	-3.69
225.042	-12.69
225.277	3.31
225.511	6.31
225.746	16.31
225.98	11.31
226.215	6.31
226.449	2.31
226.683	22.31
226.918	19.31
227.152	39.31
227.387	43.31
227.621	33.31
227.856	46.31
228.09	35.31
228.324	48.31
228.559	56.31
228.793	39.31
229.027	57.31
229.262	68.31
229.496	66.31
229.73	60.31
229.964	59.31
230.199	74.31
230.433	65.31
230.667	79.31
230.901	67.31
231.136	71.31
231.37	86.31
231.604	88.31
231.838	83.31
232.072	88.31
232.306	70.31
232.541	64.31
232.775	83.31
233.009	87.31
233.243	81.31
233.477	79.31
233.711	87.31
233.945	79.31
234.179	78.31
234.413	77.31
234.647	81.31
234.881	73.31
235.115	76.31
235.349	75.31
235.583	75.31
235.817	90.31
236.051	70.31
236.285	74.31
236.519	81.31
236.753	93.31
236.987	80.31
237.221	82.31
237.455	73.31
237.689	75.31
237.922	69.31
238.156	73.31
238.39	69.31
238.624	76.31
238.858	70.31
239.091	78.31
239.325	94.31
239.559	83.31
239.793	69.31
240.027	81.31
240.26	70.31
240.494	88.31
240.728	68.31
240.961	78.31
241.195	82.31
241.429	75.31
241.662	81.31
241.896	78.31
242.13	83.31
242.363	80.31
242.597	84.31
242.83	78.31
243.064	76.31
243.298	81.31
243.531	78.31
243.765	73.31
243.998	73.31
244.232	86.31
244.465	74.31
244.699	83.31
244.932	95.31
245.166	84.31
245.399	68.31
245.633	60.31
245.866	94.31
246.099	84.31
246.333	71.31
246.566	88.31
246.8	78.31
247.033	83.31
247.266	83.31
247.5	80.31
247.733	65.31
247.966	79.31
248.2	71.31
248.433	77.31
248.666	73.31
248.899	76.31
249.133	98.31
249.366	79.31
249.599	64.31
249.832	85.31
250.066	76.31
250.299	78.31
250.532	81.31
250.765	74.31
250.998	66.31
251.231	74.31
251.465	76.31
251.698	74.31
251.931	96.31
252.164	74.31
252.397	66.31
252.63	75.31
252.863	81.31
253.096	77.31
253.329	93.31
253.562	80.31
253.795	80.31
254.028	69.31
254.261	76.31
254.494	80.31
254.727	89.31
254.96	77.31
255.193	66.31
255.426	74.31
255.659	69.31
255.892	87.31
256.124	77.31
256.357	83.31
256.59	70.31
256.823	85.31
257.056	81.31
257.289	78.31
257.521	72.31
257.754	75.31
257.987	87.31
258.22	92.31
258.452	84.31
258.685	78.31
258.918	82.31
259.151	87.31
259.383	75.31
259.616	79.31
259.849	78.31
260.081	81.31
260.314	76.31
260.547	89.31
260.779	84.31
261.012	79.31
261.244	83.31
261.477	72.31
261.71	88.31
261.942	85.31
262.175	82.31
262.407	87.31
262.64	75.31
262.872	77.31
263.105	72.31
263.337	83.31
263.57	70.31
263.802	81.31
264.035	84.31
264.267	77.31
264.499	83.31
264.732	89.31
264.964	93.31
265.197	80.31
265.429	80.31
265.661	84.31
265.894	82.31
266.126	83.31
266.358	70.31
266.591	72.31
266.823	91.31
267.055	71.31
267.287	95.31
267.52	89.31
267.752	89.31
267.984	90.31
268.216	83.31
268.448	91.31
268.681	81.31
268.913	82.31
269.145	85.31
269.377	90.31
269.609	77.31
269.841	77.31
270.073	90.31
270.306	69.31
270.538	80.31
270.77	83.31
271.002	85.31
271.234	85.31
271.466	79.31
271.698	82.31
271.93	81.31
272.162	75.31
272.394	84.31
272.626	72.31
272.858	90.31
273.09	101.31
273.322	76.31
273.553	82.31
273.785	72.31
274.017	77.31
274.249	89.31
274.481	71.31
274.713	77.31
274.945	77.31
275.176	80.31
275.408	76.31
275.64	89.31
275.872	82.31
276.104	81.31
276.335	74.31
276.567	77.31
276.799	84.31
277.031	90.31
277.262	81.31
277.494	80.31
277.726	91.31
277.957	71.31
278.189	88.31
278.421	76.31
278.652	85.31
278.884	81.31
279.115	83.31
279.347	79.31
279.579	88.31
279.81	75.31
280.042	85.31
280.273	73.31
280.505	87.31
280.736	80.31
280.968	77.31
281.199	90.31
281.431	105.31
281.662	81.31
281.894	74.31
282.125	75.31
282.356	84.31
282.588	80.31
282.819	82.31
283.051	75.31
283.282	74.31
283.513	84.31
283.745	78.31
283.976	69.31
284.207	85.31
284.439	73.31
284.67	86.31
284.901	85.31
285.132	85.31
285.364	84.31
285.595	75.31
285.826	77.31
286.057	81.31
286.288	75.31
286.52	90.31
286.751	82.31
286.982	84.31
287.213	80.31
287.444	77.31
287.675	83.31
287.906	76.31
288.138	84.31
288.369	94.31
288.6	98.31
288.831	60.31
289.062	90.31
289.293	96.31
289.524	69.31
289.755	81.31
289.986	100.31
290.217	92.31
290.448	84.31
290.679	76.31
290.91	71.31
291.141	88.31
291.371	80.31
291.602	96.31
291.833	83.31
292.064	81.31
292.295	83.31
292.526	87.31
292.757	79.31
292.987	88.31
293.218	87.31
293.449	99.31
293.68	85.31
293.91	92.31
294.141	87.31
294.372	82.31
294.603	91.31
294.833	79.31
295.064	81.31
295.295	94.31
295.525	89.31
295.756	88.31
295.987	81.31
296.217	78.31
296.448	94.31
296.679	85.31
296.909	77.31
297.14	79.31
297.37	84.31
297.601	90.31
297.831	93.31
298.062	93.31
298.292	87.31
298.523	89.31
298.753	91.31
298.984	83.31
299.214	83.31
299.445	91.31
299.675	96.31
299.905	69.31
300.136	74.31
300.366	88.31
300.597	84.31
300.827	88.31
301.057	80.31
301.288	85.31
301.518	100.31
301.748	85.31
301.979	98.31
302.209	79.31
302.439	83.31
302.669	88.31
302.9	94.31
303.13	87.31
303.36	92.31
303.59	76.31
303.82	82.31
304.051	93.31
304.281	93.31
304.511	81.31
304.741	86.31
304.971	83.31
305.201	83.31
305.431	72.31
305.661	89.31
305.891	82.31
306.121	97.31
306.352	92.31
306.582	80.31
306.812	83.31
307.042	85.31
307.272	88.31
307.502	76.31
307.731	75.31
307.961	87.31
308.191	98.31
308.421	78.31
308.651	79.31
308.881	83.31
309.111	107.31
309.341	79.31
309.571	91.31
309.8	76.31
310.03	92.31
310.26	91.31
310.49	97.31
310.72	81.31
310.949	83.31
311.179	93.31
311.409	85.31
311.639	67.31
311.868	72.31
312.098	73.31
312.328	84.31
312.557	84.31
312.787	97.31
313.017	66.31
313.246	82.31
313.476	92.31
313.706	80.31
313.935	77.31
314.165	90.31
314.394	80.31
314.624	84.31
314.853	91.31
315.083	90.31
315.312	76.31
315.542	90.31
315.771	75.31
316.001	76.31
316.23	74.31
316.46	90.31
316.689	94.31
316.919	93.31
317.148	90.31
317.377	107.31
317.607	92.31
317.836	97.31
318.065	82.31
318.295	78.31
318.524	79.31
318.753	83.31
318.983	84.31
319.212	78.31
319.441	103.31
319.67	91.31
319.9	75.31
320.129	82.31
320.358	84.31
320.587	86.31
320.816	76.31
321.046	96.31
321.275	84.31
321.504	77.31
321.733	80.31
321.962	83.31
322.191	85.31
322.42	89.31
322.649	84.31
322.878	84.31
323.108	92.31
323.337	88.31
323.566	86.31
323.795	89.31
324.024	75.31
324.253	88.31
324.482	81.31
324.71	73.31
324.939	98.31
325.168	76.31
325.397	86.31
325.626	84.31
325.855	83.31
326.084	82.31
326.313	95.31
326.542	88.31
326.77	92.31
326.999	86.31
327.228	83.31
327.457	66.31
327.686	88.31
327.914	78.31
328.143	95.31
328.372	72.31
328.6	78.31
328.829	65.31
329.058	74.31
329.287	82.31
329.515	83.31
329.744	85.31
329.972	85.31
330.201	82.31
330.43	82.31
330.658	88.31
330.887	76.31
331.115	83.31
331.344	84.31
331.572	90.31
331.801	89.31
332.03	85.31
332.258	91.31
332.486	74.31
332.715	87.31
332.943	85.31
333.172	86.31
333.4	89.31
333.629	83.31
333.857	97.31
334.085	88.31
334.314	73.31
334.542	86.31
334.771	78.31
334.999	68.31
335.227	77.31
335.455	82.31
335.684	80.31
335.912	92.31
336.14	94.31
336.369	83.31
336.597	82.31
336.825	92.31
337.053	84.31
337.281	69.31
337.51	81.31
337.738	97.31
337.966	76.31
338.194	82.31
338.422	90.31
338.65	76.31
338.878	89.31
339.106	92.31
339.334	94.31
339.562	89.31
339.79	89.31
340.018	72.31
340.246	77.31
340.474	89.31
340.702	83.31
340.93	75.31
341.158	97.31
341.386	89.31
341.614	85.31
341.842	92.31
342.07	81.31
342.298	87.31
342.526	97.31
342.754	82.31
342.981	87.31
343.209	93.31
343.437	86.31
343.665	87.31
343.893	82.31
344.12	67.31
344.348	91.31
344.576	86.31
344.804	78.31
345.031	84.31
345.259	72.31
345.487	78.31
345.714	72.31
345.942	93.31
346.17	94.31
346.397	89.31
346.625	87.31
346.853	83.31
347.08	76.31
347.308	81.31
347.535	85.31
347.763	81.31
347.99	88.31
348.218	92.31
348.445	89.31
348.673	86.31
348.9	77.31
349.128	88.31
349.355	94.31
349.583	86.31
349.81	81.31
350.037	80.31
350.265	83.31
350.492	81.31
350.72	88.31
350.947	90.31
351.174	82.31
351.402	70.31
351.629	86.31
351.856	79.31
352.083	85.31
352.311	80.31
352.538	72.31
352.765	89.31
352.992	93.31
353.22	85.31
353.447	72.31
353.674	81.31
353.901	81.31
354.128	81.31
354.355	81.31
354.583	73.31
354.81	56.31
355.037	86.31
355.264	75.31
355.491	80.31
355.718	89.31
355.945	83.31
356.172	82.31
356.399	81.31
356.626	84.31
356.853	91.31
357.08	84.31
357.307	79.31
357.534	79.31
357.761	78.31
357.988	83.31
358.215	73.31
358.441	83.31
358.668	80.31
358.895	88.31
359.122	84.31
359.349	76.31
359.576	81.31
359.802	91.31
360.029	88.31
360.256	89.31
360.483	78.31
360.709	83.31
360.936	90.31
361.163	78.31
361.39	89.31
361.616	84.31
361.843	91.31
362.07	83.31
362.296	87.31
362.523	81.31
362.749	100.31
362.976	83.31
363.203	85.31
363.429	80.31
363.656	83.31
363.882	88.31
364.109	90.31
364.335	83.31
364.562	93.31
364.788	87.31
365.015	82.31
365.241	93.31
365.468	79.31
365.694	92.31
365.92	88.31
366.147	86.31
366.373	102.31
366.599	82.31
366.826	85.31
367.052	89.31
367.278	86.31
367.505	92.31
367.731	85.31
367.957	82.31
368.184	95.31
368.41	85.31
368.636	87.31
368.862	90.31
369.089	91.31
369.315	88.31
369.541	85.31
369.767	99.31
369.993	82.31
370.219	91.31
370.445	84.31
370.672	90.31
370.898	101.31
371.124	101.31
371.35	97.31
371.576	90.31
371.802	84.31
372.028	98.31
372.254	94.31
372.48	83.31
372.706	83.31
372.932	85.31
373.158	84.31
373.384	97.31
373.61	86.31
373.835	81.31
374.061	84.31
374.287	98.31
374.513	99.31
374.739	84.31
374.965	88.31
375.191	95.31
375.416	86.31
375.642	94.31
375.868	91.31
376.094	100.31
376.319	84.31
376.545	84.31
376.771	100.31
376.997	96.31
377.222	94.31
377.448	96.31
377.674	98.31
377.899	99.31
378.125	81.31
378.35	101.31
378.576	85.31
378.802	93.31
379.027	82.31
379.253	90.31
379.478	93.31
379.704	104.31
379.929	90.31
380.155	101.31
380.38	90.31
380.606	105.31
380.831	88.31
381.057	98.31
381.282	76.31
381.507	90.31
381.733	104.31
381.958	105.31
382.184	93.31
382.409	97.31
382.634	94.31
382.86	90.31
383.085	96.31
383.31	94.31
383.535	90.31
383.761	91.31
383.986	100.31
384.211	98.31
384.436	104.31
384.662	102.31
384.887	110.31
385.112	91.31
385.337	83.31
385.562	83.31
385.787	97.31
386.013	100.31
386.238	100.31
386.463	107.31
386.688	94.31
386.913	92.31
387.138	102.31
387.363	104.31
387.588	90.31
387.813	110.31
388.038	88.31
388.263	96.31
388.488	106.31
388.713	86.31
388.938	99.31
389.163	111.31
389.387	103.31
389.612	93.31
389.837	101.31
390.062	96.31
390.287	95.31
390.512	100.31
390.736	102.31
390.961	100.31
391.186	110.31
391.411	107.31
391.636	103.31
391.86	108.31
392.085	109.31
392.31	103.31
392.534	96.31
392.759	95.31
392.984	96.31
393.208	108.31
393.433	115.31
393.658	101.31
393.882	107.31
394.107	90.31
394.331	109.31
394.556	114.31
394.78	116.31
395.005	98.31
395.229	96.31
395.454	91.31
395.678	97.31
395.903	97.31
396.127	118.31
396.352	112.31
396.576	108.31
396.801	105.31
397.025	108.31
397.249	106.31
397.474	112.31
397.698	113.31
397.922	100.31
398.147	101.31
398.371	100.31
398.595	101.31
398.82	104.31
399.044	102.31
399.268	122.31
399.492	123.31
399.717	121.31
399.941	118.31
400.165	106.31
400.389	109.31
400.613	94.31
400.837	108.31
401.062	112.31
401.286	105.31
401.51	97.31
401.734	106.31
401.958	103.31
402.182	105.31
402.406	105.31
402.63	103.31
402.854	114.31
403.078	116.31
403.302	117.31
403.526	122.31
403.75	120.31
403.974	112.31
404.198	126.31
404.422	112.31
404.645	117.31
404.869	115.31
405.093	119.31
405.317	112.31
405.541	100.31
405.765	107.31
405.988	101.31
406.212	116.31
406.436	114.31
406.66	125.31
406.883	124.31
407.107	112.31
407.331	104.31
407.555	126.31
407.778	120.31
408.002	118.31
408.226	112.31
408.449	119.31
408.673	113.31
408.896	128.31
409.12	102.31
409.344	114.31
409.567	125.31
409.791	115.31
410.014	124.31
410.238	116.31
410.461	118.31
410.685	129.31
410.908	128.31
411.132	120.31
411.355	123.31
411.578	122.31
411.802	125.31
412.025	138.31
412.249	124.31
412.472	120.31
412.695	126.31
412.919	128.31
413.142	132.31
413.365	128.31
413.589	124.31
413.812	105.31
414.035	133.31
414.258	114.31
414.482	122.31
414.705	109.31
414.928	115.31
415.151	126.31
415.374	115.31
415.597	125.31
415.821	117.31
416.044	115.31
416.267	138.31
416.49	131.31
416.713	100.31
416.936	115.31
417.159	112.31
417.382	116.31
417.605	120.31
417.828	130.31
418.051	120.31
418.274	124.31
418.497	123.31
418.72	116.31
418.943	125.31
419.166	118.31
419.389	135.31
419.611	116.31
419.834	139.31
420.057	136.31
420.28	126.31
420.503	140.31
420.726	125.31
420.948	137.31
421.171	123.31
421.394	142.31
421.617	128.31
421.839	150.31
422.062	150.31
422.285	125.31
422.507	137.31
422.73	129.31
422.953	122.31
423.175	120.31
423.398	129.31
423.621	132.31
423.843	121.31
424.066	132.31
424.288	136.31
424.511	139.31
424.733	138.31
424.956	140.31
425.178	137.31
425.401	137.31
425.623	140.31
425.846	129.31
426.068	136.31
426.291	142.31
426.513	128.31
426.735	128.31
426.958	125.31
427.18	129.31
427.402	124.31
427.625	116.31
427.847	129.31
428.069	124.31
428.292	140.31
428.514	128.31
428.736	127.31
428.958	128.31
429.181	122.31
429.403	112.31
429.625	134.31
429.847	123.31
430.069	116.31
430.292	134.31
430.514	132.31
430.736	136.31
430.958	126.31
431.18	118.31
431.402	123.31
431.624	107.31
431.846	91.31
432.068	101.31
432.29	90.31
432.512	88.31
432.734	128.31
432.956	120.31
433.178	129.31
433.4	136.31
433.622	133.31
433.844	136.31
434.066	125.31
434.287	91.31
434.509	94.31
434.731	123.31
434.953	112.31
435.175	112.31
435.397	120.31
435.618	127.31
435.84	114.31
436.062	106.31
436.284	105.31
436.505	104.31
436.727	137.31
436.949	120.31
437.17	122.31
437.392	139.31
437.614	110.31
437.835	109.31
438.057	100.31
438.278	122.31
438.5	118.31
438.721	136.31
438.943	152.31
439.165	133.31
439.386	134.31
439.608	145.31
439.829	134.31
440.05	145.31
440.272	138.31
440.493	161.31
440.715	138.31
440.936	136.31
441.158	149.31
441.379	118.31
441.6	145.31
441.822	135.31
442.043	137.31
442.264	149.31
442.486	146.31
442.707	130.31
442.928	129.31
443.149	152.31
443.371	156.31
443.592	148.31
443.813	136.31
444.034	127.31
444.255	144.31
444.476	133.31
444.698	141.31
444.919	145.31
445.14	264.31
445.361	180.31
445.582	150.31
445.803	145.31
446.024	145.31
446.245	149.31
446.466	147.31
446.687	155.31
446.908	175.31
447.129	162.31
447.35	144.31
447.571	146.31
447.792	134.31
448.013	142.31
448.234	148.31
448.455	147.31
448.675	140.31
448.896	134.31
449.117	123.31
449.338	141.31
449.559	131.31
449.779	133.31
450	133.31
450.221	131.31
450.442	138.31
450.662	140.31
450.883	131.31
451.104	130.31
451.324	128.31
451.545	116.31
451.766	132.31
451.986	135.31
452.207	130.31
452.428	127.31
452.648	128.31
452.869	122.31
453.089	119.31
453.31	120.31
453.53	92.31
453.751	93.31
453.971	97.31
454.192	90.31
454.412	104.31
454.633	104.31
454.853	113.31
455.073	113.31
455.294	121.31
455.514	112.31
455.734	117.31
455.955	113.31
456.175	108.31
456.395	99.31
456.616	96.31
456.836	104.31
457.056	102.31
457.276	105.31
457.497	104.31
457.717	98.31
457.937	120.31
458.157	116.31
458.377	115.31
458.598	92.31
458.818	103.31
459.038	80.31
459.258	100.31
459.478	92.31
459.698	97.31
459.918	89.31
460.138	100.31
460.358	116.31
460.578	104.31
460.798	112.31
461.018	118.31
461.238	110.31
461.458	113.31
461.678	107.31
461.898	131.31
462.118	124.31
462.338	110.31
462.558	97.31
462.777	108.31
462.997	114.31
463.217	110.31
463.437	114.31
463.657	130.31
463.876	113.31
464.096	115.31
464.316	98.31
464.536	112.31
464.755	124.31
464.975	122.31
465.195	125.31
465.414	102.31
465.634	105.31
465.854	123.31
466.073	116.31
466.293	128.31
466.512	121.31
466.732	124.31
466.951	146.31
467.171	139.31
467.391	128.31
467.61	124.31
467.829	127.31
468.049	128.31
468.268	139.31
468.488	132.31
468.707	120.31
468.927	138.31
469.146	122.31
469.365	117.31
469.585	132.31
469.804	125.31
470.023	129.31
470.243	134.31
470.462	141.31
470.681	131.31
470.901	135.31
471.12	132.31
471.339	122.31
471.558	128.31
471.777	139.31
471.997	133.31
472.216	116.31
472.435	107.31
472.654	112.31
472.873	107.31
473.092	110.31
473.311	130.31
473.53	114.31
473.749	110.31
473.968	125.31
474.187	122.31
474.406	121.31
474.625	113.31
474.844	115.31
475.063	140.31
475.282	125.31
475.501	118.31
475.72	123.31
475.939	117.31
476.158	137.31
476.377	111.31
476.596	121.31
476.814	110.31
477.033	113.31
477.252	112.31
477.471	124.31
477.69	141.31
477.908	138.31
478.127	139.31
478.346	134.31
478.564	137.31
478.783	139.31
479.002	140.31
479.22	128.31
479.439	122.31
479.658	118.31
479.876	113.31
480.095	103.31
480.313	91.31
480.532	108.31
480.751	115.31
480.969	97.31
481.188	77.31
481.406	100.31
481.624	84.31
481.843	89.31
482.061	105.31
482.28	105.31
482.498	115.31
482.717	92.31
482.935	113.31
483.153	130.31
483.372	151.31
483.59	144.31
483.808	133.31
484.027	138.31
484.245	128.31
484.463	140.31
484.681	157.31
484.9	132.31
485.118	132.31
485.336	124.31
485.554	115.31
485.772	110.31
485.99	91.31
486.209	110.31
486.427	117.31
486.645	108.31
486.863	127.31
487.081	130.31
487.299	134.31
487.517	130.31
487.735	157.31
487.953	187.31
488.171	186.31
488.389	176.31
488.607	157.31
488.825	147.31
489.043	136.31
489.261	130.31
489.479	126.31
489.696	139.31
489.914	146.31
490.132	136.31
490.35	155.31
490.568	156.31
490.786	145.31
491.003	162.31
491.221	158.31
491.439	188.31
491.657	186.31
491.874	200.31
492.092	216.31
492.31	221.31
492.527	224.31
492.745	197.31
492.963	170.31
493.18	189.31
493.398	192.31
493.615	182.31
493.833	172.31
494.05	166.31
494.268	161.31
494.485	173.31
494.703	171.31
494.92	184.31
495.138	171.31
495.355	165.31
495.573	171.31
495.79	172.31
496.008	152.31
496.225	161.31
496.442	156.31
496.66	172.31
496.877	162.31
497.094	163.31
497.312	172.31
497.529	152.31
497.746	148.31
497.963	119.31
498.181	138.31
498.398	118.31
498.615	113.31
498.832	109.31
499.049	114.31
499.267	126.31
499.484	116.31
499.701	142.31
499.918	133.31
500.135	128.31
500.352	149.31
500.569	134.31
500.786	133.31
501.003	149.31
501.22	138.31
501.437	147.31
501.654	120.31
501.871	132.31
502.088	130.31
502.305	123.31
502.522	127.31
502.739	144.31
502.956	128.31
503.172	105.31
503.389	116.31
503.606	124.31
503.823	123.31
504.04	119.31
504.256	124.31
504.473	122.31
504.69	105.31
504.907	117.31
505.123	123.31
505.34	125.31
505.557	128.31
505.773	124.31
505.99	115.31
506.207	129.31
506.423	126.31
506.64	126.31
506.856	112.31
507.073	134.31
507.289	127.31
507.506	118.31
507.722	115.31
507.939	115.31
508.155	124.31
508.372	115.31
508.588	100.31
508.805	106.31
509.021	118.31
509.238	101.31
509.454	118.31
509.67	95.31
509.887	103.31
510.103	97.31
510.319	92.31
510.536	95.31
510.752	97.31
510.968	87.31
511.184	88.31
511.401	81.31
511.617	91.31
511.833	90.31
