Data from Location1.07152019.Energy5.Lamp.07192019.3%Agarose_HRD10591_14-31-50-015.txt Node
Date: Fri Jul 19 14:31:50 EDT 2019
User: cochatt
Spectrometer: HR+D1059
Trigger mode: 1
Integration Time (sec): 1.000000E-1
Scans to average: 1
Electric dark correction enabled: true
Nonlinearity correction enabled: false
Boxcar width: 0
XAxis mode: Wavelengths
Number of Pixels in Spectrum: 2048
>>>>>Begin Spectral Data<<<<<
223.165	-8.75
223.4	-8.75
223.635	-8.75
223.869	-16.75
224.104	-19.75
224.338	-9.75
224.573	-16.75
224.808	-20.75
225.042	-3.75
225.277	-7.75
225.511	-10.75
225.746	-2.75
225.98	11.25
226.215	9.25
226.449	17.25
226.683	17.25
226.918	34.25
227.152	28.25
227.387	36.25
227.621	37.25
227.856	38.25
228.09	45.25
228.324	58.25
228.559	66.25
228.793	61.25
229.027	63.25
229.262	60.25
229.496	66.25
229.73	67.25
229.964	81.25
230.199	83.25
230.433	82.25
230.667	85.25
230.901	87.25
231.136	94.25
231.37	80.25
231.604	70.25
231.838	88.25
232.072	95.25
232.306	70.25
232.541	93.25
232.775	75.25
233.009	74.25
233.243	90.25
233.477	80.25
233.711	83.25
233.945	85.25
234.179	76.25
234.413	87.25
234.647	84.25
234.881	88.25
235.115	80.25
235.349	91.25
235.583	78.25
235.817	78.25
236.051	86.25
236.285	62.25
236.519	72.25
236.753	74.25
236.987	73.25
237.221	97.25
237.455	81.25
237.689	62.25
237.922	85.25
238.156	79.25
238.39	74.25
238.624	78.25
238.858	80.25
239.091	77.25
239.325	78.25
239.559	77.25
239.793	88.25
240.027	76.25
240.26	80.25
240.494	76.25
240.728	76.25
240.961	66.25
241.195	79.25
241.429	82.25
241.662	88.25
241.896	78.25
242.13	74.25
242.363	76.25
242.597	71.25
242.83	82.25
243.064	81.25
243.298	70.25
243.531	52.25
243.765	67.25
243.998	83.25
244.232	90.25
244.465	86.25
244.699	90.25
244.932	68.25
245.166	79.25
245.399	73.25
245.633	74.25
245.866	81.25
246.099	69.25
246.333	80.25
246.566	86.25
246.8	78.25
247.033	82.25
247.266	99.25
247.5	89.25
247.733	82.25
247.966	85.25
248.2	78.25
248.433	75.25
248.666	70.25
248.899	78.25
249.133	76.25
249.366	95.25
249.599	83.25
249.832	74.25
250.066	88.25
250.299	59.25
250.532	80.25
250.765	87.25
250.998	99.25
251.231	77.25
251.465	87.25
251.698	73.25
251.931	79.25
252.164	91.25
252.397	79.25
252.63	74.25
252.863	79.25
253.096	73.25
253.329	65.25
253.562	70.25
253.795	85.25
254.028	80.25
254.261	89.25
254.494	77.25
254.727	75.25
254.96	90.25
255.193	85.25
255.426	74.25
255.659	82.25
255.892	84.25
256.124	96.25
256.357	77.25
256.59	91.25
256.823	90.25
257.056	86.25
257.289	87.25
257.521	84.25
257.754	92.25
257.987	75.25
258.22	73.25
258.452	84.25
258.685	85.25
258.918	81.25
259.151	85.25
259.383	78.25
259.616	70.25
259.849	77.25
260.081	78.25
260.314	88.25
260.547	73.25
260.779	90.25
261.012	79.25
261.244	80.25
261.477	85.25
261.71	68.25
261.942	81.25
262.175	82.25
262.407	87.25
262.64	76.25
262.872	70.25
263.105	96.25
263.337	93.25
263.57	79.25
263.802	61.25
264.035	75.25
264.267	76.25
264.499	94.25
264.732	65.25
264.964	87.25
265.197	84.25
265.429	89.25
265.661	78.25
265.894	90.25
266.126	83.25
266.358	82.25
266.591	74.25
266.823	74.25
267.055	78.25
267.287	103.25
267.52	91.25
267.752	86.25
267.984	90.25
268.216	95.25
268.448	94.25
268.681	77.25
268.913	82.25
269.145	90.25
269.377	103.25
269.609	94.25
269.841	83.25
270.073	88.25
270.306	80.25
270.538	70.25
270.77	76.25
271.002	66.25
271.234	85.25
271.466	98.25
271.698	83.25
271.93	83.25
272.162	83.25
272.394	82.25
272.626	79.25
272.858	76.25
273.09	77.25
273.322	83.25
273.553	84.25
273.785	83.25
274.017	74.25
274.249	73.25
274.481	85.25
274.713	90.25
274.945	85.25
275.176	87.25
275.408	107.25
275.64	63.25
275.872	74.25
276.104	89.25
276.335	91.25
276.567	93.25
276.799	94.25
277.031	93.25
277.262	86.25
277.494	79.25
277.726	70.25
277.957	84.25
278.189	85.25
278.421	80.25
278.652	101.25
278.884	88.25
279.115	85.25
279.347	89.25
279.579	82.25
279.81	84.25
280.042	77.25
280.273	90.25
280.505	78.25
280.736	84.25
280.968	84.25
281.199	69.25
281.431	93.25
281.662	93.25
281.894	94.25
282.125	90.25
282.356	73.25
282.588	85.25
282.819	94.25
283.051	92.25
283.282	96.25
283.513	100.25
283.745	88.25
283.976	90.25
284.207	78.25
284.439	93.25
284.67	76.25
284.901	70.25
285.132	71.25
285.364	85.25
285.595	86.25
285.826	63.25
286.057	97.25
286.288	88.25
286.52	79.25
286.751	86.25
286.982	88.25
287.213	83.25
287.444	90.25
287.675	89.25
287.906	97.25
288.138	86.25
288.369	87.25
288.6	84.25
288.831	83.25
289.062	92.25
289.293	91.25
289.524	79.25
289.755	80.25
289.986	87.25
290.217	86.25
290.448	83.25
290.679	80.25
290.91	75.25
291.141	79.25
291.371	90.25
291.602	94.25
291.833	84.25
292.064	84.25
292.295	83.25
292.526	70.25
292.757	80.25
292.987	81.25
293.218	90.25
293.449	85.25
293.68	110.25
293.91	79.25
294.141	68.25
294.372	74.25
294.603	73.25
294.833	77.25
295.064	90.25
295.295	85.25
295.525	95.25
295.756	89.25
295.987	80.25
296.217	80.25
296.448	87.25
296.679	84.25
296.909	84.25
297.14	88.25
297.37	102.25
297.601	79.25
297.831	88.25
298.062	85.25
298.292	88.25
298.523	76.25
298.753	74.25
298.984	98.25
299.214	82.25
299.445	94.25
299.675	92.25
299.905	83.25
300.136	98.25
300.366	90.25
300.597	96.25
300.827	96.25
301.057	81.25
301.288	88.25
301.518	76.25
301.748	70.25
301.979	85.25
302.209	89.25
302.439	85.25
302.669	96.25
302.9	91.25
303.13	76.25
303.36	96.25
303.59	78.25
303.82	80.25
304.051	67.25
304.281	86.25
304.511	98.25
304.741	75.25
304.971	89.25
305.201	86.25
305.431	102.25
305.661	86.25
305.891	74.25
306.121	86.25
306.352	81.25
306.582	86.25
306.812	92.25
307.042	84.25
307.272	82.25
307.502	89.25
307.731	92.25
307.961	68.25
308.191	76.25
308.421	85.25
308.651	76.25
308.881	75.25
309.111	84.25
309.341	89.25
309.571	84.25
309.8	96.25
310.03	66.25
310.26	84.25
310.49	86.25
310.72	85.25
310.949	90.25
311.179	83.25
311.409	75.25
311.639	87.25
311.868	86.25
312.098	88.25
312.328	88.25
312.557	91.25
312.787	91.25
313.017	71.25
313.246	88.25
313.476	73.25
313.706	99.25
313.935	86.25
314.165	90.25
314.394	89.25
314.624	80.25
314.853	80.25
315.083	80.25
315.312	81.25
315.542	84.25
315.771	91.25
316.001	83.25
316.23	83.25
316.46	75.25
316.689	69.25
316.919	93.25
317.148	94.25
317.377	83.25
317.607	84.25
317.836	78.25
318.065	69.25
318.295	83.25
318.524	88.25
318.753	80.25
318.983	94.25
319.212	86.25
319.441	89.25
319.67	87.25
319.9	84.25
320.129	84.25
320.358	94.25
320.587	86.25
320.816	86.25
321.046	88.25
321.275	79.25
321.504	79.25
321.733	83.25
321.962	78.25
322.191	85.25
322.42	98.25
322.649	93.25
322.878	80.25
323.108	79.25
323.337	88.25
323.566	75.25
323.795	78.25
324.024	79.25
324.253	79.25
324.482	85.25
324.71	77.25
324.939	98.25
325.168	87.25
325.397	87.25
325.626	84.25
325.855	81.25
326.084	83.25
326.313	94.25
326.542	85.25
326.77	75.25
326.999	85.25
327.228	78.25
327.457	81.25
327.686	88.25
327.914	96.25
328.143	95.25
328.372	74.25
328.6	78.25
328.829	89.25
329.058	92.25
329.287	92.25
329.515	82.25
329.744	91.25
329.972	100.25
330.201	68.25
330.43	82.25
330.658	86.25
330.887	80.25
331.115	74.25
331.344	84.25
331.572	88.25
331.801	87.25
332.03	72.25
332.258	82.25
332.486	77.25
332.715	96.25
332.943	86.25
333.172	81.25
333.4	74.25
333.629	83.25
333.857	85.25
334.085	88.25
334.314	80.25
334.542	76.25
334.771	95.25
334.999	101.25
335.227	93.25
335.455	82.25
335.684	70.25
335.912	91.25
336.14	84.25
336.369	85.25
336.597	78.25
336.825	92.25
337.053	74.25
337.281	79.25
337.51	85.25
337.738	92.25
337.966	76.25
338.194	91.25
338.422	85.25
338.65	89.25
338.878	91.25
339.106	83.25
339.334	85.25
339.562	82.25
339.79	86.25
340.018	80.25
340.246	89.25
340.474	80.25
340.702	78.25
340.93	84.25
341.158	99.25
341.386	79.25
341.614	87.25
341.842	97.25
342.07	77.25
342.298	98.25
342.526	73.25
342.754	80.25
342.981	92.25
343.209	80.25
343.437	84.25
343.665	92.25
343.893	75.25
344.12	72.25
344.348	93.25
344.576	78.25
344.804	78.25
345.031	95.25
345.259	96.25
345.487	91.25
345.714	101.25
345.942	91.25
346.17	86.25
346.397	84.25
346.625	90.25
346.853	85.25
347.08	90.25
347.308	93.25
347.535	87.25
347.763	79.25
347.99	87.25
348.218	85.25
348.445	83.25
348.673	84.25
348.9	78.25
349.128	98.25
349.355	89.25
349.583	88.25
349.81	83.25
350.037	92.25
350.265	85.25
350.492	85.25
350.72	74.25
350.947	95.25
351.174	89.25
351.402	81.25
351.629	81.25
351.856	93.25
352.083	78.25
352.311	83.25
352.538	86.25
352.765	75.25
352.992	79.25
353.22	83.25
353.447	78.25
353.674	86.25
353.901	76.25
354.128	84.25
354.355	75.25
354.583	90.25
354.81	91.25
355.037	97.25
355.264	87.25
355.491	88.25
355.718	77.25
355.945	75.25
356.172	82.25
356.399	82.25
356.626	79.25
356.853	78.25
357.08	95.25
357.307	82.25
357.534	87.25
357.761	69.25
357.988	81.25
358.215	90.25
358.441	86.25
358.668	85.25
358.895	92.25
359.122	89.25
359.349	79.25
359.576	75.25
359.802	66.25
360.029	87.25
360.256	82.25
360.483	97.25
360.709	101.25
360.936	95.25
361.163	85.25
361.39	102.25
361.616	81.25
361.843	84.25
362.07	91.25
362.296	82.25
362.523	84.25
362.749	88.25
362.976	79.25
363.203	77.25
363.429	93.25
363.656	82.25
363.882	78.25
364.109	75.25
364.335	95.25
364.562	78.25
364.788	93.25
365.015	98.25
365.241	94.25
365.468	73.25
365.694	84.25
365.92	85.25
366.147	80.25
366.373	93.25
366.599	89.25
366.826	91.25
367.052	84.25
367.278	98.25
367.505	97.25
367.731	86.25
367.957	80.25
368.184	92.25
368.41	73.25
368.636	88.25
368.862	104.25
369.089	94.25
369.315	74.25
369.541	90.25
369.767	94.25
369.993	89.25
370.219	83.25
370.445	88.25
370.672	88.25
370.898	88.25
371.124	85.25
371.35	83.25
371.576	96.25
371.802	99.25
372.028	70.25
372.254	95.25
372.48	92.25
372.706	101.25
372.932	85.25
373.158	100.25
373.384	83.25
373.61	97.25
373.835	85.25
374.061	73.25
374.287	93.25
374.513	106.25
374.739	86.25
374.965	83.25
375.191	102.25
375.416	84.25
375.642	83.25
375.868	96.25
376.094	87.25
376.319	90.25
376.545	84.25
376.771	74.25
376.997	97.25
377.222	82.25
377.448	94.25
377.674	89.25
377.899	85.25
378.125	92.25
378.35	102.25
378.576	101.25
378.802	97.25
379.027	93.25
379.253	101.25
379.478	89.25
379.704	99.25
379.929	96.25
380.155	101.25
380.38	105.25
380.606	103.25
380.831	117.25
381.057	106.25
381.282	95.25
381.507	95.25
381.733	85.25
381.958	97.25
382.184	75.25
382.409	99.25
382.634	110.25
382.86	92.25
383.085	101.25
383.31	100.25
383.535	106.25
383.761	100.25
383.986	88.25
384.211	95.25
384.436	79.25
384.662	81.25
384.887	102.25
385.112	91.25
385.337	95.25
385.562	100.25
385.787	97.25
386.013	114.25
386.238	92.25
386.463	100.25
386.688	95.25
386.913	88.25
387.138	95.25
387.363	93.25
387.588	85.25
387.813	117.25
388.038	106.25
388.263	108.25
388.488	99.25
388.713	98.25
388.938	111.25
389.163	104.25
389.387	95.25
389.612	99.25
389.837	103.25
390.062	90.25
390.287	93.25
390.512	88.25
390.736	108.25
390.961	92.25
391.186	100.25
391.411	103.25
391.636	92.25
391.86	103.25
392.085	91.25
392.31	111.25
392.534	106.25
392.759	105.25
392.984	91.25
393.208	98.25
393.433	93.25
393.658	102.25
393.882	108.25
394.107	116.25
394.331	112.25
394.556	91.25
394.78	105.25
395.005	113.25
395.229	117.25
395.454	96.25
395.678	104.25
395.903	110.25
396.127	119.25
396.352	97.25
396.576	94.25
396.801	100.25
397.025	102.25
397.249	114.25
397.474	114.25
397.698	110.25
397.922	115.25
398.147	104.25
398.371	110.25
398.595	98.25
398.82	107.25
399.044	107.25
399.268	113.25
399.492	103.25
399.717	106.25
399.941	105.25
400.165	101.25
400.389	102.25
400.613	98.25
400.837	115.25
401.062	99.25
401.286	110.25
401.51	100.25
401.734	104.25
401.958	122.25
402.182	102.25
402.406	120.25
402.63	110.25
402.854	114.25
403.078	110.25
403.302	117.25
403.526	103.25
403.75	126.25
403.974	118.25
404.198	104.25
404.422	116.25
404.645	109.25
404.869	101.25
405.093	97.25
405.317	109.25
405.541	117.25
405.765	111.25
405.988	125.25
406.212	111.25
406.436	114.25
406.66	113.25
406.883	98.25
407.107	114.25
407.331	116.25
407.555	116.25
407.778	122.25
408.002	121.25
408.226	124.25
408.449	105.25
408.673	98.25
408.896	105.25
409.12	122.25
409.344	122.25
409.567	111.25
409.791	125.25
410.014	123.25
410.238	123.25
410.461	126.25
410.685	122.25
410.908	128.25
411.132	131.25
411.355	136.25
411.578	126.25
411.802	118.25
412.025	129.25
412.249	119.25
412.472	118.25
412.695	103.25
412.919	125.25
413.142	119.25
413.365	116.25
413.589	120.25
413.812	135.25
414.035	128.25
414.258	117.25
414.482	105.25
414.705	122.25
414.928	117.25
415.151	115.25
415.374	117.25
415.597	122.25
415.821	115.25
416.044	134.25
416.267	123.25
416.49	109.25
416.713	126.25
416.936	119.25
417.159	126.25
417.382	126.25
417.605	112.25
417.828	124.25
418.051	130.25
418.274	129.25
418.497	126.25
418.72	133.25
418.943	142.25
419.166	136.25
419.389	151.25
419.611	140.25
419.834	135.25
420.057	137.25
420.28	140.25
420.503	126.25
420.726	127.25
420.948	114.25
421.171	137.25
421.394	135.25
421.617	130.25
421.839	145.25
422.062	144.25
422.285	120.25
422.507	133.25
422.73	133.25
422.953	135.25
423.175	128.25
423.398	131.25
423.621	137.25
423.843	143.25
424.066	131.25
424.288	122.25
424.511	134.25
424.733	134.25
424.956	127.25
425.178	143.25
425.401	133.25
425.623	124.25
425.846	141.25
426.068	123.25
426.291	133.25
426.513	130.25
426.735	138.25
426.958	128.25
427.18	146.25
427.402	131.25
427.625	150.25
427.847	132.25
428.069	130.25
428.292	127.25
428.514	130.25
428.736	112.25
428.958	126.25
429.181	138.25
429.403	125.25
429.625	144.25
429.847	127.25
430.069	123.25
430.292	122.25
430.514	123.25
430.736	134.25
430.958	138.25
431.18	121.25
431.402	117.25
431.624	122.25
431.846	116.25
432.068	92.25
432.29	96.25
432.512	117.25
432.734	110.25
432.956	126.25
433.178	122.25
433.4	128.25
433.622	146.25
433.844	136.25
434.066	137.25
434.287	98.25
434.509	88.25
434.731	100.25
434.953	110.25
435.175	124.25
435.397	116.25
435.618	114.25
435.84	119.25
436.062	114.25
436.284	126.25
436.505	126.25
436.727	134.25
436.949	123.25
437.17	132.25
437.392	132.25
437.614	130.25
437.835	112.25
438.057	109.25
438.278	110.25
438.5	120.25
438.721	117.25
438.943	127.25
439.165	147.25
439.386	131.25
439.608	129.25
439.829	151.25
440.05	159.25
440.272	157.25
440.493	136.25
440.715	145.25
440.936	144.25
441.158	150.25
441.379	152.25
441.6	142.25
441.822	139.25
442.043	137.25
442.264	146.25
442.486	145.25
442.707	126.25
442.928	144.25
443.149	128.25
443.371	112.25
443.592	138.25
443.813	128.25
444.034	151.25
444.255	140.25
444.476	130.25
444.698	140.25
444.919	138.25
445.14	286.25
445.361	216.25
445.582	153.25
445.803	141.25
446.024	134.25
446.245	155.25
446.466	138.25
446.687	145.25
446.908	154.25
447.129	156.25
447.35	136.25
447.571	166.25
447.792	138.25
448.013	145.25
448.234	139.25
448.455	146.25
448.675	150.25
448.896	140.25
449.117	148.25
449.338	133.25
449.559	146.25
449.779	121.25
450	136.25
450.221	131.25
450.442	135.25
450.662	128.25
450.883	130.25
451.104	150.25
451.324	135.25
451.545	134.25
451.766	142.25
451.986	136.25
452.207	120.25
452.428	114.25
452.648	115.25
452.869	112.25
453.089	123.25
453.31	107.25
453.53	112.25
453.751	94.25
453.971	92.25
454.192	99.25
454.412	119.25
454.633	112.25
454.853	104.25
455.073	132.25
455.294	105.25
455.514	138.25
455.734	120.25
455.955	121.25
456.175	114.25
456.395	106.25
456.616	103.25
456.836	103.25
457.056	104.25
457.276	107.25
457.497	102.25
457.717	108.25
457.937	106.25
458.157	113.25
458.377	113.25
458.598	107.25
458.818	112.25
459.038	97.25
459.258	98.25
459.478	86.25
459.698	89.25
459.918	102.25
460.138	95.25
460.358	103.25
460.578	115.25
460.798	103.25
461.018	108.25
461.238	118.25
461.458	98.25
461.678	103.25
461.898	109.25
462.118	117.25
462.338	112.25
462.558	100.25
462.777	112.25
462.997	116.25
463.217	109.25
463.437	99.25
463.657	88.25
463.876	116.25
464.096	104.25
464.316	102.25
464.536	111.25
464.755	125.25
464.975	122.25
465.195	124.25
465.414	114.25
465.634	110.25
465.854	113.25
466.073	114.25
466.293	126.25
466.512	135.25
466.732	144.25
466.951	134.25
467.171	132.25
467.391	126.25
467.61	141.25
467.829	135.25
468.049	124.25
468.268	127.25
468.488	157.25
468.707	130.25
468.927	141.25
469.146	150.25
469.365	149.25
469.585	143.25
469.804	118.25
470.023	136.25
470.243	140.25
470.462	135.25
470.681	132.25
470.901	131.25
471.12	132.25
471.339	135.25
471.558	139.25
471.777	134.25
471.997	128.25
472.216	126.25
472.435	105.25
472.654	116.25
472.873	101.25
473.092	123.25
473.311	124.25
473.53	132.25
473.749	138.25
473.968	137.25
474.187	123.25
474.406	116.25
474.625	111.25
474.844	130.25
475.063	119.25
475.282	127.25
475.501	120.25
475.72	133.25
475.939	132.25
476.158	123.25
476.377	119.25
476.596	121.25
476.814	114.25
477.033	107.25
477.252	124.25
477.471	127.25
477.69	125.25
477.908	139.25
478.127	137.25
478.346	135.25
478.564	137.25
478.783	127.25
479.002	152.25
479.22	134.25
479.439	140.25
479.658	116.25
479.876	102.25
480.095	120.25
480.313	120.25
480.532	104.25
480.751	117.25
480.969	97.25
481.188	85.25
481.406	95.25
481.624	68.25
481.843	92.25
482.061	96.25
482.28	116.25
482.498	102.25
482.717	107.25
482.935	118.25
483.153	119.25
483.372	167.25
483.59	137.25
483.808	153.25
484.027	129.25
484.245	138.25
484.463	148.25
484.681	152.25
484.9	129.25
485.118	148.25
485.336	128.25
485.554	116.25
485.772	103.25
485.99	94.25
486.209	104.25
486.427	107.25
486.645	119.25
486.863	153.25
487.081	143.25
487.299	132.25
487.517	127.25
487.735	157.25
487.953	173.25
488.171	176.25
488.389	166.25
488.607	174.25
488.825	145.25
489.043	129.25
489.261	143.25
489.479	138.25
489.696	141.25
489.914	135.25
490.132	156.25
490.35	144.25
490.568	158.25
490.786	162.25
491.003	189.25
491.221	175.25
491.439	207.25
491.657	206.25
491.874	199.25
492.092	212.25
492.31	242.25
492.527	219.25
492.745	197.25
492.963	188.25
493.18	192.25
493.398	187.25
493.615	178.25
493.833	183.25
494.05	166.25
494.268	169.25
494.485	173.25
494.703	173.25
494.92	162.25
495.138	166.25
495.355	153.25
495.573	172.25
495.79	173.25
496.008	161.25
496.225	159.25
496.442	153.25
496.66	151.25
496.877	164.25
497.094	152.25
497.312	166.25
497.529	147.25
497.746	154.25
497.963	147.25
498.181	130.25
498.398	109.25
498.615	120.25
498.832	114.25
499.049	99.25
499.267	124.25
499.484	120.25
499.701	139.25
499.918	134.25
500.135	138.25
500.352	152.25
500.569	132.25
500.786	151.25
501.003	117.25
501.22	135.25
501.437	136.25
501.654	131.25
501.871	125.25
502.088	134.25
502.305	127.25
502.522	144.25
502.739	128.25
502.956	120.25
503.172	128.25
503.389	110.25
503.606	111.25
503.823	110.25
504.04	118.25
504.256	122.25
504.473	124.25
504.69	128.25
504.907	108.25
505.123	126.25
505.34	114.25
505.557	128.25
505.773	131.25
505.99	116.25
506.207	127.25
506.423	130.25
506.64	126.25
506.856	124.25
507.073	112.25
507.289	116.25
507.506	116.25
507.722	120.25
507.939	121.25
508.155	102.25
508.372	118.25
508.588	109.25
508.805	106.25
509.021	92.25
509.238	106.25
509.454	95.25
509.67	93.25
509.887	111.25
510.103	96.25
510.319	106.25
510.536	103.25
510.752	102.25
510.968	87.25
511.184	78.25
511.401	84.25
511.617	83.25
