Data from Location1.07152019.Energy5.Lamp.07192019.3%Agarose_HRD10591_14-32-51-016.txt Node
Date: Fri Jul 19 14:32:51 EDT 2019
User: cochatt
Spectrometer: HR+D1059
Trigger mode: 1
Integration Time (sec): 1.000000E-1
Scans to average: 1
Electric dark correction enabled: true
Nonlinearity correction enabled: false
Boxcar width: 0
XAxis mode: Wavelengths
Number of Pixels in Spectrum: 2048
>>>>>Begin Spectral Data<<<<<
223.165	-15.69
223.4	-15.69
223.635	-15.69
223.869	-12.69
224.104	-19.69
224.338	-10.69
224.573	-16.69
224.808	-5.69
225.042	-1.69
225.277	-14.69
225.511	-3.69
225.746	-2.69
225.98	5.31
226.215	9.31
226.449	23.31
226.683	24.31
226.918	18.31
227.152	23.31
227.387	37.31
227.621	51.31
227.856	48.31
228.09	52.31
228.324	39.31
228.559	56.31
228.793	61.31
229.027	69.31
229.262	52.31
229.496	72.31
229.73	74.31
229.964	70.31
230.199	75.31
230.433	62.31
230.667	64.31
230.901	69.31
231.136	75.31
231.37	90.31
231.604	83.31
231.838	74.31
232.072	78.31
232.306	72.31
232.541	79.31
232.775	85.31
233.009	83.31
233.243	78.31
233.477	73.31
233.711	71.31
233.945	101.31
234.179	81.31
234.413	91.31
234.647	61.31
234.881	80.31
235.115	75.31
235.349	79.31
235.583	90.31
235.817	83.31
236.051	78.31
236.285	74.31
236.519	76.31
236.753	87.31
236.987	79.31
237.221	80.31
237.455	71.31
237.689	73.31
237.922	73.31
238.156	76.31
238.39	79.31
238.624	66.31
238.858	68.31
239.091	72.31
239.325	66.31
239.559	74.31
239.793	72.31
240.027	85.31
240.26	84.31
240.494	91.31
240.728	84.31
240.961	71.31
241.195	88.31
241.429	87.31
241.662	63.31
241.896	68.31
242.13	81.31
242.363	71.31
242.597	73.31
242.83	77.31
243.064	78.31
243.298	78.31
243.531	72.31
243.765	74.31
243.998	69.31
244.232	71.31
244.465	77.31
244.699	69.31
244.932	86.31
245.166	85.31
245.399	72.31
245.633	71.31
245.866	79.31
246.099	78.31
246.333	68.31
246.566	69.31
246.8	64.31
247.033	60.31
247.266	72.31
247.5	71.31
247.733	76.31
247.966	70.31
248.2	95.31
248.433	68.31
248.666	67.31
248.899	71.31
249.133	71.31
249.366	77.31
249.599	76.31
249.832	76.31
250.066	85.31
250.299	62.31
250.532	79.31
250.765	65.31
250.998	87.31
251.231	77.31
251.465	71.31
251.698	82.31
251.931	75.31
252.164	74.31
252.397	69.31
252.63	71.31
252.863	78.31
253.096	86.31
253.329	79.31
253.562	63.31
253.795	82.31
254.028	82.31
254.261	61.31
254.494	71.31
254.727	73.31
254.96	72.31
255.193	77.31
255.426	72.31
255.659	67.31
255.892	72.31
256.124	77.31
256.357	88.31
256.59	70.31
256.823	82.31
257.056	77.31
257.289	70.31
257.521	83.31
257.754	72.31
257.987	74.31
258.22	82.31
258.452	74.31
258.685	65.31
258.918	72.31
259.151	79.31
259.383	82.31
259.616	78.31
259.849	82.31
260.081	83.31
260.314	78.31
260.547	77.31
260.779	69.31
261.012	76.31
261.244	80.31
261.477	81.31
261.71	80.31
261.942	83.31
262.175	90.31
262.407	74.31
262.64	76.31
262.872	69.31
263.105	71.31
263.337	89.31
263.57	75.31
263.802	87.31
264.035	77.31
264.267	84.31
264.499	88.31
264.732	72.31
264.964	73.31
265.197	91.31
265.429	88.31
265.661	80.31
265.894	100.31
266.126	85.31
266.358	76.31
266.591	82.31
266.823	76.31
267.055	74.31
267.287	73.31
267.52	68.31
267.752	76.31
267.984	84.31
268.216	64.31
268.448	84.31
268.681	77.31
268.913	69.31
269.145	82.31
269.377	75.31
269.609	64.31
269.841	91.31
270.073	76.31
270.306	81.31
270.538	71.31
270.77	58.31
271.002	84.31
271.234	76.31
271.466	87.31
271.698	75.31
271.93	78.31
272.162	86.31
272.394	81.31
272.626	92.31
272.858	75.31
273.09	82.31
273.322	65.31
273.553	71.31
273.785	84.31
274.017	79.31
274.249	78.31
274.481	85.31
274.713	93.31
274.945	84.31
275.176	78.31
275.408	78.31
275.64	80.31
275.872	92.31
276.104	72.31
276.335	83.31
276.567	67.31
276.799	65.31
277.031	79.31
277.262	73.31
277.494	72.31
277.726	87.31
277.957	84.31
278.189	76.31
278.421	82.31
278.652	80.31
278.884	72.31
279.115	85.31
279.347	76.31
279.579	81.31
279.81	65.31
280.042	89.31
280.273	74.31
280.505	86.31
280.736	72.31
280.968	72.31
281.199	84.31
281.431	78.31
281.662	82.31
281.894	87.31
282.125	78.31
282.356	83.31
282.588	81.31
282.819	93.31
283.051	75.31
283.282	91.31
283.513	68.31
283.745	88.31
283.976	89.31
284.207	74.31
284.439	91.31
284.67	88.31
284.901	84.31
285.132	85.31
285.364	83.31
285.595	66.31
285.826	76.31
286.057	87.31
286.288	80.31
286.52	73.31
286.751	81.31
286.982	83.31
287.213	90.31
287.444	104.31
287.675	86.31
287.906	71.31
288.138	76.31
288.369	82.31
288.6	87.31
288.831	75.31
289.062	77.31
289.293	85.31
289.524	62.31
289.755	78.31
289.986	94.31
290.217	74.31
290.448	67.31
290.679	78.31
290.91	87.31
291.141	68.31
291.371	67.31
291.602	77.31
291.833	85.31
292.064	82.31
292.295	76.31
292.526	79.31
292.757	73.31
292.987	68.31
293.218	77.31
293.449	98.31
293.68	76.31
293.91	92.31
294.141	70.31
294.372	87.31
294.603	81.31
294.833	72.31
295.064	80.31
295.295	95.31
295.525	97.31
295.756	94.31
295.987	90.31
296.217	62.31
296.448	76.31
296.679	82.31
296.909	84.31
297.14	76.31
297.37	80.31
297.601	70.31
297.831	86.31
298.062	89.31
298.292	85.31
298.523	91.31
298.753	80.31
298.984	79.31
299.214	73.31
299.445	85.31
299.675	67.31
299.905	88.31
300.136	91.31
300.366	77.31
300.597	81.31
300.827	83.31
301.057	79.31
301.288	79.31
301.518	81.31
301.748	83.31
301.979	85.31
302.209	77.31
302.439	83.31
302.669	74.31
302.9	81.31
303.13	85.31
303.36	75.31
303.59	92.31
303.82	84.31
304.051	68.31
304.281	73.31
304.511	81.31
304.741	72.31
304.971	78.31
305.201	86.31
305.431	83.31
305.661	83.31
305.891	71.31
306.121	82.31
306.352	100.31
306.582	65.31
306.812	72.31
307.042	84.31
307.272	82.31
307.502	86.31
307.731	95.31
307.961	75.31
308.191	90.31
308.421	88.31
308.651	79.31
308.881	80.31
309.111	84.31
309.341	67.31
309.571	79.31
309.8	82.31
310.03	71.31
310.26	85.31
310.49	90.31
310.72	75.31
310.949	79.31
311.179	99.31
311.409	89.31
311.639	75.31
311.868	79.31
312.098	84.31
312.328	76.31
312.557	87.31
312.787	93.31
313.017	82.31
313.246	70.31
313.476	80.31
313.706	69.31
313.935	91.31
314.165	80.31
314.394	77.31
314.624	91.31
314.853	88.31
315.083	70.31
315.312	74.31
315.542	81.31
315.771	85.31
316.001	80.31
316.23	84.31
316.46	87.31
316.689	83.31
316.919	70.31
317.148	93.31
317.377	80.31
317.607	83.31
317.836	79.31
318.065	83.31
318.295	77.31
318.524	80.31
318.753	81.31
318.983	70.31
319.212	90.31
319.441	81.31
319.67	82.31
319.9	74.31
320.129	80.31
320.358	72.31
320.587	84.31
320.816	95.31
321.046	81.31
321.275	81.31
321.504	90.31
321.733	84.31
321.962	93.31
322.191	86.31
322.42	80.31
322.649	80.31
322.878	77.31
323.108	77.31
323.337	82.31
323.566	86.31
323.795	76.31
324.024	83.31
324.253	73.31
324.482	82.31
324.71	74.31
324.939	79.31
325.168	84.31
325.397	91.31
325.626	92.31
325.855	90.31
326.084	74.31
326.313	76.31
326.542	90.31
326.77	78.31
326.999	77.31
327.228	77.31
327.457	71.31
327.686	73.31
327.914	86.31
328.143	96.31
328.372	83.31
328.6	80.31
328.829	84.31
329.058	86.31
329.287	85.31
329.515	81.31
329.744	68.31
329.972	74.31
330.201	72.31
330.43	94.31
330.658	79.31
330.887	76.31
331.115	87.31
331.344	76.31
331.572	65.31
331.801	81.31
332.03	79.31
332.258	77.31
332.486	80.31
332.715	81.31
332.943	90.31
333.172	89.31
333.4	98.31
333.629	84.31
333.857	84.31
334.085	76.31
334.314	84.31
334.542	76.31
334.771	75.31
334.999	79.31
335.227	86.31
335.455	70.31
335.684	82.31
335.912	76.31
336.14	75.31
336.369	80.31
336.597	67.31
336.825	81.31
337.053	77.31
337.281	80.31
337.51	85.31
337.738	82.31
337.966	81.31
338.194	90.31
338.422	91.31
338.65	76.31
338.878	77.31
339.106	64.31
339.334	77.31
339.562	73.31
339.79	81.31
340.018	78.31
340.246	82.31
340.474	73.31
340.702	74.31
340.93	77.31
341.158	91.31
341.386	77.31
341.614	76.31
341.842	83.31
342.07	70.31
342.298	85.31
342.526	82.31
342.754	97.31
342.981	78.31
343.209	73.31
343.437	81.31
343.665	82.31
343.893	77.31
344.12	77.31
344.348	78.31
344.576	87.31
344.804	87.31
345.031	92.31
345.259	76.31
345.487	86.31
345.714	104.31
345.942	89.31
346.17	77.31
346.397	89.31
346.625	67.31
346.853	78.31
347.08	69.31
347.308	83.31
347.535	80.31
347.763	89.31
347.99	65.31
348.218	92.31
348.445	86.31
348.673	82.31
348.9	77.31
349.128	95.31
349.355	100.31
349.583	91.31
349.81	89.31
350.037	87.31
350.265	79.31
350.492	80.31
350.72	82.31
350.947	74.31
351.174	88.31
351.402	78.31
351.629	80.31
351.856	60.31
352.083	89.31
352.311	91.31
352.538	82.31
352.765	99.31
352.992	86.31
353.22	81.31
353.447	71.31
353.674	76.31
353.901	87.31
354.128	82.31
354.355	82.31
354.583	72.31
354.81	72.31
355.037	77.31
355.264	85.31
355.491	83.31
355.718	88.31
355.945	82.31
356.172	85.31
356.399	87.31
356.626	82.31
356.853	75.31
357.08	87.31
357.307	75.31
357.534	70.31
357.761	74.31
357.988	65.31
358.215	82.31
358.441	68.31
358.668	80.31
358.895	83.31
359.122	87.31
359.349	80.31
359.576	80.31
359.802	76.31
360.029	80.31
360.256	86.31
360.483	81.31
360.709	91.31
360.936	84.31
361.163	77.31
361.39	82.31
361.616	73.31
361.843	63.31
362.07	72.31
362.296	83.31
362.523	90.31
362.749	79.31
362.976	69.31
363.203	86.31
363.429	85.31
363.656	87.31
363.882	79.31
364.109	86.31
364.335	85.31
364.562	82.31
364.788	91.31
365.015	87.31
365.241	76.31
365.468	84.31
365.694	92.31
365.92	83.31
366.147	97.31
366.373	67.31
366.599	81.31
366.826	81.31
367.052	78.31
367.278	82.31
367.505	101.31
367.731	79.31
367.957	84.31
368.184	77.31
368.41	93.31
368.636	88.31
368.862	95.31
369.089	84.31
369.315	84.31
369.541	95.31
369.767	86.31
369.993	78.31
370.219	75.31
370.445	98.31
370.672	87.31
370.898	88.31
371.124	80.31
371.35	90.31
371.576	89.31
371.802	88.31
372.028	82.31
372.254	97.31
372.48	92.31
372.706	86.31
372.932	83.31
373.158	89.31
373.384	93.31
373.61	92.31
373.835	83.31
374.061	87.31
374.287	82.31
374.513	76.31
374.739	84.31
374.965	89.31
375.191	90.31
375.416	76.31
375.642	88.31
375.868	88.31
376.094	97.31
376.319	91.31
376.545	83.31
376.771	103.31
376.997	93.31
377.222	85.31
377.448	88.31
377.674	107.31
377.899	86.31
378.125	103.31
378.35	97.31
378.576	80.31
378.802	89.31
379.027	102.31
379.253	105.31
379.478	92.31
379.704	91.31
379.929	88.31
380.155	96.31
380.38	89.31
380.606	101.31
380.831	86.31
381.057	84.31
381.282	100.31
381.507	101.31
381.733	102.31
381.958	89.31
382.184	97.31
382.409	88.31
382.634	116.31
382.86	99.31
383.085	86.31
383.31	93.31
383.535	86.31
383.761	86.31
383.986	90.31
384.211	95.31
384.436	95.31
384.662	102.31
384.887	93.31
385.112	84.31
385.337	97.31
385.562	105.31
385.787	93.31
386.013	102.31
386.238	109.31
386.463	92.31
386.688	90.31
386.913	95.31
387.138	83.31
387.363	88.31
387.588	100.31
387.813	97.31
388.038	96.31
388.263	88.31
388.488	97.31
388.713	85.31
388.938	100.31
389.163	101.31
389.387	90.31
389.612	90.31
389.837	103.31
390.062	97.31
390.287	108.31
390.512	96.31
390.736	99.31
390.961	97.31
391.186	90.31
391.411	100.31
391.636	95.31
391.86	95.31
392.085	103.31
392.31	100.31
392.534	109.31
392.759	95.31
392.984	91.31
393.208	94.31
393.433	86.31
393.658	93.31
393.882	101.31
394.107	104.31
394.331	88.31
394.556	100.31
394.78	113.31
395.005	103.31
395.229	97.31
395.454	103.31
395.678	104.31
395.903	107.31
396.127	119.31
396.352	88.31
396.576	95.31
396.801	104.31
397.025	116.31
397.249	107.31
397.474	121.31
397.698	100.31
397.922	102.31
398.147	103.31
398.371	117.31
398.595	93.31
398.82	112.31
399.044	113.31
399.268	113.31
399.492	108.31
399.717	100.31
399.941	101.31
400.165	100.31
400.389	106.31
400.613	95.31
400.837	115.31
401.062	107.31
401.286	108.31
401.51	101.31
401.734	98.31
401.958	101.31
402.182	105.31
402.406	120.31
402.63	100.31
402.854	122.31
403.078	103.31
403.302	109.31
403.526	111.31
403.75	113.31
403.974	116.31
404.198	105.31
404.422	108.31
404.645	119.31
404.869	118.31
405.093	113.31
405.317	124.31
405.541	115.31
405.765	122.31
405.988	108.31
406.212	121.31
406.436	116.31
406.66	105.31
406.883	106.31
407.107	125.31
407.331	115.31
407.555	113.31
407.778	113.31
408.002	128.31
408.226	116.31
408.449	107.31
408.673	123.31
408.896	115.31
409.12	118.31
409.344	118.31
409.567	112.31
409.791	126.31
410.014	123.31
410.238	119.31
410.461	120.31
410.685	124.31
410.908	115.31
411.132	106.31
411.355	123.31
411.578	122.31
411.802	110.31
412.025	107.31
412.249	109.31
412.472	132.31
412.695	117.31
412.919	123.31
413.142	132.31
413.365	125.31
413.589	135.31
413.812	117.31
414.035	112.31
414.258	122.31
414.482	115.31
414.705	125.31
414.928	123.31
415.151	109.31
415.374	116.31
415.597	121.31
415.821	120.31
416.044	117.31
416.267	111.31
416.49	124.31
416.713	129.31
416.936	117.31
417.159	102.31
417.382	119.31
417.605	113.31
417.828	123.31
418.051	125.31
418.274	116.31
418.497	135.31
418.72	125.31
418.943	123.31
419.166	122.31
419.389	126.31
419.611	127.31
419.834	124.31
420.057	127.31
420.28	131.31
420.503	132.31
420.726	117.31
420.948	131.31
421.171	139.31
421.394	125.31
421.617	126.31
421.839	136.31
422.062	131.31
422.285	133.31
422.507	142.31
422.73	131.31
422.953	125.31
423.175	123.31
423.398	122.31
423.621	142.31
423.843	123.31
424.066	132.31
424.288	138.31
424.511	141.31
424.733	134.31
424.956	132.31
425.178	150.31
425.401	140.31
425.623	136.31
425.846	122.31
426.068	125.31
426.291	127.31
426.513	135.31
426.735	122.31
426.958	124.31
427.18	116.31
427.402	123.31
427.625	124.31
427.847	119.31
428.069	125.31
428.292	126.31
428.514	114.31
428.736	132.31
428.958	120.31
429.181	124.31
429.403	129.31
429.625	127.31
429.847	117.31
430.069	118.31
430.292	122.31
430.514	128.31
430.736	128.31
430.958	127.31
431.18	114.31
431.402	128.31
431.624	111.31
431.846	108.31
432.068	83.31
432.29	99.31
432.512	121.31
432.734	116.31
432.956	121.31
433.178	133.31
433.4	130.31
433.622	129.31
433.844	131.31
434.066	107.31
434.287	98.31
434.509	104.31
434.731	106.31
434.953	105.31
435.175	122.31
435.397	134.31
435.618	121.31
435.84	127.31
436.062	121.31
436.284	114.31
436.505	131.31
436.727	136.31
436.949	125.31
437.17	122.31
437.392	123.31
437.614	120.31
437.835	115.31
438.057	108.31
438.278	125.31
438.5	125.31
438.721	124.31
438.943	121.31
439.165	128.31
439.386	139.31
439.608	148.31
439.829	137.31
440.05	132.31
440.272	137.31
440.493	138.31
440.715	133.31
440.936	133.31
441.158	140.31
441.379	158.31
441.6	141.31
441.822	155.31
442.043	144.31
442.264	145.31
442.486	124.31
442.707	127.31
442.928	131.31
443.149	128.31
443.371	143.31
443.592	155.31
443.813	133.31
444.034	145.31
444.255	135.31
444.476	139.31
444.698	129.31
444.919	140.31
445.14	265.31
445.361	191.31
445.582	159.31
445.803	139.31
446.024	154.31
446.245	157.31
446.466	149.31
446.687	151.31
446.908	152.31
447.129	154.31
447.35	154.31
447.571	148.31
447.792	150.31
448.013	140.31
448.234	133.31
448.455	129.31
448.675	131.31
448.896	120.31
449.117	137.31
449.338	135.31
449.559	130.31
449.779	129.31
450	134.31
450.221	130.31
450.442	134.31
450.662	132.31
450.883	119.31
451.104	131.31
451.324	120.31
451.545	117.31
451.766	129.31
451.986	120.31
452.207	134.31
452.428	133.31
452.648	116.31
452.869	105.31
453.089	104.31
453.31	108.31
453.53	112.31
453.751	101.31
453.971	105.31
454.192	98.31
454.412	103.31
454.633	114.31
454.853	119.31
455.073	130.31
455.294	125.31
455.514	127.31
455.734	113.31
455.955	119.31
456.175	111.31
456.395	99.31
456.616	106.31
456.836	116.31
457.056	104.31
457.276	93.31
457.497	118.31
457.717	97.31
457.937	104.31
458.157	102.31
458.377	99.31
458.598	95.31
458.818	102.31
459.038	79.31
459.258	70.31
459.478	77.31
459.698	89.31
459.918	96.31
460.138	96.31
460.358	115.31
460.578	120.31
460.798	105.31
461.018	107.31
461.238	114.31
461.458	109.31
461.678	108.31
461.898	113.31
462.118	114.31
462.338	107.31
462.558	100.31
462.777	97.31
462.997	108.31
463.217	96.31
463.437	102.31
463.657	102.31
463.876	107.31
464.096	105.31
464.316	109.31
464.536	109.31
464.755	105.31
464.975	105.31
465.195	105.31
465.414	114.31
465.634	96.31
465.854	115.31
466.073	118.31
466.293	120.31
466.512	130.31
466.732	123.31
466.951	124.31
467.171	134.31
467.391	141.31
467.61	123.31
467.829	120.31
468.049	120.31
468.268	133.31
468.488	131.31
468.707	136.31
468.927	141.31
469.146	116.31
469.365	127.31
469.585	122.31
469.804	138.31
470.023	140.31
470.243	135.31
470.462	141.31
470.681	147.31
470.901	125.31
471.12	121.31
471.339	142.31
471.558	129.31
471.777	150.31
471.997	116.31
472.216	133.31
472.435	110.31
472.654	91.31
472.873	104.31
473.092	111.31
473.311	136.31
473.53	116.31
473.749	101.31
473.968	113.31
474.187	115.31
474.406	118.31
474.625	128.31
474.844	149.31
475.063	121.31
475.282	113.31
475.501	113.31
475.72	111.31
475.939	126.31
476.158	127.31
476.377	127.31
476.596	122.31
476.814	103.31
477.033	100.31
477.252	90.31
477.471	107.31
477.69	120.31
477.908	137.31
478.127	132.31
478.346	131.31
478.564	122.31
478.783	132.31
479.002	145.31
479.22	138.31
479.439	127.31
479.658	119.31
479.876	116.31
480.095	109.31
480.313	108.31
480.532	123.31
480.751	95.31
480.969	109.31
481.188	84.31
481.406	88.31
481.624	101.31
481.843	102.31
482.061	107.31
482.28	116.31
482.498	109.31
482.717	106.31
482.935	118.31
483.153	134.31
483.372	146.31
483.59	147.31
483.808	118.31
484.027	121.31
484.245	119.31
484.463	149.31
484.681	141.31
484.9	145.31
485.118	124.31
485.336	135.31
485.554	106.31
485.772	104.31
485.99	105.31
486.209	117.31
486.427	115.31
486.645	113.31
486.863	135.31
487.081	135.31
487.299	141.31
487.517	140.31
487.735	167.31
487.953	171.31
488.171	180.31
488.389	177.31
488.607	160.31
488.825	147.31
489.043	141.31
489.261	129.31
489.479	140.31
489.696	147.31
489.914	141.31
490.132	141.31
490.35	133.31
490.568	154.31
490.786	161.31
491.003	167.31
491.221	154.31
491.439	197.31
491.657	185.31
491.874	191.31
492.092	226.31
492.31	226.31
492.527	224.31
492.745	199.31
492.963	186.31
493.18	191.31
493.398	190.31
493.615	167.31
493.833	179.31
494.05	169.31
494.268	164.31
494.485	177.31
494.703	179.31
494.92	170.31
495.138	167.31
495.355	167.31
495.573	178.31
495.79	171.31
496.008	180.31
496.225	177.31
496.442	167.31
496.66	156.31
496.877	161.31
497.094	172.31
497.312	149.31
497.529	167.31
497.746	149.31
497.963	132.31
498.181	138.31
498.398	142.31
498.615	124.31
498.832	104.31
499.049	113.31
499.267	104.31
499.484	121.31
499.701	128.31
499.918	135.31
500.135	142.31
500.352	120.31
500.569	131.31
500.786	136.31
501.003	135.31
501.22	131.31
501.437	140.31
501.654	128.31
501.871	122.31
502.088	131.31
502.305	132.31
502.522	120.31
502.739	127.31
502.956	115.31
503.172	120.31
503.389	123.31
503.606	116.31
503.823	126.31
504.04	123.31
504.256	131.31
504.473	121.31
504.69	129.31
504.907	135.31
505.123	120.31
505.34	124.31
505.557	122.31
505.773	122.31
505.99	120.31
506.207	121.31
506.423	106.31
506.64	112.31
506.856	116.31
507.073	111.31
507.289	125.31
507.506	123.31
507.722	102.31
507.939	115.31
508.155	121.31
508.372	99.31
508.588	106.31
508.805	117.31
509.021	111.31
509.238	100.31
509.454	103.31
509.67	85.31
509.887	93.31
510.103	100.31
510.319	73.31
510.536	89.31
510.752	81.31
510.968	88.31
511.184	86.31
511.401	90.31
511.617	89.31
511.833	90.31
