Data from Location1.07152019.Energy5.Lamp.07192019.3%Agarose_HRD10591_14-32-21-017.txt Node
Date: Fri Jul 19 14:32:21 EDT 2019
User: cochatt
Spectrometer: HR+D1059
Trigger mode: 1
Integration Time (sec): 1.000000E-1
Scans to average: 1
Electric dark correction enabled: true
Nonlinearity correction enabled: false
Boxcar width: 0
XAxis mode: Wavelengths
Number of Pixels in Spectrum: 2048
>>>>>Begin Spectral Data<<<<<
223.165	-30.38
223.4	-30.38
223.635	-30.38
223.869	-23.38
224.104	-12.38
224.338	-16.38
224.573	-16.38
224.808	-21.38
225.042	-2.38
225.277	-1.38
225.511	-5.38
225.746	2.62
225.98	5.62
226.215	11.62
226.449	20.62
226.683	23.62
226.918	32.62
227.152	32.62
227.387	36.62
227.621	42.62
227.856	38.62
228.09	41.62
228.324	38.62
228.559	63.62
228.793	56.62
229.027	56.62
229.262	63.62
229.496	60.62
229.73	74.62
229.964	62.62
230.199	84.62
230.433	80.62
230.667	83.62
230.901	78.62
231.136	72.62
231.37	72.62
231.604	80.62
231.838	81.62
232.072	94.62
232.306	73.62
232.541	72.62
232.775	90.62
233.009	80.62
233.243	83.62
233.477	86.62
233.711	84.62
233.945	81.62
234.179	80.62
234.413	86.62
234.647	85.62
234.881	61.62
235.115	81.62
235.349	98.62
235.583	79.62
235.817	80.62
236.051	90.62
236.285	80.62
236.519	94.62
236.753	87.62
236.987	84.62
237.221	78.62
237.455	83.62
237.689	79.62
237.922	81.62
238.156	76.62
238.39	79.62
238.624	74.62
238.858	74.62
239.091	80.62
239.325	78.62
239.559	77.62
239.793	84.62
240.027	90.62
240.26	84.62
240.494	77.62
240.728	81.62
240.961	75.62
241.195	84.62
241.429	61.62
241.662	79.62
241.896	83.62
242.13	75.62
242.363	86.62
242.597	85.62
242.83	73.62
243.064	87.62
243.298	85.62
243.531	78.62
243.765	83.62
243.998	75.62
244.232	85.62
244.465	72.62
244.699	92.62
244.932	80.62
245.166	87.62
245.399	76.62
245.633	71.62
245.866	79.62
246.099	95.62
246.333	80.62
246.566	80.62
246.8	71.62
247.033	73.62
247.266	82.62
247.5	78.62
247.733	85.62
247.966	85.62
248.2	88.62
248.433	87.62
248.666	98.62
248.899	84.62
249.133	76.62
249.366	88.62
249.599	73.62
249.832	81.62
250.066	83.62
250.299	86.62
250.532	78.62
250.765	71.62
250.998	72.62
251.231	88.62
251.465	69.62
251.698	75.62
251.931	84.62
252.164	73.62
252.397	74.62
252.63	82.62
252.863	69.62
253.096	74.62
253.329	79.62
253.562	84.62
253.795	87.62
254.028	82.62
254.261	82.62
254.494	75.62
254.727	82.62
254.96	88.62
255.193	85.62
255.426	90.62
255.659	88.62
255.892	93.62
256.124	99.62
256.357	68.62
256.59	78.62
256.823	69.62
257.056	70.62
257.289	82.62
257.521	80.62
257.754	77.62
257.987	92.62
258.22	81.62
258.452	69.62
258.685	89.62
258.918	65.62
259.151	78.62
259.383	83.62
259.616	82.62
259.849	78.62
260.081	88.62
260.314	77.62
260.547	75.62
260.779	75.62
261.012	69.62
261.244	80.62
261.477	98.62
261.71	67.62
261.942	84.62
262.175	90.62
262.407	89.62
262.64	101.62
262.872	71.62
263.105	77.62
263.337	86.62
263.57	79.62
263.802	81.62
264.035	91.62
264.267	79.62
264.499	74.62
264.732	76.62
264.964	88.62
265.197	84.62
265.429	72.62
265.661	84.62
265.894	94.62
266.126	89.62
266.358	86.62
266.591	88.62
266.823	72.62
267.055	62.62
267.287	78.62
267.52	84.62
267.752	75.62
267.984	83.62
268.216	88.62
268.448	82.62
268.681	91.62
268.913	76.62
269.145	78.62
269.377	90.62
269.609	77.62
269.841	90.62
270.073	85.62
270.306	85.62
270.538	85.62
270.77	88.62
271.002	85.62
271.234	81.62
271.466	62.62
271.698	85.62
271.93	87.62
272.162	95.62
272.394	75.62
272.626	89.62
272.858	84.62
273.09	85.62
273.322	97.62
273.553	95.62
273.785	83.62
274.017	100.62
274.249	81.62
274.481	79.62
274.713	81.62
274.945	80.62
275.176	80.62
275.408	88.62
275.64	72.62
275.872	95.62
276.104	87.62
276.335	95.62
276.567	79.62
276.799	83.62
277.031	82.62
277.262	80.62
277.494	83.62
277.726	93.62
277.957	87.62
278.189	79.62
278.421	96.62
278.652	89.62
278.884	82.62
279.115	85.62
279.347	92.62
279.579	87.62
279.81	87.62
280.042	93.62
280.273	77.62
280.505	75.62
280.736	86.62
280.968	93.62
281.199	89.62
281.431	93.62
281.662	75.62
281.894	89.62
282.125	84.62
282.356	74.62
282.588	78.62
282.819	73.62
283.051	95.62
283.282	87.62
283.513	93.62
283.745	99.62
283.976	94.62
284.207	73.62
284.439	80.62
284.67	79.62
284.901	95.62
285.132	88.62
285.364	85.62
285.595	91.62
285.826	78.62
286.057	73.62
286.288	76.62
286.52	74.62
286.751	87.62
286.982	101.62
287.213	78.62
287.444	94.62
287.675	81.62
287.906	97.62
288.138	91.62
288.369	76.62
288.6	93.62
288.831	85.62
289.062	87.62
289.293	94.62
289.524	76.62
289.755	86.62
289.986	84.62
290.217	81.62
290.448	83.62
290.679	81.62
290.91	77.62
291.141	95.62
291.371	82.62
291.602	96.62
291.833	89.62
292.064	93.62
292.295	83.62
292.526	82.62
292.757	77.62
292.987	88.62
293.218	86.62
293.449	76.62
293.68	98.62
293.91	91.62
294.141	87.62
294.372	87.62
294.603	89.62
294.833	82.62
295.064	93.62
295.295	85.62
295.525	90.62
295.756	86.62
295.987	85.62
296.217	95.62
296.448	88.62
296.679	99.62
296.909	89.62
297.14	86.62
297.37	81.62
297.601	95.62
297.831	89.62
298.062	85.62
298.292	98.62
298.523	77.62
298.753	88.62
298.984	90.62
299.214	101.62
299.445	93.62
299.675	85.62
299.905	85.62
300.136	76.62
300.366	90.62
300.597	77.62
300.827	94.62
301.057	92.62
301.288	92.62
301.518	76.62
301.748	86.62
301.979	87.62
302.209	91.62
302.439	101.62
302.669	90.62
302.9	95.62
303.13	76.62
303.36	99.62
303.59	76.62
303.82	91.62
304.051	89.62
304.281	81.62
304.511	91.62
304.741	72.62
304.971	95.62
305.201	90.62
305.431	86.62
305.661	78.62
305.891	79.62
306.121	83.62
306.352	91.62
306.582	87.62
306.812	74.62
307.042	91.62
307.272	85.62
307.502	94.62
307.731	91.62
307.961	91.62
308.191	86.62
308.421	95.62
308.651	81.62
308.881	74.62
309.111	92.62
309.341	84.62
309.571	87.62
309.8	80.62
310.03	77.62
310.26	85.62
310.49	92.62
310.72	98.62
310.949	87.62
311.179	84.62
311.409	92.62
311.639	94.62
311.868	84.62
312.098	98.62
312.328	87.62
312.557	85.62
312.787	101.62
313.017	87.62
313.246	86.62
313.476	78.62
313.706	77.62
313.935	81.62
314.165	76.62
314.394	92.62
314.624	85.62
314.853	77.62
315.083	80.62
315.312	88.62
315.542	75.62
315.771	84.62
316.001	86.62
316.23	79.62
316.46	86.62
316.689	97.62
316.919	89.62
317.148	89.62
317.377	74.62
317.607	87.62
317.836	95.62
318.065	83.62
318.295	73.62
318.524	84.62
318.753	83.62
318.983	80.62
319.212	94.62
319.441	87.62
319.67	91.62
319.9	88.62
320.129	88.62
320.358	85.62
320.587	78.62
320.816	89.62
321.046	100.62
321.275	89.62
321.504	78.62
321.733	81.62
321.962	79.62
322.191	86.62
322.42	91.62
322.649	86.62
322.878	99.62
323.108	88.62
323.337	90.62
323.566	86.62
323.795	88.62
324.024	102.62
324.253	92.62
324.482	90.62
324.71	81.62
324.939	89.62
325.168	82.62
325.397	87.62
325.626	80.62
325.855	99.62
326.084	74.62
326.313	81.62
326.542	81.62
326.77	89.62
326.999	95.62
327.228	87.62
327.457	103.62
327.686	87.62
327.914	99.62
328.143	89.62
328.372	105.62
328.6	95.62
328.829	83.62
329.058	75.62
329.287	98.62
329.515	77.62
329.744	85.62
329.972	91.62
330.201	74.62
330.43	95.62
330.658	92.62
330.887	79.62
331.115	84.62
331.344	82.62
331.572	75.62
331.801	75.62
332.03	84.62
332.258	99.62
332.486	95.62
332.715	94.62
332.943	88.62
333.172	92.62
333.4	69.62
333.629	78.62
333.857	101.62
334.085	87.62
334.314	89.62
334.542	93.62
334.771	88.62
334.999	88.62
335.227	105.62
335.455	80.62
335.684	67.62
335.912	78.62
336.14	100.62
336.369	96.62
336.597	101.62
336.825	81.62
337.053	76.62
337.281	84.62
337.51	87.62
337.738	89.62
337.966	89.62
338.194	81.62
338.422	85.62
338.65	81.62
338.878	93.62
339.106	87.62
339.334	94.62
339.562	90.62
339.79	80.62
340.018	91.62
340.246	97.62
340.474	90.62
340.702	77.62
340.93	86.62
341.158	84.62
341.386	83.62
341.614	76.62
341.842	81.62
342.07	91.62
342.298	84.62
342.526	80.62
342.754	75.62
342.981	81.62
343.209	86.62
343.437	85.62
343.665	84.62
343.893	77.62
344.12	101.62
344.348	94.62
344.576	86.62
344.804	91.62
345.031	100.62
345.259	84.62
345.487	95.62
345.714	95.62
345.942	88.62
346.17	87.62
346.397	74.62
346.625	77.62
346.853	87.62
347.08	70.62
347.308	85.62
347.535	79.62
347.763	76.62
347.99	91.62
348.218	83.62
348.445	71.62
348.673	85.62
348.9	81.62
349.128	84.62
349.355	76.62
349.583	82.62
349.81	87.62
350.037	65.62
350.265	88.62
350.492	81.62
350.72	90.62
350.947	92.62
351.174	83.62
351.402	89.62
351.629	98.62
351.856	77.62
352.083	96.62
352.311	89.62
352.538	76.62
352.765	87.62
352.992	86.62
353.22	99.62
353.447	89.62
353.674	85.62
353.901	77.62
354.128	75.62
354.355	84.62
354.583	85.62
354.81	75.62
355.037	87.62
355.264	89.62
355.491	96.62
355.718	85.62
355.945	84.62
356.172	90.62
356.399	82.62
356.626	78.62
356.853	77.62
357.08	83.62
357.307	93.62
357.534	76.62
357.761	87.62
357.988	87.62
358.215	81.62
358.441	85.62
358.668	75.62
358.895	77.62
359.122	70.62
359.349	97.62
359.576	87.62
359.802	86.62
360.029	89.62
360.256	77.62
360.483	83.62
360.709	97.62
360.936	93.62
361.163	78.62
361.39	97.62
361.616	88.62
361.843	85.62
362.07	74.62
362.296	102.62
362.523	81.62
362.749	76.62
362.976	90.62
363.203	91.62
363.429	82.62
363.656	87.62
363.882	80.62
364.109	78.62
364.335	84.62
364.562	92.62
364.788	98.62
365.015	95.62
365.241	93.62
365.468	76.62
365.694	75.62
365.92	83.62
366.147	95.62
366.373	101.62
366.599	90.62
366.826	78.62
367.052	78.62
367.278	94.62
367.505	90.62
367.731	110.62
367.957	89.62
368.184	77.62
368.41	95.62
368.636	77.62
368.862	94.62
369.089	107.62
369.315	106.62
369.541	103.62
369.767	96.62
369.993	84.62
370.219	83.62
370.445	90.62
370.672	105.62
370.898	86.62
371.124	92.62
371.35	90.62
371.576	94.62
371.802	87.62
372.028	91.62
372.254	82.62
372.48	107.62
372.706	88.62
372.932	95.62
373.158	86.62
373.384	88.62
373.61	80.62
373.835	84.62
374.061	98.62
374.287	89.62
374.513	101.62
374.739	69.62
374.965	89.62
375.191	84.62
375.416	96.62
375.642	97.62
375.868	97.62
376.094	88.62
376.319	85.62
376.545	104.62
376.771	107.62
376.997	100.62
377.222	100.62
377.448	95.62
377.674	83.62
377.899	108.62
378.125	83.62
378.35	92.62
378.576	93.62
378.802	92.62
379.027	96.62
379.253	100.62
379.478	104.62
379.704	98.62
379.929	105.62
380.155	109.62
380.38	85.62
380.606	106.62
380.831	102.62
381.057	95.62
381.282	90.62
381.507	107.62
381.733	93.62
381.958	95.62
382.184	81.62
382.409	90.62
382.634	96.62
382.86	99.62
383.085	112.62
383.31	107.62
383.535	101.62
383.761	84.62
383.986	88.62
384.211	95.62
384.436	105.62
384.662	103.62
384.887	99.62
385.112	101.62
385.337	94.62
385.562	84.62
385.787	101.62
386.013	97.62
386.238	95.62
386.463	102.62
386.688	107.62
386.913	102.62
387.138	93.62
387.363	87.62
387.588	107.62
387.813	109.62
388.038	98.62
388.263	94.62
388.488	93.62
388.713	104.62
388.938	97.62
389.163	101.62
389.387	100.62
389.612	116.62
389.837	112.62
390.062	100.62
390.287	109.62
390.512	109.62
390.736	107.62
390.961	105.62
391.186	117.62
391.411	107.62
391.636	93.62
391.86	123.62
392.085	100.62
392.31	119.62
392.534	104.62
392.759	102.62
392.984	124.62
393.208	101.62
393.433	95.62
393.658	123.62
393.882	108.62
394.107	112.62
394.331	117.62
394.556	117.62
394.78	96.62
395.005	107.62
395.229	97.62
395.454	88.62
395.678	110.62
395.903	110.62
396.127	117.62
396.352	108.62
396.576	100.62
396.801	108.62
397.025	110.62
397.249	104.62
397.474	95.62
397.698	111.62
397.922	119.62
398.147	113.62
398.371	116.62
398.595	111.62
398.82	123.62
399.044	116.62
399.268	99.62
399.492	106.62
399.717	117.62
399.941	117.62
400.165	114.62
400.389	112.62
400.613	99.62
400.837	117.62
401.062	100.62
401.286	104.62
401.51	111.62
401.734	100.62
401.958	113.62
402.182	112.62
402.406	123.62
402.63	99.62
402.854	106.62
403.078	111.62
403.302	125.62
403.526	131.62
403.75	108.62
403.974	94.62
404.198	128.62
404.422	123.62
404.645	117.62
404.869	119.62
405.093	132.62
405.317	121.62
405.541	120.62
405.765	127.62
405.988	104.62
406.212	105.62
406.436	127.62
406.66	135.62
406.883	123.62
407.107	128.62
407.331	119.62
407.555	131.62
407.778	113.62
408.002	111.62
408.226	120.62
408.449	107.62
408.673	113.62
408.896	101.62
409.12	126.62
409.344	109.62
409.567	127.62
409.791	101.62
410.014	131.62
410.238	131.62
410.461	113.62
410.685	120.62
410.908	111.62
411.132	124.62
411.355	120.62
411.578	124.62
411.802	118.62
412.025	125.62
412.249	132.62
412.472	125.62
412.695	111.62
412.919	133.62
413.142	131.62
413.365	123.62
413.589	111.62
413.812	125.62
414.035	120.62
414.258	112.62
414.482	131.62
414.705	127.62
414.928	121.62
415.151	129.62
415.374	134.62
415.597	132.62
415.821	126.62
416.044	118.62
416.267	119.62
416.49	133.62
416.713	130.62
416.936	112.62
417.159	127.62
417.382	123.62
417.605	115.62
417.828	129.62
418.051	122.62
418.274	144.62
418.497	125.62
418.72	113.62
418.943	139.62
419.166	133.62
419.389	129.62
419.611	148.62
419.834	135.62
420.057	139.62
420.28	145.62
420.503	112.62
420.726	145.62
420.948	123.62
421.171	127.62
421.394	132.62
421.617	144.62
421.839	137.62
422.062	150.62
422.285	128.62
422.507	127.62
422.73	136.62
422.953	123.62
423.175	125.62
423.398	142.62
423.621	143.62
423.843	121.62
424.066	132.62
424.288	127.62
424.511	137.62
424.733	135.62
424.956	129.62
425.178	131.62
425.401	142.62
425.623	137.62
425.846	139.62
426.068	141.62
426.291	121.62
426.513	125.62
426.735	131.62
426.958	134.62
427.18	131.62
427.402	123.62
427.625	127.62
427.847	138.62
428.069	120.62
428.292	149.62
428.514	140.62
428.736	127.62
428.958	123.62
429.181	135.62
429.403	119.62
429.625	132.62
429.847	142.62
430.069	142.62
430.292	142.62
430.514	132.62
430.736	126.62
430.958	127.62
431.18	123.62
431.402	121.62
431.624	130.62
431.846	109.62
432.068	94.62
432.29	101.62
432.512	101.62
432.734	128.62
432.956	127.62
433.178	143.62
433.4	131.62
433.622	122.62
433.844	135.62
434.066	119.62
434.287	112.62
434.509	104.62
434.731	95.62
434.953	111.62
435.175	105.62
435.397	125.62
435.618	121.62
435.84	108.62
436.062	126.62
436.284	121.62
436.505	132.62
436.727	134.62
436.949	123.62
437.17	120.62
437.392	135.62
437.614	108.62
437.835	109.62
438.057	116.62
438.278	128.62
438.5	121.62
438.721	124.62
438.943	121.62
439.165	127.62
439.386	134.62
439.608	151.62
439.829	158.62
440.05	147.62
440.272	145.62
440.493	137.62
440.715	139.62
440.936	138.62
441.158	134.62
441.379	129.62
441.6	146.62
441.822	168.62
442.043	150.62
442.264	139.62
442.486	128.62
442.707	143.62
442.928	131.62
443.149	118.62
443.371	142.62
443.592	128.62
443.813	133.62
444.034	143.62
444.255	139.62
444.476	141.62
444.698	135.62
444.919	142.62
445.14	234.62
445.361	196.62
445.582	160.62
445.803	144.62
446.024	147.62
446.245	159.62
446.466	147.62
446.687	154.62
446.908	163.62
447.129	152.62
447.35	149.62
447.571	140.62
447.792	141.62
448.013	144.62
448.234	149.62
448.455	145.62
448.675	151.62
448.896	137.62
449.117	139.62
449.338	139.62
449.559	123.62
449.779	128.62
450	127.62
450.221	140.62
450.442	135.62
450.662	131.62
450.883	122.62
451.104	127.62
451.324	135.62
451.545	132.62
451.766	127.62
451.986	135.62
452.207	127.62
452.428	131.62
452.648	119.62
452.869	112.62
453.089	115.62
453.31	109.62
453.53	104.62
453.751	110.62
453.971	99.62
454.192	93.62
454.412	118.62
454.633	111.62
454.853	108.62
455.073	117.62
455.294	119.62
455.514	125.62
455.734	120.62
455.955	111.62
456.175	104.62
456.395	123.62
456.616	97.62
456.836	102.62
457.056	118.62
457.276	96.62
457.497	115.62
457.717	104.62
457.937	115.62
458.157	110.62
458.377	106.62
458.598	99.62
458.818	89.62
459.038	100.62
459.258	102.62
459.478	105.62
459.698	89.62
459.918	91.62
460.138	97.62
460.358	113.62
460.578	117.62
460.798	111.62
461.018	119.62
461.238	123.62
461.458	117.62
461.678	104.62
461.898	124.62
462.118	120.62
462.338	120.62
462.558	109.62
462.777	113.62
462.997	98.62
463.217	99.62
463.437	95.62
463.657	106.62
463.876	110.62
464.096	105.62
464.316	122.62
464.536	111.62
464.755	127.62
464.975	122.62
465.195	111.62
465.414	110.62
465.634	112.62
465.854	115.62
466.073	121.62
466.293	130.62
466.512	131.62
466.732	120.62
466.951	143.62
467.171	140.62
467.391	126.62
467.61	134.62
467.829	133.62
468.049	121.62
468.268	141.62
468.488	129.62
468.707	140.62
468.927	133.62
469.146	152.62
469.365	126.62
469.585	131.62
469.804	131.62
470.023	131.62
470.243	129.62
470.462	137.62
470.681	134.62
470.901	155.62
471.12	152.62
471.339	149.62
471.558	143.62
471.777	151.62
471.997	127.62
472.216	130.62
472.435	124.62
472.654	107.62
472.873	104.62
473.092	117.62
473.311	125.62
473.53	128.62
473.749	118.62
473.968	129.62
474.187	132.62
474.406	125.62
474.625	124.62
474.844	130.62
475.063	127.62
475.282	139.62
475.501	126.62
475.72	121.62
475.939	123.62
476.158	127.62
476.377	122.62
476.596	127.62
476.814	111.62
477.033	117.62
477.252	127.62
477.471	131.62
477.69	146.62
477.908	136.62
478.127	143.62
478.346	139.62
478.564	138.62
478.783	134.62
479.002	137.62
479.22	140.62
479.439	129.62
479.658	120.62
479.876	125.62
480.095	101.62
480.313	112.62
480.532	123.62
480.751	107.62
480.969	104.62
481.188	97.62
481.406	92.62
481.624	80.62
481.843	88.62
482.061	89.62
482.28	102.62
482.498	102.62
482.717	105.62
482.935	122.62
483.153	141.62
483.372	162.62
483.59	158.62
483.808	137.62
484.027	129.62
484.245	132.62
484.463	168.62
484.681	149.62
484.9	145.62
485.118	141.62
485.336	140.62
485.554	112.62
485.772	104.62
485.99	115.62
486.209	115.62
486.427	110.62
486.645	105.62
486.863	136.62
487.081	135.62
487.299	142.62
487.517	150.62
487.735	170.62
487.953	188.62
488.171	161.62
488.389	155.62
488.607	168.62
488.825	149.62
489.043	128.62
489.261	133.62
489.479	126.62
489.696	122.62
489.914	135.62
490.132	154.62
490.35	166.62
490.568	157.62
490.786	160.62
491.003	181.62
491.221	184.62
491.439	201.62
491.657	203.62
491.874	199.62
492.092	217.62
492.31	249.62
492.527	219.62
492.745	193.62
492.963	165.62
493.18	191.62
493.398	162.62
493.615	172.62
493.833	176.62
494.05	175.62
494.268	163.62
494.485	169.62
494.703	166.62
494.92	165.62
495.138	163.62
495.355	186.62
495.573	158.62
495.79	167.62
496.008	169.62
496.225	172.62
496.442	165.62
496.66	165.62
496.877	177.62
497.094	163.62
497.312	174.62
497.529	150.62
497.746	144.62
497.963	131.62
498.181	117.62
498.398	118.62
498.615	119.62
498.832	113.62
499.049	125.62
499.267	123.62
499.484	127.62
499.701	118.62
499.918	127.62
500.135	140.62
500.352	141.62
500.569	150.62
500.786	141.62
501.003	137.62
501.22	142.62
501.437	141.62
501.654	141.62
501.871	122.62
502.088	126.62
502.305	126.62
502.522	126.62
502.739	141.62
502.956	135.62
503.172	126.62
503.389	114.62
503.606	117.62
503.823	129.62
504.04	127.62
504.256	108.62
504.473	123.62
504.69	114.62
504.907	117.62
505.123	123.62
505.34	119.62
505.557	143.62
505.773	131.62
505.99	137.62
506.207	128.62
506.423	115.62
506.64	129.62
506.856	112.62
507.073	127.62
507.289	129.62
507.506	134.62
507.722	131.62
507.939	112.62
508.155	113.62
508.372	119.62
508.588	105.62
508.805	122.62
509.021	110.62
509.238	99.62
509.454	102.62
509.67	103.62
509.887	103.62
510.103	97.62
510.319	85.62
510.536	76.62
510.752	79.62
510.968	89.62
511.184	89.62
511.401	87.62
