Data from Location1.07152019.Energy5.Lamp.07192019.3%Agarose_HRD10591_14-30-48-014.txt Node
Date: Fri Jul 19 14:30:48 EDT 2019
User: cochatt
Spectrometer: HR+D1059
Trigger mode: 1
Integration Time (sec): 1.000000E-1
Scans to average: 1
Electric dark correction enabled: true
Nonlinearity correction enabled: false
Boxcar width: 0
XAxis mode: Wavelengths
Number of Pixels in Spectrum: 2048
>>>>>Begin Spectral Data<<<<<
223.165	-24.62
223.4	-24.62
223.635	-24.62
223.869	-14.62
224.104	-10.62
224.338	-18.62
224.573	-18.62
224.808	-5.62
225.042	-6.62
225.277	-6.62
225.511	1.38
225.746	3.38
225.98	10.38
226.215	10.38
226.449	1.38
226.683	27.38
226.918	31.38
227.152	20.38
227.387	53.38
227.621	44.38
227.856	43.38
228.09	52.38
228.324	59.38
228.559	51.38
228.793	56.38
229.027	47.38
229.262	58.38
229.496	65.38
229.73	71.38
229.964	65.38
230.199	71.38
230.433	69.38
230.667	77.38
230.901	83.38
231.136	72.38
231.37	78.38
231.604	78.38
231.838	80.38
232.072	79.38
232.306	73.38
232.541	84.38
232.775	87.38
233.009	94.38
233.243	76.38
233.477	87.38
233.711	87.38
233.945	86.38
234.179	72.38
234.413	89.38
234.647	80.38
234.881	87.38
235.115	86.38
235.349	71.38
235.583	90.38
235.817	77.38
236.051	76.38
236.285	79.38
236.519	91.38
236.753	77.38
236.987	72.38
237.221	82.38
237.455	89.38
237.689	71.38
237.922	78.38
238.156	75.38
238.39	82.38
238.624	87.38
238.858	68.38
239.091	81.38
239.325	83.38
239.559	68.38
239.793	79.38
240.027	72.38
240.26	87.38
240.494	87.38
240.728	77.38
240.961	79.38
241.195	78.38
241.429	76.38
241.662	72.38
241.896	82.38
242.13	83.38
242.363	77.38
242.597	78.38
242.83	74.38
243.064	76.38
243.298	75.38
243.531	93.38
243.765	87.38
243.998	70.38
244.232	72.38
244.465	76.38
244.699	76.38
244.932	73.38
245.166	83.38
245.399	85.38
245.633	75.38
245.866	81.38
246.099	68.38
246.333	80.38
246.566	78.38
246.8	86.38
247.033	77.38
247.266	65.38
247.5	76.38
247.733	79.38
247.966	88.38
248.2	85.38
248.433	89.38
248.666	71.38
248.899	72.38
249.133	71.38
249.366	76.38
249.599	79.38
249.832	85.38
250.066	97.38
250.299	66.38
250.532	92.38
250.765	86.38
250.998	78.38
251.231	90.38
251.465	85.38
251.698	97.38
251.931	69.38
252.164	92.38
252.397	82.38
252.63	86.38
252.863	77.38
253.096	85.38
253.329	89.38
253.562	91.38
253.795	85.38
254.028	102.38
254.261	89.38
254.494	79.38
254.727	78.38
254.96	86.38
255.193	73.38
255.426	72.38
255.659	94.38
255.892	79.38
256.124	75.38
256.357	75.38
256.59	82.38
256.823	81.38
257.056	83.38
257.289	79.38
257.521	94.38
257.754	74.38
257.987	63.38
258.22	67.38
258.452	81.38
258.685	86.38
258.918	80.38
259.151	77.38
259.383	73.38
259.616	77.38
259.849	79.38
260.081	86.38
260.314	93.38
260.547	75.38
260.779	87.38
261.012	85.38
261.244	79.38
261.477	75.38
261.71	65.38
261.942	79.38
262.175	75.38
262.407	75.38
262.64	75.38
262.872	83.38
263.105	85.38
263.337	86.38
263.57	76.38
263.802	89.38
264.035	92.38
264.267	76.38
264.499	94.38
264.732	80.38
264.964	64.38
265.197	81.38
265.429	86.38
265.661	91.38
265.894	82.38
266.126	83.38
266.358	86.38
266.591	80.38
266.823	76.38
267.055	80.38
267.287	89.38
267.52	84.38
267.752	83.38
267.984	88.38
268.216	87.38
268.448	92.38
268.681	75.38
268.913	85.38
269.145	84.38
269.377	85.38
269.609	83.38
269.841	79.38
270.073	87.38
270.306	85.38
270.538	82.38
270.77	76.38
271.002	76.38
271.234	96.38
271.466	90.38
271.698	81.38
271.93	82.38
272.162	82.38
272.394	77.38
272.626	89.38
272.858	80.38
273.09	92.38
273.322	84.38
273.553	95.38
273.785	96.38
274.017	75.38
274.249	78.38
274.481	85.38
274.713	74.38
274.945	80.38
275.176	83.38
275.408	84.38
275.64	82.38
275.872	86.38
276.104	91.38
276.335	62.38
276.567	77.38
276.799	90.38
277.031	75.38
277.262	89.38
277.494	79.38
277.726	87.38
277.957	75.38
278.189	66.38
278.421	87.38
278.652	82.38
278.884	91.38
279.115	76.38
279.347	87.38
279.579	69.38
279.81	78.38
280.042	76.38
280.273	92.38
280.505	81.38
280.736	85.38
280.968	71.38
281.199	80.38
281.431	82.38
281.662	82.38
281.894	98.38
282.125	93.38
282.356	79.38
282.588	82.38
282.819	91.38
283.051	86.38
283.282	74.38
283.513	87.38
283.745	85.38
283.976	85.38
284.207	84.38
284.439	95.38
284.67	85.38
284.901	74.38
285.132	79.38
285.364	78.38
285.595	70.38
285.826	92.38
286.057	89.38
286.288	67.38
286.52	75.38
286.751	88.38
286.982	99.38
287.213	87.38
287.444	77.38
287.675	74.38
287.906	91.38
288.138	84.38
288.369	89.38
288.6	81.38
288.831	79.38
289.062	85.38
289.293	91.38
289.524	81.38
289.755	94.38
289.986	73.38
290.217	93.38
290.448	107.38
290.679	85.38
290.91	88.38
291.141	87.38
291.371	89.38
291.602	87.38
291.833	94.38
292.064	95.38
292.295	85.38
292.526	97.38
292.757	88.38
292.987	92.38
293.218	84.38
293.449	82.38
293.68	92.38
293.91	93.38
294.141	78.38
294.372	77.38
294.603	92.38
294.833	73.38
295.064	67.38
295.295	87.38
295.525	89.38
295.756	94.38
295.987	84.38
296.217	83.38
296.448	86.38
296.679	85.38
296.909	82.38
297.14	97.38
297.37	69.38
297.601	79.38
297.831	82.38
298.062	84.38
298.292	76.38
298.523	86.38
298.753	67.38
298.984	82.38
299.214	88.38
299.445	75.38
299.675	80.38
299.905	89.38
300.136	80.38
300.366	86.38
300.597	94.38
300.827	71.38
301.057	94.38
301.288	87.38
301.518	85.38
301.748	83.38
301.979	89.38
302.209	89.38
302.439	90.38
302.669	88.38
302.9	91.38
303.13	108.38
303.36	84.38
303.59	89.38
303.82	78.38
304.051	78.38
304.281	92.38
304.511	74.38
304.741	81.38
304.971	83.38
305.201	83.38
305.431	83.38
305.661	76.38
305.891	84.38
306.121	82.38
306.352	82.38
306.582	93.38
306.812	95.38
307.042	94.38
307.272	93.38
307.502	70.38
307.731	76.38
307.961	97.38
308.191	81.38
308.421	78.38
308.651	78.38
308.881	100.38
309.111	83.38
309.341	93.38
309.571	75.38
309.8	80.38
310.03	86.38
310.26	76.38
310.49	85.38
310.72	90.38
310.949	77.38
311.179	81.38
311.409	79.38
311.639	86.38
311.868	94.38
312.098	89.38
312.328	89.38
312.557	86.38
312.787	83.38
313.017	88.38
313.246	74.38
313.476	98.38
313.706	95.38
313.935	83.38
314.165	92.38
314.394	77.38
314.624	81.38
314.853	90.38
315.083	71.38
315.312	79.38
315.542	85.38
315.771	83.38
316.001	87.38
316.23	87.38
316.46	91.38
316.689	89.38
316.919	81.38
317.148	106.38
317.377	96.38
317.607	96.38
317.836	67.38
318.065	90.38
318.295	83.38
318.524	74.38
318.753	86.38
318.983	79.38
319.212	74.38
319.441	102.38
319.67	87.38
319.9	76.38
320.129	81.38
320.358	91.38
320.587	83.38
320.816	84.38
321.046	88.38
321.275	100.38
321.504	84.38
321.733	94.38
321.962	79.38
322.191	83.38
322.42	86.38
322.649	90.38
322.878	93.38
323.108	88.38
323.337	80.38
323.566	93.38
323.795	99.38
324.024	75.38
324.253	90.38
324.482	63.38
324.71	72.38
324.939	86.38
325.168	84.38
325.397	89.38
325.626	67.38
325.855	81.38
326.084	83.38
326.313	87.38
326.542	73.38
326.77	84.38
326.999	89.38
327.228	83.38
327.457	84.38
327.686	89.38
327.914	102.38
328.143	75.38
328.372	73.38
328.6	78.38
328.829	79.38
329.058	93.38
329.287	93.38
329.515	100.38
329.744	82.38
329.972	75.38
330.201	79.38
330.43	89.38
330.658	88.38
330.887	89.38
331.115	78.38
331.344	72.38
331.572	90.38
331.801	82.38
332.03	99.38
332.258	85.38
332.486	89.38
332.715	85.38
332.943	72.38
333.172	75.38
333.4	95.38
333.629	91.38
333.857	74.38
334.085	78.38
334.314	83.38
334.542	88.38
334.771	84.38
334.999	92.38
335.227	76.38
335.455	72.38
335.684	73.38
335.912	92.38
336.14	99.38
336.369	94.38
336.597	96.38
336.825	95.38
337.053	92.38
337.281	90.38
337.51	75.38
337.738	90.38
337.966	73.38
338.194	77.38
338.422	79.38
338.65	78.38
338.878	89.38
339.106	91.38
339.334	95.38
339.562	93.38
339.79	83.38
340.018	98.38
340.246	72.38
340.474	86.38
340.702	86.38
340.93	95.38
341.158	90.38
341.386	89.38
341.614	77.38
341.842	90.38
342.07	84.38
342.298	85.38
342.526	77.38
342.754	87.38
342.981	88.38
343.209	86.38
343.437	89.38
343.665	88.38
343.893	83.38
344.12	84.38
344.348	91.38
344.576	88.38
344.804	96.38
345.031	94.38
345.259	77.38
345.487	84.38
345.714	93.38
345.942	68.38
346.17	93.38
346.397	87.38
346.625	71.38
346.853	86.38
347.08	81.38
347.308	81.38
347.535	92.38
347.763	69.38
347.99	88.38
348.218	82.38
348.445	79.38
348.673	89.38
348.9	78.38
349.128	74.38
349.355	83.38
349.583	83.38
349.81	92.38
350.037	68.38
350.265	80.38
350.492	82.38
350.72	85.38
350.947	97.38
351.174	79.38
351.402	81.38
351.629	91.38
351.856	99.38
352.083	84.38
352.311	83.38
352.538	85.38
352.765	78.38
352.992	86.38
353.22	83.38
353.447	83.38
353.674	85.38
353.901	95.38
354.128	98.38
354.355	84.38
354.583	82.38
354.81	74.38
355.037	85.38
355.264	85.38
355.491	81.38
355.718	81.38
355.945	73.38
356.172	72.38
356.399	83.38
356.626	86.38
356.853	82.38
357.08	82.38
357.307	72.38
357.534	83.38
357.761	92.38
357.988	92.38
358.215	83.38
358.441	72.38
358.668	84.38
358.895	85.38
359.122	90.38
359.349	92.38
359.576	75.38
359.802	75.38
360.029	82.38
360.256	95.38
360.483	85.38
360.709	95.38
360.936	85.38
361.163	85.38
361.39	90.38
361.616	86.38
361.843	83.38
362.07	86.38
362.296	80.38
362.523	75.38
362.749	81.38
362.976	72.38
363.203	102.38
363.429	80.38
363.656	99.38
363.882	88.38
364.109	94.38
364.335	75.38
364.562	92.38
364.788	97.38
365.015	79.38
365.241	84.38
365.468	94.38
365.694	79.38
365.92	89.38
366.147	90.38
366.373	90.38
366.599	72.38
366.826	74.38
367.052	98.38
367.278	85.38
367.505	91.38
367.731	101.38
367.957	85.38
368.184	81.38
368.41	89.38
368.636	77.38
368.862	84.38
369.089	86.38
369.315	89.38
369.541	79.38
369.767	96.38
369.993	95.38
370.219	93.38
370.445	88.38
370.672	87.38
370.898	89.38
371.124	84.38
371.35	79.38
371.576	101.38
371.802	84.38
372.028	85.38
372.254	79.38
372.48	100.38
372.706	97.38
372.932	93.38
373.158	89.38
373.384	90.38
373.61	89.38
373.835	94.38
374.061	88.38
374.287	100.38
374.513	90.38
374.739	96.38
374.965	93.38
375.191	76.38
375.416	75.38
375.642	102.38
375.868	98.38
376.094	102.38
376.319	93.38
376.545	97.38
376.771	82.38
376.997	96.38
377.222	85.38
377.448	91.38
377.674	93.38
377.899	90.38
378.125	90.38
378.35	110.38
378.576	95.38
378.802	90.38
379.027	91.38
379.253	82.38
379.478	84.38
379.704	93.38
379.929	89.38
380.155	89.38
380.38	107.38
380.606	96.38
380.831	111.38
381.057	93.38
381.282	101.38
381.507	96.38
381.733	92.38
381.958	88.38
382.184	94.38
382.409	94.38
382.634	103.38
382.86	99.38
383.085	100.38
383.31	96.38
383.535	94.38
383.761	108.38
383.986	113.38
384.211	109.38
384.436	100.38
384.662	85.38
384.887	101.38
385.112	106.38
385.337	118.38
385.562	110.38
385.787	86.38
386.013	106.38
386.238	95.38
386.463	109.38
386.688	100.38
386.913	91.38
387.138	94.38
387.363	86.38
387.588	77.38
387.813	106.38
388.038	102.38
388.263	94.38
388.488	86.38
388.713	99.38
388.938	99.38
389.163	92.38
389.387	120.38
389.612	109.38
389.837	107.38
390.062	99.38
390.287	98.38
390.512	101.38
390.736	102.38
390.961	99.38
391.186	108.38
391.411	107.38
391.636	108.38
391.86	107.38
392.085	100.38
392.31	104.38
392.534	101.38
392.759	97.38
392.984	107.38
393.208	95.38
393.433	96.38
393.658	104.38
393.882	114.38
394.107	102.38
394.331	104.38
394.556	108.38
394.78	113.38
395.005	109.38
395.229	109.38
395.454	100.38
395.678	111.38
395.903	104.38
396.127	95.38
396.352	109.38
396.576	104.38
396.801	102.38
397.025	107.38
397.249	124.38
397.474	104.38
397.698	110.38
397.922	101.38
398.147	101.38
398.371	103.38
398.595	91.38
398.82	102.38
399.044	105.38
399.268	110.38
399.492	101.38
399.717	103.38
399.941	103.38
400.165	106.38
400.389	122.38
400.613	115.38
400.837	115.38
401.062	103.38
401.286	119.38
401.51	115.38
401.734	109.38
401.958	118.38
402.182	116.38
402.406	107.38
402.63	119.38
402.854	114.38
403.078	120.38
403.302	113.38
403.526	105.38
403.75	103.38
403.974	106.38
404.198	107.38
404.422	121.38
404.645	107.38
404.869	115.38
405.093	103.38
405.317	97.38
405.541	113.38
405.765	118.38
405.988	113.38
406.212	109.38
406.436	115.38
406.66	108.38
406.883	116.38
407.107	111.38
407.331	113.38
407.555	117.38
407.778	121.38
408.002	106.38
408.226	110.38
408.449	122.38
408.673	106.38
408.896	109.38
409.12	116.38
409.344	120.38
409.567	117.38
409.791	125.38
410.014	115.38
410.238	110.38
410.461	127.38
410.685	123.38
410.908	126.38
411.132	119.38
411.355	112.38
411.578	123.38
411.802	117.38
412.025	108.38
412.249	125.38
412.472	116.38
412.695	124.38
412.919	106.38
413.142	120.38
413.365	110.38
413.589	117.38
413.812	126.38
414.035	110.38
414.258	116.38
414.482	122.38
414.705	124.38
414.928	124.38
415.151	119.38
415.374	105.38
415.597	121.38
415.821	113.38
416.044	118.38
416.267	121.38
416.49	138.38
416.713	125.38
416.936	116.38
417.159	134.38
417.382	116.38
417.605	114.38
417.828	127.38
418.051	138.38
418.274	127.38
418.497	111.38
418.72	120.38
418.943	127.38
419.166	138.38
419.389	134.38
419.611	133.38
419.834	137.38
420.057	131.38
420.28	120.38
420.503	133.38
420.726	125.38
420.948	134.38
421.171	136.38
421.394	131.38
421.617	133.38
421.839	130.38
422.062	130.38
422.285	127.38
422.507	133.38
422.73	122.38
422.953	126.38
423.175	126.38
423.398	123.38
423.621	132.38
423.843	131.38
424.066	131.38
424.288	133.38
424.511	145.38
424.733	131.38
424.956	139.38
425.178	139.38
425.401	132.38
425.623	143.38
425.846	131.38
426.068	126.38
426.291	133.38
426.513	135.38
426.735	127.38
426.958	123.38
427.18	137.38
427.402	123.38
427.625	124.38
427.847	126.38
428.069	129.38
428.292	139.38
428.514	135.38
428.736	139.38
428.958	126.38
429.181	135.38
429.403	131.38
429.625	116.38
429.847	132.38
430.069	114.38
430.292	127.38
430.514	123.38
430.736	111.38
430.958	129.38
431.18	131.38
431.402	129.38
431.624	100.38
431.846	99.38
432.068	87.38
432.29	99.38
432.512	118.38
432.734	133.38
432.956	131.38
433.178	125.38
433.4	122.38
433.622	124.38
433.844	126.38
434.066	121.38
434.287	101.38
434.509	113.38
434.731	107.38
434.953	98.38
435.175	131.38
435.397	127.38
435.618	117.38
435.84	127.38
436.062	137.38
436.284	125.38
436.505	129.38
436.727	123.38
436.949	115.38
437.17	129.38
437.392	131.38
437.614	131.38
437.835	102.38
438.057	107.38
438.278	88.38
438.5	116.38
438.721	123.38
438.943	137.38
439.165	133.38
439.386	150.38
439.608	154.38
439.829	148.38
440.05	148.38
440.272	130.38
440.493	149.38
440.715	140.38
440.936	137.38
441.158	137.38
441.379	138.38
441.6	135.38
441.822	136.38
442.043	146.38
442.264	145.38
442.486	135.38
442.707	133.38
442.928	133.38
443.149	132.38
443.371	153.38
443.592	137.38
443.813	142.38
444.034	152.38
444.255	141.38
444.476	145.38
444.698	139.38
444.919	134.38
445.14	253.38
445.361	195.38
445.582	142.38
445.803	130.38
446.024	144.38
446.245	147.38
446.466	130.38
446.687	123.38
446.908	154.38
447.129	162.38
447.35	144.38
447.571	147.38
447.792	142.38
448.013	147.38
448.234	137.38
448.455	133.38
448.675	143.38
448.896	137.38
449.117	142.38
449.338	155.38
449.559	146.38
449.779	124.38
450	119.38
450.221	128.38
450.442	134.38
450.662	127.38
450.883	146.38
451.104	132.38
451.324	125.38
451.545	120.38
451.766	140.38
451.986	132.38
452.207	122.38
452.428	130.38
452.648	129.38
452.869	121.38
453.089	118.38
453.31	96.38
453.53	105.38
453.751	122.38
453.971	101.38
454.192	100.38
454.412	113.38
454.633	102.38
454.853	120.38
455.073	107.38
455.294	126.38
455.514	123.38
455.734	124.38
455.955	121.38
456.175	122.38
456.395	120.38
456.616	110.38
456.836	92.38
457.056	119.38
457.276	110.38
457.497	100.38
457.717	121.38
457.937	113.38
458.157	96.38
458.377	105.38
458.598	100.38
458.818	93.38
459.038	95.38
459.258	88.38
459.478	93.38
459.698	79.38
459.918	92.38
460.138	109.38
460.358	106.38
460.578	120.38
460.798	113.38
461.018	110.38
461.238	126.38
461.458	113.38
461.678	104.38
461.898	110.38
462.118	110.38
462.338	96.38
462.558	107.38
462.777	111.38
462.997	107.38
463.217	118.38
463.437	102.38
463.657	106.38
463.876	105.38
464.096	113.38
464.316	106.38
464.536	109.38
464.755	111.38
464.975	104.38
465.195	121.38
465.414	137.38
465.634	119.38
465.854	115.38
466.073	103.38
466.293	115.38
466.512	135.38
466.732	140.38
466.951	141.38
467.171	145.38
467.391	149.38
467.61	119.38
467.829	136.38
468.049	143.38
468.268	142.38
468.488	130.38
468.707	130.38
468.927	148.38
469.146	140.38
469.365	142.38
469.585	143.38
469.804	150.38
470.023	128.38
470.243	123.38
470.462	135.38
470.681	148.38
470.901	123.38
471.12	135.38
471.339	133.38
471.558	128.38
471.777	129.38
471.997	151.38
472.216	119.38
472.435	110.38
472.654	106.38
472.873	107.38
473.092	118.38
473.311	125.38
473.53	128.38
473.749	131.38
473.968	135.38
474.187	138.38
474.406	138.38
474.625	132.38
474.844	138.38
475.063	126.38
475.282	133.38
475.501	124.38
475.72	126.38
475.939	127.38
476.158	124.38
476.377	132.38
476.596	131.38
476.814	126.38
477.033	113.38
477.252	109.38
477.471	118.38
477.69	126.38
477.908	136.38
478.127	130.38
478.346	128.38
478.564	142.38
478.783	133.38
479.002	156.38
479.22	138.38
479.439	129.38
479.658	125.38
479.876	117.38
480.095	94.38
480.313	109.38
480.532	125.38
480.751	105.38
480.969	101.38
481.188	83.38
481.406	96.38
481.624	91.38
481.843	82.38
482.061	97.38
482.28	119.38
482.498	113.38
482.717	103.38
482.935	129.38
483.153	132.38
483.372	146.38
483.59	149.38
483.808	138.38
484.027	125.38
484.245	132.38
484.463	129.38
484.681	156.38
484.9	155.38
485.118	142.38
485.336	137.38
485.554	124.38
485.772	107.38
485.99	85.38
486.209	97.38
486.427	104.38
486.645	129.38
486.863	118.38
487.081	148.38
487.299	123.38
487.517	132.38
487.735	165.38
487.953	189.38
488.171	177.38
488.389	171.38
488.607	156.38
488.825	142.38
489.043	122.38
489.261	142.38
489.479	131.38
489.696	153.38
489.914	141.38
490.132	149.38
490.35	145.38
490.568	154.38
490.786	163.38
491.003	173.38
491.221	179.38
491.439	169.38
491.657	174.38
491.874	204.38
492.092	229.38
492.31	226.38
492.527	228.38
492.745	193.38
492.963	185.38
493.18	192.38
493.398	186.38
493.615	181.38
493.833	170.38
494.05	164.38
494.268	179.38
494.485	175.38
494.703	170.38
494.92	173.38
495.138	170.38
495.355	166.38
495.573	165.38
495.79	179.38
496.008	172.38
496.225	147.38
496.442	157.38
496.66	168.38
496.877	153.38
497.094	147.38
497.312	146.38
497.529	165.38
497.746	137.38
497.963	142.38
498.181	129.38
498.398	121.38
498.615	118.38
498.832	119.38
499.049	120.38
499.267	120.38
499.484	127.38
499.701	141.38
499.918	139.38
500.135	135.38
500.352	141.38
500.569	147.38
500.786	143.38
501.003	139.38
501.22	131.38
501.437	132.38
501.654	131.38
501.871	126.38
502.088	133.38
502.305	132.38
502.522	131.38
502.739	124.38
502.956	124.38
503.172	129.38
503.389	109.38
503.606	116.38
503.823	100.38
504.04	117.38
504.256	115.38
504.473	119.38
504.69	140.38
504.907	135.38
505.123	118.38
505.34	126.38
505.557	132.38
505.773	107.38
505.99	121.38
506.207	119.38
506.423	121.38
506.64	121.38
506.856	119.38
507.073	123.38
507.289	125.38
507.506	116.38
507.722	119.38
507.939	109.38
508.155	109.38
508.372	108.38
508.588	107.38
508.805	115.38
509.021	115.38
509.238	109.38
509.454	105.38
509.67	98.38
509.887	97.38
510.103	87.38
510.319	100.38
510.536	85.38
510.752	91.38
510.968	86.38
511.184	79.38
511.401	88.38
511.617	84.38
