Data from Location1.07152019.Energy5.Lamp.07192019.3%Agarose_HRD10591_14-31-00-024.txt Node
Date: Fri Jul 19 14:31:00 EDT 2019
User: cochatt
Spectrometer: HR+D1059
Trigger mode: 1
Integration Time (sec): 1.000000E-1
Scans to average: 1
Electric dark correction enabled: true
Nonlinearity correction enabled: false
Boxcar width: 0
XAxis mode: Wavelengths
Number of Pixels in Spectrum: 2048
>>>>>Begin Spectral Data<<<<<
223.165	-7.56
223.4	-7.56
223.635	-7.56
223.869	-12.56
224.104	-22.56
224.338	-22.56
224.573	-10.56
224.808	-20.56
225.042	-5.56
225.277	2.44
225.511	0.44
225.746	-7.56
225.98	8.44
226.215	17.44
226.449	25.44
226.683	23.44
226.918	8.44
227.152	23.44
227.387	37.44
227.621	51.44
227.856	41.44
228.09	36.44
228.324	45.44
228.559	60.44
228.793	58.44
229.027	65.44
229.262	72.44
229.496	64.44
229.73	56.44
229.964	71.44
230.199	82.44
230.433	59.44
230.667	79.44
230.901	80.44
231.136	88.44
231.37	80.44
231.604	81.44
231.838	78.44
232.072	93.44
232.306	75.44
232.541	82.44
232.775	78.44
233.009	78.44
233.243	96.44
233.477	88.44
233.711	82.44
233.945	70.44
234.179	68.44
234.413	86.44
234.647	84.44
234.881	86.44
235.115	83.44
235.349	75.44
235.583	68.44
235.817	81.44
236.051	71.44
236.285	77.44
236.519	74.44
236.753	76.44
236.987	88.44
237.221	63.44
237.455	71.44
237.689	84.44
237.922	85.44
238.156	72.44
238.39	73.44
238.624	89.44
238.858	79.44
239.091	65.44
239.325	80.44
239.559	67.44
239.793	83.44
240.027	83.44
240.26	63.44
240.494	77.44
240.728	70.44
240.961	76.44
241.195	83.44
241.429	66.44
241.662	82.44
241.896	73.44
242.13	71.44
242.363	77.44
242.597	64.44
242.83	82.44
243.064	58.44
243.298	75.44
243.531	70.44
243.765	66.44
243.998	71.44
244.232	77.44
244.465	69.44
244.699	77.44
244.932	71.44
245.166	74.44
245.399	85.44
245.633	60.44
245.866	76.44
246.099	84.44
246.333	80.44
246.566	81.44
246.8	63.44
247.033	86.44
247.266	80.44
247.5	80.44
247.733	68.44
247.966	83.44
248.2	70.44
248.433	71.44
248.666	75.44
248.899	88.44
249.133	78.44
249.366	90.44
249.599	84.44
249.832	79.44
250.066	73.44
250.299	78.44
250.532	71.44
250.765	79.44
250.998	68.44
251.231	66.44
251.465	63.44
251.698	76.44
251.931	68.44
252.164	65.44
252.397	69.44
252.63	92.44
252.863	83.44
253.096	72.44
253.329	90.44
253.562	71.44
253.795	66.44
254.028	73.44
254.261	87.44
254.494	65.44
254.727	69.44
254.96	81.44
255.193	90.44
255.426	75.44
255.659	80.44
255.892	82.44
256.124	95.44
256.357	66.44
256.59	80.44
256.823	81.44
257.056	72.44
257.289	71.44
257.521	87.44
257.754	76.44
257.987	84.44
258.22	80.44
258.452	77.44
258.685	76.44
258.918	66.44
259.151	89.44
259.383	79.44
259.616	66.44
259.849	78.44
260.081	83.44
260.314	67.44
260.547	70.44
260.779	84.44
261.012	77.44
261.244	87.44
261.477	92.44
261.71	67.44
261.942	76.44
262.175	76.44
262.407	77.44
262.64	78.44
262.872	71.44
263.105	66.44
263.337	80.44
263.57	77.44
263.802	82.44
264.035	88.44
264.267	76.44
264.499	68.44
264.732	71.44
264.964	89.44
265.197	80.44
265.429	90.44
265.661	92.44
265.894	75.44
266.126	87.44
266.358	85.44
266.591	87.44
266.823	87.44
267.055	93.44
267.287	95.44
267.52	91.44
267.752	87.44
267.984	74.44
268.216	69.44
268.448	77.44
268.681	87.44
268.913	77.44
269.145	86.44
269.377	79.44
269.609	81.44
269.841	88.44
270.073	80.44
270.306	77.44
270.538	75.44
270.77	81.44
271.002	62.44
271.234	89.44
271.466	78.44
271.698	75.44
271.93	82.44
272.162	77.44
272.394	74.44
272.626	79.44
272.858	76.44
273.09	90.44
273.322	84.44
273.553	83.44
273.785	95.44
274.017	77.44
274.249	90.44
274.481	82.44
274.713	83.44
274.945	76.44
275.176	83.44
275.408	83.44
275.64	76.44
275.872	81.44
276.104	95.44
276.335	81.44
276.567	87.44
276.799	88.44
277.031	88.44
277.262	76.44
277.494	86.44
277.726	75.44
277.957	76.44
278.189	78.44
278.421	70.44
278.652	82.44
278.884	71.44
279.115	55.44
279.347	80.44
279.579	77.44
279.81	73.44
280.042	83.44
280.273	71.44
280.505	70.44
280.736	83.44
280.968	74.44
281.199	87.44
281.431	92.44
281.662	93.44
281.894	99.44
282.125	84.44
282.356	79.44
282.588	83.44
282.819	99.44
283.051	85.44
283.282	88.44
283.513	81.44
283.745	84.44
283.976	82.44
284.207	76.44
284.439	74.44
284.67	81.44
284.901	83.44
285.132	80.44
285.364	88.44
285.595	83.44
285.826	79.44
286.057	72.44
286.288	93.44
286.52	82.44
286.751	64.44
286.982	85.44
287.213	84.44
287.444	97.44
287.675	90.44
287.906	89.44
288.138	84.44
288.369	78.44
288.6	94.44
288.831	84.44
289.062	90.44
289.293	85.44
289.524	84.44
289.755	88.44
289.986	86.44
290.217	83.44
290.448	84.44
290.679	85.44
290.91	86.44
291.141	91.44
291.371	81.44
291.602	87.44
291.833	77.44
292.064	75.44
292.295	86.44
292.526	83.44
292.757	91.44
292.987	73.44
293.218	75.44
293.449	91.44
293.68	77.44
293.91	83.44
294.141	75.44
294.372	82.44
294.603	78.44
294.833	76.44
295.064	96.44
295.295	77.44
295.525	81.44
295.756	76.44
295.987	85.44
296.217	87.44
296.448	81.44
296.679	92.44
296.909	81.44
297.14	77.44
297.37	100.44
297.601	80.44
297.831	82.44
298.062	83.44
298.292	89.44
298.523	75.44
298.753	87.44
298.984	76.44
299.214	77.44
299.445	96.44
299.675	76.44
299.905	67.44
300.136	77.44
300.366	84.44
300.597	88.44
300.827	80.44
301.057	84.44
301.288	90.44
301.518	86.44
301.748	96.44
301.979	92.44
302.209	74.44
302.439	89.44
302.669	83.44
302.9	74.44
303.13	72.44
303.36	82.44
303.59	70.44
303.82	92.44
304.051	84.44
304.281	90.44
304.511	77.44
304.741	77.44
304.971	78.44
305.201	82.44
305.431	87.44
305.661	75.44
305.891	84.44
306.121	80.44
306.352	83.44
306.582	82.44
306.812	88.44
307.042	81.44
307.272	87.44
307.502	77.44
307.731	81.44
307.961	85.44
308.191	84.44
308.421	80.44
308.651	87.44
308.881	76.44
309.111	94.44
309.341	73.44
309.571	84.44
309.8	64.44
310.03	82.44
310.26	90.44
310.49	93.44
310.72	81.44
310.949	72.44
311.179	89.44
311.409	84.44
311.639	75.44
311.868	74.44
312.098	79.44
312.328	82.44
312.557	78.44
312.787	92.44
313.017	80.44
313.246	84.44
313.476	86.44
313.706	89.44
313.935	71.44
314.165	86.44
314.394	90.44
314.624	81.44
314.853	87.44
315.083	95.44
315.312	84.44
315.542	80.44
315.771	72.44
316.001	84.44
316.23	84.44
316.46	77.44
316.689	77.44
316.919	81.44
317.148	66.44
317.377	93.44
317.607	71.44
317.836	83.44
318.065	83.44
318.295	82.44
318.524	100.44
318.753	99.44
318.983	80.44
319.212	88.44
319.441	86.44
319.67	88.44
319.9	78.44
320.129	75.44
320.358	81.44
320.587	79.44
320.816	87.44
321.046	80.44
321.275	72.44
321.504	67.44
321.733	88.44
321.962	67.44
322.191	95.44
322.42	92.44
322.649	86.44
322.878	84.44
323.108	74.44
323.337	80.44
323.566	83.44
323.795	84.44
324.024	86.44
324.253	85.44
324.482	93.44
324.71	90.44
324.939	87.44
325.168	90.44
325.397	85.44
325.626	86.44
325.855	85.44
326.084	82.44
326.313	80.44
326.542	85.44
326.77	85.44
326.999	87.44
327.228	73.44
327.457	83.44
327.686	70.44
327.914	91.44
328.143	76.44
328.372	84.44
328.6	86.44
328.829	77.44
329.058	77.44
329.287	73.44
329.515	85.44
329.744	83.44
329.972	75.44
330.201	88.44
330.43	80.44
330.658	67.44
330.887	77.44
331.115	88.44
331.344	76.44
331.572	90.44
331.801	86.44
332.03	80.44
332.258	67.44
332.486	76.44
332.715	86.44
332.943	76.44
333.172	82.44
333.4	73.44
333.629	78.44
333.857	72.44
334.085	81.44
334.314	76.44
334.542	71.44
334.771	75.44
334.999	79.44
335.227	84.44
335.455	91.44
335.684	71.44
335.912	83.44
336.14	95.44
336.369	77.44
336.597	92.44
336.825	99.44
337.053	82.44
337.281	75.44
337.51	81.44
337.738	85.44
337.966	76.44
338.194	76.44
338.422	84.44
338.65	86.44
338.878	86.44
339.106	88.44
339.334	96.44
339.562	83.44
339.79	71.44
340.018	81.44
340.246	91.44
340.474	74.44
340.702	83.44
340.93	77.44
341.158	74.44
341.386	80.44
341.614	75.44
341.842	78.44
342.07	83.44
342.298	84.44
342.526	97.44
342.754	84.44
342.981	83.44
343.209	75.44
343.437	73.44
343.665	82.44
343.893	75.44
344.12	79.44
344.348	79.44
344.576	78.44
344.804	89.44
345.031	71.44
345.259	74.44
345.487	87.44
345.714	78.44
345.942	73.44
346.17	68.44
346.397	85.44
346.625	87.44
346.853	80.44
347.08	70.44
347.308	69.44
347.535	78.44
347.763	78.44
347.99	93.44
348.218	76.44
348.445	79.44
348.673	89.44
348.9	95.44
349.128	95.44
349.355	77.44
349.583	75.44
349.81	86.44
350.037	78.44
350.265	89.44
350.492	91.44
350.72	73.44
350.947	70.44
351.174	71.44
351.402	72.44
351.629	93.44
351.856	80.44
352.083	81.44
352.311	73.44
352.538	84.44
352.765	75.44
352.992	90.44
353.22	85.44
353.447	87.44
353.674	83.44
353.901	77.44
354.128	82.44
354.355	91.44
354.583	82.44
354.81	87.44
355.037	85.44
355.264	76.44
355.491	72.44
355.718	76.44
355.945	70.44
356.172	76.44
356.399	84.44
356.626	83.44
356.853	77.44
357.08	76.44
357.307	69.44
357.534	80.44
357.761	89.44
357.988	72.44
358.215	91.44
358.441	87.44
358.668	87.44
358.895	96.44
359.122	81.44
359.349	79.44
359.576	90.44
359.802	80.44
360.029	76.44
360.256	85.44
360.483	83.44
360.709	76.44
360.936	75.44
361.163	76.44
361.39	78.44
361.616	75.44
361.843	69.44
362.07	99.44
362.296	85.44
362.523	81.44
362.749	95.44
362.976	64.44
363.203	73.44
363.429	80.44
363.656	81.44
363.882	80.44
364.109	85.44
364.335	91.44
364.562	74.44
364.788	83.44
365.015	92.44
365.241	92.44
365.468	90.44
365.694	91.44
365.92	86.44
366.147	77.44
366.373	76.44
366.599	81.44
366.826	96.44
367.052	79.44
367.278	87.44
367.505	104.44
367.731	93.44
367.957	83.44
368.184	73.44
368.41	84.44
368.636	95.44
368.862	96.44
369.089	92.44
369.315	90.44
369.541	94.44
369.767	79.44
369.993	89.44
370.219	98.44
370.445	93.44
370.672	86.44
370.898	77.44
371.124	80.44
371.35	84.44
371.576	89.44
371.802	86.44
372.028	84.44
372.254	84.44
372.48	90.44
372.706	90.44
372.932	83.44
373.158	87.44
373.384	84.44
373.61	83.44
373.835	86.44
374.061	90.44
374.287	111.44
374.513	87.44
374.739	92.44
374.965	77.44
375.191	91.44
375.416	88.44
375.642	90.44
375.868	93.44
376.094	95.44
376.319	96.44
376.545	89.44
376.771	100.44
376.997	84.44
377.222	87.44
377.448	107.44
377.674	89.44
377.899	86.44
378.125	97.44
378.35	100.44
378.576	89.44
378.802	90.44
379.027	96.44
379.253	102.44
379.478	93.44
379.704	90.44
379.929	103.44
380.155	94.44
380.38	108.44
380.606	107.44
380.831	91.44
381.057	91.44
381.282	91.44
381.507	99.44
381.733	105.44
381.958	105.44
382.184	76.44
382.409	97.44
382.634	108.44
382.86	81.44
383.085	92.44
383.31	101.44
383.535	95.44
383.761	100.44
383.986	86.44
384.211	85.44
384.436	77.44
384.662	87.44
384.887	95.44
385.112	93.44
385.337	88.44
385.562	90.44
385.787	84.44
386.013	99.44
386.238	93.44
386.463	82.44
386.688	83.44
386.913	97.44
387.138	98.44
387.363	95.44
387.588	104.44
387.813	89.44
388.038	92.44
388.263	103.44
388.488	83.44
388.713	100.44
388.938	87.44
389.163	76.44
389.387	99.44
389.612	103.44
389.837	84.44
390.062	94.44
390.287	90.44
390.512	89.44
390.736	99.44
390.961	113.44
391.186	100.44
391.411	93.44
391.636	100.44
391.86	105.44
392.085	88.44
392.31	114.44
392.534	100.44
392.759	101.44
392.984	83.44
393.208	89.44
393.433	100.44
393.658	112.44
393.882	99.44
394.107	105.44
394.331	109.44
394.556	96.44
394.78	105.44
395.005	113.44
395.229	102.44
395.454	107.44
395.678	98.44
395.903	108.44
396.127	106.44
396.352	104.44
396.576	94.44
396.801	111.44
397.025	97.44
397.249	106.44
397.474	101.44
397.698	94.44
397.922	106.44
398.147	100.44
398.371	93.44
398.595	89.44
398.82	98.44
399.044	112.44
399.268	102.44
399.492	106.44
399.717	93.44
399.941	96.44
400.165	108.44
400.389	113.44
400.613	108.44
400.837	108.44
401.062	107.44
401.286	111.44
401.51	123.44
401.734	105.44
401.958	101.44
402.182	113.44
402.406	116.44
402.63	120.44
402.854	113.44
403.078	116.44
403.302	100.44
403.526	109.44
403.75	113.44
403.974	124.44
404.198	116.44
404.422	111.44
404.645	89.44
404.869	106.44
405.093	105.44
405.317	114.44
405.541	105.44
405.765	107.44
405.988	120.44
406.212	127.44
406.436	123.44
406.66	108.44
406.883	116.44
407.107	105.44
407.331	108.44
407.555	106.44
407.778	121.44
408.002	107.44
408.226	111.44
408.449	115.44
408.673	120.44
408.896	115.44
409.12	102.44
409.344	119.44
409.567	106.44
409.791	122.44
410.014	113.44
410.238	119.44
410.461	102.44
410.685	113.44
410.908	118.44
411.132	123.44
411.355	122.44
411.578	114.44
411.802	117.44
412.025	120.44
412.249	118.44
412.472	122.44
412.695	121.44
412.919	110.44
413.142	123.44
413.365	121.44
413.589	122.44
413.812	120.44
414.035	123.44
414.258	118.44
414.482	115.44
414.705	103.44
414.928	124.44
415.151	117.44
415.374	134.44
415.597	118.44
415.821	127.44
416.044	135.44
416.267	123.44
416.49	124.44
416.713	125.44
416.936	125.44
417.159	134.44
417.382	129.44
417.605	124.44
417.828	127.44
418.051	120.44
418.274	130.44
418.497	131.44
418.72	130.44
418.943	131.44
419.166	123.44
419.389	132.44
419.611	121.44
419.834	137.44
420.057	139.44
420.28	133.44
420.503	126.44
420.726	125.44
420.948	132.44
421.171	128.44
421.394	122.44
421.617	140.44
421.839	138.44
422.062	129.44
422.285	131.44
422.507	131.44
422.73	124.44
422.953	123.44
423.175	112.44
423.398	137.44
423.621	132.44
423.843	119.44
424.066	129.44
424.288	138.44
424.511	137.44
424.733	137.44
424.956	141.44
425.178	141.44
425.401	121.44
425.623	135.44
425.846	123.44
426.068	122.44
426.291	114.44
426.513	113.44
426.735	132.44
426.958	123.44
427.18	120.44
427.402	117.44
427.625	119.44
427.847	115.44
428.069	128.44
428.292	121.44
428.514	119.44
428.736	117.44
428.958	139.44
429.181	129.44
429.403	122.44
429.625	129.44
429.847	127.44
430.069	135.44
430.292	128.44
430.514	117.44
430.736	129.44
430.958	130.44
431.18	129.44
431.402	115.44
431.624	116.44
431.846	111.44
432.068	98.44
432.29	116.44
432.512	120.44
432.734	115.44
432.956	123.44
433.178	135.44
433.4	128.44
433.622	124.44
433.844	140.44
434.066	126.44
434.287	121.44
434.509	112.44
434.731	114.44
434.953	111.44
435.175	128.44
435.397	135.44
435.618	109.44
435.84	112.44
436.062	127.44
436.284	124.44
436.505	116.44
436.727	125.44
436.949	119.44
437.17	121.44
437.392	136.44
437.614	105.44
437.835	113.44
438.057	94.44
438.278	115.44
438.5	125.44
438.721	120.44
438.943	134.44
439.165	128.44
439.386	133.44
439.608	131.44
439.829	128.44
440.05	143.44
440.272	136.44
440.493	138.44
440.715	125.44
440.936	142.44
441.158	131.44
441.379	125.44
441.6	142.44
441.822	146.44
442.043	137.44
442.264	107.44
442.486	127.44
442.707	140.44
442.928	135.44
443.149	139.44
443.371	128.44
443.592	135.44
443.813	138.44
444.034	133.44
444.255	140.44
444.476	133.44
444.698	136.44
444.919	141.44
445.14	268.44
445.361	183.44
445.582	157.44
445.803	139.44
446.024	127.44
446.245	142.44
446.466	142.44
446.687	154.44
446.908	157.44
447.129	147.44
447.35	146.44
447.571	142.44
447.792	152.44
448.013	130.44
448.234	130.44
448.455	141.44
448.675	136.44
448.896	141.44
449.117	127.44
449.338	141.44
449.559	140.44
449.779	124.44
450	141.44
450.221	146.44
450.442	133.44
450.662	136.44
450.883	131.44
451.104	111.44
451.324	140.44
451.545	131.44
451.766	128.44
451.986	133.44
452.207	133.44
452.428	145.44
452.648	125.44
452.869	128.44
453.089	108.44
453.31	111.44
453.53	123.44
453.751	109.44
453.971	106.44
454.192	89.44
454.412	113.44
454.633	99.44
454.853	118.44
455.073	125.44
455.294	106.44
455.514	107.44
455.734	115.44
455.955	133.44
456.175	105.44
456.395	108.44
456.616	101.44
456.836	99.44
457.056	95.44
457.276	104.44
457.497	104.44
457.717	103.44
457.937	112.44
458.157	104.44
458.377	105.44
458.598	95.44
458.818	91.44
459.038	94.44
459.258	85.44
459.478	78.44
459.698	98.44
459.918	93.44
460.138	98.44
460.358	113.44
460.578	119.44
460.798	115.44
461.018	121.44
461.238	111.44
461.458	114.44
461.678	118.44
461.898	107.44
462.118	121.44
462.338	120.44
462.558	117.44
462.777	116.44
462.997	103.44
463.217	97.44
463.437	107.44
463.657	112.44
463.876	111.44
464.096	107.44
464.316	113.44
464.536	107.44
464.755	121.44
464.975	113.44
465.195	118.44
465.414	123.44
465.634	105.44
465.854	128.44
466.073	105.44
466.293	117.44
466.512	127.44
466.732	117.44
466.951	111.44
467.171	127.44
467.391	132.44
467.61	129.44
467.829	127.44
468.049	132.44
468.268	136.44
468.488	110.44
468.707	131.44
468.927	142.44
469.146	143.44
469.365	136.44
469.585	95.44
469.804	129.44
470.023	133.44
470.243	131.44
470.462	148.44
470.681	135.44
470.901	148.44
471.12	135.44
471.339	140.44
471.558	129.44
471.777	126.44
471.997	125.44
472.216	123.44
472.435	115.44
472.654	107.44
472.873	111.44
473.092	130.44
473.311	120.44
473.53	131.44
473.749	120.44
473.968	123.44
474.187	123.44
474.406	126.44
474.625	129.44
474.844	125.44
475.063	110.44
475.282	125.44
475.501	124.44
475.72	103.44
475.939	121.44
476.158	124.44
476.377	139.44
476.596	120.44
476.814	107.44
477.033	91.44
477.252	116.44
477.471	124.44
477.69	123.44
477.908	126.44
478.127	143.44
478.346	139.44
478.564	124.44
478.783	132.44
479.002	141.44
479.22	127.44
479.439	129.44
479.658	121.44
479.876	115.44
480.095	126.44
480.313	127.44
480.532	105.44
480.751	95.44
480.969	103.44
481.188	86.44
481.406	76.44
481.624	87.44
481.843	91.44
482.061	87.44
482.28	107.44
482.498	111.44
482.717	107.44
482.935	119.44
483.153	137.44
483.372	148.44
483.59	146.44
483.808	139.44
484.027	143.44
484.245	133.44
484.463	144.44
484.681	156.44
484.9	123.44
485.118	124.44
485.336	130.44
485.554	127.44
485.772	102.44
485.99	106.44
486.209	104.44
486.427	99.44
486.645	113.44
486.863	123.44
487.081	132.44
487.299	130.44
487.517	136.44
487.735	169.44
487.953	187.44
488.171	193.44
488.389	183.44
488.607	166.44
488.825	142.44
489.043	139.44
489.261	132.44
489.479	127.44
489.696	132.44
489.914	139.44
490.132	141.44
490.35	154.44
490.568	155.44
490.786	163.44
491.003	166.44
491.221	178.44
491.439	184.44
491.657	176.44
491.874	194.44
492.092	227.44
492.31	225.44
492.527	215.44
492.745	193.44
492.963	196.44
493.18	193.44
493.398	175.44
493.615	160.44
493.833	160.44
494.05	164.44
494.268	170.44
494.485	175.44
494.703	164.44
494.92	165.44
495.138	168.44
495.355	163.44
495.573	156.44
495.79	163.44
496.008	162.44
496.225	161.44
496.442	159.44
496.66	160.44
496.877	153.44
497.094	166.44
497.312	149.44
497.529	153.44
497.746	135.44
497.963	132.44
498.181	113.44
498.398	142.44
498.615	125.44
498.832	107.44
499.049	117.44
499.267	119.44
499.484	112.44
499.701	136.44
499.918	139.44
500.135	122.44
500.352	129.44
500.569	155.44
500.786	139.44
501.003	145.44
501.22	141.44
501.437	130.44
501.654	149.44
501.871	141.44
502.088	140.44
502.305	130.44
502.522	126.44
502.739	123.44
502.956	131.44
503.172	116.44
503.389	119.44
503.606	113.44
503.823	117.44
504.04	120.44
504.256	107.44
504.473	108.44
504.69	110.44
504.907	111.44
505.123	108.44
505.34	125.44
505.557	115.44
505.773	103.44
505.99	113.44
506.207	127.44
506.423	115.44
506.64	115.44
506.856	122.44
507.073	114.44
507.289	128.44
507.506	117.44
507.722	122.44
507.939	117.44
508.155	111.44
508.372	91.44
508.588	109.44
508.805	106.44
509.021	105.44
509.238	107.44
509.454	111.44
509.67	89.44
509.887	107.44
510.103	100.44
510.319	103.44
510.536	108.44
510.752	88.44
510.968	103.44
511.184	92.44
511.401	87.44
511.617	96.44
511.833	98.44
512.049	82.44
