Data from Location1.07152019.Energy5.Lamp.07192019.3%Agarose_HRD10591_14-33-08-016.txt Node
Date: Fri Jul 19 14:33:08 EDT 2019
User: cochatt
Spectrometer: HR+D1059
Trigger mode: 1
Integration Time (sec): 1.000000E-1
Scans to average: 1
Electric dark correction enabled: true
Nonlinearity correction enabled: false
Boxcar width: 0
XAxis mode: Wavelengths
Number of Pixels in Spectrum: 2048
>>>>>Begin Spectral Data<<<<<
223.165	-7.88
223.4	-7.88
223.635	-7.88
223.869	-15.88
224.104	-7.88
224.338	-3.88
224.573	-18.88
224.808	-20.88
225.042	-20.88
225.277	-9.88
225.511	-14.88
225.746	9.12
225.98	14.12
226.215	2.12
226.449	24.12
226.683	24.12
226.918	25.12
227.152	22.12
227.387	29.12
227.621	33.12
227.856	35.12
228.09	41.12
228.324	45.12
228.559	50.12
228.793	61.12
229.027	59.12
229.262	72.12
229.496	67.12
229.73	59.12
229.964	62.12
230.199	61.12
230.433	66.12
230.667	69.12
230.901	73.12
231.136	80.12
231.37	85.12
231.604	85.12
231.838	77.12
232.072	75.12
232.306	85.12
232.541	77.12
232.775	94.12
233.009	70.12
233.243	79.12
233.477	82.12
233.711	86.12
233.945	96.12
234.179	83.12
234.413	73.12
234.647	82.12
234.881	73.12
235.115	84.12
235.349	72.12
235.583	87.12
235.817	79.12
236.051	81.12
236.285	75.12
236.519	71.12
236.753	66.12
236.987	68.12
237.221	73.12
237.455	82.12
237.689	81.12
237.922	78.12
238.156	84.12
238.39	67.12
238.624	82.12
238.858	69.12
239.091	61.12
239.325	77.12
239.559	75.12
239.793	93.12
240.027	68.12
240.26	69.12
240.494	68.12
240.728	78.12
240.961	74.12
241.195	71.12
241.429	74.12
241.662	97.12
241.896	74.12
242.13	86.12
242.363	86.12
242.597	83.12
242.83	69.12
243.064	85.12
243.298	79.12
243.531	80.12
243.765	86.12
243.998	78.12
244.232	71.12
244.465	74.12
244.699	74.12
244.932	74.12
245.166	74.12
245.399	77.12
245.633	79.12
245.866	78.12
246.099	86.12
246.333	75.12
246.566	64.12
246.8	78.12
247.033	76.12
247.266	72.12
247.5	72.12
247.733	73.12
247.966	77.12
248.2	82.12
248.433	75.12
248.666	84.12
248.899	82.12
249.133	77.12
249.366	71.12
249.599	81.12
249.832	68.12
250.066	80.12
250.299	79.12
250.532	73.12
250.765	82.12
250.998	91.12
251.231	89.12
251.465	86.12
251.698	86.12
251.931	73.12
252.164	76.12
252.397	79.12
252.63	78.12
252.863	67.12
253.096	74.12
253.329	88.12
253.562	71.12
253.795	77.12
254.028	85.12
254.261	84.12
254.494	80.12
254.727	57.12
254.96	68.12
255.193	84.12
255.426	82.12
255.659	79.12
255.892	82.12
256.124	80.12
256.357	76.12
256.59	79.12
256.823	77.12
257.056	73.12
257.289	83.12
257.521	76.12
257.754	82.12
257.987	79.12
258.22	76.12
258.452	69.12
258.685	71.12
258.918	75.12
259.151	73.12
259.383	70.12
259.616	84.12
259.849	81.12
260.081	85.12
260.314	82.12
260.547	80.12
260.779	86.12
261.012	74.12
261.244	76.12
261.477	75.12
261.71	72.12
261.942	87.12
262.175	94.12
262.407	90.12
262.64	88.12
262.872	78.12
263.105	85.12
263.337	85.12
263.57	75.12
263.802	83.12
264.035	81.12
264.267	84.12
264.499	96.12
264.732	89.12
264.964	84.12
265.197	68.12
265.429	87.12
265.661	81.12
265.894	90.12
266.126	81.12
266.358	85.12
266.591	72.12
266.823	73.12
267.055	75.12
267.287	76.12
267.52	84.12
267.752	90.12
267.984	82.12
268.216	95.12
268.448	82.12
268.681	78.12
268.913	89.12
269.145	81.12
269.377	80.12
269.609	81.12
269.841	91.12
270.073	92.12
270.306	83.12
270.538	70.12
270.77	75.12
271.002	86.12
271.234	90.12
271.466	75.12
271.698	80.12
271.93	86.12
272.162	75.12
272.394	75.12
272.626	84.12
272.858	76.12
273.09	87.12
273.322	89.12
273.553	92.12
273.785	87.12
274.017	81.12
274.249	80.12
274.481	94.12
274.713	93.12
274.945	91.12
275.176	80.12
275.408	84.12
275.64	90.12
275.872	91.12
276.104	90.12
276.335	97.12
276.567	93.12
276.799	88.12
277.031	89.12
277.262	100.12
277.494	100.12
277.726	73.12
277.957	83.12
278.189	74.12
278.421	78.12
278.652	99.12
278.884	85.12
279.115	87.12
279.347	90.12
279.579	82.12
279.81	76.12
280.042	86.12
280.273	75.12
280.505	94.12
280.736	85.12
280.968	87.12
281.199	86.12
281.431	69.12
281.662	71.12
281.894	82.12
282.125	64.12
282.356	92.12
282.588	83.12
282.819	71.12
283.051	83.12
283.282	75.12
283.513	94.12
283.745	85.12
283.976	100.12
284.207	82.12
284.439	78.12
284.67	79.12
284.901	78.12
285.132	81.12
285.364	76.12
285.595	92.12
285.826	96.12
286.057	83.12
286.288	94.12
286.52	77.12
286.751	66.12
286.982	91.12
287.213	78.12
287.444	92.12
287.675	90.12
287.906	92.12
288.138	78.12
288.369	84.12
288.6	86.12
288.831	79.12
289.062	84.12
289.293	81.12
289.524	81.12
289.755	92.12
289.986	81.12
290.217	76.12
290.448	92.12
290.679	87.12
290.91	85.12
291.141	86.12
291.371	89.12
291.602	89.12
291.833	83.12
292.064	77.12
292.295	90.12
292.526	68.12
292.757	86.12
292.987	84.12
293.218	96.12
293.449	85.12
293.68	92.12
293.91	81.12
294.141	75.12
294.372	74.12
294.603	79.12
294.833	92.12
295.064	93.12
295.295	77.12
295.525	88.12
295.756	87.12
295.987	83.12
296.217	84.12
296.448	69.12
296.679	84.12
296.909	89.12
297.14	79.12
297.37	101.12
297.601	72.12
297.831	75.12
298.062	77.12
298.292	86.12
298.523	90.12
298.753	78.12
298.984	81.12
299.214	87.12
299.445	87.12
299.675	87.12
299.905	94.12
300.136	86.12
300.366	68.12
300.597	90.12
300.827	89.12
301.057	82.12
301.288	82.12
301.518	84.12
301.748	97.12
301.979	77.12
302.209	82.12
302.439	78.12
302.669	83.12
302.9	81.12
303.13	83.12
303.36	91.12
303.59	104.12
303.82	89.12
304.051	90.12
304.281	89.12
304.511	78.12
304.741	81.12
304.971	75.12
305.201	84.12
305.431	66.12
305.661	82.12
305.891	78.12
306.121	93.12
306.352	87.12
306.582	72.12
306.812	96.12
307.042	78.12
307.272	75.12
307.502	101.12
307.731	86.12
307.961	71.12
308.191	92.12
308.421	85.12
308.651	87.12
308.881	90.12
309.111	86.12
309.341	76.12
309.571	77.12
309.8	69.12
310.03	80.12
310.26	91.12
310.49	81.12
310.72	97.12
310.949	86.12
311.179	88.12
311.409	79.12
311.639	96.12
311.868	88.12
312.098	81.12
312.328	84.12
312.557	84.12
312.787	68.12
313.017	95.12
313.246	78.12
313.476	92.12
313.706	81.12
313.935	92.12
314.165	82.12
314.394	98.12
314.624	83.12
314.853	89.12
315.083	88.12
315.312	94.12
315.542	80.12
315.771	82.12
316.001	88.12
316.23	93.12
316.46	82.12
316.689	89.12
316.919	80.12
317.148	88.12
317.377	93.12
317.607	83.12
317.836	80.12
318.065	83.12
318.295	77.12
318.524	79.12
318.753	75.12
318.983	80.12
319.212	84.12
319.441	81.12
319.67	94.12
319.9	79.12
320.129	81.12
320.358	90.12
320.587	84.12
320.816	84.12
321.046	85.12
321.275	86.12
321.504	69.12
321.733	90.12
321.962	85.12
322.191	77.12
322.42	75.12
322.649	82.12
322.878	90.12
323.108	72.12
323.337	87.12
323.566	76.12
323.795	95.12
324.024	89.12
324.253	79.12
324.482	82.12
324.71	91.12
324.939	81.12
325.168	84.12
325.397	76.12
325.626	77.12
325.855	82.12
326.084	79.12
326.313	87.12
326.542	85.12
326.77	70.12
326.999	86.12
327.228	91.12
327.457	87.12
327.686	86.12
327.914	89.12
328.143	88.12
328.372	91.12
328.6	96.12
328.829	75.12
329.058	78.12
329.287	72.12
329.515	92.12
329.744	69.12
329.972	84.12
330.201	85.12
330.43	89.12
330.658	88.12
330.887	76.12
331.115	81.12
331.344	96.12
331.572	80.12
331.801	83.12
332.03	78.12
332.258	80.12
332.486	89.12
332.715	83.12
332.943	84.12
333.172	87.12
333.4	89.12
333.629	89.12
333.857	85.12
334.085	85.12
334.314	97.12
334.542	73.12
334.771	82.12
334.999	101.12
335.227	85.12
335.455	79.12
335.684	82.12
335.912	78.12
336.14	100.12
336.369	95.12
336.597	88.12
336.825	81.12
337.053	90.12
337.281	88.12
337.51	76.12
337.738	83.12
337.966	83.12
338.194	79.12
338.422	91.12
338.65	92.12
338.878	76.12
339.106	85.12
339.334	95.12
339.562	71.12
339.79	81.12
340.018	74.12
340.246	85.12
340.474	93.12
340.702	82.12
340.93	96.12
341.158	82.12
341.386	75.12
341.614	92.12
341.842	81.12
342.07	71.12
342.298	87.12
342.526	91.12
342.754	82.12
342.981	82.12
343.209	83.12
343.437	77.12
343.665	81.12
343.893	94.12
344.12	84.12
344.348	81.12
344.576	77.12
344.804	88.12
345.031	81.12
345.259	104.12
345.487	85.12
345.714	76.12
345.942	76.12
346.17	97.12
346.397	74.12
346.625	89.12
346.853	94.12
347.08	82.12
347.308	83.12
347.535	81.12
347.763	80.12
347.99	75.12
348.218	85.12
348.445	98.12
348.673	78.12
348.9	94.12
349.128	85.12
349.355	81.12
349.583	88.12
349.81	89.12
350.037	86.12
350.265	81.12
350.492	79.12
350.72	80.12
350.947	77.12
351.174	79.12
351.402	81.12
351.629	85.12
351.856	87.12
352.083	84.12
352.311	75.12
352.538	80.12
352.765	88.12
352.992	85.12
353.22	81.12
353.447	80.12
353.674	76.12
353.901	73.12
354.128	84.12
354.355	83.12
354.583	77.12
354.81	77.12
355.037	78.12
355.264	91.12
355.491	84.12
355.718	85.12
355.945	72.12
356.172	91.12
356.399	94.12
356.626	82.12
356.853	65.12
357.08	86.12
357.307	82.12
357.534	83.12
357.761	82.12
357.988	100.12
358.215	69.12
358.441	88.12
358.668	82.12
358.895	81.12
359.122	99.12
359.349	97.12
359.576	83.12
359.802	85.12
360.029	85.12
360.256	74.12
360.483	89.12
360.709	88.12
360.936	81.12
361.163	84.12
361.39	82.12
361.616	85.12
361.843	100.12
362.07	86.12
362.296	64.12
362.523	76.12
362.749	94.12
362.976	79.12
363.203	86.12
363.429	83.12
363.656	77.12
363.882	95.12
364.109	89.12
364.335	78.12
364.562	76.12
364.788	88.12
365.015	93.12
365.241	93.12
365.468	80.12
365.694	65.12
365.92	84.12
366.147	86.12
366.373	79.12
366.599	103.12
366.826	91.12
367.052	84.12
367.278	94.12
367.505	69.12
367.731	96.12
367.957	101.12
368.184	97.12
368.41	93.12
368.636	81.12
368.862	94.12
369.089	86.12
369.315	92.12
369.541	77.12
369.767	83.12
369.993	99.12
370.219	70.12
370.445	92.12
370.672	90.12
370.898	79.12
371.124	92.12
371.35	86.12
371.576	90.12
371.802	82.12
372.028	87.12
372.254	96.12
372.48	95.12
372.706	93.12
372.932	88.12
373.158	78.12
373.384	106.12
373.61	103.12
373.835	92.12
374.061	89.12
374.287	99.12
374.513	81.12
374.739	93.12
374.965	103.12
375.191	94.12
375.416	87.12
375.642	88.12
375.868	91.12
376.094	97.12
376.319	97.12
376.545	100.12
376.771	101.12
376.997	109.12
377.222	80.12
377.448	96.12
377.674	84.12
377.899	83.12
378.125	85.12
378.35	85.12
378.576	92.12
378.802	100.12
379.027	97.12
379.253	94.12
379.478	88.12
379.704	84.12
379.929	92.12
380.155	99.12
380.38	95.12
380.606	112.12
380.831	102.12
381.057	85.12
381.282	99.12
381.507	103.12
381.733	96.12
381.958	102.12
382.184	86.12
382.409	96.12
382.634	113.12
382.86	107.12
383.085	116.12
383.31	89.12
383.535	99.12
383.761	97.12
383.986	104.12
384.211	100.12
384.436	99.12
384.662	91.12
384.887	91.12
385.112	82.12
385.337	84.12
385.562	113.12
385.787	97.12
386.013	99.12
386.238	89.12
386.463	93.12
386.688	97.12
386.913	86.12
387.138	101.12
387.363	99.12
387.588	92.12
387.813	112.12
388.038	102.12
388.263	104.12
388.488	98.12
388.713	79.12
388.938	102.12
389.163	99.12
389.387	97.12
389.612	98.12
389.837	107.12
390.062	100.12
390.287	87.12
390.512	100.12
390.736	98.12
390.961	99.12
391.186	98.12
391.411	101.12
391.636	110.12
391.86	99.12
392.085	112.12
392.31	95.12
392.534	102.12
392.759	98.12
392.984	99.12
393.208	104.12
393.433	99.12
393.658	100.12
393.882	110.12
394.107	103.12
394.331	123.12
394.556	113.12
394.78	98.12
395.005	106.12
395.229	96.12
395.454	95.12
395.678	103.12
395.903	113.12
396.127	96.12
396.352	112.12
396.576	105.12
396.801	105.12
397.025	104.12
397.249	120.12
397.474	95.12
397.698	100.12
397.922	114.12
398.147	104.12
398.371	105.12
398.595	99.12
398.82	99.12
399.044	109.12
399.268	93.12
399.492	100.12
399.717	101.12
399.941	107.12
400.165	123.12
400.389	101.12
400.613	105.12
400.837	121.12
401.062	109.12
401.286	106.12
401.51	99.12
401.734	116.12
401.958	120.12
402.182	105.12
402.406	112.12
402.63	112.12
402.854	106.12
403.078	107.12
403.302	120.12
403.526	96.12
403.75	116.12
403.974	103.12
404.198	106.12
404.422	129.12
404.645	112.12
404.869	108.12
405.093	111.12
405.317	107.12
405.541	106.12
405.765	117.12
405.988	120.12
406.212	123.12
406.436	119.12
406.66	113.12
406.883	120.12
407.107	113.12
407.331	102.12
407.555	120.12
407.778	109.12
408.002	119.12
408.226	99.12
408.449	128.12
408.673	114.12
408.896	108.12
409.12	120.12
409.344	116.12
409.567	119.12
409.791	120.12
410.014	108.12
410.238	112.12
410.461	118.12
410.685	101.12
410.908	124.12
411.132	114.12
411.355	117.12
411.578	126.12
411.802	124.12
412.025	113.12
412.249	121.12
412.472	130.12
412.695	127.12
412.919	132.12
413.142	106.12
413.365	128.12
413.589	124.12
413.812	129.12
414.035	120.12
414.258	132.12
414.482	119.12
414.705	122.12
414.928	129.12
415.151	103.12
415.374	116.12
415.597	120.12
415.821	125.12
416.044	120.12
416.267	112.12
416.49	122.12
416.713	131.12
416.936	119.12
417.159	118.12
417.382	130.12
417.605	120.12
417.828	146.12
418.051	126.12
418.274	126.12
418.497	125.12
418.72	136.12
418.943	130.12
419.166	136.12
419.389	140.12
419.611	132.12
419.834	125.12
420.057	130.12
420.28	131.12
420.503	135.12
420.726	131.12
420.948	123.12
421.171	143.12
421.394	131.12
421.617	128.12
421.839	154.12
422.062	137.12
422.285	134.12
422.507	126.12
422.73	139.12
422.953	134.12
423.175	130.12
423.398	122.12
423.621	148.12
423.843	127.12
424.066	134.12
424.288	149.12
424.511	124.12
424.733	133.12
424.956	136.12
425.178	152.12
425.401	133.12
425.623	140.12
425.846	140.12
426.068	130.12
426.291	138.12
426.513	105.12
426.735	146.12
426.958	128.12
427.18	141.12
427.402	139.12
427.625	124.12
427.847	126.12
428.069	126.12
428.292	121.12
428.514	129.12
428.736	130.12
428.958	124.12
429.181	139.12
429.403	120.12
429.625	131.12
429.847	115.12
430.069	132.12
430.292	130.12
430.514	135.12
430.736	132.12
430.958	148.12
431.18	116.12
431.402	138.12
431.624	124.12
431.846	97.12
432.068	107.12
432.29	84.12
432.512	118.12
432.734	126.12
432.956	124.12
433.178	126.12
433.4	140.12
433.622	130.12
433.844	139.12
434.066	128.12
434.287	107.12
434.509	96.12
434.731	105.12
434.953	104.12
435.175	120.12
435.397	120.12
435.618	133.12
435.84	119.12
436.062	124.12
436.284	114.12
436.505	137.12
436.727	126.12
436.949	125.12
437.17	127.12
437.392	122.12
437.614	119.12
437.835	105.12
438.057	109.12
438.278	129.12
438.5	119.12
438.721	132.12
438.943	140.12
439.165	135.12
439.386	110.12
439.608	131.12
439.829	140.12
440.05	142.12
440.272	149.12
440.493	150.12
440.715	136.12
440.936	137.12
441.158	136.12
441.379	134.12
441.6	150.12
441.822	141.12
442.043	143.12
442.264	123.12
442.486	127.12
442.707	126.12
442.928	130.12
443.149	137.12
443.371	133.12
443.592	121.12
443.813	134.12
444.034	126.12
444.255	139.12
444.476	134.12
444.698	137.12
444.919	138.12
445.14	235.12
445.361	180.12
445.582	137.12
445.803	144.12
446.024	146.12
446.245	131.12
446.466	154.12
446.687	165.12
446.908	161.12
447.129	150.12
447.35	155.12
447.571	156.12
447.792	148.12
448.013	137.12
448.234	149.12
448.455	134.12
448.675	123.12
448.896	128.12
449.117	143.12
449.338	140.12
449.559	138.12
449.779	127.12
450	139.12
450.221	135.12
450.442	123.12
450.662	126.12
450.883	132.12
451.104	128.12
451.324	127.12
451.545	137.12
451.766	129.12
451.986	132.12
452.207	123.12
452.428	122.12
452.648	117.12
452.869	132.12
453.089	101.12
453.31	122.12
453.53	112.12
453.751	108.12
453.971	120.12
454.192	100.12
454.412	118.12
454.633	107.12
454.853	119.12
455.073	128.12
455.294	124.12
455.514	123.12
455.734	107.12
455.955	123.12
456.175	118.12
456.395	101.12
456.616	98.12
456.836	104.12
457.056	104.12
457.276	112.12
457.497	115.12
457.717	96.12
457.937	98.12
458.157	110.12
458.377	98.12
458.598	103.12
458.818	96.12
459.038	84.12
459.258	94.12
459.478	90.12
459.698	97.12
459.918	106.12
460.138	114.12
460.358	126.12
460.578	115.12
460.798	120.12
461.018	104.12
461.238	115.12
461.458	128.12
461.678	119.12
461.898	109.12
462.118	110.12
462.338	100.12
462.558	104.12
462.777	93.12
462.997	123.12
463.217	106.12
463.437	116.12
463.657	101.12
463.876	114.12
464.096	115.12
464.316	110.12
464.536	104.12
464.755	121.12
464.975	116.12
465.195	96.12
465.414	94.12
465.634	99.12
465.854	108.12
466.073	130.12
466.293	120.12
466.512	130.12
466.732	121.12
466.951	116.12
467.171	133.12
467.391	128.12
467.61	150.12
467.829	115.12
468.049	122.12
468.268	134.12
468.488	132.12
468.707	145.12
468.927	147.12
469.146	128.12
469.365	144.12
469.585	133.12
469.804	132.12
470.023	129.12
470.243	133.12
470.462	121.12
470.681	138.12
470.901	134.12
471.12	136.12
471.339	152.12
471.558	139.12
471.777	158.12
471.997	144.12
472.216	125.12
472.435	121.12
472.654	100.12
472.873	87.12
473.092	123.12
473.311	128.12
473.53	112.12
473.749	121.12
473.968	133.12
474.187	100.12
474.406	117.12
474.625	125.12
474.844	128.12
475.063	116.12
475.282	124.12
475.501	116.12
475.72	125.12
475.939	114.12
476.158	119.12
476.377	116.12
476.596	112.12
476.814	128.12
477.033	95.12
477.252	120.12
477.471	136.12
477.69	131.12
477.908	136.12
478.127	148.12
478.346	128.12
478.564	137.12
478.783	146.12
479.002	152.12
479.22	137.12
479.439	126.12
479.658	134.12
479.876	99.12
480.095	124.12
480.313	125.12
480.532	107.12
480.751	112.12
480.969	92.12
481.188	99.12
481.406	101.12
481.624	90.12
481.843	96.12
482.061	115.12
482.28	120.12
482.498	106.12
482.717	112.12
482.935	107.12
483.153	132.12
483.372	159.12
483.59	129.12
483.808	140.12
484.027	122.12
484.245	134.12
484.463	149.12
484.681	178.12
484.9	137.12
485.118	143.12
485.336	123.12
485.554	105.12
485.772	98.12
485.99	110.12
486.209	97.12
486.427	96.12
486.645	110.12
486.863	126.12
487.081	146.12
487.299	128.12
487.517	141.12
487.735	156.12
487.953	192.12
488.171	180.12
488.389	180.12
488.607	172.12
488.825	156.12
489.043	132.12
489.261	123.12
489.479	124.12
489.696	137.12
489.914	130.12
490.132	133.12
490.35	143.12
490.568	166.12
490.786	163.12
491.003	178.12
491.221	157.12
491.439	186.12
491.657	173.12
491.874	201.12
492.092	225.12
492.31	231.12
492.527	213.12
492.745	205.12
492.963	187.12
493.18	167.12
493.398	179.12
493.615	178.12
493.833	173.12
494.05	154.12
494.268	169.12
494.485	175.12
494.703	185.12
494.92	160.12
495.138	177.12
495.355	157.12
495.573	177.12
495.79	166.12
496.008	175.12
496.225	157.12
496.442	150.12
496.66	161.12
496.877	152.12
497.094	157.12
497.312	182.12
497.529	168.12
497.746	157.12
497.963	136.12
498.181	131.12
498.398	120.12
498.615	114.12
498.832	121.12
499.049	135.12
499.267	125.12
499.484	130.12
499.701	125.12
499.918	125.12
500.135	127.12
500.352	133.12
500.569	141.12
500.786	125.12
501.003	133.12
501.22	148.12
501.437	124.12
501.654	133.12
501.871	130.12
502.088	136.12
502.305	138.12
502.522	130.12
502.739	120.12
502.956	142.12
503.172	137.12
503.389	123.12
503.606	123.12
503.823	106.12
504.04	111.12
504.256	104.12
504.473	122.12
504.69	124.12
504.907	133.12
505.123	106.12
505.34	126.12
505.557	114.12
505.773	131.12
505.99	104.12
506.207	132.12
506.423	112.12
506.64	114.12
506.856	122.12
507.073	116.12
507.289	113.12
507.506	132.12
507.722	109.12
507.939	112.12
508.155	119.12
508.372	121.12
508.588	114.12
508.805	109.12
509.021	103.12
509.238	101.12
509.454	107.12
509.67	90.12
509.887	99.12
510.103	90.12
510.319	94.12
510.536	88.12
510.752	105.12
510.968	88.12
511.184	82.12
511.401	89.12
511.617	88.12
511.833	100.12
