Data from Location1.07152019.Energy5.Lamp.07192019.3%Agarose_HRD10591_14-31-31-015.txt Node
Date: Fri Jul 19 14:31:31 EDT 2019
User: cochatt
Spectrometer: HR+D1059
Trigger mode: 1
Integration Time (sec): 1.000000E-1
Scans to average: 1
Electric dark correction enabled: true
Nonlinearity correction enabled: false
Boxcar width: 0
XAxis mode: Wavelengths
Number of Pixels in Spectrum: 2048
>>>>>Begin Spectral Data<<<<<
223.165	-13.5
223.4	-13.5
223.635	-13.5
223.869	-23.5
224.104	-23.5
224.338	-7.5
224.573	-12.5
224.808	-12.5
225.042	-9.5
225.277	-5.5
225.511	12.5
225.746	8.5
225.98	14.5
226.215	9.5
226.449	22.5
226.683	4.5
226.918	18.5
227.152	17.5
227.387	47.5
227.621	35.5
227.856	35.5
228.09	46.5
228.324	50.5
228.559	58.5
228.793	63.5
229.027	57.5
229.262	61.5
229.496	71.5
229.73	73.5
229.964	79.5
230.199	70.5
230.433	74.5
230.667	85.5
230.901	85.5
231.136	68.5
231.37	84.5
231.604	81.5
231.838	86.5
232.072	86.5
232.306	80.5
232.541	77.5
232.775	77.5
233.009	87.5
233.243	72.5
233.477	86.5
233.711	86.5
233.945	71.5
234.179	73.5
234.413	77.5
234.647	75.5
234.881	86.5
235.115	71.5
235.349	89.5
235.583	75.5
235.817	91.5
236.051	77.5
236.285	76.5
236.519	86.5
236.753	75.5
236.987	85.5
237.221	70.5
237.455	75.5
237.689	84.5
237.922	78.5
238.156	73.5
238.39	63.5
238.624	63.5
238.858	80.5
239.091	91.5
239.325	64.5
239.559	89.5
239.793	66.5
240.027	67.5
240.26	72.5
240.494	85.5
240.728	85.5
240.961	79.5
241.195	66.5
241.429	84.5
241.662	85.5
241.896	73.5
242.13	70.5
242.363	74.5
242.597	79.5
242.83	65.5
243.064	76.5
243.298	87.5
243.531	75.5
243.765	79.5
243.998	76.5
244.232	86.5
244.465	69.5
244.699	78.5
244.932	85.5
245.166	73.5
245.399	75.5
245.633	77.5
245.866	72.5
246.099	84.5
246.333	82.5
246.566	67.5
246.8	74.5
247.033	78.5
247.266	69.5
247.5	79.5
247.733	77.5
247.966	70.5
248.2	79.5
248.433	81.5
248.666	73.5
248.899	87.5
249.133	86.5
249.366	76.5
249.599	88.5
249.832	76.5
250.066	83.5
250.299	84.5
250.532	72.5
250.765	82.5
250.998	87.5
251.231	98.5
251.465	94.5
251.698	77.5
251.931	79.5
252.164	76.5
252.397	79.5
252.63	86.5
252.863	84.5
253.096	95.5
253.329	82.5
253.562	77.5
253.795	89.5
254.028	86.5
254.261	81.5
254.494	88.5
254.727	83.5
254.96	78.5
255.193	79.5
255.426	88.5
255.659	91.5
255.892	80.5
256.124	78.5
256.357	90.5
256.59	85.5
256.823	77.5
257.056	81.5
257.289	83.5
257.521	87.5
257.754	85.5
257.987	80.5
258.22	77.5
258.452	86.5
258.685	80.5
258.918	80.5
259.151	86.5
259.383	78.5
259.616	58.5
259.849	88.5
260.081	83.5
260.314	78.5
260.547	76.5
260.779	86.5
261.012	68.5
261.244	89.5
261.477	80.5
261.71	78.5
261.942	88.5
262.175	74.5
262.407	83.5
262.64	73.5
262.872	84.5
263.105	92.5
263.337	86.5
263.57	83.5
263.802	70.5
264.035	71.5
264.267	82.5
264.499	90.5
264.732	94.5
264.964	91.5
265.197	83.5
265.429	74.5
265.661	83.5
265.894	85.5
266.126	77.5
266.358	89.5
266.591	80.5
266.823	86.5
267.055	68.5
267.287	90.5
267.52	72.5
267.752	74.5
267.984	82.5
268.216	79.5
268.448	80.5
268.681	78.5
268.913	81.5
269.145	88.5
269.377	85.5
269.609	70.5
269.841	87.5
270.073	89.5
270.306	76.5
270.538	75.5
270.77	83.5
271.002	92.5
271.234	89.5
271.466	87.5
271.698	83.5
271.93	83.5
272.162	86.5
272.394	81.5
272.626	83.5
272.858	93.5
273.09	81.5
273.322	80.5
273.553	87.5
273.785	73.5
274.017	100.5
274.249	89.5
274.481	70.5
274.713	88.5
274.945	77.5
275.176	89.5
275.408	91.5
275.64	86.5
275.872	76.5
276.104	81.5
276.335	67.5
276.567	75.5
276.799	77.5
277.031	89.5
277.262	93.5
277.494	90.5
277.726	73.5
277.957	77.5
278.189	90.5
278.421	83.5
278.652	80.5
278.884	83.5
279.115	92.5
279.347	79.5
279.579	90.5
279.81	89.5
280.042	91.5
280.273	65.5
280.505	94.5
280.736	102.5
280.968	90.5
281.199	74.5
281.431	86.5
281.662	87.5
281.894	91.5
282.125	85.5
282.356	80.5
282.588	73.5
282.819	84.5
283.051	98.5
283.282	87.5
283.513	79.5
283.745	79.5
283.976	86.5
284.207	76.5
284.439	83.5
284.67	75.5
284.901	88.5
285.132	90.5
285.364	86.5
285.595	76.5
285.826	78.5
286.057	75.5
286.288	84.5
286.52	78.5
286.751	79.5
286.982	89.5
287.213	86.5
287.444	90.5
287.675	80.5
287.906	78.5
288.138	100.5
288.369	92.5
288.6	81.5
288.831	92.5
289.062	86.5
289.293	92.5
289.524	98.5
289.755	84.5
289.986	80.5
290.217	90.5
290.448	81.5
290.679	97.5
290.91	86.5
291.141	81.5
291.371	82.5
291.602	73.5
291.833	75.5
292.064	92.5
292.295	80.5
292.526	79.5
292.757	93.5
292.987	72.5
293.218	97.5
293.449	90.5
293.68	89.5
293.91	86.5
294.141	89.5
294.372	84.5
294.603	76.5
294.833	78.5
295.064	77.5
295.295	87.5
295.525	90.5
295.756	83.5
295.987	75.5
296.217	83.5
296.448	77.5
296.679	78.5
296.909	79.5
297.14	87.5
297.37	72.5
297.601	79.5
297.831	86.5
298.062	90.5
298.292	103.5
298.523	90.5
298.753	84.5
298.984	90.5
299.214	87.5
299.445	95.5
299.675	80.5
299.905	93.5
300.136	86.5
300.366	84.5
300.597	78.5
300.827	73.5
301.057	82.5
301.288	83.5
301.518	97.5
301.748	75.5
301.979	85.5
302.209	79.5
302.439	91.5
302.669	93.5
302.9	87.5
303.13	83.5
303.36	89.5
303.59	82.5
303.82	86.5
304.051	79.5
304.281	85.5
304.511	90.5
304.741	85.5
304.971	80.5
305.201	74.5
305.431	80.5
305.661	83.5
305.891	86.5
306.121	83.5
306.352	78.5
306.582	78.5
306.812	83.5
307.042	98.5
307.272	88.5
307.502	82.5
307.731	82.5
307.961	87.5
308.191	89.5
308.421	78.5
308.651	86.5
308.881	87.5
309.111	83.5
309.341	94.5
309.571	87.5
309.8	83.5
310.03	84.5
310.26	84.5
310.49	79.5
310.72	78.5
310.949	96.5
311.179	86.5
311.409	90.5
311.639	78.5
311.868	96.5
312.098	93.5
312.328	92.5
312.557	94.5
312.787	86.5
313.017	83.5
313.246	76.5
313.476	85.5
313.706	77.5
313.935	85.5
314.165	98.5
314.394	84.5
314.624	91.5
314.853	85.5
315.083	94.5
315.312	87.5
315.542	79.5
315.771	91.5
316.001	89.5
316.23	95.5
316.46	83.5
316.689	96.5
316.919	89.5
317.148	84.5
317.377	89.5
317.607	98.5
317.836	87.5
318.065	90.5
318.295	82.5
318.524	88.5
318.753	88.5
318.983	85.5
319.212	92.5
319.441	90.5
319.67	79.5
319.9	82.5
320.129	78.5
320.358	80.5
320.587	79.5
320.816	76.5
321.046	102.5
321.275	96.5
321.504	87.5
321.733	84.5
321.962	90.5
322.191	77.5
322.42	59.5
322.649	68.5
322.878	85.5
323.108	98.5
323.337	87.5
323.566	86.5
323.795	83.5
324.024	89.5
324.253	87.5
324.482	93.5
324.71	79.5
324.939	86.5
325.168	82.5
325.397	90.5
325.626	95.5
325.855	99.5
326.084	84.5
326.313	79.5
326.542	78.5
326.77	102.5
326.999	95.5
327.228	92.5
327.457	93.5
327.686	87.5
327.914	98.5
328.143	82.5
328.372	78.5
328.6	83.5
328.829	96.5
329.058	85.5
329.287	80.5
329.515	75.5
329.744	93.5
329.972	79.5
330.201	86.5
330.43	87.5
330.658	86.5
330.887	86.5
331.115	96.5
331.344	91.5
331.572	83.5
331.801	86.5
332.03	82.5
332.258	89.5
332.486	83.5
332.715	90.5
332.943	79.5
333.172	95.5
333.4	80.5
333.629	69.5
333.857	90.5
334.085	68.5
334.314	84.5
334.542	85.5
334.771	79.5
334.999	90.5
335.227	95.5
335.455	96.5
335.684	94.5
335.912	83.5
336.14	90.5
336.369	87.5
336.597	73.5
336.825	78.5
337.053	79.5
337.281	90.5
337.51	67.5
337.738	93.5
337.966	65.5
338.194	78.5
338.422	85.5
338.65	86.5
338.878	78.5
339.106	89.5
339.334	82.5
339.562	93.5
339.79	76.5
340.018	93.5
340.246	91.5
340.474	57.5
340.702	79.5
340.93	86.5
341.158	94.5
341.386	94.5
341.614	105.5
341.842	85.5
342.07	80.5
342.298	79.5
342.526	96.5
342.754	80.5
342.981	95.5
343.209	75.5
343.437	89.5
343.665	70.5
343.893	82.5
344.12	84.5
344.348	88.5
344.576	74.5
344.804	91.5
345.031	84.5
345.259	79.5
345.487	74.5
345.714	93.5
345.942	100.5
346.17	95.5
346.397	93.5
346.625	79.5
346.853	87.5
347.08	78.5
347.308	73.5
347.535	72.5
347.763	86.5
347.99	88.5
348.218	93.5
348.445	90.5
348.673	90.5
348.9	91.5
349.128	84.5
349.355	77.5
349.583	87.5
349.81	80.5
350.037	86.5
350.265	75.5
350.492	78.5
350.72	75.5
350.947	77.5
351.174	80.5
351.402	78.5
351.629	77.5
351.856	83.5
352.083	88.5
352.311	96.5
352.538	96.5
352.765	79.5
352.992	94.5
353.22	94.5
353.447	85.5
353.674	86.5
353.901	78.5
354.128	84.5
354.355	87.5
354.583	74.5
354.81	90.5
355.037	93.5
355.264	74.5
355.491	91.5
355.718	91.5
355.945	99.5
356.172	80.5
356.399	88.5
356.626	86.5
356.853	87.5
357.08	90.5
357.307	86.5
357.534	83.5
357.761	68.5
357.988	88.5
358.215	89.5
358.441	107.5
358.668	86.5
358.895	82.5
359.122	73.5
359.349	69.5
359.576	83.5
359.802	71.5
360.029	74.5
360.256	85.5
360.483	79.5
360.709	86.5
360.936	92.5
361.163	78.5
361.39	74.5
361.616	80.5
361.843	77.5
362.07	84.5
362.296	86.5
362.523	99.5
362.749	74.5
362.976	72.5
363.203	78.5
363.429	90.5
363.656	95.5
363.882	95.5
364.109	88.5
364.335	83.5
364.562	90.5
364.788	80.5
365.015	98.5
365.241	77.5
365.468	84.5
365.694	86.5
365.92	83.5
366.147	82.5
366.373	83.5
366.599	89.5
366.826	85.5
367.052	87.5
367.278	90.5
367.505	85.5
367.731	91.5
367.957	88.5
368.184	89.5
368.41	100.5
368.636	90.5
368.862	105.5
369.089	85.5
369.315	85.5
369.541	72.5
369.767	100.5
369.993	79.5
370.219	82.5
370.445	73.5
370.672	79.5
370.898	83.5
371.124	100.5
371.35	87.5
371.576	85.5
371.802	92.5
372.028	98.5
372.254	86.5
372.48	82.5
372.706	89.5
372.932	88.5
373.158	89.5
373.384	91.5
373.61	92.5
373.835	86.5
374.061	92.5
374.287	90.5
374.513	108.5
374.739	109.5
374.965	95.5
375.191	101.5
375.416	100.5
375.642	90.5
375.868	118.5
376.094	86.5
376.319	106.5
376.545	103.5
376.771	92.5
376.997	95.5
377.222	83.5
377.448	105.5
377.674	96.5
377.899	89.5
378.125	78.5
378.35	89.5
378.576	82.5
378.802	90.5
379.027	97.5
379.253	92.5
379.478	84.5
379.704	99.5
379.929	107.5
380.155	79.5
380.38	81.5
380.606	79.5
380.831	103.5
381.057	91.5
381.282	90.5
381.507	91.5
381.733	93.5
381.958	91.5
382.184	96.5
382.409	96.5
382.634	86.5
382.86	101.5
383.085	99.5
383.31	92.5
383.535	94.5
383.761	95.5
383.986	86.5
384.211	88.5
384.436	92.5
384.662	101.5
384.887	94.5
385.112	102.5
385.337	103.5
385.562	105.5
385.787	89.5
386.013	105.5
386.238	98.5
386.463	93.5
386.688	87.5
386.913	89.5
387.138	101.5
387.363	86.5
387.588	91.5
387.813	97.5
388.038	93.5
388.263	112.5
388.488	94.5
388.713	108.5
388.938	104.5
389.163	100.5
389.387	82.5
389.612	97.5
389.837	99.5
390.062	95.5
390.287	98.5
390.512	99.5
390.736	115.5
390.961	98.5
391.186	99.5
391.411	96.5
391.636	95.5
391.86	107.5
392.085	108.5
392.31	79.5
392.534	114.5
392.759	122.5
392.984	102.5
393.208	107.5
393.433	113.5
393.658	116.5
393.882	106.5
394.107	107.5
394.331	94.5
394.556	104.5
394.78	105.5
395.005	101.5
395.229	110.5
395.454	108.5
395.678	117.5
395.903	99.5
396.127	106.5
396.352	117.5
396.576	108.5
396.801	102.5
397.025	104.5
397.249	117.5
397.474	105.5
397.698	111.5
397.922	113.5
398.147	95.5
398.371	112.5
398.595	109.5
398.82	101.5
399.044	112.5
399.268	107.5
399.492	119.5
399.717	112.5
399.941	106.5
400.165	111.5
400.389	93.5
400.613	109.5
400.837	100.5
401.062	120.5
401.286	109.5
401.51	124.5
401.734	114.5
401.958	114.5
402.182	111.5
402.406	102.5
402.63	104.5
402.854	106.5
403.078	118.5
403.302	123.5
403.526	114.5
403.75	114.5
403.974	118.5
404.198	101.5
404.422	112.5
404.645	112.5
404.869	112.5
405.093	129.5
405.317	108.5
405.541	130.5
405.765	123.5
405.988	115.5
406.212	134.5
406.436	124.5
406.66	124.5
406.883	136.5
407.107	122.5
407.331	112.5
407.555	124.5
407.778	118.5
408.002	112.5
408.226	118.5
408.449	126.5
408.673	123.5
408.896	114.5
409.12	108.5
409.344	118.5
409.567	118.5
409.791	114.5
410.014	122.5
410.238	117.5
410.461	126.5
410.685	123.5
410.908	134.5
411.132	132.5
411.355	132.5
411.578	124.5
411.802	106.5
412.025	122.5
412.249	100.5
412.472	114.5
412.695	128.5
412.919	120.5
413.142	127.5
413.365	128.5
413.589	125.5
413.812	134.5
414.035	136.5
414.258	114.5
414.482	123.5
414.705	130.5
414.928	111.5
415.151	114.5
415.374	110.5
415.597	124.5
415.821	118.5
416.044	109.5
416.267	119.5
416.49	126.5
416.713	127.5
416.936	117.5
417.159	134.5
417.382	131.5
417.605	124.5
417.828	130.5
418.051	119.5
418.274	137.5
418.497	136.5
418.72	137.5
418.943	148.5
419.166	138.5
419.389	129.5
419.611	121.5
419.834	125.5
420.057	133.5
420.28	134.5
420.503	122.5
420.726	124.5
420.948	126.5
421.171	146.5
421.394	139.5
421.617	140.5
421.839	153.5
422.062	137.5
422.285	125.5
422.507	134.5
422.73	123.5
422.953	125.5
423.175	98.5
423.398	124.5
423.621	127.5
423.843	128.5
424.066	148.5
424.288	141.5
424.511	140.5
424.733	143.5
424.956	130.5
425.178	130.5
425.401	146.5
425.623	132.5
425.846	105.5
426.068	140.5
426.291	133.5
426.513	130.5
426.735	145.5
426.958	127.5
427.18	129.5
427.402	130.5
427.625	122.5
427.847	125.5
428.069	136.5
428.292	116.5
428.514	115.5
428.736	126.5
428.958	122.5
429.181	126.5
429.403	123.5
429.625	114.5
429.847	120.5
430.069	126.5
430.292	133.5
430.514	124.5
430.736	123.5
430.958	124.5
431.18	118.5
431.402	130.5
431.624	118.5
431.846	96.5
432.068	80.5
432.29	94.5
432.512	112.5
432.734	133.5
432.956	128.5
433.178	128.5
433.4	120.5
433.622	145.5
433.844	134.5
434.066	114.5
434.287	118.5
434.509	99.5
434.731	80.5
434.953	94.5
435.175	116.5
435.397	130.5
435.618	122.5
435.84	110.5
436.062	119.5
436.284	117.5
436.505	112.5
436.727	120.5
436.949	129.5
437.17	130.5
437.392	125.5
437.614	117.5
437.835	107.5
438.057	111.5
438.278	122.5
438.5	111.5
438.721	123.5
438.943	142.5
439.165	146.5
439.386	143.5
439.608	152.5
439.829	135.5
440.05	159.5
440.272	142.5
440.493	141.5
440.715	149.5
440.936	127.5
441.158	152.5
441.379	137.5
441.6	159.5
441.822	146.5
442.043	140.5
442.264	136.5
442.486	135.5
442.707	143.5
442.928	129.5
443.149	149.5
443.371	128.5
443.592	142.5
443.813	143.5
444.034	148.5
444.255	135.5
444.476	135.5
444.698	138.5
444.919	166.5
445.14	267.5
445.361	200.5
445.582	157.5
445.803	144.5
446.024	158.5
446.245	143.5
446.466	144.5
446.687	152.5
446.908	160.5
447.129	152.5
447.35	137.5
447.571	142.5
447.792	147.5
448.013	148.5
448.234	134.5
448.455	145.5
448.675	151.5
448.896	140.5
449.117	136.5
449.338	125.5
449.559	138.5
449.779	120.5
450	140.5
450.221	146.5
450.442	150.5
450.662	142.5
450.883	141.5
451.104	127.5
451.324	114.5
451.545	126.5
451.766	125.5
451.986	125.5
452.207	122.5
452.428	130.5
452.648	132.5
452.869	124.5
453.089	111.5
453.31	125.5
453.53	98.5
453.751	97.5
453.971	123.5
454.192	108.5
454.412	109.5
454.633	118.5
454.853	120.5
455.073	132.5
455.294	110.5
455.514	116.5
455.734	130.5
455.955	124.5
456.175	109.5
456.395	105.5
456.616	112.5
456.836	119.5
457.056	115.5
457.276	95.5
457.497	105.5
457.717	104.5
457.937	116.5
458.157	97.5
458.377	102.5
458.598	93.5
458.818	88.5
459.038	83.5
459.258	91.5
459.478	94.5
459.698	98.5
459.918	99.5
460.138	118.5
460.358	101.5
460.578	112.5
460.798	112.5
461.018	119.5
461.238	105.5
461.458	120.5
461.678	117.5
461.898	104.5
462.118	125.5
462.338	107.5
462.558	103.5
462.777	108.5
462.997	124.5
463.217	114.5
463.437	108.5
463.657	117.5
463.876	104.5
464.096	99.5
464.316	116.5
464.536	107.5
464.755	113.5
464.975	99.5
465.195	114.5
465.414	110.5
465.634	120.5
465.854	113.5
466.073	134.5
466.293	104.5
466.512	127.5
466.732	114.5
466.951	120.5
467.171	132.5
467.391	142.5
467.61	131.5
467.829	133.5
468.049	133.5
468.268	137.5
468.488	134.5
468.707	128.5
468.927	141.5
469.146	138.5
469.365	134.5
469.585	142.5
469.804	137.5
470.023	142.5
470.243	134.5
470.462	146.5
470.681	137.5
470.901	141.5
471.12	142.5
471.339	128.5
471.558	141.5
471.777	124.5
471.997	136.5
472.216	139.5
472.435	131.5
472.654	107.5
472.873	111.5
473.092	107.5
473.311	121.5
473.53	128.5
473.749	117.5
473.968	124.5
474.187	118.5
474.406	103.5
474.625	126.5
474.844	129.5
475.063	132.5
475.282	103.5
475.501	108.5
475.72	131.5
475.939	121.5
476.158	130.5
476.377	133.5
476.596	127.5
476.814	118.5
477.033	106.5
477.252	99.5
477.471	126.5
477.69	134.5
477.908	124.5
478.127	130.5
478.346	122.5
478.564	126.5
478.783	130.5
479.002	140.5
479.22	146.5
479.439	128.5
479.658	118.5
479.876	110.5
480.095	109.5
480.313	122.5
480.532	122.5
480.751	119.5
480.969	94.5
481.188	83.5
481.406	67.5
481.624	78.5
481.843	80.5
482.061	93.5
482.28	108.5
482.498	114.5
482.717	108.5
482.935	119.5
483.153	127.5
483.372	152.5
483.59	154.5
483.808	135.5
484.027	130.5
484.245	128.5
484.463	158.5
484.681	141.5
484.9	147.5
485.118	140.5
485.336	136.5
485.554	123.5
485.772	107.5
485.99	96.5
486.209	104.5
486.427	107.5
486.645	123.5
486.863	137.5
487.081	153.5
487.299	138.5
487.517	150.5
487.735	151.5
487.953	182.5
488.171	180.5
488.389	167.5
488.607	164.5
488.825	117.5
489.043	136.5
489.261	143.5
489.479	131.5
489.696	155.5
489.914	122.5
490.132	142.5
490.35	151.5
490.568	151.5
490.786	151.5
491.003	191.5
491.221	171.5
491.439	175.5
491.657	189.5
491.874	216.5
492.092	223.5
492.31	224.5
492.527	225.5
492.745	198.5
492.963	191.5
493.18	180.5
493.398	184.5
493.615	188.5
493.833	179.5
494.05	163.5
494.268	186.5
494.485	157.5
494.703	174.5
494.92	181.5
495.138	167.5
495.355	163.5
495.573	173.5
495.79	167.5
496.008	179.5
496.225	149.5
496.442	173.5
496.66	176.5
496.877	147.5
497.094	164.5
497.312	164.5
497.529	153.5
497.746	150.5
497.963	148.5
498.181	136.5
498.398	119.5
498.615	119.5
498.832	112.5
499.049	116.5
499.267	118.5
499.484	127.5
499.701	132.5
499.918	125.5
500.135	142.5
500.352	138.5
500.569	150.5
500.786	142.5
501.003	135.5
501.22	144.5
501.437	130.5
501.654	141.5
501.871	130.5
502.088	130.5
502.305	143.5
502.522	126.5
502.739	130.5
502.956	134.5
503.172	140.5
503.389	120.5
503.606	99.5
503.823	93.5
504.04	107.5
504.256	104.5
504.473	120.5
504.69	108.5
504.907	118.5
505.123	138.5
505.34	123.5
505.557	131.5
505.773	123.5
505.99	119.5
506.207	111.5
506.423	112.5
506.64	139.5
506.856	115.5
507.073	122.5
507.289	110.5
507.506	117.5
507.722	118.5
507.939	98.5
508.155	120.5
508.372	105.5
508.588	104.5
508.805	118.5
509.021	124.5
509.238	112.5
509.454	112.5
509.67	98.5
509.887	86.5
510.103	108.5
510.319	91.5
510.536	98.5
510.752	87.5
510.968	70.5
511.184	78.5
511.401	79.5
511.617	72.5
511.833	97.5
512.049	94.5
512.265	116.5
512.481	78.5
512.698	90.5
512.914	90.5
513.13	86.5
513.346	90.5
513.562	94.5
513.778	90.5
513.994	92.5
514.21	92.5
514.426	80.5
514.642	92.5
514.858	93.5
515.074	84.5
515.29	84.5
515.506	90.5
515.721	86.5
515.937	88.5
516.153	79.5
516.369	71.5
516.585	96.5
516.801	85.5
517.016	91.5
517.232	86.5
517.448	94.5
517.664	92.5
517.879	112.5
518.095	111.5
518.311	98.5
518.527	91.5
518.742	109.5
518.958	92.5
519.173	107.5
519.389	105.5
519.605	110.5
519.82	101.5
520.036	110.5
520.251	122.5
520.467	101.5
520.682	92.5
520.898	79.5
521.113	87.5
521.329	83.5
521.544	92.5
521.76	103.5
521.975	95.5
522.19	117.5
522.406	105.5
522.621	109.5
522.836	98.5
523.052	102.5
523.267	93.5
523.482	111.5
523.698	109.5
523.913	104.5
524.128	122.5
524.343	120.5
524.559	107.5
524.774	112.5
524.989	114.5
525.204	118.5
525.419	119.5
525.634	101.5
525.849	103.5
526.064	101.5
526.28	88.5
526.495	86.5
526.71	79.5
526.925	76.5
527.14	92.5
527.355	83.5
527.57	99.5
527.785	81.5
527.999	101.5
528.214	115.5
528.429	122.5
528.644	124.5
528.859	116.5
529.074	150.5
529.289	178.5
529.503	158.5
529.718	136.5
529.933	119.5
530.148	100.5
530.363	98.5
530.577	88.5
530.792	86.5
531.007	80.5
