Data from Location1.07152019.Energy5.Lamp.07192019.3%Agarose_HRD10591_14-33-02-015.txt Node
Date: Fri Jul 19 14:33:02 EDT 2019
User: cochatt
Spectrometer: HR+D1059
Trigger mode: 1
Integration Time (sec): 1.000000E-1
Scans to average: 1
Electric dark correction enabled: true
Nonlinearity correction enabled: false
Boxcar width: 0
XAxis mode: Wavelengths
Number of Pixels in Spectrum: 2048
>>>>>Begin Spectral Data<<<<<
223.165	-11.31
223.4	-11.31
223.635	-11.31
223.869	3.69
224.104	-18.31
224.338	-7.31
224.573	-28.31
224.808	-9.31
225.042	1.69
225.277	4.69
225.511	-13.31
225.746	-2.31
225.98	-5.31
226.215	9.69
226.449	7.69
226.683	17.69
226.918	29.69
227.152	20.69
227.387	29.69
227.621	46.69
227.856	48.69
228.09	39.69
228.324	26.69
228.559	55.69
228.793	57.69
229.027	61.69
229.262	53.69
229.496	48.69
229.73	59.69
229.964	65.69
230.199	68.69
230.433	69.69
230.667	83.69
230.901	82.69
231.136	71.69
231.37	77.69
231.604	79.69
231.838	79.69
232.072	73.69
232.306	62.69
232.541	72.69
232.775	80.69
233.009	74.69
233.243	74.69
233.477	83.69
233.711	89.69
233.945	77.69
234.179	72.69
234.413	82.69
234.647	73.69
234.881	91.69
235.115	86.69
235.349	87.69
235.583	58.69
235.817	71.69
236.051	68.69
236.285	72.69
236.519	76.69
236.753	70.69
236.987	86.69
237.221	73.69
237.455	68.69
237.689	62.69
237.922	78.69
238.156	78.69
238.39	65.69
238.624	73.69
238.858	84.69
239.091	78.69
239.325	74.69
239.559	65.69
239.793	62.69
240.027	82.69
240.26	73.69
240.494	75.69
240.728	58.69
240.961	72.69
241.195	75.69
241.429	74.69
241.662	84.69
241.896	72.69
242.13	69.69
242.363	85.69
242.597	75.69
242.83	87.69
243.064	75.69
243.298	54.69
243.531	68.69
243.765	76.69
243.998	64.69
244.232	85.69
244.465	76.69
244.699	78.69
244.932	76.69
245.166	71.69
245.399	74.69
245.633	82.69
245.866	77.69
246.099	70.69
246.333	88.69
246.566	76.69
246.8	73.69
247.033	66.69
247.266	72.69
247.5	76.69
247.733	93.69
247.966	73.69
248.2	80.69
248.433	74.69
248.666	83.69
248.899	69.69
249.133	72.69
249.366	83.69
249.599	74.69
249.832	81.69
250.066	75.69
250.299	73.69
250.532	82.69
250.765	72.69
250.998	74.69
251.231	75.69
251.465	77.69
251.698	78.69
251.931	70.69
252.164	69.69
252.397	78.69
252.63	100.69
252.863	88.69
253.096	74.69
253.329	68.69
253.562	77.69
253.795	86.69
254.028	73.69
254.261	60.69
254.494	82.69
254.727	79.69
254.96	62.69
255.193	75.69
255.426	72.69
255.659	64.69
255.892	68.69
256.124	69.69
256.357	62.69
256.59	82.69
256.823	71.69
257.056	77.69
257.289	78.69
257.521	68.69
257.754	71.69
257.987	63.69
258.22	74.69
258.452	85.69
258.685	82.69
258.918	68.69
259.151	79.69
259.383	81.69
259.616	70.69
259.849	79.69
260.081	78.69
260.314	86.69
260.547	76.69
260.779	70.69
261.012	70.69
261.244	70.69
261.477	75.69
261.71	70.69
261.942	88.69
262.175	70.69
262.407	68.69
262.64	71.69
262.872	82.69
263.105	80.69
263.337	70.69
263.57	65.69
263.802	94.69
264.035	85.69
264.267	78.69
264.499	71.69
264.732	73.69
264.964	84.69
265.197	80.69
265.429	74.69
265.661	78.69
265.894	84.69
266.126	82.69
266.358	66.69
266.591	94.69
266.823	87.69
267.055	87.69
267.287	80.69
267.52	75.69
267.752	83.69
267.984	81.69
268.216	68.69
268.448	80.69
268.681	86.69
268.913	78.69
269.145	83.69
269.377	78.69
269.609	70.69
269.841	87.69
270.073	77.69
270.306	80.69
270.538	74.69
270.77	85.69
271.002	79.69
271.234	81.69
271.466	78.69
271.698	69.69
271.93	81.69
272.162	86.69
272.394	75.69
272.626	83.69
272.858	85.69
273.09	73.69
273.322	89.69
273.553	76.69
273.785	77.69
274.017	80.69
274.249	77.69
274.481	75.69
274.713	73.69
274.945	66.69
275.176	69.69
275.408	75.69
275.64	73.69
275.872	68.69
276.104	60.69
276.335	85.69
276.567	75.69
276.799	76.69
277.031	88.69
277.262	68.69
277.494	70.69
277.726	80.69
277.957	74.69
278.189	89.69
278.421	68.69
278.652	82.69
278.884	79.69
279.115	77.69
279.347	71.69
279.579	72.69
279.81	85.69
280.042	76.69
280.273	74.69
280.505	72.69
280.736	67.69
280.968	68.69
281.199	68.69
281.431	80.69
281.662	82.69
281.894	73.69
282.125	68.69
282.356	78.69
282.588	83.69
282.819	84.69
283.051	83.69
283.282	68.69
283.513	67.69
283.745	89.69
283.976	74.69
284.207	93.69
284.439	81.69
284.67	74.69
284.901	66.69
285.132	96.69
285.364	80.69
285.595	92.69
285.826	74.69
286.057	81.69
286.288	90.69
286.52	70.69
286.751	75.69
286.982	64.69
287.213	77.69
287.444	78.69
287.675	74.69
287.906	72.69
288.138	64.69
288.369	81.69
288.6	84.69
288.831	74.69
289.062	97.69
289.293	77.69
289.524	74.69
289.755	85.69
289.986	86.69
290.217	76.69
290.448	85.69
290.679	66.69
290.91	80.69
291.141	73.69
291.371	77.69
291.602	88.69
291.833	82.69
292.064	69.69
292.295	73.69
292.526	61.69
292.757	75.69
292.987	86.69
293.218	68.69
293.449	73.69
293.68	88.69
293.91	77.69
294.141	91.69
294.372	67.69
294.603	81.69
294.833	74.69
295.064	88.69
295.295	92.69
295.525	80.69
295.756	81.69
295.987	77.69
296.217	71.69
296.448	74.69
296.679	84.69
296.909	80.69
297.14	85.69
297.37	81.69
297.601	86.69
297.831	89.69
298.062	83.69
298.292	83.69
298.523	84.69
298.753	74.69
298.984	75.69
299.214	81.69
299.445	72.69
299.675	92.69
299.905	79.69
300.136	71.69
300.366	74.69
300.597	69.69
300.827	72.69
301.057	86.69
301.288	73.69
301.518	86.69
301.748	81.69
301.979	86.69
302.209	82.69
302.439	80.69
302.669	86.69
302.9	74.69
303.13	66.69
303.36	74.69
303.59	83.69
303.82	89.69
304.051	90.69
304.281	80.69
304.511	70.69
304.741	80.69
304.971	78.69
305.201	79.69
305.431	86.69
305.661	93.69
305.891	71.69
306.121	77.69
306.352	65.69
306.582	74.69
306.812	75.69
307.042	88.69
307.272	70.69
307.502	89.69
307.731	79.69
307.961	65.69
308.191	73.69
308.421	73.69
308.651	82.69
308.881	72.69
309.111	68.69
309.341	81.69
309.571	74.69
309.8	74.69
310.03	75.69
310.26	85.69
310.49	79.69
310.72	78.69
310.949	85.69
311.179	71.69
311.409	76.69
311.639	83.69
311.868	82.69
312.098	85.69
312.328	84.69
312.557	79.69
312.787	70.69
313.017	75.69
313.246	85.69
313.476	77.69
313.706	66.69
313.935	84.69
314.165	75.69
314.394	70.69
314.624	66.69
314.853	80.69
315.083	78.69
315.312	81.69
315.542	67.69
315.771	76.69
316.001	83.69
316.23	74.69
316.46	85.69
316.689	82.69
316.919	93.69
317.148	80.69
317.377	73.69
317.607	90.69
317.836	85.69
318.065	96.69
318.295	74.69
318.524	84.69
318.753	82.69
318.983	70.69
319.212	85.69
319.441	79.69
319.67	83.69
319.9	93.69
320.129	86.69
320.358	83.69
320.587	76.69
320.816	68.69
321.046	81.69
321.275	99.69
321.504	87.69
321.733	78.69
321.962	89.69
322.191	86.69
322.42	82.69
322.649	84.69
322.878	83.69
323.108	81.69
323.337	84.69
323.566	82.69
323.795	80.69
324.024	92.69
324.253	89.69
324.482	81.69
324.71	78.69
324.939	80.69
325.168	94.69
325.397	80.69
325.626	74.69
325.855	81.69
326.084	72.69
326.313	86.69
326.542	88.69
326.77	77.69
326.999	84.69
327.228	86.69
327.457	86.69
327.686	93.69
327.914	75.69
328.143	67.69
328.372	85.69
328.6	74.69
328.829	80.69
329.058	86.69
329.287	72.69
329.515	70.69
329.744	70.69
329.972	65.69
330.201	74.69
330.43	63.69
330.658	82.69
330.887	62.69
331.115	71.69
331.344	76.69
331.572	76.69
331.801	89.69
332.03	80.69
332.258	80.69
332.486	83.69
332.715	72.69
332.943	81.69
333.172	73.69
333.4	69.69
333.629	65.69
333.857	92.69
334.085	67.69
334.314	76.69
334.542	90.69
334.771	78.69
334.999	82.69
335.227	73.69
335.455	83.69
335.684	81.69
335.912	66.69
336.14	62.69
336.369	91.69
336.597	74.69
336.825	94.69
337.053	85.69
337.281	76.69
337.51	87.69
337.738	71.69
337.966	82.69
338.194	87.69
338.422	83.69
338.65	83.69
338.878	84.69
339.106	86.69
339.334	78.69
339.562	87.69
339.79	80.69
340.018	80.69
340.246	78.69
340.474	67.69
340.702	72.69
340.93	78.69
341.158	74.69
341.386	86.69
341.614	73.69
341.842	85.69
342.07	67.69
342.298	78.69
342.526	96.69
342.754	96.69
342.981	90.69
343.209	92.69
343.437	101.69
343.665	76.69
343.893	77.69
344.12	89.69
344.348	80.69
344.576	71.69
344.804	78.69
345.031	80.69
345.259	82.69
345.487	71.69
345.714	82.69
345.942	79.69
346.17	69.69
346.397	62.69
346.625	75.69
346.853	85.69
347.08	75.69
347.308	91.69
347.535	89.69
347.763	83.69
347.99	78.69
348.218	85.69
348.445	87.69
348.673	74.69
348.9	81.69
349.128	74.69
349.355	80.69
349.583	84.69
349.81	89.69
350.037	78.69
350.265	86.69
350.492	77.69
350.72	90.69
350.947	79.69
351.174	79.69
351.402	77.69
351.629	74.69
351.856	80.69
352.083	79.69
352.311	69.69
352.538	81.69
352.765	83.69
352.992	84.69
353.22	70.69
353.447	70.69
353.674	69.69
353.901	76.69
354.128	72.69
354.355	76.69
354.583	79.69
354.81	74.69
355.037	76.69
355.264	70.69
355.491	73.69
355.718	70.69
355.945	76.69
356.172	86.69
356.399	72.69
356.626	67.69
356.853	73.69
357.08	67.69
357.307	84.69
357.534	67.69
357.761	95.69
357.988	80.69
358.215	81.69
358.441	69.69
358.668	77.69
358.895	81.69
359.122	77.69
359.349	85.69
359.576	73.69
359.802	87.69
360.029	98.69
360.256	83.69
360.483	72.69
360.709	59.69
360.936	73.69
361.163	70.69
361.39	79.69
361.616	66.69
361.843	79.69
362.07	82.69
362.296	57.69
362.523	77.69
362.749	74.69
362.976	85.69
363.203	84.69
363.429	87.69
363.656	79.69
363.882	87.69
364.109	67.69
364.335	86.69
364.562	85.69
364.788	81.69
365.015	83.69
365.241	81.69
365.468	77.69
365.694	81.69
365.92	88.69
366.147	80.69
366.373	83.69
366.599	91.69
366.826	87.69
367.052	80.69
367.278	84.69
367.505	77.69
367.731	94.69
367.957	76.69
368.184	88.69
368.41	89.69
368.636	80.69
368.862	91.69
369.089	76.69
369.315	84.69
369.541	84.69
369.767	79.69
369.993	95.69
370.219	79.69
370.445	78.69
370.672	95.69
370.898	77.69
371.124	89.69
371.35	80.69
371.576	75.69
371.802	102.69
372.028	85.69
372.254	86.69
372.48	95.69
372.706	93.69
372.932	89.69
373.158	86.69
373.384	87.69
373.61	85.69
373.835	79.69
374.061	78.69
374.287	89.69
374.513	88.69
374.739	89.69
374.965	87.69
375.191	80.69
375.416	98.69
375.642	85.69
375.868	84.69
376.094	68.69
376.319	85.69
376.545	84.69
376.771	71.69
376.997	78.69
377.222	88.69
377.448	86.69
377.674	91.69
377.899	74.69
378.125	79.69
378.35	80.69
378.576	87.69
378.802	79.69
379.027	86.69
379.253	93.69
379.478	86.69
379.704	93.69
379.929	86.69
380.155	86.69
380.38	87.69
380.606	86.69
380.831	85.69
381.057	77.69
381.282	90.69
381.507	95.69
381.733	86.69
381.958	96.69
382.184	91.69
382.409	84.69
382.634	77.69
382.86	105.69
383.085	91.69
383.31	90.69
383.535	94.69
383.761	92.69
383.986	85.69
384.211	85.69
384.436	93.69
384.662	96.69
384.887	92.69
385.112	82.69
385.337	84.69
385.562	99.69
385.787	97.69
386.013	95.69
386.238	92.69
386.463	100.69
386.688	86.69
386.913	91.69
387.138	95.69
387.363	108.69
387.588	92.69
387.813	97.69
388.038	89.69
388.263	79.69
388.488	78.69
388.713	96.69
388.938	88.69
389.163	89.69
389.387	106.69
389.612	94.69
389.837	103.69
390.062	92.69
390.287	103.69
390.512	90.69
390.736	96.69
390.961	102.69
391.186	97.69
391.411	98.69
391.636	96.69
391.86	104.69
392.085	93.69
392.31	88.69
392.534	94.69
392.759	91.69
392.984	119.69
393.208	96.69
393.433	98.69
393.658	102.69
393.882	103.69
394.107	87.69
394.331	94.69
394.556	104.69
394.78	101.69
395.005	97.69
395.229	87.69
395.454	104.69
395.678	101.69
395.903	85.69
396.127	96.69
396.352	96.69
396.576	106.69
396.801	96.69
397.025	95.69
397.249	105.69
397.474	98.69
397.698	101.69
397.922	106.69
398.147	132.69
398.371	86.69
398.595	89.69
398.82	98.69
399.044	116.69
399.268	111.69
399.492	110.69
399.717	109.69
399.941	99.69
400.165	122.69
400.389	104.69
400.613	93.69
400.837	111.69
401.062	108.69
401.286	96.69
401.51	111.69
401.734	104.69
401.958	95.69
402.182	112.69
402.406	86.69
402.63	103.69
402.854	110.69
403.078	106.69
403.302	115.69
403.526	103.69
403.75	110.69
403.974	100.69
404.198	126.69
404.422	120.69
404.645	101.69
404.869	107.69
405.093	108.69
405.317	125.69
405.541	117.69
405.765	108.69
405.988	113.69
406.212	128.69
406.436	114.69
406.66	120.69
406.883	103.69
407.107	108.69
407.331	102.69
407.555	111.69
407.778	106.69
408.002	105.69
408.226	128.69
408.449	130.69
408.673	116.69
408.896	116.69
409.12	104.69
409.344	109.69
409.567	114.69
409.791	124.69
410.014	107.69
410.238	106.69
410.461	116.69
410.685	98.69
410.908	110.69
411.132	133.69
411.355	105.69
411.578	120.69
411.802	121.69
412.025	108.69
412.249	125.69
412.472	111.69
412.695	104.69
412.919	116.69
413.142	111.69
413.365	106.69
413.589	116.69
413.812	115.69
414.035	128.69
414.258	117.69
414.482	115.69
414.705	119.69
414.928	125.69
415.151	117.69
415.374	114.69
415.597	122.69
415.821	122.69
416.044	125.69
416.267	133.69
416.49	125.69
416.713	122.69
416.936	122.69
417.159	113.69
417.382	128.69
417.605	143.69
417.828	118.69
418.051	120.69
418.274	124.69
418.497	119.69
418.72	117.69
418.943	110.69
419.166	122.69
419.389	127.69
419.611	128.69
419.834	130.69
420.057	125.69
420.28	111.69
420.503	128.69
420.726	120.69
420.948	125.69
421.171	127.69
421.394	149.69
421.617	128.69
421.839	138.69
422.062	127.69
422.285	113.69
422.507	115.69
422.73	119.69
422.953	120.69
423.175	117.69
423.398	113.69
423.621	117.69
423.843	134.69
424.066	132.69
424.288	126.69
424.511	116.69
424.733	132.69
424.956	144.69
425.178	130.69
425.401	141.69
425.623	141.69
425.846	121.69
426.068	111.69
426.291	112.69
426.513	128.69
426.735	116.69
426.958	137.69
427.18	127.69
427.402	121.69
427.625	112.69
427.847	117.69
428.069	126.69
428.292	122.69
428.514	119.69
428.736	109.69
428.958	117.69
429.181	116.69
429.403	124.69
429.625	124.69
429.847	113.69
430.069	125.69
430.292	120.69
430.514	117.69
430.736	118.69
430.958	145.69
431.18	120.69
431.402	110.69
431.624	120.69
431.846	100.69
432.068	87.69
432.29	99.69
432.512	117.69
432.734	116.69
432.956	133.69
433.178	129.69
433.4	124.69
433.622	123.69
433.844	113.69
434.066	114.69
434.287	106.69
434.509	97.69
434.731	100.69
434.953	103.69
435.175	123.69
435.397	111.69
435.618	125.69
435.84	98.69
436.062	106.69
436.284	126.69
436.505	120.69
436.727	120.69
436.949	117.69
437.17	118.69
437.392	120.69
437.614	112.69
437.835	119.69
438.057	109.69
438.278	102.69
438.5	109.69
438.721	141.69
438.943	119.69
439.165	131.69
439.386	137.69
439.608	135.69
439.829	129.69
440.05	146.69
440.272	132.69
440.493	144.69
440.715	136.69
440.936	130.69
441.158	151.69
441.379	155.69
441.6	137.69
441.822	126.69
442.043	133.69
442.264	140.69
442.486	124.69
442.707	130.69
442.928	126.69
443.149	132.69
443.371	122.69
443.592	136.69
443.813	121.69
444.034	134.69
444.255	124.69
444.476	119.69
444.698	145.69
444.919	145.69
445.14	228.69
445.361	176.69
445.582	142.69
445.803	132.69
446.024	132.69
446.245	142.69
446.466	142.69
446.687	141.69
446.908	152.69
447.129	146.69
447.35	148.69
447.571	145.69
447.792	138.69
448.013	144.69
448.234	141.69
448.455	150.69
448.675	143.69
448.896	124.69
449.117	150.69
449.338	136.69
449.559	130.69
449.779	128.69
450	144.69
450.221	136.69
450.442	144.69
450.662	119.69
450.883	129.69
451.104	138.69
451.324	123.69
451.545	113.69
451.766	126.69
451.986	131.69
452.207	104.69
452.428	118.69
452.648	113.69
452.869	98.69
453.089	88.69
453.31	91.69
453.53	96.69
453.751	97.69
453.971	104.69
454.192	113.69
454.412	101.69
454.633	108.69
454.853	117.69
455.073	109.69
455.294	116.69
455.514	135.69
455.734	114.69
455.955	116.69
456.175	99.69
456.395	109.69
456.616	106.69
456.836	115.69
457.056	102.69
457.276	101.69
457.497	85.69
457.717	93.69
457.937	104.69
458.157	108.69
458.377	102.69
458.598	89.69
458.818	92.69
459.038	89.69
459.258	92.69
459.478	82.69
459.698	88.69
459.918	98.69
460.138	104.69
460.358	120.69
460.578	117.69
460.798	109.69
461.018	121.69
461.238	104.69
461.458	109.69
461.678	99.69
461.898	110.69
462.118	94.69
462.338	99.69
462.558	114.69
462.777	108.69
462.997	100.69
463.217	99.69
463.437	105.69
463.657	93.69
463.876	108.69
464.096	96.69
464.316	110.69
464.536	110.69
464.755	120.69
464.975	110.69
465.195	107.69
465.414	112.69
465.634	117.69
465.854	94.69
466.073	112.69
466.293	118.69
466.512	116.69
466.732	133.69
466.951	137.69
467.171	134.69
467.391	122.69
467.61	130.69
467.829	121.69
468.049	122.69
468.268	121.69
468.488	116.69
468.707	134.69
468.927	138.69
469.146	150.69
469.365	132.69
469.585	124.69
469.804	136.69
470.023	125.69
470.243	125.69
470.462	149.69
470.681	143.69
470.901	124.69
471.12	125.69
471.339	142.69
471.558	126.69
471.777	157.69
471.997	134.69
472.216	133.69
472.435	122.69
472.654	102.69
472.873	108.69
473.092	124.69
473.311	106.69
473.53	115.69
473.749	124.69
473.968	125.69
474.187	126.69
474.406	121.69
474.625	121.69
474.844	136.69
475.063	130.69
475.282	121.69
475.501	117.69
475.72	122.69
475.939	125.69
476.158	117.69
476.377	119.69
476.596	110.69
476.814	104.69
477.033	104.69
477.252	113.69
477.471	115.69
477.69	140.69
477.908	130.69
478.127	121.69
478.346	132.69
478.564	134.69
478.783	127.69
479.002	149.69
479.22	136.69
479.439	122.69
479.658	121.69
479.876	123.69
480.095	120.69
480.313	106.69
480.532	108.69
480.751	117.69
480.969	92.69
481.188	87.69
481.406	79.69
481.624	74.69
481.843	85.69
482.061	91.69
482.28	111.69
482.498	103.69
482.717	114.69
482.935	112.69
483.153	126.69
483.372	158.69
483.59	141.69
483.808	136.69
484.027	133.69
484.245	136.69
484.463	138.69
484.681	156.69
484.9	144.69
485.118	132.69
485.336	125.69
485.554	94.69
485.772	89.69
485.99	112.69
486.209	102.69
486.427	110.69
486.645	95.69
486.863	132.69
487.081	138.69
487.299	124.69
487.517	124.69
487.735	153.69
487.953	188.69
488.171	181.69
488.389	165.69
488.607	151.69
488.825	126.69
489.043	127.69
489.261	114.69
489.479	142.69
489.696	137.69
489.914	133.69
490.132	141.69
490.35	137.69
490.568	147.69
490.786	172.69
491.003	166.69
491.221	168.69
491.439	179.69
491.657	178.69
491.874	194.69
492.092	203.69
492.31	229.69
492.527	213.69
492.745	193.69
492.963	191.69
493.18	178.69
493.398	165.69
493.615	158.69
493.833	182.69
494.05	164.69
494.268	159.69
494.485	174.69
494.703	162.69
494.92	164.69
495.138	162.69
495.355	160.69
495.573	151.69
495.79	172.69
496.008	158.69
496.225	160.69
496.442	161.69
496.66	154.69
496.877	154.69
497.094	159.69
497.312	155.69
497.529	147.69
497.746	135.69
497.963	134.69
498.181	124.69
498.398	125.69
498.615	110.69
498.832	103.69
499.049	110.69
499.267	117.69
499.484	135.69
499.701	122.69
499.918	126.69
500.135	125.69
500.352	127.69
500.569	144.69
500.786	148.69
501.003	134.69
501.22	132.69
501.437	128.69
501.654	138.69
501.871	123.69
502.088	136.69
502.305	126.69
502.522	132.69
502.739	113.69
502.956	110.69
503.172	126.69
503.389	113.69
503.606	113.69
503.823	123.69
504.04	114.69
504.256	101.69
504.473	130.69
504.69	111.69
504.907	108.69
505.123	110.69
505.34	112.69
505.557	118.69
505.773	132.69
505.99	113.69
506.207	103.69
506.423	129.69
506.64	124.69
506.856	108.69
507.073	111.69
507.289	96.69
507.506	108.69
507.722	113.69
507.939	115.69
508.155	110.69
508.372	103.69
508.588	101.69
508.805	102.69
509.021	100.69
509.238	90.69
509.454	94.69
509.67	98.69
509.887	98.69
510.103	91.69
510.319	93.69
510.536	86.69
510.752	69.69
510.968	96.69
511.184	73.69
511.401	66.69
511.617	84.69
511.833	86.69
512.049	95.69
512.265	82.69
512.481	86.69
512.698	91.69
