Data from Location1.07152019.Energy5.Lamp.07192019.3%Agarose_HRD10591_14-30-33-015.txt Node
Date: Fri Jul 19 14:30:33 EDT 2019
User: cochatt
Spectrometer: HR+D1059
Trigger mode: 1
Integration Time (sec): 1.000000E-1
Scans to average: 1
Electric dark correction enabled: true
Nonlinearity correction enabled: false
Boxcar width: 0
XAxis mode: Wavelengths
Number of Pixels in Spectrum: 2048
>>>>>Begin Spectral Data<<<<<
223.165	-36.19
223.4	-36.19
223.635	-36.19
223.869	-11.19
224.104	-18.19
224.338	-13.19
224.573	-12.19
224.808	-16.19
225.042	-1.19
225.277	-7.19
225.511	-4.19
225.746	3.81
225.98	4.81
226.215	10.81
226.449	23.81
226.683	26.81
226.918	16.81
227.152	32.81
227.387	29.81
227.621	32.81
227.856	51.81
228.09	46.81
228.324	42.81
228.559	59.81
228.793	54.81
229.027	54.81
229.262	62.81
229.496	62.81
229.73	53.81
229.964	69.81
230.199	71.81
230.433	53.81
230.667	73.81
230.901	76.81
231.136	77.81
231.37	81.81
231.604	82.81
231.838	79.81
232.072	86.81
232.306	100.81
232.541	84.81
232.775	76.81
233.009	76.81
233.243	81.81
233.477	90.81
233.711	87.81
233.945	84.81
234.179	80.81
234.413	75.81
234.647	76.81
234.881	88.81
235.115	89.81
235.349	71.81
235.583	74.81
235.817	73.81
236.051	91.81
236.285	78.81
236.519	83.81
236.753	80.81
236.987	90.81
237.221	82.81
237.455	88.81
237.689	79.81
237.922	77.81
238.156	93.81
238.39	70.81
238.624	69.81
238.858	70.81
239.091	65.81
239.325	80.81
239.559	72.81
239.793	66.81
240.027	90.81
240.26	78.81
240.494	73.81
240.728	84.81
240.961	82.81
241.195	75.81
241.429	70.81
241.662	78.81
241.896	73.81
242.13	80.81
242.363	77.81
242.597	75.81
242.83	80.81
243.064	88.81
243.298	75.81
243.531	86.81
243.765	79.81
243.998	74.81
244.232	81.81
244.465	90.81
244.699	74.81
244.932	88.81
245.166	75.81
245.399	65.81
245.633	92.81
245.866	72.81
246.099	77.81
246.333	73.81
246.566	73.81
246.8	89.81
247.033	88.81
247.266	79.81
247.5	93.81
247.733	87.81
247.966	75.81
248.2	80.81
248.433	83.81
248.666	75.81
248.899	84.81
249.133	83.81
249.366	79.81
249.599	79.81
249.832	86.81
250.066	80.81
250.299	79.81
250.532	78.81
250.765	72.81
250.998	75.81
251.231	73.81
251.465	88.81
251.698	84.81
251.931	86.81
252.164	72.81
252.397	79.81
252.63	73.81
252.863	76.81
253.096	89.81
253.329	76.81
253.562	71.81
253.795	95.81
254.028	81.81
254.261	79.81
254.494	76.81
254.727	90.81
254.96	93.81
255.193	88.81
255.426	79.81
255.659	81.81
255.892	89.81
256.124	86.81
256.357	91.81
256.59	83.81
256.823	85.81
257.056	83.81
257.289	77.81
257.521	78.81
257.754	80.81
257.987	75.81
258.22	87.81
258.452	64.81
258.685	66.81
258.918	77.81
259.151	81.81
259.383	73.81
259.616	85.81
259.849	94.81
260.081	79.81
260.314	81.81
260.547	84.81
260.779	67.81
261.012	82.81
261.244	56.81
261.477	77.81
261.71	64.81
261.942	77.81
262.175	88.81
262.407	90.81
262.64	93.81
262.872	84.81
263.105	92.81
263.337	74.81
263.57	85.81
263.802	90.81
264.035	90.81
264.267	88.81
264.499	92.81
264.732	91.81
264.964	89.81
265.197	75.81
265.429	78.81
265.661	82.81
265.894	82.81
266.126	85.81
266.358	99.81
266.591	73.81
266.823	79.81
267.055	79.81
267.287	74.81
267.52	81.81
267.752	73.81
267.984	71.81
268.216	79.81
268.448	84.81
268.681	80.81
268.913	102.81
269.145	93.81
269.377	79.81
269.609	83.81
269.841	101.81
270.073	88.81
270.306	76.81
270.538	85.81
270.77	90.81
271.002	105.81
271.234	83.81
271.466	85.81
271.698	84.81
271.93	84.81
272.162	80.81
272.394	84.81
272.626	78.81
272.858	67.81
273.09	70.81
273.322	81.81
273.553	88.81
273.785	82.81
274.017	81.81
274.249	94.81
274.481	93.81
274.713	90.81
274.945	75.81
275.176	83.81
275.408	88.81
275.64	77.81
275.872	89.81
276.104	83.81
276.335	77.81
276.567	89.81
276.799	101.81
277.031	79.81
277.262	62.81
277.494	82.81
277.726	75.81
277.957	79.81
278.189	73.81
278.421	74.81
278.652	91.81
278.884	87.81
279.115	94.81
279.347	79.81
279.579	94.81
279.81	74.81
280.042	73.81
280.273	72.81
280.505	83.81
280.736	82.81
280.968	87.81
281.199	90.81
281.431	85.81
281.662	83.81
281.894	84.81
282.125	103.81
282.356	85.81
282.588	96.81
282.819	93.81
283.051	87.81
283.282	85.81
283.513	88.81
283.745	83.81
283.976	73.81
284.207	73.81
284.439	82.81
284.67	76.81
284.901	89.81
285.132	89.81
285.364	80.81
285.595	99.81
285.826	87.81
286.057	85.81
286.288	99.81
286.52	78.81
286.751	87.81
286.982	95.81
287.213	100.81
287.444	79.81
287.675	80.81
287.906	77.81
288.138	86.81
288.369	80.81
288.6	74.81
288.831	100.81
289.062	97.81
289.293	77.81
289.524	91.81
289.755	76.81
289.986	78.81
290.217	81.81
290.448	85.81
290.679	75.81
290.91	76.81
291.141	103.81
291.371	91.81
291.602	85.81
291.833	78.81
292.064	74.81
292.295	76.81
292.526	80.81
292.757	91.81
292.987	81.81
293.218	68.81
293.449	76.81
293.68	69.81
293.91	96.81
294.141	94.81
294.372	80.81
294.603	92.81
294.833	86.81
295.064	74.81
295.295	91.81
295.525	85.81
295.756	83.81
295.987	93.81
296.217	78.81
296.448	86.81
296.679	75.81
296.909	89.81
297.14	92.81
297.37	79.81
297.601	76.81
297.831	81.81
298.062	82.81
298.292	83.81
298.523	79.81
298.753	97.81
298.984	67.81
299.214	93.81
299.445	89.81
299.675	79.81
299.905	92.81
300.136	82.81
300.366	93.81
300.597	103.81
300.827	98.81
301.057	87.81
301.288	89.81
301.518	89.81
301.748	87.81
301.979	76.81
302.209	91.81
302.439	75.81
302.669	75.81
302.9	92.81
303.13	77.81
303.36	77.81
303.59	80.81
303.82	95.81
304.051	96.81
304.281	95.81
304.511	89.81
304.741	85.81
304.971	84.81
305.201	83.81
305.431	82.81
305.661	85.81
305.891	94.81
306.121	93.81
306.352	86.81
306.582	88.81
306.812	78.81
307.042	83.81
307.272	88.81
307.502	88.81
307.731	95.81
307.961	93.81
308.191	91.81
308.421	87.81
308.651	79.81
308.881	93.81
309.111	84.81
309.341	84.81
309.571	93.81
309.8	90.81
310.03	81.81
310.26	83.81
310.49	83.81
310.72	84.81
310.949	91.81
311.179	91.81
311.409	93.81
311.639	68.81
311.868	87.81
312.098	74.81
312.328	96.81
312.557	84.81
312.787	97.81
313.017	87.81
313.246	86.81
313.476	73.81
313.706	84.81
313.935	87.81
314.165	88.81
314.394	83.81
314.624	83.81
314.853	75.81
315.083	83.81
315.312	80.81
315.542	77.81
315.771	84.81
316.001	75.81
316.23	92.81
316.46	88.81
316.689	84.81
316.919	91.81
317.148	83.81
317.377	101.81
317.607	87.81
317.836	87.81
318.065	87.81
318.295	90.81
318.524	81.81
318.753	74.81
318.983	72.81
319.212	92.81
319.441	78.81
319.67	72.81
319.9	95.81
320.129	99.81
320.358	94.81
320.587	81.81
320.816	85.81
321.046	86.81
321.275	94.81
321.504	79.81
321.733	77.81
321.962	78.81
322.191	87.81
322.42	83.81
322.649	78.81
322.878	79.81
323.108	97.81
323.337	85.81
323.566	79.81
323.795	88.81
324.024	87.81
324.253	97.81
324.482	89.81
324.71	88.81
324.939	83.81
325.168	86.81
325.397	84.81
325.626	89.81
325.855	77.81
326.084	92.81
326.313	84.81
326.542	83.81
326.77	89.81
326.999	91.81
327.228	74.81
327.457	77.81
327.686	88.81
327.914	70.81
328.143	90.81
328.372	86.81
328.6	75.81
328.829	92.81
329.058	89.81
329.287	88.81
329.515	89.81
329.744	94.81
329.972	91.81
330.201	70.81
330.43	82.81
330.658	90.81
330.887	83.81
331.115	74.81
331.344	80.81
331.572	85.81
331.801	85.81
332.03	80.81
332.258	88.81
332.486	86.81
332.715	74.81
332.943	88.81
333.172	77.81
333.4	78.81
333.629	87.81
333.857	77.81
334.085	83.81
334.314	88.81
334.542	83.81
334.771	88.81
334.999	86.81
335.227	89.81
335.455	93.81
335.684	69.81
335.912	81.81
336.14	91.81
336.369	86.81
336.597	92.81
336.825	81.81
337.053	74.81
337.281	82.81
337.51	75.81
337.738	87.81
337.966	79.81
338.194	81.81
338.422	96.81
338.65	78.81
338.878	79.81
339.106	70.81
339.334	77.81
339.562	85.81
339.79	78.81
340.018	81.81
340.246	88.81
340.474	87.81
340.702	68.81
340.93	96.81
341.158	79.81
341.386	91.81
341.614	76.81
341.842	84.81
342.07	83.81
342.298	96.81
342.526	80.81
342.754	85.81
342.981	81.81
343.209	91.81
343.437	76.81
343.665	86.81
343.893	93.81
344.12	86.81
344.348	83.81
344.576	92.81
344.804	97.81
345.031	74.81
345.259	80.81
345.487	87.81
345.714	81.81
345.942	85.81
346.17	78.81
346.397	99.81
346.625	91.81
346.853	93.81
347.08	79.81
347.308	73.81
347.535	91.81
347.763	84.81
347.99	85.81
348.218	99.81
348.445	80.81
348.673	100.81
348.9	81.81
349.128	89.81
349.355	91.81
349.583	88.81
349.81	74.81
350.037	82.81
350.265	85.81
350.492	95.81
350.72	98.81
350.947	87.81
351.174	91.81
351.402	93.81
351.629	98.81
351.856	86.81
352.083	69.81
352.311	85.81
352.538	83.81
352.765	88.81
352.992	91.81
353.22	84.81
353.447	85.81
353.674	77.81
353.901	86.81
354.128	86.81
354.355	85.81
354.583	83.81
354.81	73.81
355.037	74.81
355.264	87.81
355.491	80.81
355.718	91.81
355.945	88.81
356.172	78.81
356.399	90.81
356.626	74.81
356.853	81.81
357.08	86.81
357.307	91.81
357.534	75.81
357.761	100.81
357.988	75.81
358.215	90.81
358.441	83.81
358.668	75.81
358.895	72.81
359.122	104.81
359.349	99.81
359.576	89.81
359.802	95.81
360.029	96.81
360.256	76.81
360.483	84.81
360.709	83.81
360.936	73.81
361.163	79.81
361.39	70.81
361.616	83.81
361.843	62.81
362.07	83.81
362.296	80.81
362.523	94.81
362.749	76.81
362.976	85.81
363.203	94.81
363.429	99.81
363.656	91.81
363.882	81.81
364.109	90.81
364.335	81.81
364.562	81.81
364.788	101.81
365.015	80.81
365.241	89.81
365.468	91.81
365.694	87.81
365.92	104.81
366.147	83.81
366.373	95.81
366.599	80.81
366.826	93.81
367.052	82.81
367.278	93.81
367.505	99.81
367.731	88.81
367.957	89.81
368.184	81.81
368.41	94.81
368.636	99.81
368.862	88.81
369.089	76.81
369.315	80.81
369.541	89.81
369.767	104.81
369.993	81.81
370.219	84.81
370.445	70.81
370.672	93.81
370.898	90.81
371.124	91.81
371.35	82.81
371.576	89.81
371.802	81.81
372.028	104.81
372.254	99.81
372.48	93.81
372.706	83.81
372.932	89.81
373.158	96.81
373.384	80.81
373.61	100.81
373.835	80.81
374.061	89.81
374.287	82.81
374.513	92.81
374.739	83.81
374.965	91.81
375.191	101.81
375.416	109.81
375.642	106.81
375.868	101.81
376.094	108.81
376.319	92.81
376.545	102.81
376.771	97.81
376.997	86.81
377.222	92.81
377.448	110.81
377.674	95.81
377.899	89.81
378.125	92.81
378.35	88.81
378.576	93.81
378.802	95.81
379.027	95.81
379.253	82.81
379.478	93.81
379.704	102.81
379.929	108.81
380.155	96.81
380.38	103.81
380.606	93.81
380.831	100.81
381.057	104.81
381.282	86.81
381.507	99.81
381.733	108.81
381.958	93.81
382.184	78.81
382.409	106.81
382.634	84.81
382.86	108.81
383.085	103.81
383.31	108.81
383.535	104.81
383.761	94.81
383.986	93.81
384.211	105.81
384.436	105.81
384.662	87.81
384.887	98.81
385.112	104.81
385.337	98.81
385.562	99.81
385.787	100.81
386.013	94.81
386.238	98.81
386.463	78.81
386.688	99.81
386.913	103.81
387.138	95.81
387.363	90.81
387.588	119.81
387.813	94.81
388.038	86.81
388.263	99.81
388.488	102.81
388.713	104.81
388.938	102.81
389.163	105.81
389.387	103.81
389.612	105.81
389.837	104.81
390.062	110.81
390.287	99.81
390.512	92.81
390.736	102.81
390.961	111.81
391.186	102.81
391.411	111.81
391.636	107.81
391.86	108.81
392.085	96.81
392.31	100.81
392.534	103.81
392.759	111.81
392.984	95.81
393.208	108.81
393.433	109.81
393.658	103.81
393.882	99.81
394.107	105.81
394.331	112.81
394.556	98.81
394.78	92.81
395.005	108.81
395.229	99.81
395.454	116.81
395.678	107.81
395.903	113.81
396.127	98.81
396.352	93.81
396.576	95.81
396.801	102.81
397.025	104.81
397.249	118.81
397.474	106.81
397.698	108.81
397.922	105.81
398.147	99.81
398.371	105.81
398.595	114.81
398.82	104.81
399.044	103.81
399.268	102.81
399.492	98.81
399.717	111.81
399.941	119.81
400.165	101.81
400.389	97.81
400.613	117.81
400.837	128.81
401.062	109.81
401.286	102.81
401.51	110.81
401.734	133.81
401.958	103.81
402.182	122.81
402.406	113.81
402.63	116.81
402.854	113.81
403.078	122.81
403.302	115.81
403.526	121.81
403.75	105.81
403.974	109.81
404.198	96.81
404.422	93.81
404.645	115.81
404.869	102.81
405.093	110.81
405.317	109.81
405.541	120.81
405.765	124.81
405.988	106.81
406.212	120.81
406.436	119.81
406.66	120.81
406.883	114.81
407.107	120.81
407.331	124.81
407.555	118.81
407.778	98.81
408.002	119.81
408.226	129.81
408.449	116.81
408.673	120.81
408.896	110.81
409.12	122.81
409.344	131.81
409.567	115.81
409.791	119.81
410.014	117.81
410.238	116.81
410.461	117.81
410.685	110.81
410.908	117.81
411.132	111.81
411.355	126.81
411.578	111.81
411.802	128.81
412.025	118.81
412.249	118.81
412.472	106.81
412.695	122.81
412.919	95.81
413.142	126.81
413.365	107.81
413.589	128.81
413.812	109.81
414.035	104.81
414.258	119.81
414.482	124.81
414.705	124.81
414.928	131.81
415.151	124.81
415.374	118.81
415.597	119.81
415.821	115.81
416.044	123.81
416.267	125.81
416.49	122.81
416.713	122.81
416.936	124.81
417.159	128.81
417.382	124.81
417.605	123.81
417.828	136.81
418.051	136.81
418.274	132.81
418.497	127.81
418.72	136.81
418.943	125.81
419.166	156.81
419.389	128.81
419.611	134.81
419.834	129.81
420.057	137.81
420.28	135.81
420.503	123.81
420.726	128.81
420.948	129.81
421.171	126.81
421.394	140.81
421.617	128.81
421.839	134.81
422.062	120.81
422.285	137.81
422.507	120.81
422.73	141.81
422.953	120.81
423.175	128.81
423.398	117.81
423.621	123.81
423.843	108.81
424.066	134.81
424.288	126.81
424.511	126.81
424.733	137.81
424.956	143.81
425.178	147.81
425.401	134.81
425.623	136.81
425.846	124.81
426.068	111.81
426.291	124.81
426.513	126.81
426.735	134.81
426.958	126.81
427.18	99.81
427.402	126.81
427.625	134.81
427.847	124.81
428.069	131.81
428.292	119.81
428.514	116.81
428.736	115.81
428.958	126.81
429.181	122.81
429.403	128.81
429.625	128.81
429.847	122.81
430.069	126.81
430.292	129.81
430.514	138.81
430.736	129.81
430.958	128.81
431.18	133.81
431.402	127.81
431.624	133.81
431.846	110.81
432.068	102.81
432.29	105.81
432.512	104.81
432.734	116.81
432.956	126.81
433.178	132.81
433.4	140.81
433.622	133.81
433.844	134.81
434.066	116.81
434.287	101.81
434.509	97.81
434.731	103.81
434.953	108.81
435.175	123.81
435.397	121.81
435.618	108.81
435.84	109.81
436.062	95.81
436.284	125.81
436.505	118.81
436.727	122.81
436.949	133.81
437.17	128.81
437.392	132.81
437.614	120.81
437.835	112.81
438.057	110.81
438.278	124.81
438.5	122.81
438.721	131.81
438.943	142.81
439.165	135.81
439.386	154.81
439.608	132.81
439.829	142.81
440.05	144.81
440.272	161.81
440.493	151.81
440.715	138.81
440.936	144.81
441.158	130.81
441.379	143.81
441.6	138.81
441.822	156.81
442.043	141.81
442.264	143.81
442.486	143.81
442.707	129.81
442.928	126.81
443.149	130.81
443.371	136.81
443.592	144.81
443.813	133.81
444.034	139.81
444.255	144.81
444.476	137.81
444.698	136.81
444.919	143.81
445.14	260.81
445.361	184.81
445.582	135.81
445.803	150.81
446.024	145.81
446.245	138.81
446.466	141.81
446.687	154.81
446.908	162.81
447.129	148.81
447.35	142.81
447.571	153.81
447.792	154.81
448.013	134.81
448.234	145.81
448.455	134.81
448.675	144.81
448.896	136.81
449.117	149.81
449.338	136.81
449.559	149.81
449.779	133.81
450	105.81
450.221	125.81
450.442	143.81
450.662	134.81
450.883	128.81
451.104	126.81
451.324	122.81
451.545	142.81
451.766	129.81
451.986	130.81
452.207	119.81
452.428	132.81
452.648	115.81
452.869	125.81
453.089	120.81
453.31	130.81
453.53	116.81
453.751	95.81
453.971	98.81
454.192	111.81
454.412	103.81
454.633	118.81
454.853	111.81
455.073	107.81
455.294	128.81
455.514	142.81
455.734	127.81
455.955	114.81
456.175	116.81
456.395	111.81
456.616	96.81
456.836	110.81
457.056	113.81
457.276	117.81
457.497	88.81
457.717	106.81
457.937	109.81
458.157	101.81
458.377	102.81
458.598	106.81
458.818	103.81
459.038	87.81
459.258	95.81
459.478	97.81
459.698	99.81
459.918	92.81
460.138	95.81
460.358	104.81
460.578	97.81
460.798	118.81
461.018	132.81
461.238	120.81
461.458	98.81
461.678	95.81
461.898	111.81
462.118	106.81
462.338	116.81
462.558	118.81
462.777	117.81
462.997	118.81
463.217	122.81
463.437	104.81
463.657	100.81
463.876	115.81
464.096	100.81
464.316	102.81
464.536	109.81
464.755	103.81
464.975	109.81
465.195	103.81
465.414	112.81
465.634	104.81
465.854	124.81
466.073	115.81
466.293	110.81
466.512	124.81
466.732	116.81
466.951	118.81
467.171	132.81
467.391	124.81
467.61	125.81
467.829	137.81
468.049	132.81
468.268	134.81
468.488	142.81
468.707	126.81
468.927	133.81
469.146	134.81
469.365	146.81
469.585	126.81
469.804	152.81
470.023	134.81
470.243	134.81
470.462	139.81
470.681	148.81
470.901	132.81
471.12	139.81
471.339	126.81
471.558	140.81
471.777	148.81
471.997	120.81
472.216	132.81
472.435	101.81
472.654	109.81
472.873	108.81
473.092	121.81
473.311	120.81
473.53	118.81
473.749	123.81
473.968	110.81
474.187	133.81
474.406	120.81
474.625	117.81
474.844	123.81
475.063	137.81
475.282	115.81
475.501	141.81
475.72	114.81
475.939	113.81
476.158	123.81
476.377	131.81
476.596	126.81
476.814	119.81
477.033	110.81
477.252	108.81
477.471	124.81
477.69	143.81
477.908	145.81
478.127	139.81
478.346	123.81
478.564	127.81
478.783	127.81
479.002	141.81
479.22	139.81
479.439	144.81
479.658	126.81
479.876	107.81
480.095	124.81
480.313	120.81
480.532	102.81
480.751	114.81
480.969	91.81
481.188	103.81
481.406	86.81
481.624	92.81
481.843	82.81
482.061	105.81
482.28	101.81
482.498	114.81
482.717	95.81
482.935	93.81
483.153	135.81
483.372	157.81
483.59	164.81
483.808	134.81
484.027	133.81
484.245	134.81
484.463	159.81
484.681	162.81
484.9	144.81
485.118	159.81
485.336	134.81
485.554	103.81
485.772	109.81
485.99	96.81
486.209	110.81
486.427	103.81
486.645	110.81
486.863	131.81
487.081	132.81
487.299	136.81
487.517	130.81
487.735	170.81
487.953	189.81
488.171	198.81
488.389	159.81
488.607	162.81
488.825	149.81
489.043	144.81
489.261	122.81
489.479	140.81
489.696	144.81
489.914	134.81
490.132	130.81
490.35	163.81
490.568	171.81
490.786	175.81
491.003	174.81
491.221	179.81
491.439	166.81
491.657	189.81
491.874	193.81
492.092	215.81
492.31	249.81
492.527	240.81
492.745	198.81
492.963	182.81
493.18	185.81
493.398	172.81
493.615	173.81
493.833	171.81
494.05	181.81
494.268	172.81
494.485	169.81
494.703	165.81
494.92	154.81
495.138	162.81
495.355	174.81
495.573	182.81
495.79	166.81
496.008	163.81
496.225	169.81
496.442	169.81
496.66	176.81
496.877	169.81
497.094	171.81
497.312	168.81
497.529	154.81
497.746	142.81
497.963	145.81
498.181	130.81
498.398	122.81
498.615	107.81
498.832	106.81
499.049	112.81
499.267	118.81
499.484	117.81
499.701	122.81
499.918	135.81
500.135	138.81
500.352	134.81
500.569	138.81
500.786	170.81
501.003	132.81
501.22	141.81
501.437	122.81
501.654	130.81
501.871	132.81
502.088	132.81
502.305	136.81
502.522	117.81
502.739	127.81
502.956	132.81
503.172	131.81
503.389	122.81
503.606	127.81
503.823	132.81
504.04	124.81
504.256	139.81
504.473	121.81
504.69	127.81
504.907	114.81
505.123	121.81
505.34	107.81
505.557	110.81
505.773	135.81
505.99	113.81
506.207	117.81
506.423	115.81
506.64	115.81
506.856	125.81
507.073	130.81
507.289	118.81
507.506	125.81
507.722	104.81
507.939	117.81
508.155	131.81
508.372	103.81
508.588	117.81
508.805	108.81
509.021	105.81
509.238	102.81
509.454	99.81
509.67	101.81
509.887	114.81
510.103	92.81
510.319	84.81
510.536	87.81
510.752	99.81
510.968	84.81
511.184	83.81
511.401	79.81
511.617	94.81
