Data from Location1.07152019.Energy5.Lamp.07192019.3%Agarose_HRD10591_14-30-52-014.txt Node
Date: Fri Jul 19 14:30:52 EDT 2019
User: cochatt
Spectrometer: HR+D1059
Trigger mode: 1
Integration Time (sec): 1.000000E-1
Scans to average: 1
Electric dark correction enabled: true
Nonlinearity correction enabled: false
Boxcar width: 0
XAxis mode: Wavelengths
Number of Pixels in Spectrum: 2048
>>>>>Begin Spectral Data<<<<<
223.165	-19.31
223.4	-19.31
223.635	-19.31
223.869	-14.31
224.104	-21.31
224.338	-2.31
224.573	-19.31
224.808	1.69
225.042	-12.31
225.277	10.69
225.511	-13.31
225.746	1.69
225.98	1.69
226.215	4.69
226.449	13.69
226.683	15.69
226.918	25.69
227.152	26.69
227.387	47.69
227.621	38.69
227.856	47.69
228.09	39.69
228.324	42.69
228.559	71.69
228.793	63.69
229.027	53.69
229.262	72.69
229.496	77.69
229.73	75.69
229.964	68.69
230.199	70.69
230.433	75.69
230.667	75.69
230.901	72.69
231.136	80.69
231.37	82.69
231.604	78.69
231.838	82.69
232.072	74.69
232.306	81.69
232.541	73.69
232.775	82.69
233.009	89.69
233.243	77.69
233.477	80.69
233.711	85.69
233.945	79.69
234.179	88.69
234.413	85.69
234.647	89.69
234.881	91.69
235.115	79.69
235.349	79.69
235.583	67.69
235.817	87.69
236.051	87.69
236.285	83.69
236.519	70.69
236.753	67.69
236.987	75.69
237.221	79.69
237.455	69.69
237.689	75.69
237.922	73.69
238.156	71.69
238.39	82.69
238.624	67.69
238.858	71.69
239.091	73.69
239.325	85.69
239.559	79.69
239.793	77.69
240.027	88.69
240.26	73.69
240.494	88.69
240.728	85.69
240.961	70.69
241.195	84.69
241.429	80.69
241.662	73.69
241.896	69.69
242.13	81.69
242.363	84.69
242.597	69.69
242.83	73.69
243.064	70.69
243.298	69.69
243.531	92.69
243.765	99.69
243.998	83.69
244.232	85.69
244.465	74.69
244.699	77.69
244.932	69.69
245.166	76.69
245.399	83.69
245.633	56.69
245.866	76.69
246.099	75.69
246.333	81.69
246.566	66.69
246.8	79.69
247.033	82.69
247.266	69.69
247.5	71.69
247.733	81.69
247.966	86.69
248.2	72.69
248.433	78.69
248.666	82.69
248.899	75.69
249.133	85.69
249.366	86.69
249.599	83.69
249.832	72.69
250.066	96.69
250.299	92.69
250.532	83.69
250.765	77.69
250.998	79.69
251.231	87.69
251.465	90.69
251.698	78.69
251.931	100.69
252.164	74.69
252.397	71.69
252.63	74.69
252.863	80.69
253.096	73.69
253.329	83.69
253.562	69.69
253.795	71.69
254.028	77.69
254.261	90.69
254.494	88.69
254.727	87.69
254.96	83.69
255.193	79.69
255.426	83.69
255.659	85.69
255.892	91.69
256.124	78.69
256.357	83.69
256.59	100.69
256.823	71.69
257.056	80.69
257.289	86.69
257.521	78.69
257.754	76.69
257.987	75.69
258.22	78.69
258.452	88.69
258.685	90.69
258.918	71.69
259.151	75.69
259.383	82.69
259.616	92.69
259.849	91.69
260.081	77.69
260.314	78.69
260.547	66.69
260.779	84.69
261.012	88.69
261.244	77.69
261.477	72.69
261.71	79.69
261.942	90.69
262.175	70.69
262.407	80.69
262.64	69.69
262.872	80.69
263.105	86.69
263.337	78.69
263.57	83.69
263.802	90.69
264.035	89.69
264.267	83.69
264.499	82.69
264.732	90.69
264.964	94.69
265.197	92.69
265.429	79.69
265.661	88.69
265.894	94.69
266.126	84.69
266.358	82.69
266.591	78.69
266.823	69.69
267.055	88.69
267.287	71.69
267.52	83.69
267.752	76.69
267.984	88.69
268.216	84.69
268.448	83.69
268.681	102.69
268.913	85.69
269.145	81.69
269.377	67.69
269.609	71.69
269.841	86.69
270.073	84.69
270.306	85.69
270.538	86.69
270.77	84.69
271.002	82.69
271.234	91.69
271.466	98.69
271.698	83.69
271.93	91.69
272.162	86.69
272.394	79.69
272.626	82.69
272.858	88.69
273.09	94.69
273.322	96.69
273.553	85.69
273.785	78.69
274.017	74.69
274.249	102.69
274.481	94.69
274.713	82.69
274.945	87.69
275.176	79.69
275.408	81.69
275.64	82.69
275.872	80.69
276.104	93.69
276.335	92.69
276.567	87.69
276.799	78.69
277.031	84.69
277.262	84.69
277.494	98.69
277.726	67.69
277.957	86.69
278.189	84.69
278.421	80.69
278.652	82.69
278.884	88.69
279.115	79.69
279.347	79.69
279.579	87.69
279.81	79.69
280.042	88.69
280.273	78.69
280.505	88.69
280.736	73.69
280.968	87.69
281.199	82.69
281.431	75.69
281.662	82.69
281.894	94.69
282.125	93.69
282.356	81.69
282.588	77.69
282.819	90.69
283.051	76.69
283.282	91.69
283.513	81.69
283.745	80.69
283.976	82.69
284.207	83.69
284.439	86.69
284.67	84.69
284.901	87.69
285.132	93.69
285.364	83.69
285.595	73.69
285.826	85.69
286.057	79.69
286.288	93.69
286.52	87.69
286.751	85.69
286.982	88.69
287.213	86.69
287.444	73.69
287.675	80.69
287.906	91.69
288.138	81.69
288.369	97.69
288.6	95.69
288.831	93.69
289.062	85.69
289.293	92.69
289.524	92.69
289.755	81.69
289.986	69.69
290.217	71.69
290.448	86.69
290.679	90.69
290.91	92.69
291.141	77.69
291.371	88.69
291.602	86.69
291.833	87.69
292.064	85.69
292.295	82.69
292.526	84.69
292.757	87.69
292.987	91.69
293.218	86.69
293.449	84.69
293.68	82.69
293.91	95.69
294.141	78.69
294.372	76.69
294.603	72.69
294.833	77.69
295.064	70.69
295.295	85.69
295.525	74.69
295.756	85.69
295.987	82.69
296.217	84.69
296.448	89.69
296.679	106.69
296.909	73.69
297.14	84.69
297.37	87.69
297.601	78.69
297.831	78.69
298.062	83.69
298.292	99.69
298.523	90.69
298.753	90.69
298.984	87.69
299.214	80.69
299.445	80.69
299.675	77.69
299.905	79.69
300.136	98.69
300.366	70.69
300.597	82.69
300.827	89.69
301.057	84.69
301.288	85.69
301.518	91.69
301.748	84.69
301.979	87.69
302.209	81.69
302.439	82.69
302.669	76.69
302.9	73.69
303.13	80.69
303.36	83.69
303.59	87.69
303.82	85.69
304.051	87.69
304.281	99.69
304.511	87.69
304.741	92.69
304.971	86.69
305.201	91.69
305.431	85.69
305.661	79.69
305.891	80.69
306.121	78.69
306.352	93.69
306.582	83.69
306.812	84.69
307.042	79.69
307.272	84.69
307.502	91.69
307.731	93.69
307.961	85.69
308.191	78.69
308.421	93.69
308.651	95.69
308.881	100.69
309.111	91.69
309.341	83.69
309.571	79.69
309.8	99.69
310.03	96.69
310.26	85.69
310.49	93.69
310.72	62.69
310.949	99.69
311.179	89.69
311.409	77.69
311.639	88.69
311.868	93.69
312.098	96.69
312.328	92.69
312.557	86.69
312.787	87.69
313.017	92.69
313.246	73.69
313.476	86.69
313.706	78.69
313.935	78.69
314.165	86.69
314.394	82.69
314.624	104.69
314.853	90.69
315.083	79.69
315.312	76.69
315.542	87.69
315.771	87.69
316.001	80.69
316.23	86.69
316.46	70.69
316.689	90.69
316.919	92.69
317.148	80.69
317.377	92.69
317.607	73.69
317.836	80.69
318.065	72.69
318.295	79.69
318.524	89.69
318.753	70.69
318.983	96.69
319.212	85.69
319.441	75.69
319.67	86.69
319.9	82.69
320.129	74.69
320.358	74.69
320.587	88.69
320.816	78.69
321.046	74.69
321.275	80.69
321.504	89.69
321.733	91.69
321.962	81.69
322.191	86.69
322.42	86.69
322.649	72.69
322.878	94.69
323.108	88.69
323.337	93.69
323.566	92.69
323.795	101.69
324.024	73.69
324.253	83.69
324.482	85.69
324.71	89.69
324.939	83.69
325.168	86.69
325.397	82.69
325.626	90.69
325.855	92.69
326.084	92.69
326.313	83.69
326.542	87.69
326.77	78.69
326.999	87.69
327.228	88.69
327.457	81.69
327.686	84.69
327.914	86.69
328.143	97.69
328.372	97.69
328.6	81.69
328.829	92.69
329.058	82.69
329.287	78.69
329.515	85.69
329.744	86.69
329.972	89.69
330.201	87.69
330.43	88.69
330.658	86.69
330.887	78.69
331.115	83.69
331.344	94.69
331.572	85.69
331.801	77.69
332.03	77.69
332.258	74.69
332.486	76.69
332.715	93.69
332.943	83.69
333.172	84.69
333.4	100.69
333.629	97.69
333.857	73.69
334.085	76.69
334.314	79.69
334.542	88.69
334.771	99.69
334.999	71.69
335.227	84.69
335.455	83.69
335.684	81.69
335.912	69.69
336.14	83.69
336.369	88.69
336.597	78.69
336.825	88.69
337.053	75.69
337.281	95.69
337.51	88.69
337.738	95.69
337.966	69.69
338.194	92.69
338.422	89.69
338.65	94.69
338.878	83.69
339.106	76.69
339.334	88.69
339.562	85.69
339.79	104.69
340.018	85.69
340.246	77.69
340.474	90.69
340.702	79.69
340.93	88.69
341.158	83.69
341.386	84.69
341.614	78.69
341.842	102.69
342.07	73.69
342.298	66.69
342.526	72.69
342.754	87.69
342.981	88.69
343.209	87.69
343.437	81.69
343.665	86.69
343.893	86.69
344.12	87.69
344.348	91.69
344.576	84.69
344.804	79.69
345.031	84.69
345.259	87.69
345.487	88.69
345.714	80.69
345.942	94.69
346.17	81.69
346.397	72.69
346.625	89.69
346.853	89.69
347.08	92.69
347.308	100.69
347.535	95.69
347.763	78.69
347.99	85.69
348.218	87.69
348.445	95.69
348.673	88.69
348.9	91.69
349.128	77.69
349.355	87.69
349.583	106.69
349.81	94.69
350.037	85.69
350.265	80.69
350.492	76.69
350.72	86.69
350.947	86.69
351.174	92.69
351.402	70.69
351.629	87.69
351.856	83.69
352.083	86.69
352.311	86.69
352.538	84.69
352.765	83.69
352.992	84.69
353.22	94.69
353.447	89.69
353.674	90.69
353.901	102.69
354.128	90.69
354.355	81.69
354.583	82.69
354.81	75.69
355.037	85.69
355.264	87.69
355.491	89.69
355.718	90.69
355.945	84.69
356.172	88.69
356.399	85.69
356.626	92.69
356.853	84.69
357.08	90.69
357.307	100.69
357.534	85.69
357.761	82.69
357.988	81.69
358.215	90.69
358.441	73.69
358.668	89.69
358.895	92.69
359.122	90.69
359.349	81.69
359.576	101.69
359.802	76.69
360.029	73.69
360.256	89.69
360.483	66.69
360.709	85.69
360.936	91.69
361.163	79.69
361.39	83.69
361.616	78.69
361.843	90.69
362.07	87.69
362.296	76.69
362.523	65.69
362.749	90.69
362.976	97.69
363.203	95.69
363.429	81.69
363.656	79.69
363.882	70.69
364.109	86.69
364.335	76.69
364.562	79.69
364.788	77.69
365.015	78.69
365.241	88.69
365.468	91.69
365.694	79.69
365.92	88.69
366.147	81.69
366.373	88.69
366.599	85.69
366.826	94.69
367.052	86.69
367.278	79.69
367.505	77.69
367.731	87.69
367.957	94.69
368.184	95.69
368.41	97.69
368.636	99.69
368.862	98.69
369.089	78.69
369.315	90.69
369.541	94.69
369.767	83.69
369.993	88.69
370.219	94.69
370.445	102.69
370.672	103.69
370.898	94.69
371.124	84.69
371.35	92.69
371.576	91.69
371.802	93.69
372.028	85.69
372.254	95.69
372.48	84.69
372.706	88.69
372.932	84.69
373.158	107.69
373.384	95.69
373.61	86.69
373.835	82.69
374.061	97.69
374.287	102.69
374.513	92.69
374.739	89.69
374.965	82.69
375.191	86.69
375.416	91.69
375.642	120.69
375.868	91.69
376.094	80.69
376.319	83.69
376.545	93.69
376.771	96.69
376.997	104.69
377.222	90.69
377.448	91.69
377.674	89.69
377.899	89.69
378.125	89.69
378.35	93.69
378.576	94.69
378.802	97.69
379.027	97.69
379.253	97.69
379.478	100.69
379.704	100.69
379.929	90.69
380.155	90.69
380.38	89.69
380.606	86.69
380.831	84.69
381.057	106.69
381.282	98.69
381.507	97.69
381.733	98.69
381.958	103.69
382.184	99.69
382.409	85.69
382.634	86.69
382.86	105.69
383.085	102.69
383.31	71.69
383.535	97.69
383.761	102.69
383.986	97.69
384.211	119.69
384.436	88.69
384.662	93.69
384.887	106.69
385.112	102.69
385.337	107.69
385.562	95.69
385.787	91.69
386.013	95.69
386.238	101.69
386.463	86.69
386.688	98.69
386.913	108.69
387.138	89.69
387.363	105.69
387.588	104.69
387.813	92.69
388.038	94.69
388.263	108.69
388.488	91.69
388.713	104.69
388.938	105.69
389.163	87.69
389.387	97.69
389.612	95.69
389.837	99.69
390.062	89.69
390.287	112.69
390.512	104.69
390.736	113.69
390.961	116.69
391.186	89.69
391.411	87.69
391.636	99.69
391.86	109.69
392.085	104.69
392.31	106.69
392.534	106.69
392.759	121.69
392.984	98.69
393.208	104.69
393.433	116.69
393.658	100.69
393.882	95.69
394.107	100.69
394.331	90.69
394.556	102.69
394.78	102.69
395.005	102.69
395.229	116.69
395.454	108.69
395.678	122.69
395.903	97.69
396.127	107.69
396.352	106.69
396.576	98.69
396.801	93.69
397.025	110.69
397.249	99.69
397.474	100.69
397.698	101.69
397.922	105.69
398.147	82.69
398.371	104.69
398.595	96.69
398.82	89.69
399.044	100.69
399.268	108.69
399.492	115.69
399.717	115.69
399.941	101.69
400.165	123.69
400.389	117.69
400.613	94.69
400.837	106.69
401.062	110.69
401.286	109.69
401.51	119.69
401.734	117.69
401.958	122.69
402.182	117.69
402.406	104.69
402.63	103.69
402.854	112.69
403.078	121.69
403.302	121.69
403.526	125.69
403.75	109.69
403.974	113.69
404.198	106.69
404.422	122.69
404.645	111.69
404.869	115.69
405.093	94.69
405.317	114.69
405.541	113.69
405.765	114.69
405.988	115.69
406.212	114.69
406.436	117.69
406.66	108.69
406.883	119.69
407.107	127.69
407.331	114.69
407.555	124.69
407.778	106.69
408.002	109.69
408.226	115.69
408.449	121.69
408.673	125.69
408.896	110.69
409.12	113.69
409.344	123.69
409.567	115.69
409.791	114.69
410.014	122.69
410.238	115.69
410.461	113.69
410.685	119.69
410.908	122.69
411.132	121.69
411.355	125.69
411.578	130.69
411.802	124.69
412.025	119.69
412.249	119.69
412.472	130.69
412.695	127.69
412.919	110.69
413.142	126.69
413.365	109.69
413.589	112.69
413.812	113.69
414.035	125.69
414.258	124.69
414.482	129.69
414.705	132.69
414.928	122.69
415.151	129.69
415.374	121.69
415.597	109.69
415.821	115.69
416.044	123.69
416.267	122.69
416.49	118.69
416.713	123.69
416.936	123.69
417.159	122.69
417.382	114.69
417.605	117.69
417.828	114.69
418.051	130.69
418.274	127.69
418.497	129.69
418.72	133.69
418.943	130.69
419.166	124.69
419.389	137.69
419.611	152.69
419.834	133.69
420.057	133.69
420.28	126.69
420.503	125.69
420.726	124.69
420.948	130.69
421.171	139.69
421.394	130.69
421.617	141.69
421.839	147.69
422.062	124.69
422.285	131.69
422.507	121.69
422.73	121.69
422.953	109.69
423.175	131.69
423.398	126.69
423.621	125.69
423.843	131.69
424.066	154.69
424.288	133.69
424.511	149.69
424.733	144.69
424.956	133.69
425.178	134.69
425.401	141.69
425.623	125.69
425.846	135.69
426.068	131.69
426.291	127.69
426.513	142.69
426.735	134.69
426.958	125.69
427.18	127.69
427.402	111.69
427.625	135.69
427.847	124.69
428.069	116.69
428.292	125.69
428.514	133.69
428.736	127.69
428.958	129.69
429.181	134.69
429.403	119.69
429.625	122.69
429.847	119.69
430.069	142.69
430.292	133.69
430.514	135.69
430.736	142.69
430.958	133.69
431.18	122.69
431.402	123.69
431.624	121.69
431.846	101.69
432.068	102.69
432.29	95.69
432.512	95.69
432.734	109.69
432.956	135.69
433.178	133.69
433.4	125.69
433.622	128.69
433.844	153.69
434.066	128.69
434.287	114.69
434.509	96.69
434.731	104.69
434.953	119.69
435.175	126.69
435.397	113.69
435.618	113.69
435.84	94.69
436.062	111.69
436.284	115.69
436.505	124.69
436.727	130.69
436.949	134.69
437.17	121.69
437.392	124.69
437.614	118.69
437.835	115.69
438.057	116.69
438.278	120.69
438.5	126.69
438.721	140.69
438.943	137.69
439.165	130.69
439.386	135.69
439.608	153.69
439.829	121.69
440.05	151.69
440.272	140.69
440.493	141.69
440.715	135.69
440.936	139.69
441.158	149.69
441.379	145.69
441.6	129.69
441.822	140.69
442.043	148.69
442.264	133.69
442.486	137.69
442.707	137.69
442.928	142.69
443.149	135.69
443.371	130.69
443.592	139.69
443.813	142.69
444.034	141.69
444.255	118.69
444.476	141.69
444.698	146.69
444.919	130.69
445.14	248.69
445.361	173.69
445.582	129.69
445.803	136.69
446.024	147.69
446.245	143.69
446.466	147.69
446.687	152.69
446.908	159.69
447.129	151.69
447.35	159.69
447.571	154.69
447.792	135.69
448.013	134.69
448.234	143.69
448.455	144.69
448.675	134.69
448.896	124.69
449.117	128.69
449.338	135.69
449.559	147.69
449.779	134.69
450	133.69
450.221	129.69
450.442	128.69
450.662	132.69
450.883	129.69
451.104	120.69
451.324	131.69
451.545	122.69
451.766	123.69
451.986	115.69
452.207	122.69
452.428	124.69
452.648	147.69
452.869	120.69
453.089	119.69
453.31	118.69
453.53	103.69
453.751	103.69
453.971	100.69
454.192	104.69
454.412	104.69
454.633	129.69
454.853	121.69
455.073	131.69
455.294	110.69
455.514	118.69
455.734	111.69
455.955	103.69
456.175	127.69
456.395	106.69
456.616	96.69
456.836	111.69
457.056	103.69
457.276	118.69
457.497	118.69
457.717	106.69
457.937	98.69
458.157	104.69
458.377	76.69
458.598	96.69
458.818	89.69
459.038	83.69
459.258	92.69
459.478	87.69
459.698	86.69
459.918	97.69
460.138	103.69
460.358	108.69
460.578	124.69
460.798	113.69
461.018	109.69
461.238	129.69
461.458	118.69
461.678	115.69
461.898	104.69
462.118	115.69
462.338	112.69
462.558	96.69
462.777	101.69
462.997	114.69
463.217	108.69
463.437	94.69
463.657	117.69
463.876	120.69
464.096	102.69
464.316	113.69
464.536	113.69
464.755	98.69
464.975	102.69
465.195	107.69
465.414	120.69
465.634	97.69
465.854	111.69
466.073	125.69
466.293	125.69
466.512	133.69
466.732	133.69
466.951	125.69
467.171	109.69
467.391	137.69
467.61	143.69
467.829	129.69
468.049	123.69
468.268	133.69
468.488	142.69
468.707	131.69
468.927	147.69
469.146	133.69
469.365	134.69
469.585	139.69
469.804	138.69
470.023	138.69
470.243	137.69
470.462	145.69
470.681	142.69
470.901	125.69
471.12	147.69
471.339	149.69
471.558	133.69
471.777	148.69
471.997	141.69
472.216	116.69
472.435	106.69
472.654	115.69
472.873	118.69
473.092	110.69
473.311	123.69
473.53	117.69
473.749	129.69
473.968	139.69
474.187	119.69
474.406	116.69
474.625	113.69
474.844	115.69
475.063	139.69
475.282	119.69
475.501	107.69
475.72	125.69
475.939	135.69
476.158	137.69
476.377	137.69
476.596	117.69
476.814	102.69
477.033	93.69
477.252	100.69
477.471	131.69
477.69	137.69
477.908	137.69
478.127	122.69
478.346	130.69
478.564	144.69
478.783	141.69
479.002	133.69
479.22	130.69
479.439	132.69
479.658	124.69
479.876	121.69
480.095	106.69
480.313	121.69
480.532	121.69
480.751	105.69
480.969	89.69
481.188	79.69
481.406	88.69
481.624	97.69
481.843	93.69
482.061	95.69
482.28	120.69
482.498	112.69
482.717	95.69
482.935	115.69
483.153	146.69
483.372	154.69
483.59	150.69
483.808	152.69
484.027	125.69
484.245	128.69
484.463	142.69
484.681	155.69
484.9	131.69
485.118	139.69
485.336	132.69
485.554	102.69
485.772	110.69
485.99	96.69
486.209	119.69
486.427	116.69
486.645	124.69
486.863	145.69
487.081	131.69
487.299	130.69
487.517	125.69
487.735	152.69
487.953	181.69
488.171	178.69
488.389	161.69
488.607	161.69
488.825	129.69
489.043	129.69
489.261	137.69
489.479	122.69
489.696	152.69
489.914	138.69
490.132	152.69
490.35	151.69
490.568	153.69
490.786	153.69
491.003	174.69
491.221	161.69
491.439	186.69
491.657	203.69
491.874	199.69
492.092	196.69
492.31	221.69
492.527	213.69
492.745	223.69
492.963	201.69
493.18	177.69
493.398	188.69
493.615	170.69
493.833	174.69
494.05	158.69
494.268	167.69
494.485	175.69
494.703	179.69
494.92	174.69
495.138	171.69
495.355	169.69
495.573	168.69
495.79	159.69
496.008	182.69
496.225	155.69
496.442	169.69
496.66	172.69
496.877	151.69
497.094	153.69
497.312	169.69
497.529	145.69
497.746	143.69
497.963	157.69
498.181	125.69
498.398	130.69
498.615	125.69
498.832	124.69
499.049	127.69
499.267	125.69
499.484	127.69
499.701	127.69
499.918	127.69
500.135	125.69
500.352	139.69
500.569	149.69
500.786	134.69
501.003	136.69
501.22	133.69
501.437	147.69
501.654	140.69
501.871	152.69
502.088	131.69
502.305	140.69
502.522	123.69
502.739	126.69
502.956	125.69
503.172	117.69
503.389	123.69
503.606	115.69
503.823	114.69
504.04	124.69
504.256	122.69
504.473	118.69
504.69	124.69
504.907	122.69
505.123	115.69
505.34	130.69
505.557	115.69
505.773	127.69
505.99	115.69
506.207	134.69
506.423	122.69
506.64	125.69
506.856	134.69
507.073	123.69
507.289	102.69
507.506	113.69
507.722	135.69
507.939	117.69
508.155	107.69
508.372	118.69
508.588	116.69
508.805	116.69
509.021	113.69
509.238	110.69
509.454	98.69
509.67	105.69
509.887	102.69
510.103	86.69
510.319	98.69
510.536	84.69
510.752	87.69
510.968	92.69
511.184	82.69
511.401	91.69
511.617	87.69
511.833	86.69
