Data from Location1.07152019.Energy5.Lamp.07192019.3%Agarose_HRD10591_14-30-30-015.txt Node
Date: Fri Jul 19 14:30:30 EDT 2019
User: cochatt
Spectrometer: HR+D1059
Trigger mode: 1
Integration Time (sec): 1.000000E-1
Scans to average: 1
Electric dark correction enabled: true
Nonlinearity correction enabled: false
Boxcar width: 0
XAxis mode: Wavelengths
Number of Pixels in Spectrum: 2048
>>>>>Begin Spectral Data<<<<<
223.165	-5.19
223.4	-5.19
223.635	-5.19
223.869	-16.19
224.104	4.81
224.338	-17.19
224.573	-10.19
224.808	-10.19
225.042	-14.19
225.277	-9.19
225.511	-9.19
225.746	5.81
225.98	5.81
226.215	11.81
226.449	8.81
226.683	12.81
226.918	9.81
227.152	31.81
227.387	31.81
227.621	34.81
227.856	53.81
228.09	30.81
228.324	43.81
228.559	56.81
228.793	61.81
229.027	70.81
229.262	66.81
229.496	80.81
229.73	79.81
229.964	63.81
230.199	76.81
230.433	72.81
230.667	64.81
230.901	73.81
231.136	88.81
231.37	88.81
231.604	68.81
231.838	86.81
232.072	76.81
232.306	77.81
232.541	76.81
232.775	82.81
233.009	68.81
233.243	89.81
233.477	78.81
233.711	72.81
233.945	78.81
234.179	86.81
234.413	68.81
234.647	69.81
234.881	75.81
235.115	68.81
235.349	84.81
235.583	86.81
235.817	83.81
236.051	92.81
236.285	85.81
236.519	90.81
236.753	88.81
236.987	87.81
237.221	70.81
237.455	79.81
237.689	76.81
237.922	62.81
238.156	88.81
238.39	82.81
238.624	84.81
238.858	68.81
239.091	79.81
239.325	85.81
239.559	75.81
239.793	82.81
240.027	68.81
240.26	68.81
240.494	89.81
240.728	70.81
240.961	75.81
241.195	89.81
241.429	78.81
241.662	77.81
241.896	74.81
242.13	78.81
242.363	68.81
242.597	84.81
242.83	78.81
243.064	77.81
243.298	80.81
243.531	97.81
243.765	77.81
243.998	75.81
244.232	79.81
244.465	75.81
244.699	64.81
244.932	90.81
245.166	71.81
245.399	86.81
245.633	70.81
245.866	79.81
246.099	72.81
246.333	75.81
246.566	85.81
246.8	58.81
247.033	82.81
247.266	68.81
247.5	81.81
247.733	77.81
247.966	78.81
248.2	82.81
248.433	87.81
248.666	84.81
248.899	98.81
249.133	82.81
249.366	66.81
249.599	72.81
249.832	86.81
250.066	76.81
250.299	74.81
250.532	83.81
250.765	68.81
250.998	70.81
251.231	69.81
251.465	76.81
251.698	80.81
251.931	91.81
252.164	79.81
252.397	82.81
252.63	82.81
252.863	80.81
253.096	70.81
253.329	82.81
253.562	78.81
253.795	87.81
254.028	95.81
254.261	76.81
254.494	77.81
254.727	90.81
254.96	79.81
255.193	81.81
255.426	80.81
255.659	65.81
255.892	77.81
256.124	80.81
256.357	91.81
256.59	80.81
256.823	81.81
257.056	82.81
257.289	85.81
257.521	89.81
257.754	81.81
257.987	77.81
258.22	75.81
258.452	82.81
258.685	88.81
258.918	75.81
259.151	73.81
259.383	79.81
259.616	94.81
259.849	92.81
260.081	85.81
260.314	70.81
260.547	82.81
260.779	84.81
261.012	81.81
261.244	99.81
261.477	91.81
261.71	77.81
261.942	95.81
262.175	75.81
262.407	69.81
262.64	93.81
262.872	86.81
263.105	81.81
263.337	90.81
263.57	79.81
263.802	89.81
264.035	83.81
264.267	91.81
264.499	62.81
264.732	87.81
264.964	79.81
265.197	86.81
265.429	80.81
265.661	67.81
265.894	68.81
266.126	73.81
266.358	83.81
266.591	90.81
266.823	93.81
267.055	95.81
267.287	90.81
267.52	84.81
267.752	77.81
267.984	76.81
268.216	70.81
268.448	89.81
268.681	90.81
268.913	79.81
269.145	90.81
269.377	103.81
269.609	90.81
269.841	75.81
270.073	96.81
270.306	84.81
270.538	78.81
270.77	72.81
271.002	70.81
271.234	85.81
271.466	91.81
271.698	101.81
271.93	95.81
272.162	94.81
272.394	86.81
272.626	87.81
272.858	88.81
273.09	90.81
273.322	77.81
273.553	85.81
273.785	86.81
274.017	86.81
274.249	94.81
274.481	78.81
274.713	76.81
274.945	77.81
275.176	73.81
275.408	85.81
275.64	88.81
275.872	82.81
276.104	102.81
276.335	80.81
276.567	89.81
276.799	93.81
277.031	73.81
277.262	82.81
277.494	73.81
277.726	88.81
277.957	86.81
278.189	94.81
278.421	85.81
278.652	86.81
278.884	76.81
279.115	80.81
279.347	81.81
279.579	69.81
279.81	91.81
280.042	92.81
280.273	84.81
280.505	82.81
280.736	87.81
280.968	75.81
281.199	89.81
281.431	90.81
281.662	63.81
281.894	92.81
282.125	87.81
282.356	85.81
282.588	93.81
282.819	72.81
283.051	81.81
283.282	78.81
283.513	96.81
283.745	84.81
283.976	85.81
284.207	85.81
284.439	97.81
284.67	94.81
284.901	74.81
285.132	86.81
285.364	90.81
285.595	73.81
285.826	106.81
286.057	81.81
286.288	75.81
286.52	91.81
286.751	80.81
286.982	89.81
287.213	75.81
287.444	87.81
287.675	82.81
287.906	84.81
288.138	73.81
288.369	76.81
288.6	81.81
288.831	83.81
289.062	95.81
289.293	93.81
289.524	84.81
289.755	90.81
289.986	85.81
290.217	92.81
290.448	73.81
290.679	83.81
290.91	76.81
291.141	82.81
291.371	86.81
291.602	92.81
291.833	98.81
292.064	85.81
292.295	94.81
292.526	88.81
292.757	90.81
292.987	78.81
293.218	85.81
293.449	80.81
293.68	83.81
293.91	89.81
294.141	81.81
294.372	88.81
294.603	86.81
294.833	100.81
295.064	89.81
295.295	97.81
295.525	96.81
295.756	99.81
295.987	95.81
296.217	100.81
296.448	98.81
296.679	76.81
296.909	92.81
297.14	87.81
297.37	95.81
297.601	106.81
297.831	86.81
298.062	72.81
298.292	82.81
298.523	92.81
298.753	100.81
298.984	95.81
299.214	94.81
299.445	90.81
299.675	89.81
299.905	96.81
300.136	70.81
300.366	76.81
300.597	86.81
300.827	92.81
301.057	93.81
301.288	96.81
301.518	81.81
301.748	84.81
301.979	73.81
302.209	86.81
302.439	76.81
302.669	77.81
302.9	90.81
303.13	88.81
303.36	88.81
303.59	90.81
303.82	92.81
304.051	83.81
304.281	86.81
304.511	85.81
304.741	71.81
304.971	76.81
305.201	90.81
305.431	86.81
305.661	84.81
305.891	100.81
306.121	91.81
306.352	94.81
306.582	88.81
306.812	94.81
307.042	76.81
307.272	88.81
307.502	90.81
307.731	91.81
307.961	94.81
308.191	92.81
308.421	83.81
308.651	87.81
308.881	84.81
309.111	77.81
309.341	78.81
309.571	68.81
309.8	92.81
310.03	102.81
310.26	94.81
310.49	83.81
310.72	83.81
310.949	83.81
311.179	85.81
311.409	89.81
311.639	89.81
311.868	88.81
312.098	82.81
312.328	83.81
312.557	84.81
312.787	87.81
313.017	95.81
313.246	87.81
313.476	77.81
313.706	78.81
313.935	84.81
314.165	85.81
314.394	80.81
314.624	94.81
314.853	95.81
315.083	80.81
315.312	90.81
315.542	94.81
315.771	96.81
316.001	85.81
316.23	74.81
316.46	86.81
316.689	90.81
316.919	74.81
317.148	82.81
317.377	95.81
317.607	82.81
317.836	94.81
318.065	73.81
318.295	73.81
318.524	63.81
318.753	75.81
318.983	87.81
319.212	86.81
319.441	82.81
319.67	87.81
319.9	89.81
320.129	98.81
320.358	94.81
320.587	85.81
320.816	81.81
321.046	84.81
321.275	88.81
321.504	82.81
321.733	78.81
321.962	88.81
322.191	95.81
322.42	83.81
322.649	81.81
322.878	95.81
323.108	88.81
323.337	92.81
323.566	89.81
323.795	87.81
324.024	85.81
324.253	94.81
324.482	87.81
324.71	84.81
324.939	95.81
325.168	85.81
325.397	83.81
325.626	88.81
325.855	82.81
326.084	84.81
326.313	91.81
326.542	97.81
326.77	97.81
326.999	83.81
327.228	89.81
327.457	94.81
327.686	84.81
327.914	80.81
328.143	92.81
328.372	86.81
328.6	87.81
328.829	91.81
329.058	74.81
329.287	103.81
329.515	89.81
329.744	82.81
329.972	92.81
330.201	96.81
330.43	96.81
330.658	80.81
330.887	93.81
331.115	89.81
331.344	97.81
331.572	83.81
331.801	88.81
332.03	107.81
332.258	86.81
332.486	91.81
332.715	92.81
332.943	84.81
333.172	91.81
333.4	83.81
333.629	83.81
333.857	90.81
334.085	84.81
334.314	89.81
334.542	81.81
334.771	96.81
334.999	93.81
335.227	90.81
335.455	89.81
335.684	79.81
335.912	79.81
336.14	89.81
336.369	97.81
336.597	89.81
336.825	99.81
337.053	82.81
337.281	100.81
337.51	69.81
337.738	94.81
337.966	91.81
338.194	80.81
338.422	98.81
338.65	89.81
338.878	63.81
339.106	91.81
339.334	82.81
339.562	83.81
339.79	93.81
340.018	79.81
340.246	90.81
340.474	90.81
340.702	85.81
340.93	92.81
341.158	79.81
341.386	90.81
341.614	74.81
341.842	101.81
342.07	86.81
342.298	81.81
342.526	88.81
342.754	101.81
342.981	91.81
343.209	89.81
343.437	93.81
343.665	88.81
343.893	86.81
344.12	96.81
344.348	78.81
344.576	81.81
344.804	94.81
345.031	82.81
345.259	79.81
345.487	76.81
345.714	76.81
345.942	80.81
346.17	101.81
346.397	81.81
346.625	80.81
346.853	76.81
347.08	87.81
347.308	93.81
347.535	77.81
347.763	80.81
347.99	79.81
348.218	92.81
348.445	84.81
348.673	101.81
348.9	70.81
349.128	93.81
349.355	69.81
349.583	95.81
349.81	80.81
350.037	68.81
350.265	70.81
350.492	73.81
350.72	96.81
350.947	94.81
351.174	103.81
351.402	87.81
351.629	81.81
351.856	93.81
352.083	82.81
352.311	95.81
352.538	81.81
352.765	80.81
352.992	88.81
353.22	88.81
353.447	75.81
353.674	84.81
353.901	79.81
354.128	79.81
354.355	80.81
354.583	84.81
354.81	85.81
355.037	84.81
355.264	76.81
355.491	72.81
355.718	88.81
355.945	88.81
356.172	88.81
356.399	92.81
356.626	91.81
356.853	88.81
357.08	82.81
357.307	99.81
357.534	92.81
357.761	81.81
357.988	87.81
358.215	95.81
358.441	92.81
358.668	79.81
358.895	89.81
359.122	93.81
359.349	86.81
359.576	84.81
359.802	84.81
360.029	100.81
360.256	107.81
360.483	78.81
360.709	85.81
360.936	86.81
361.163	77.81
361.39	88.81
361.616	85.81
361.843	72.81
362.07	84.81
362.296	82.81
362.523	94.81
362.749	69.81
362.976	96.81
363.203	93.81
363.429	80.81
363.656	81.81
363.882	99.81
364.109	87.81
364.335	84.81
364.562	95.81
364.788	85.81
365.015	96.81
365.241	88.81
365.468	88.81
365.694	69.81
365.92	80.81
366.147	87.81
366.373	95.81
366.599	85.81
366.826	94.81
367.052	90.81
367.278	83.81
367.505	90.81
367.731	84.81
367.957	84.81
368.184	72.81
368.41	84.81
368.636	88.81
368.862	97.81
369.089	93.81
369.315	90.81
369.541	94.81
369.767	89.81
369.993	92.81
370.219	101.81
370.445	99.81
370.672	95.81
370.898	101.81
371.124	91.81
371.35	80.81
371.576	98.81
371.802	94.81
372.028	93.81
372.254	96.81
372.48	100.81
372.706	83.81
372.932	91.81
373.158	112.81
373.384	91.81
373.61	89.81
373.835	96.81
374.061	106.81
374.287	91.81
374.513	105.81
374.739	96.81
374.965	95.81
375.191	81.81
375.416	95.81
375.642	93.81
375.868	94.81
376.094	92.81
376.319	94.81
376.545	86.81
376.771	100.81
376.997	87.81
377.222	93.81
377.448	96.81
377.674	105.81
377.899	96.81
378.125	90.81
378.35	95.81
378.576	92.81
378.802	99.81
379.027	89.81
379.253	100.81
379.478	97.81
379.704	100.81
379.929	100.81
380.155	100.81
380.38	95.81
380.606	93.81
380.831	89.81
381.057	97.81
381.282	104.81
381.507	103.81
381.733	97.81
381.958	118.81
382.184	97.81
382.409	90.81
382.634	78.81
382.86	94.81
383.085	91.81
383.31	82.81
383.535	108.81
383.761	96.81
383.986	106.81
384.211	94.81
384.436	91.81
384.662	97.81
384.887	90.81
385.112	83.81
385.337	104.81
385.562	105.81
385.787	92.81
386.013	103.81
386.238	103.81
386.463	90.81
386.688	87.81
386.913	112.81
387.138	112.81
387.363	105.81
387.588	96.81
387.813	109.81
388.038	88.81
388.263	103.81
388.488	96.81
388.713	107.81
388.938	100.81
389.163	102.81
389.387	104.81
389.612	106.81
389.837	99.81
390.062	104.81
390.287	88.81
390.512	93.81
390.736	105.81
390.961	108.81
391.186	107.81
391.411	97.81
391.636	115.81
391.86	89.81
392.085	103.81
392.31	100.81
392.534	103.81
392.759	98.81
392.984	101.81
393.208	115.81
393.433	107.81
393.658	100.81
393.882	103.81
394.107	110.81
394.331	118.81
394.556	100.81
394.78	107.81
395.005	106.81
395.229	104.81
395.454	107.81
395.678	120.81
395.903	100.81
396.127	112.81
396.352	111.81
396.576	96.81
396.801	101.81
397.025	110.81
397.249	110.81
397.474	100.81
397.698	110.81
397.922	106.81
398.147	105.81
398.371	108.81
398.595	110.81
398.82	90.81
399.044	101.81
399.268	90.81
399.492	103.81
399.717	120.81
399.941	109.81
400.165	106.81
400.389	108.81
400.613	120.81
400.837	113.81
401.062	113.81
401.286	106.81
401.51	105.81
401.734	116.81
401.958	112.81
402.182	107.81
402.406	103.81
402.63	118.81
402.854	118.81
403.078	126.81
403.302	109.81
403.526	129.81
403.75	112.81
403.974	106.81
404.198	121.81
404.422	116.81
404.645	123.81
404.869	124.81
405.093	122.81
405.317	119.81
405.541	104.81
405.765	105.81
405.988	125.81
406.212	125.81
406.436	122.81
406.66	118.81
406.883	116.81
407.107	115.81
407.331	124.81
407.555	112.81
407.778	120.81
408.002	126.81
408.226	118.81
408.449	105.81
408.673	114.81
408.896	123.81
409.12	116.81
409.344	113.81
409.567	118.81
409.791	116.81
410.014	124.81
410.238	126.81
410.461	114.81
410.685	117.81
410.908	107.81
411.132	123.81
411.355	116.81
411.578	130.81
411.802	127.81
412.025	96.81
412.249	122.81
412.472	120.81
412.695	121.81
412.919	125.81
413.142	118.81
413.365	121.81
413.589	117.81
413.812	110.81
414.035	110.81
414.258	103.81
414.482	136.81
414.705	118.81
414.928	122.81
415.151	133.81
415.374	133.81
415.597	112.81
415.821	128.81
416.044	110.81
416.267	118.81
416.49	133.81
416.713	118.81
416.936	116.81
417.159	129.81
417.382	122.81
417.605	122.81
417.828	128.81
418.051	119.81
418.274	143.81
418.497	124.81
418.72	142.81
418.943	144.81
419.166	138.81
419.389	142.81
419.611	123.81
419.834	130.81
420.057	127.81
420.28	121.81
420.503	130.81
420.726	134.81
420.948	127.81
421.171	133.81
421.394	134.81
421.617	136.81
421.839	148.81
422.062	144.81
422.285	145.81
422.507	125.81
422.73	113.81
422.953	128.81
423.175	135.81
423.398	126.81
423.621	131.81
423.843	140.81
424.066	127.81
424.288	140.81
424.511	154.81
424.733	149.81
424.956	143.81
425.178	136.81
425.401	126.81
425.623	141.81
425.846	136.81
426.068	128.81
426.291	138.81
426.513	131.81
426.735	133.81
426.958	118.81
427.18	135.81
427.402	141.81
427.625	133.81
427.847	135.81
428.069	126.81
428.292	136.81
428.514	146.81
428.736	136.81
428.958	117.81
429.181	126.81
429.403	147.81
429.625	137.81
429.847	134.81
430.069	121.81
430.292	134.81
430.514	134.81
430.736	130.81
430.958	124.81
431.18	114.81
431.402	126.81
431.624	120.81
431.846	113.81
432.068	110.81
432.29	101.81
432.512	118.81
432.734	120.81
432.956	134.81
433.178	128.81
433.4	143.81
433.622	132.81
433.844	125.81
434.066	121.81
434.287	118.81
434.509	108.81
434.731	96.81
434.953	114.81
435.175	109.81
435.397	124.81
435.618	129.81
435.84	112.81
436.062	120.81
436.284	127.81
436.505	128.81
436.727	119.81
436.949	130.81
437.17	126.81
437.392	141.81
437.614	125.81
437.835	112.81
438.057	105.81
438.278	117.81
438.5	126.81
438.721	129.81
438.943	132.81
439.165	135.81
439.386	147.81
439.608	150.81
439.829	136.81
440.05	150.81
440.272	141.81
440.493	137.81
440.715	131.81
440.936	141.81
441.158	136.81
441.379	144.81
441.6	155.81
441.822	144.81
442.043	150.81
442.264	150.81
442.486	146.81
442.707	139.81
442.928	147.81
443.149	126.81
443.371	137.81
443.592	143.81
443.813	141.81
444.034	129.81
444.255	140.81
444.476	140.81
444.698	156.81
444.919	142.81
445.14	272.81
445.361	197.81
445.582	159.81
445.803	156.81
446.024	158.81
446.245	142.81
446.466	160.81
446.687	157.81
446.908	162.81
447.129	152.81
447.35	143.81
447.571	151.81
447.792	149.81
448.013	140.81
448.234	145.81
448.455	144.81
448.675	143.81
448.896	144.81
449.117	130.81
449.338	138.81
449.559	136.81
449.779	128.81
450	118.81
450.221	147.81
450.442	144.81
450.662	141.81
450.883	117.81
451.104	138.81
451.324	118.81
451.545	125.81
451.766	128.81
451.986	130.81
452.207	121.81
452.428	128.81
452.648	128.81
452.869	118.81
453.089	131.81
453.31	110.81
453.53	114.81
453.751	108.81
453.971	107.81
454.192	95.81
454.412	107.81
454.633	114.81
454.853	129.81
455.073	126.81
455.294	132.81
455.514	130.81
455.734	116.81
455.955	127.81
456.175	119.81
456.395	119.81
456.616	110.81
456.836	122.81
457.056	105.81
457.276	104.81
457.497	119.81
457.717	110.81
457.937	120.81
458.157	111.81
458.377	104.81
458.598	97.81
458.818	94.81
459.038	102.81
459.258	88.81
459.478	97.81
459.698	91.81
459.918	106.81
460.138	112.81
460.358	118.81
460.578	120.81
460.798	132.81
461.018	96.81
461.238	105.81
461.458	107.81
461.678	111.81
461.898	108.81
462.118	105.81
462.338	135.81
462.558	111.81
462.777	106.81
462.997	95.81
463.217	105.81
463.437	123.81
463.657	104.81
463.876	106.81
464.096	117.81
464.316	118.81
464.536	118.81
464.755	120.81
464.975	119.81
465.195	116.81
465.414	120.81
465.634	118.81
465.854	110.81
466.073	126.81
466.293	122.81
466.512	124.81
466.732	121.81
466.951	119.81
467.171	135.81
467.391	137.81
467.61	132.81
467.829	128.81
468.049	135.81
468.268	149.81
468.488	113.81
468.707	146.81
468.927	137.81
469.146	134.81
469.365	138.81
469.585	142.81
469.804	152.81
470.023	138.81
470.243	154.81
470.462	143.81
470.681	137.81
470.901	135.81
471.12	137.81
471.339	140.81
471.558	140.81
471.777	145.81
471.997	132.81
472.216	139.81
472.435	118.81
472.654	118.81
472.873	116.81
473.092	114.81
473.311	136.81
473.53	117.81
473.749	142.81
473.968	134.81
474.187	123.81
474.406	116.81
474.625	124.81
474.844	122.81
475.063	124.81
475.282	130.81
475.501	122.81
475.72	127.81
475.939	134.81
476.158	124.81
476.377	131.81
476.596	109.81
476.814	111.81
477.033	117.81
477.252	106.81
477.471	133.81
477.69	130.81
477.908	132.81
478.127	150.81
478.346	138.81
478.564	141.81
478.783	144.81
479.002	130.81
479.22	140.81
479.439	151.81
479.658	126.81
479.876	120.81
480.095	112.81
480.313	120.81
480.532	132.81
480.751	112.81
480.969	93.81
481.188	98.81
481.406	95.81
481.624	88.81
481.843	98.81
482.061	105.81
482.28	118.81
482.498	105.81
482.717	109.81
482.935	130.81
483.153	146.81
483.372	156.81
483.59	147.81
483.808	142.81
484.027	145.81
484.245	126.81
484.463	164.81
484.681	152.81
484.9	154.81
485.118	135.81
485.336	154.81
485.554	111.81
485.772	107.81
485.99	114.81
486.209	122.81
486.427	115.81
486.645	110.81
486.863	126.81
487.081	142.81
487.299	136.81
487.517	144.81
487.735	156.81
487.953	186.81
488.171	174.81
488.389	183.81
488.607	152.81
488.825	145.81
489.043	145.81
489.261	139.81
489.479	141.81
489.696	146.81
489.914	140.81
490.132	136.81
490.35	154.81
490.568	158.81
490.786	160.81
491.003	163.81
491.221	171.81
491.439	183.81
491.657	198.81
491.874	216.81
492.092	211.81
492.31	245.81
492.527	218.81
492.745	200.81
492.963	182.81
493.18	176.81
493.398	182.81
493.615	154.81
493.833	180.81
494.05	172.81
494.268	167.81
494.485	194.81
494.703	170.81
494.92	162.81
495.138	169.81
495.355	166.81
495.573	184.81
495.79	148.81
496.008	168.81
496.225	166.81
496.442	166.81
496.66	162.81
496.877	158.81
497.094	154.81
497.312	154.81
497.529	160.81
497.746	148.81
497.963	150.81
498.181	129.81
498.398	142.81
498.615	114.81
498.832	107.81
499.049	123.81
499.267	112.81
499.484	122.81
499.701	133.81
499.918	135.81
500.135	137.81
500.352	139.81
500.569	143.81
500.786	137.81
501.003	132.81
501.22	148.81
501.437	138.81
501.654	128.81
501.871	123.81
502.088	136.81
502.305	136.81
502.522	131.81
502.739	140.81
502.956	130.81
503.172	122.81
503.389	122.81
503.606	120.81
503.823	122.81
504.04	117.81
504.256	100.81
504.473	130.81
504.69	113.81
504.907	124.81
505.123	112.81
505.34	124.81
505.557	130.81
505.773	129.81
505.99	119.81
506.207	110.81
506.423	118.81
506.64	112.81
506.856	126.81
507.073	116.81
507.289	122.81
507.506	109.81
507.722	126.81
507.939	124.81
508.155	112.81
508.372	128.81
508.588	116.81
508.805	128.81
509.021	108.81
509.238	107.81
509.454	90.81
509.67	104.81
509.887	122.81
510.103	89.81
510.319	102.81
510.536	109.81
510.752	92.81
510.968	81.81
511.184	95.81
511.401	90.81
