Data from Location1.07152019.Energy5.Lamp.07192019.3%Agarose_HRD10591_14-32-57-016.txt Node
Date: Fri Jul 19 14:32:57 EDT 2019
User: cochatt
Spectrometer: HR+D1059
Trigger mode: 1
Integration Time (sec): 1.000000E-1
Scans to average: 1
Electric dark correction enabled: true
Nonlinearity correction enabled: false
Boxcar width: 0
XAxis mode: Wavelengths
Number of Pixels in Spectrum: 2048
>>>>>Begin Spectral Data<<<<<
223.165	-14.62
223.4	-14.62
223.635	-14.62
223.869	-10.62
224.104	-17.62
224.338	-12.62
224.573	-20.62
224.808	-9.62
225.042	-9.62
225.277	-11.62
225.511	-5.62
225.746	6.38
225.98	5.38
226.215	8.38
226.449	9.38
226.683	27.38
226.918	28.38
227.152	27.38
227.387	31.38
227.621	40.38
227.856	35.38
228.09	46.38
228.324	49.38
228.559	64.38
228.793	59.38
229.027	61.38
229.262	58.38
229.496	61.38
229.73	71.38
229.964	71.38
230.199	75.38
230.433	77.38
230.667	70.38
230.901	81.38
231.136	67.38
231.37	83.38
231.604	89.38
231.838	61.38
232.072	83.38
232.306	79.38
232.541	84.38
232.775	96.38
233.009	72.38
233.243	71.38
233.477	70.38
233.711	89.38
233.945	87.38
234.179	84.38
234.413	75.38
234.647	75.38
234.881	88.38
235.115	81.38
235.349	81.38
235.583	85.38
235.817	77.38
236.051	77.38
236.285	74.38
236.519	76.38
236.753	83.38
236.987	86.38
237.221	83.38
237.455	83.38
237.689	84.38
237.922	77.38
238.156	82.38
238.39	91.38
238.624	75.38
238.858	74.38
239.091	78.38
239.325	88.38
239.559	68.38
239.793	85.38
240.027	81.38
240.26	89.38
240.494	70.38
240.728	82.38
240.961	74.38
241.195	75.38
241.429	66.38
241.662	90.38
241.896	97.38
242.13	86.38
242.363	85.38
242.597	76.38
242.83	69.38
243.064	77.38
243.298	81.38
243.531	69.38
243.765	84.38
243.998	71.38
244.232	72.38
244.465	89.38
244.699	74.38
244.932	78.38
245.166	69.38
245.399	85.38
245.633	68.38
245.866	84.38
246.099	76.38
246.333	65.38
246.566	82.38
246.8	74.38
247.033	74.38
247.266	74.38
247.5	83.38
247.733	78.38
247.966	67.38
248.2	71.38
248.433	91.38
248.666	74.38
248.899	86.38
249.133	76.38
249.366	85.38
249.599	83.38
249.832	77.38
250.066	81.38
250.299	76.38
250.532	87.38
250.765	72.38
250.998	67.38
251.231	96.38
251.465	86.38
251.698	86.38
251.931	66.38
252.164	80.38
252.397	69.38
252.63	85.38
252.863	75.38
253.096	83.38
253.329	62.38
253.562	80.38
253.795	71.38
254.028	73.38
254.261	76.38
254.494	77.38
254.727	78.38
254.96	71.38
255.193	79.38
255.426	94.38
255.659	73.38
255.892	85.38
256.124	78.38
256.357	92.38
256.59	85.38
256.823	83.38
257.056	91.38
257.289	88.38
257.521	86.38
257.754	72.38
257.987	79.38
258.22	86.38
258.452	76.38
258.685	73.38
258.918	76.38
259.151	74.38
259.383	84.38
259.616	69.38
259.849	91.38
260.081	79.38
260.314	74.38
260.547	84.38
260.779	68.38
261.012	83.38
261.244	77.38
261.477	67.38
261.71	77.38
261.942	84.38
262.175	92.38
262.407	86.38
262.64	60.38
262.872	85.38
263.105	88.38
263.337	72.38
263.57	83.38
263.802	67.38
264.035	78.38
264.267	89.38
264.499	79.38
264.732	73.38
264.964	87.38
265.197	66.38
265.429	91.38
265.661	87.38
265.894	79.38
266.126	88.38
266.358	69.38
266.591	83.38
266.823	85.38
267.055	80.38
267.287	101.38
267.52	95.38
267.752	94.38
267.984	79.38
268.216	81.38
268.448	92.38
268.681	93.38
268.913	87.38
269.145	87.38
269.377	85.38
269.609	84.38
269.841	79.38
270.073	83.38
270.306	86.38
270.538	85.38
270.77	84.38
271.002	78.38
271.234	68.38
271.466	94.38
271.698	74.38
271.93	83.38
272.162	84.38
272.394	87.38
272.626	77.38
272.858	83.38
273.09	75.38
273.322	64.38
273.553	94.38
273.785	86.38
274.017	88.38
274.249	88.38
274.481	86.38
274.713	84.38
274.945	80.38
275.176	71.38
275.408	85.38
275.64	92.38
275.872	79.38
276.104	88.38
276.335	71.38
276.567	79.38
276.799	60.38
277.031	87.38
277.262	75.38
277.494	88.38
277.726	91.38
277.957	79.38
278.189	101.38
278.421	72.38
278.652	85.38
278.884	84.38
279.115	82.38
279.347	83.38
279.579	82.38
279.81	77.38
280.042	79.38
280.273	76.38
280.505	81.38
280.736	77.38
280.968	82.38
281.199	72.38
281.431	78.38
281.662	89.38
281.894	85.38
282.125	85.38
282.356	84.38
282.588	85.38
282.819	80.38
283.051	76.38
283.282	78.38
283.513	80.38
283.745	79.38
283.976	82.38
284.207	73.38
284.439	85.38
284.67	89.38
284.901	93.38
285.132	84.38
285.364	85.38
285.595	89.38
285.826	77.38
286.057	77.38
286.288	82.38
286.52	86.38
286.751	86.38
286.982	83.38
287.213	84.38
287.444	76.38
287.675	80.38
287.906	91.38
288.138	93.38
288.369	75.38
288.6	75.38
288.831	78.38
289.062	83.38
289.293	85.38
289.524	78.38
289.755	91.38
289.986	81.38
290.217	84.38
290.448	82.38
290.679	85.38
290.91	89.38
291.141	69.38
291.371	87.38
291.602	76.38
291.833	92.38
292.064	84.38
292.295	98.38
292.526	93.38
292.757	82.38
292.987	78.38
293.218	78.38
293.449	79.38
293.68	79.38
293.91	78.38
294.141	76.38
294.372	85.38
294.603	88.38
294.833	88.38
295.064	88.38
295.295	78.38
295.525	101.38
295.756	84.38
295.987	84.38
296.217	87.38
296.448	84.38
296.679	100.38
296.909	99.38
297.14	81.38
297.37	83.38
297.601	79.38
297.831	76.38
298.062	95.38
298.292	94.38
298.523	94.38
298.753	92.38
298.984	79.38
299.214	76.38
299.445	100.38
299.675	95.38
299.905	97.38
300.136	93.38
300.366	92.38
300.597	88.38
300.827	74.38
301.057	79.38
301.288	84.38
301.518	77.38
301.748	79.38
301.979	93.38
302.209	83.38
302.439	67.38
302.669	77.38
302.9	77.38
303.13	78.38
303.36	92.38
303.59	80.38
303.82	77.38
304.051	92.38
304.281	94.38
304.511	91.38
304.741	101.38
304.971	88.38
305.201	77.38
305.431	77.38
305.661	86.38
305.891	79.38
306.121	85.38
306.352	80.38
306.582	84.38
306.812	76.38
307.042	89.38
307.272	79.38
307.502	77.38
307.731	79.38
307.961	78.38
308.191	78.38
308.421	83.38
308.651	91.38
308.881	79.38
309.111	84.38
309.341	66.38
309.571	85.38
309.8	83.38
310.03	79.38
310.26	91.38
310.49	67.38
310.72	87.38
310.949	89.38
311.179	90.38
311.409	78.38
311.639	75.38
311.868	86.38
312.098	98.38
312.328	82.38
312.557	86.38
312.787	82.38
313.017	92.38
313.246	88.38
313.476	87.38
313.706	91.38
313.935	93.38
314.165	85.38
314.394	76.38
314.624	79.38
314.853	92.38
315.083	87.38
315.312	96.38
315.542	77.38
315.771	81.38
316.001	90.38
316.23	85.38
316.46	91.38
316.689	82.38
316.919	89.38
317.148	102.38
317.377	81.38
317.607	76.38
317.836	73.38
318.065	93.38
318.295	82.38
318.524	71.38
318.753	89.38
318.983	75.38
319.212	85.38
319.441	79.38
319.67	97.38
319.9	98.38
320.129	85.38
320.358	87.38
320.587	86.38
320.816	91.38
321.046	87.38
321.275	83.38
321.504	83.38
321.733	88.38
321.962	86.38
322.191	83.38
322.42	90.38
322.649	83.38
322.878	88.38
323.108	89.38
323.337	91.38
323.566	77.38
323.795	97.38
324.024	93.38
324.253	87.38
324.482	97.38
324.71	95.38
324.939	87.38
325.168	86.38
325.397	92.38
325.626	84.38
325.855	94.38
326.084	87.38
326.313	78.38
326.542	94.38
326.77	82.38
326.999	71.38
327.228	94.38
327.457	90.38
327.686	94.38
327.914	75.38
328.143	99.38
328.372	76.38
328.6	80.38
328.829	89.38
329.058	78.38
329.287	86.38
329.515	89.38
329.744	89.38
329.972	81.38
330.201	74.38
330.43	79.38
330.658	71.38
330.887	87.38
331.115	87.38
331.344	77.38
331.572	89.38
331.801	87.38
332.03	91.38
332.258	104.38
332.486	79.38
332.715	81.38
332.943	101.38
333.172	91.38
333.4	92.38
333.629	94.38
333.857	87.38
334.085	93.38
334.314	82.38
334.542	77.38
334.771	92.38
334.999	78.38
335.227	78.38
335.455	78.38
335.684	90.38
335.912	85.38
336.14	87.38
336.369	84.38
336.597	69.38
336.825	79.38
337.053	83.38
337.281	79.38
337.51	85.38
337.738	87.38
337.966	79.38
338.194	83.38
338.422	79.38
338.65	80.38
338.878	93.38
339.106	80.38
339.334	81.38
339.562	84.38
339.79	83.38
340.018	86.38
340.246	82.38
340.474	95.38
340.702	87.38
340.93	77.38
341.158	79.38
341.386	78.38
341.614	76.38
341.842	79.38
342.07	102.38
342.298	90.38
342.526	87.38
342.754	82.38
342.981	71.38
343.209	87.38
343.437	90.38
343.665	86.38
343.893	84.38
344.12	92.38
344.348	82.38
344.576	85.38
344.804	92.38
345.031	89.38
345.259	85.38
345.487	95.38
345.714	77.38
345.942	87.38
346.17	90.38
346.397	74.38
346.625	76.38
346.853	83.38
347.08	89.38
347.308	80.38
347.535	79.38
347.763	67.38
347.99	77.38
348.218	87.38
348.445	68.38
348.673	82.38
348.9	87.38
349.128	83.38
349.355	96.38
349.583	84.38
349.81	86.38
350.037	88.38
350.265	72.38
350.492	77.38
350.72	79.38
350.947	91.38
351.174	87.38
351.402	69.38
351.629	84.38
351.856	69.38
352.083	90.38
352.311	70.38
352.538	79.38
352.765	99.38
352.992	77.38
353.22	70.38
353.447	92.38
353.674	83.38
353.901	77.38
354.128	85.38
354.355	75.38
354.583	82.38
354.81	78.38
355.037	83.38
355.264	94.38
355.491	87.38
355.718	78.38
355.945	88.38
356.172	81.38
356.399	73.38
356.626	77.38
356.853	82.38
357.08	81.38
357.307	103.38
357.534	83.38
357.761	78.38
357.988	85.38
358.215	77.38
358.441	100.38
358.668	84.38
358.895	84.38
359.122	79.38
359.349	95.38
359.576	90.38
359.802	84.38
360.029	81.38
360.256	70.38
360.483	79.38
360.709	91.38
360.936	88.38
361.163	77.38
361.39	73.38
361.616	79.38
361.843	72.38
362.07	82.38
362.296	73.38
362.523	77.38
362.749	96.38
362.976	90.38
363.203	87.38
363.429	86.38
363.656	67.38
363.882	76.38
364.109	83.38
364.335	84.38
364.562	96.38
364.788	86.38
365.015	81.38
365.241	87.38
365.468	82.38
365.694	84.38
365.92	73.38
366.147	89.38
366.373	82.38
366.599	91.38
366.826	76.38
367.052	97.38
367.278	72.38
367.505	84.38
367.731	83.38
367.957	92.38
368.184	93.38
368.41	100.38
368.636	91.38
368.862	94.38
369.089	81.38
369.315	83.38
369.541	95.38
369.767	96.38
369.993	80.38
370.219	86.38
370.445	88.38
370.672	86.38
370.898	80.38
371.124	98.38
371.35	92.38
371.576	76.38
371.802	85.38
372.028	97.38
372.254	104.38
372.48	92.38
372.706	85.38
372.932	83.38
373.158	107.38
373.384	75.38
373.61	96.38
373.835	105.38
374.061	81.38
374.287	84.38
374.513	91.38
374.739	91.38
374.965	93.38
375.191	90.38
375.416	87.38
375.642	85.38
375.868	74.38
376.094	81.38
376.319	95.38
376.545	90.38
376.771	107.38
376.997	96.38
377.222	98.38
377.448	87.38
377.674	91.38
377.899	104.38
378.125	99.38
378.35	97.38
378.576	88.38
378.802	89.38
379.027	94.38
379.253	86.38
379.478	93.38
379.704	94.38
379.929	89.38
380.155	101.38
380.38	99.38
380.606	82.38
380.831	91.38
381.057	106.38
381.282	102.38
381.507	87.38
381.733	84.38
381.958	97.38
382.184	94.38
382.409	89.38
382.634	102.38
382.86	86.38
383.085	104.38
383.31	102.38
383.535	90.38
383.761	101.38
383.986	97.38
384.211	98.38
384.436	91.38
384.662	101.38
384.887	76.38
385.112	98.38
385.337	79.38
385.562	87.38
385.787	86.38
386.013	94.38
386.238	101.38
386.463	90.38
386.688	89.38
386.913	102.38
387.138	93.38
387.363	95.38
387.588	109.38
387.813	104.38
388.038	98.38
388.263	94.38
388.488	87.38
388.713	110.38
388.938	90.38
389.163	106.38
389.387	100.38
389.612	106.38
389.837	90.38
390.062	106.38
390.287	96.38
390.512	96.38
390.736	115.38
390.961	108.38
391.186	103.38
391.411	99.38
391.636	107.38
391.86	93.38
392.085	107.38
392.31	110.38
392.534	97.38
392.759	89.38
392.984	98.38
393.208	109.38
393.433	106.38
393.658	107.38
393.882	109.38
394.107	115.38
394.331	113.38
394.556	87.38
394.78	101.38
395.005	107.38
395.229	109.38
395.454	105.38
395.678	93.38
395.903	105.38
396.127	103.38
396.352	113.38
396.576	90.38
396.801	116.38
397.025	96.38
397.249	105.38
397.474	97.38
397.698	106.38
397.922	98.38
398.147	103.38
398.371	108.38
398.595	106.38
398.82	105.38
399.044	122.38
399.268	107.38
399.492	110.38
399.717	113.38
399.941	109.38
400.165	116.38
400.389	111.38
400.613	103.38
400.837	131.38
401.062	105.38
401.286	123.38
401.51	116.38
401.734	122.38
401.958	118.38
402.182	101.38
402.406	119.38
402.63	100.38
402.854	109.38
403.078	115.38
403.302	119.38
403.526	110.38
403.75	114.38
403.974	102.38
404.198	124.38
404.422	117.38
404.645	117.38
404.869	118.38
405.093	119.38
405.317	107.38
405.541	117.38
405.765	122.38
405.988	117.38
406.212	119.38
406.436	120.38
406.66	107.38
406.883	120.38
407.107	133.38
407.331	121.38
407.555	119.38
407.778	116.38
408.002	115.38
408.226	110.38
408.449	121.38
408.673	118.38
408.896	119.38
409.12	115.38
409.344	123.38
409.567	110.38
409.791	126.38
410.014	114.38
410.238	112.38
410.461	117.38
410.685	99.38
410.908	113.38
411.132	122.38
411.355	125.38
411.578	135.38
411.802	126.38
412.025	108.38
412.249	129.38
412.472	115.38
412.695	134.38
412.919	125.38
413.142	121.38
413.365	124.38
413.589	117.38
413.812	125.38
414.035	134.38
414.258	114.38
414.482	123.38
414.705	121.38
414.928	122.38
415.151	113.38
415.374	123.38
415.597	100.38
415.821	115.38
416.044	124.38
416.267	119.38
416.49	130.38
416.713	102.38
416.936	117.38
417.159	123.38
417.382	110.38
417.605	109.38
417.828	137.38
418.051	122.38
418.274	119.38
418.497	130.38
418.72	113.38
418.943	122.38
419.166	137.38
419.389	139.38
419.611	122.38
419.834	127.38
420.057	143.38
420.28	142.38
420.503	128.38
420.726	125.38
420.948	124.38
421.171	126.38
421.394	129.38
421.617	142.38
421.839	137.38
422.062	149.38
422.285	136.38
422.507	144.38
422.73	135.38
422.953	111.38
423.175	115.38
423.398	131.38
423.621	131.38
423.843	117.38
424.066	130.38
424.288	145.38
424.511	137.38
424.733	141.38
424.956	134.38
425.178	131.38
425.401	137.38
425.623	139.38
425.846	125.38
426.068	125.38
426.291	134.38
426.513	113.38
426.735	135.38
426.958	129.38
427.18	131.38
427.402	126.38
427.625	129.38
427.847	115.38
428.069	124.38
428.292	125.38
428.514	127.38
428.736	120.38
428.958	123.38
429.181	124.38
429.403	119.38
429.625	127.38
429.847	141.38
430.069	140.38
430.292	117.38
430.514	126.38
430.736	122.38
430.958	110.38
431.18	127.38
431.402	122.38
431.624	106.38
431.846	109.38
432.068	90.38
432.29	93.38
432.512	110.38
432.734	116.38
432.956	131.38
433.178	129.38
433.4	134.38
433.622	137.38
433.844	122.38
434.066	121.38
434.287	105.38
434.509	85.38
434.731	93.38
434.953	108.38
435.175	117.38
435.397	120.38
435.618	129.38
435.84	139.38
436.062	122.38
436.284	126.38
436.505	139.38
436.727	134.38
436.949	138.38
437.17	118.38
437.392	120.38
437.614	114.38
437.835	113.38
438.057	102.38
438.278	126.38
438.5	124.38
438.721	126.38
438.943	136.38
439.165	139.38
439.386	139.38
439.608	141.38
439.829	141.38
440.05	142.38
440.272	149.38
440.493	149.38
440.715	142.38
440.936	133.38
441.158	147.38
441.379	146.38
441.6	143.38
441.822	147.38
442.043	139.38
442.264	131.38
442.486	150.38
442.707	135.38
442.928	124.38
443.149	133.38
443.371	133.38
443.592	135.38
443.813	126.38
444.034	138.38
444.255	135.38
444.476	141.38
444.698	146.38
444.919	136.38
445.14	262.38
445.361	216.38
445.582	145.38
445.803	155.38
446.024	143.38
446.245	167.38
446.466	146.38
446.687	149.38
446.908	146.38
447.129	149.38
447.35	157.38
447.571	147.38
447.792	159.38
448.013	146.38
448.234	134.38
448.455	130.38
448.675	146.38
448.896	137.38
449.117	141.38
449.338	140.38
449.559	123.38
449.779	128.38
450	136.38
450.221	139.38
450.442	127.38
450.662	131.38
450.883	133.38
451.104	128.38
451.324	115.38
451.545	144.38
451.766	126.38
451.986	126.38
452.207	129.38
452.428	131.38
452.648	115.38
452.869	108.38
453.089	124.38
453.31	121.38
453.53	101.38
453.751	118.38
453.971	103.38
454.192	129.38
454.412	105.38
454.633	103.38
454.853	110.38
455.073	122.38
455.294	102.38
455.514	114.38
455.734	125.38
455.955	125.38
456.175	107.38
456.395	110.38
456.616	101.38
456.836	109.38
457.056	103.38
457.276	108.38
457.497	116.38
457.717	101.38
457.937	102.38
458.157	118.38
458.377	111.38
458.598	98.38
458.818	93.38
459.038	87.38
459.258	83.38
459.478	78.38
459.698	79.38
459.918	98.38
460.138	92.38
460.358	116.38
460.578	108.38
460.798	123.38
461.018	117.38
461.238	101.38
461.458	115.38
461.678	107.38
461.898	102.38
462.118	114.38
462.338	100.38
462.558	105.38
462.777	105.38
462.997	114.38
463.217	112.38
463.437	113.38
463.657	107.38
463.876	96.38
464.096	99.38
464.316	104.38
464.536	101.38
464.755	110.38
464.975	116.38
465.195	114.38
465.414	122.38
465.634	108.38
465.854	121.38
466.073	126.38
466.293	113.38
466.512	114.38
466.732	111.38
466.951	121.38
467.171	135.38
467.391	141.38
467.61	116.38
467.829	135.38
468.049	127.38
468.268	127.38
468.488	135.38
468.707	132.38
468.927	130.38
469.146	144.38
469.365	132.38
469.585	129.38
469.804	138.38
470.023	135.38
470.243	142.38
470.462	143.38
470.681	149.38
470.901	129.38
471.12	150.38
471.339	139.38
471.558	129.38
471.777	135.38
471.997	127.38
472.216	119.38
472.435	112.38
472.654	113.38
472.873	119.38
473.092	115.38
473.311	127.38
473.53	143.38
473.749	139.38
473.968	125.38
474.187	124.38
474.406	123.38
474.625	135.38
474.844	134.38
475.063	124.38
475.282	107.38
475.501	121.38
475.72	115.38
475.939	118.38
476.158	135.38
476.377	119.38
476.596	113.38
476.814	111.38
477.033	109.38
477.252	101.38
477.471	119.38
477.69	121.38
477.908	135.38
478.127	133.38
478.346	134.38
478.564	128.38
478.783	132.38
479.002	126.38
479.22	127.38
479.439	126.38
479.658	134.38
479.876	120.38
480.095	104.38
480.313	129.38
480.532	124.38
480.751	110.38
480.969	81.38
481.188	103.38
481.406	99.38
481.624	103.38
481.843	92.38
482.061	95.38
482.28	118.38
482.498	123.38
482.717	109.38
482.935	123.38
483.153	135.38
483.372	143.38
483.59	146.38
483.808	131.38
484.027	157.38
484.245	137.38
484.463	145.38
484.681	165.38
484.9	144.38
485.118	131.38
485.336	142.38
485.554	117.38
485.772	99.38
485.99	101.38
486.209	102.38
486.427	98.38
486.645	107.38
486.863	148.38
487.081	135.38
487.299	128.38
487.517	141.38
487.735	147.38
487.953	181.38
488.171	174.38
488.389	181.38
488.607	161.38
488.825	138.38
489.043	147.38
489.261	154.38
489.479	138.38
489.696	133.38
489.914	150.38
490.132	133.38
490.35	128.38
490.568	167.38
490.786	170.38
491.003	176.38
491.221	186.38
491.439	172.38
491.657	169.38
491.874	203.38
492.092	216.38
492.31	219.38
492.527	243.38
492.745	192.38
492.963	197.38
493.18	178.38
493.398	184.38
493.615	164.38
493.833	189.38
494.05	169.38
494.268	165.38
494.485	171.38
494.703	170.38
494.92	159.38
495.138	167.38
495.355	154.38
495.573	171.38
495.79	151.38
496.008	152.38
496.225	163.38
496.442	155.38
496.66	165.38
496.877	153.38
497.094	162.38
497.312	169.38
497.529	165.38
497.746	157.38
497.963	145.38
498.181	132.38
498.398	138.38
498.615	124.38
498.832	111.38
499.049	113.38
499.267	118.38
499.484	122.38
499.701	131.38
499.918	145.38
500.135	136.38
500.352	152.38
500.569	119.38
500.786	133.38
501.003	141.38
501.22	135.38
501.437	131.38
501.654	126.38
501.871	129.38
502.088	125.38
502.305	128.38
502.522	125.38
502.739	127.38
502.956	135.38
503.172	119.38
503.389	114.38
503.606	123.38
503.823	115.38
504.04	112.38
504.256	124.38
504.473	106.38
504.69	123.38
504.907	129.38
505.123	126.38
505.34	117.38
505.557	125.38
505.773	130.38
505.99	116.38
506.207	121.38
506.423	121.38
506.64	125.38
506.856	105.38
507.073	113.38
507.289	115.38
507.506	119.38
507.722	120.38
507.939	99.38
508.155	114.38
508.372	110.38
508.588	117.38
508.805	109.38
509.021	102.38
509.238	116.38
509.454	91.38
509.67	97.38
509.887	105.38
510.103	87.38
510.319	97.38
510.536	83.38
510.752	81.38
510.968	87.38
511.184	80.38
511.401	75.38
511.617	85.38
511.833	80.38
