Data from Location1.07152019.Energy5.Lamp.07192019.3%Agarose_HRD10591_14-32-20-018.txt Node
Date: Fri Jul 19 14:32:20 EDT 2019
User: cochatt
Spectrometer: HR+D1059
Trigger mode: 1
Integration Time (sec): 1.000000E-1
Scans to average: 1
Electric dark correction enabled: true
Nonlinearity correction enabled: false
Boxcar width: 0
XAxis mode: Wavelengths
Number of Pixels in Spectrum: 2048
>>>>>Begin Spectral Data<<<<<
223.165	-2.06
223.4	-2.06
223.635	-2.06
223.869	-22.06
224.104	-32.06
224.338	-8.06
224.573	-16.06
224.808	-8.06
225.042	-6.06
225.277	7.94
225.511	0.94
225.746	0.94
225.98	6.94
226.215	5.94
226.449	12.94
226.683	17.94
226.918	9.94
227.152	30.94
227.387	23.94
227.621	28.94
227.856	33.94
228.09	46.94
228.324	45.94
228.559	45.94
228.793	42.94
229.027	60.94
229.262	60.94
229.496	51.94
229.73	60.94
229.964	63.94
230.199	64.94
230.433	68.94
230.667	74.94
230.901	81.94
231.136	75.94
231.37	81.94
231.604	76.94
231.838	74.94
232.072	84.94
232.306	75.94
232.541	75.94
232.775	68.94
233.009	72.94
233.243	68.94
233.477	86.94
233.711	72.94
233.945	87.94
234.179	79.94
234.413	86.94
234.647	65.94
234.881	78.94
235.115	76.94
235.349	83.94
235.583	65.94
235.817	74.94
236.051	73.94
236.285	79.94
236.519	73.94
236.753	66.94
236.987	79.94
237.221	76.94
237.455	64.94
237.689	84.94
237.922	75.94
238.156	71.94
238.39	78.94
238.624	72.94
238.858	77.94
239.091	64.94
239.325	71.94
239.559	87.94
239.793	79.94
240.027	81.94
240.26	75.94
240.494	98.94
240.728	71.94
240.961	82.94
241.195	75.94
241.429	71.94
241.662	73.94
241.896	68.94
242.13	72.94
242.363	72.94
242.597	70.94
242.83	72.94
243.064	62.94
243.298	71.94
243.531	70.94
243.765	82.94
243.998	74.94
244.232	73.94
244.465	71.94
244.699	66.94
244.932	66.94
245.166	81.94
245.399	72.94
245.633	77.94
245.866	69.94
246.099	70.94
246.333	79.94
246.566	76.94
246.8	87.94
247.033	84.94
247.266	75.94
247.5	73.94
247.733	81.94
247.966	78.94
248.2	75.94
248.433	59.94
248.666	68.94
248.899	61.94
249.133	76.94
249.366	85.94
249.599	75.94
249.832	72.94
250.066	80.94
250.299	68.94
250.532	81.94
250.765	69.94
250.998	82.94
251.231	63.94
251.465	73.94
251.698	90.94
251.931	83.94
252.164	69.94
252.397	72.94
252.63	83.94
252.863	79.94
253.096	74.94
253.329	62.94
253.562	89.94
253.795	81.94
254.028	75.94
254.261	68.94
254.494	74.94
254.727	66.94
254.96	71.94
255.193	83.94
255.426	61.94
255.659	80.94
255.892	80.94
256.124	75.94
256.357	72.94
256.59	69.94
256.823	78.94
257.056	76.94
257.289	72.94
257.521	70.94
257.754	88.94
257.987	76.94
258.22	64.94
258.452	89.94
258.685	61.94
258.918	81.94
259.151	91.94
259.383	80.94
259.616	64.94
259.849	75.94
260.081	73.94
260.314	76.94
260.547	73.94
260.779	81.94
261.012	71.94
261.244	86.94
261.477	69.94
261.71	75.94
261.942	89.94
262.175	84.94
262.407	83.94
262.64	74.94
262.872	92.94
263.105	83.94
263.337	74.94
263.57	78.94
263.802	77.94
264.035	58.94
264.267	77.94
264.499	74.94
264.732	64.94
264.964	81.94
265.197	77.94
265.429	74.94
265.661	79.94
265.894	69.94
266.126	88.94
266.358	73.94
266.591	76.94
266.823	83.94
267.055	80.94
267.287	75.94
267.52	94.94
267.752	83.94
267.984	81.94
268.216	88.94
268.448	75.94
268.681	78.94
268.913	82.94
269.145	76.94
269.377	72.94
269.609	85.94
269.841	84.94
270.073	75.94
270.306	94.94
270.538	87.94
270.77	82.94
271.002	82.94
271.234	73.94
271.466	69.94
271.698	100.94
271.93	70.94
272.162	82.94
272.394	83.94
272.626	77.94
272.858	64.94
273.09	72.94
273.322	76.94
273.553	76.94
273.785	86.94
274.017	80.94
274.249	86.94
274.481	83.94
274.713	78.94
274.945	97.94
275.176	81.94
275.408	84.94
275.64	90.94
275.872	72.94
276.104	74.94
276.335	73.94
276.567	71.94
276.799	72.94
277.031	71.94
277.262	78.94
277.494	79.94
277.726	98.94
277.957	85.94
278.189	66.94
278.421	79.94
278.652	77.94
278.884	70.94
279.115	78.94
279.347	76.94
279.579	79.94
279.81	70.94
280.042	76.94
280.273	83.94
280.505	94.94
280.736	78.94
280.968	80.94
281.199	88.94
281.431	82.94
281.662	78.94
281.894	73.94
282.125	68.94
282.356	71.94
282.588	91.94
282.819	82.94
283.051	71.94
283.282	64.94
283.513	80.94
283.745	85.94
283.976	72.94
284.207	79.94
284.439	73.94
284.67	81.94
284.901	89.94
285.132	82.94
285.364	62.94
285.595	75.94
285.826	80.94
286.057	73.94
286.288	86.94
286.52	85.94
286.751	82.94
286.982	87.94
287.213	83.94
287.444	60.94
287.675	75.94
287.906	84.94
288.138	79.94
288.369	73.94
288.6	72.94
288.831	85.94
289.062	83.94
289.293	86.94
289.524	82.94
289.755	82.94
289.986	80.94
290.217	73.94
290.448	102.94
290.679	76.94
290.91	82.94
291.141	75.94
291.371	85.94
291.602	93.94
291.833	76.94
292.064	78.94
292.295	71.94
292.526	76.94
292.757	82.94
292.987	76.94
293.218	83.94
293.449	65.94
293.68	72.94
293.91	62.94
294.141	85.94
294.372	81.94
294.603	90.94
294.833	69.94
295.064	73.94
295.295	82.94
295.525	82.94
295.756	71.94
295.987	74.94
296.217	78.94
296.448	93.94
296.679	77.94
296.909	71.94
297.14	93.94
297.37	81.94
297.601	85.94
297.831	86.94
298.062	77.94
298.292	79.94
298.523	63.94
298.753	78.94
298.984	91.94
299.214	73.94
299.445	73.94
299.675	76.94
299.905	84.94
300.136	84.94
300.366	69.94
300.597	64.94
300.827	84.94
301.057	87.94
301.288	70.94
301.518	81.94
301.748	81.94
301.979	78.94
302.209	82.94
302.439	79.94
302.669	87.94
302.9	94.94
303.13	77.94
303.36	87.94
303.59	88.94
303.82	88.94
304.051	92.94
304.281	85.94
304.511	75.94
304.741	89.94
304.971	97.94
305.201	82.94
305.431	71.94
305.661	76.94
305.891	65.94
306.121	77.94
306.352	78.94
306.582	83.94
306.812	79.94
307.042	73.94
307.272	90.94
307.502	80.94
307.731	86.94
307.961	83.94
308.191	73.94
308.421	67.94
308.651	73.94
308.881	80.94
309.111	80.94
309.341	88.94
309.571	77.94
309.8	79.94
310.03	73.94
310.26	86.94
310.49	80.94
310.72	76.94
310.949	82.94
311.179	75.94
311.409	87.94
311.639	88.94
311.868	74.94
312.098	72.94
312.328	78.94
312.557	78.94
312.787	89.94
313.017	70.94
313.246	79.94
313.476	86.94
313.706	69.94
313.935	78.94
314.165	89.94
314.394	75.94
314.624	76.94
314.853	77.94
315.083	76.94
315.312	71.94
315.542	74.94
315.771	84.94
316.001	65.94
316.23	79.94
316.46	74.94
316.689	77.94
316.919	75.94
317.148	94.94
317.377	87.94
317.607	83.94
317.836	93.94
318.065	81.94
318.295	78.94
318.524	75.94
318.753	76.94
318.983	78.94
319.212	71.94
319.441	78.94
319.67	77.94
319.9	80.94
320.129	78.94
320.358	79.94
320.587	80.94
320.816	75.94
321.046	75.94
321.275	86.94
321.504	78.94
321.733	92.94
321.962	68.94
322.191	91.94
322.42	86.94
322.649	85.94
322.878	73.94
323.108	70.94
323.337	73.94
323.566	82.94
323.795	84.94
324.024	95.94
324.253	94.94
324.482	95.94
324.71	93.94
324.939	81.94
325.168	82.94
325.397	85.94
325.626	78.94
325.855	75.94
326.084	72.94
326.313	98.94
326.542	69.94
326.77	65.94
326.999	93.94
327.228	96.94
327.457	81.94
327.686	87.94
327.914	94.94
328.143	68.94
328.372	83.94
328.6	95.94
328.829	96.94
329.058	70.94
329.287	77.94
329.515	75.94
329.744	80.94
329.972	87.94
330.201	77.94
330.43	78.94
330.658	89.94
330.887	87.94
331.115	79.94
331.344	80.94
331.572	74.94
331.801	76.94
332.03	83.94
332.258	84.94
332.486	86.94
332.715	81.94
332.943	71.94
333.172	77.94
333.4	79.94
333.629	84.94
333.857	73.94
334.085	83.94
334.314	98.94
334.542	91.94
334.771	86.94
334.999	74.94
335.227	86.94
335.455	90.94
335.684	77.94
335.912	81.94
336.14	94.94
336.369	70.94
336.597	69.94
336.825	106.94
337.053	73.94
337.281	67.94
337.51	84.94
337.738	79.94
337.966	82.94
338.194	79.94
338.422	74.94
338.65	78.94
338.878	90.94
339.106	73.94
339.334	79.94
339.562	75.94
339.79	66.94
340.018	59.94
340.246	73.94
340.474	63.94
340.702	61.94
340.93	72.94
341.158	84.94
341.386	95.94
341.614	70.94
341.842	86.94
342.07	87.94
342.298	83.94
342.526	77.94
342.754	69.94
342.981	86.94
343.209	83.94
343.437	86.94
343.665	74.94
343.893	83.94
344.12	68.94
344.348	70.94
344.576	82.94
344.804	81.94
345.031	77.94
345.259	82.94
345.487	74.94
345.714	86.94
345.942	73.94
346.17	85.94
346.397	62.94
346.625	58.94
346.853	75.94
347.08	80.94
347.308	74.94
347.535	77.94
347.763	71.94
347.99	81.94
348.218	75.94
348.445	90.94
348.673	72.94
348.9	78.94
349.128	93.94
349.355	82.94
349.583	78.94
349.81	84.94
350.037	81.94
350.265	83.94
350.492	75.94
350.72	81.94
350.947	86.94
351.174	75.94
351.402	85.94
351.629	76.94
351.856	83.94
352.083	69.94
352.311	85.94
352.538	75.94
352.765	90.94
352.992	82.94
353.22	62.94
353.447	77.94
353.674	77.94
353.901	77.94
354.128	84.94
354.355	67.94
354.583	74.94
354.81	95.94
355.037	80.94
355.264	81.94
355.491	84.94
355.718	78.94
355.945	92.94
356.172	76.94
356.399	86.94
356.626	78.94
356.853	78.94
357.08	84.94
357.307	66.94
357.534	83.94
357.761	78.94
357.988	84.94
358.215	89.94
358.441	71.94
358.668	79.94
358.895	91.94
359.122	88.94
359.349	71.94
359.576	73.94
359.802	72.94
360.029	85.94
360.256	80.94
360.483	78.94
360.709	81.94
360.936	81.94
361.163	78.94
361.39	90.94
361.616	82.94
361.843	76.94
362.07	88.94
362.296	73.94
362.523	83.94
362.749	79.94
362.976	72.94
363.203	69.94
363.429	81.94
363.656	87.94
363.882	77.94
364.109	83.94
364.335	75.94
364.562	82.94
364.788	70.94
365.015	79.94
365.241	81.94
365.468	83.94
365.694	86.94
365.92	73.94
366.147	86.94
366.373	81.94
366.599	91.94
366.826	86.94
367.052	87.94
367.278	99.94
367.505	91.94
367.731	94.94
367.957	81.94
368.184	84.94
368.41	81.94
368.636	81.94
368.862	97.94
369.089	88.94
369.315	92.94
369.541	90.94
369.767	83.94
369.993	98.94
370.219	82.94
370.445	92.94
370.672	83.94
370.898	87.94
371.124	95.94
371.35	80.94
371.576	89.94
371.802	83.94
372.028	92.94
372.254	79.94
372.48	78.94
372.706	80.94
372.932	87.94
373.158	88.94
373.384	76.94
373.61	75.94
373.835	97.94
374.061	85.94
374.287	87.94
374.513	94.94
374.739	83.94
374.965	92.94
375.191	87.94
375.416	94.94
375.642	83.94
375.868	96.94
376.094	96.94
376.319	81.94
376.545	92.94
376.771	93.94
376.997	89.94
377.222	86.94
377.448	93.94
377.674	102.94
377.899	87.94
378.125	87.94
378.35	100.94
378.576	79.94
378.802	85.94
379.027	84.94
379.253	80.94
379.478	84.94
379.704	91.94
379.929	98.94
380.155	95.94
380.38	86.94
380.606	82.94
380.831	87.94
381.057	95.94
381.282	93.94
381.507	90.94
381.733	82.94
381.958	91.94
382.184	84.94
382.409	88.94
382.634	83.94
382.86	87.94
383.085	111.94
383.31	101.94
383.535	97.94
383.761	116.94
383.986	99.94
384.211	111.94
384.436	101.94
384.662	94.94
384.887	99.94
385.112	103.94
385.337	73.94
385.562	93.94
385.787	86.94
386.013	96.94
386.238	105.94
386.463	97.94
386.688	98.94
386.913	98.94
387.138	100.94
387.363	90.94
387.588	99.94
387.813	117.94
388.038	90.94
388.263	85.94
388.488	100.94
388.713	97.94
388.938	97.94
389.163	96.94
389.387	83.94
389.612	90.94
389.837	90.94
390.062	103.94
390.287	104.94
390.512	99.94
390.736	90.94
390.961	95.94
391.186	102.94
391.411	104.94
391.636	105.94
391.86	90.94
392.085	95.94
392.31	103.94
392.534	104.94
392.759	118.94
392.984	91.94
393.208	104.94
393.433	104.94
393.658	104.94
393.882	80.94
394.107	101.94
394.331	95.94
394.556	104.94
394.78	101.94
395.005	93.94
395.229	95.94
395.454	103.94
395.678	89.94
395.903	80.94
396.127	115.94
396.352	111.94
396.576	102.94
396.801	102.94
397.025	105.94
397.249	99.94
397.474	112.94
397.698	106.94
397.922	104.94
398.147	93.94
398.371	103.94
398.595	97.94
398.82	100.94
399.044	108.94
399.268	98.94
399.492	111.94
399.717	101.94
399.941	101.94
400.165	110.94
400.389	113.94
400.613	125.94
400.837	120.94
401.062	113.94
401.286	88.94
401.51	105.94
401.734	94.94
401.958	103.94
402.182	108.94
402.406	105.94
402.63	118.94
402.854	98.94
403.078	100.94
403.302	112.94
403.526	110.94
403.75	106.94
403.974	105.94
404.198	106.94
404.422	113.94
404.645	106.94
404.869	115.94
405.093	122.94
405.317	96.94
405.541	120.94
405.765	96.94
405.988	105.94
406.212	112.94
406.436	112.94
406.66	118.94
406.883	121.94
407.107	102.94
407.331	103.94
407.555	110.94
407.778	113.94
408.002	102.94
408.226	107.94
408.449	118.94
408.673	106.94
408.896	123.94
409.12	107.94
409.344	124.94
409.567	102.94
409.791	113.94
410.014	122.94
410.238	118.94
410.461	122.94
410.685	115.94
410.908	129.94
411.132	120.94
411.355	113.94
411.578	120.94
411.802	121.94
412.025	120.94
412.249	121.94
412.472	118.94
412.695	123.94
412.919	126.94
413.142	129.94
413.365	120.94
413.589	114.94
413.812	119.94
414.035	121.94
414.258	128.94
414.482	116.94
414.705	113.94
414.928	110.94
415.151	117.94
415.374	105.94
415.597	109.94
415.821	130.94
416.044	127.94
416.267	122.94
416.49	119.94
416.713	125.94
416.936	122.94
417.159	125.94
417.382	113.94
417.605	113.94
417.828	120.94
418.051	121.94
418.274	129.94
418.497	132.94
418.72	131.94
418.943	115.94
419.166	112.94
419.389	125.94
419.611	131.94
419.834	135.94
420.057	127.94
420.28	123.94
420.503	127.94
420.726	131.94
420.948	123.94
421.171	132.94
421.394	118.94
421.617	145.94
421.839	138.94
422.062	138.94
422.285	124.94
422.507	122.94
422.73	125.94
422.953	117.94
423.175	120.94
423.398	122.94
423.621	128.94
423.843	119.94
424.066	127.94
424.288	134.94
424.511	138.94
424.733	133.94
424.956	145.94
425.178	149.94
425.401	137.94
425.623	146.94
425.846	137.94
426.068	135.94
426.291	129.94
426.513	118.94
426.735	138.94
426.958	119.94
427.18	127.94
427.402	140.94
427.625	117.94
427.847	114.94
428.069	119.94
428.292	113.94
428.514	131.94
428.736	134.94
428.958	117.94
429.181	121.94
429.403	136.94
429.625	117.94
429.847	117.94
430.069	119.94
430.292	114.94
430.514	118.94
430.736	111.94
430.958	129.94
431.18	127.94
431.402	124.94
431.624	119.94
431.846	110.94
432.068	83.94
432.29	94.94
432.512	102.94
432.734	109.94
432.956	129.94
433.178	131.94
433.4	146.94
433.622	129.94
433.844	115.94
434.066	121.94
434.287	97.94
434.509	115.94
434.731	87.94
434.953	109.94
435.175	110.94
435.397	107.94
435.618	118.94
435.84	107.94
436.062	113.94
436.284	111.94
436.505	114.94
436.727	121.94
436.949	128.94
437.17	139.94
437.392	115.94
437.614	111.94
437.835	113.94
438.057	95.94
438.278	121.94
438.5	118.94
438.721	126.94
438.943	135.94
439.165	134.94
439.386	130.94
439.608	122.94
439.829	138.94
440.05	148.94
440.272	137.94
440.493	127.94
440.715	128.94
440.936	131.94
441.158	135.94
441.379	137.94
441.6	139.94
441.822	134.94
442.043	152.94
442.264	145.94
442.486	147.94
442.707	120.94
442.928	137.94
443.149	131.94
443.371	138.94
443.592	139.94
443.813	129.94
444.034	132.94
444.255	130.94
444.476	120.94
444.698	139.94
444.919	129.94
445.14	227.94
445.361	186.94
445.582	135.94
445.803	132.94
446.024	140.94
446.245	137.94
446.466	131.94
446.687	133.94
446.908	127.94
447.129	145.94
447.35	145.94
447.571	141.94
447.792	119.94
448.013	124.94
448.234	136.94
448.455	141.94
448.675	143.94
448.896	135.94
449.117	145.94
449.338	120.94
449.559	139.94
449.779	131.94
450	134.94
450.221	122.94
450.442	135.94
450.662	109.94
450.883	123.94
451.104	125.94
451.324	137.94
451.545	126.94
451.766	127.94
451.986	113.94
452.207	127.94
452.428	122.94
452.648	129.94
452.869	119.94
453.089	97.94
453.31	108.94
453.53	101.94
453.751	95.94
453.971	89.94
454.192	86.94
454.412	113.94
454.633	117.94
454.853	113.94
455.073	121.94
455.294	106.94
455.514	111.94
455.734	119.94
455.955	103.94
456.175	111.94
456.395	98.94
456.616	97.94
456.836	111.94
457.056	107.94
457.276	103.94
457.497	98.94
457.717	92.94
457.937	109.94
458.157	102.94
458.377	103.94
458.598	100.94
458.818	108.94
459.038	97.94
459.258	82.94
459.478	89.94
459.698	76.94
459.918	102.94
460.138	104.94
460.358	92.94
460.578	113.94
460.798	103.94
461.018	94.94
461.238	112.94
461.458	113.94
461.678	119.94
461.898	104.94
462.118	104.94
462.338	106.94
462.558	108.94
462.777	112.94
462.997	98.94
463.217	117.94
463.437	98.94
463.657	99.94
463.876	94.94
464.096	93.94
464.316	97.94
464.536	103.94
464.755	96.94
464.975	114.94
465.195	127.94
465.414	129.94
465.634	98.94
465.854	105.94
466.073	119.94
466.293	126.94
466.512	134.94
466.732	136.94
466.951	116.94
467.171	127.94
467.391	131.94
467.61	142.94
467.829	147.94
468.049	136.94
468.268	127.94
468.488	139.94
468.707	124.94
468.927	121.94
469.146	144.94
469.365	138.94
469.585	147.94
469.804	137.94
470.023	138.94
470.243	136.94
470.462	130.94
470.681	138.94
470.901	127.94
471.12	142.94
471.339	137.94
471.558	145.94
471.777	144.94
471.997	128.94
472.216	122.94
472.435	134.94
472.654	121.94
472.873	95.94
473.092	115.94
473.311	116.94
473.53	116.94
473.749	120.94
473.968	119.94
474.187	125.94
474.406	117.94
474.625	123.94
474.844	129.94
475.063	116.94
475.282	131.94
475.501	124.94
475.72	101.94
475.939	129.94
476.158	124.94
476.377	117.94
476.596	113.94
476.814	121.94
477.033	112.94
477.252	101.94
477.471	103.94
477.69	120.94
477.908	106.94
478.127	134.94
478.346	135.94
478.564	138.94
478.783	134.94
479.002	127.94
479.22	136.94
479.439	132.94
479.658	114.94
479.876	111.94
480.095	103.94
480.313	111.94
480.532	116.94
480.751	108.94
480.969	88.94
481.188	72.94
481.406	94.94
481.624	94.94
481.843	83.94
482.061	110.94
482.28	102.94
482.498	103.94
482.717	106.94
482.935	118.94
483.153	139.94
483.372	142.94
483.59	144.94
483.808	132.94
484.027	129.94
484.245	122.94
484.463	141.94
484.681	155.94
484.9	138.94
485.118	121.94
485.336	135.94
485.554	104.94
485.772	94.94
485.99	110.94
486.209	112.94
486.427	113.94
486.645	98.94
486.863	133.94
487.081	136.94
487.299	127.94
487.517	128.94
487.735	158.94
487.953	175.94
488.171	171.94
488.389	159.94
488.607	135.94
488.825	136.94
489.043	130.94
489.261	120.94
489.479	121.94
489.696	134.94
489.914	130.94
490.132	138.94
490.35	144.94
490.568	147.94
490.786	176.94
491.003	162.94
491.221	178.94
491.439	182.94
491.657	178.94
491.874	207.94
492.092	207.94
492.31	249.94
492.527	224.94
492.745	202.94
492.963	188.94
493.18	178.94
493.398	183.94
493.615	181.94
493.833	183.94
494.05	165.94
494.268	160.94
494.485	161.94
494.703	182.94
494.92	171.94
495.138	184.94
495.355	159.94
495.573	178.94
495.79	170.94
496.008	164.94
496.225	163.94
496.442	157.94
496.66	165.94
496.877	157.94
497.094	159.94
497.312	154.94
497.529	149.94
497.746	146.94
497.963	137.94
498.181	127.94
498.398	126.94
498.615	106.94
498.832	111.94
499.049	118.94
499.267	118.94
499.484	113.94
499.701	128.94
499.918	132.94
500.135	144.94
500.352	138.94
500.569	139.94
500.786	137.94
501.003	125.94
501.22	130.94
501.437	130.94
501.654	136.94
501.871	113.94
502.088	129.94
502.305	121.94
502.522	129.94
502.739	135.94
502.956	125.94
503.172	107.94
503.389	90.94
503.606	109.94
503.823	107.94
504.04	117.94
504.256	107.94
504.473	95.94
504.69	113.94
504.907	125.94
505.123	111.94
505.34	110.94
505.557	111.94
505.773	123.94
505.99	132.94
506.207	113.94
506.423	125.94
506.64	129.94
506.856	131.94
507.073	111.94
507.289	109.94
507.506	117.94
507.722	107.94
507.939	104.94
508.155	108.94
508.372	107.94
508.588	97.94
508.805	108.94
509.021	115.94
509.238	108.94
509.454	97.94
509.67	100.94
509.887	95.94
510.103	108.94
510.319	94.94
510.536	81.94
510.752	84.94
510.968	74.94
511.184	74.94
511.401	94.94
511.617	87.94
511.833	86.94
512.049	83.94
512.265	93.94
512.481	95.94
