Data from Location1.07152019.Energy5.Lamp.07192019.3%Agarose_HRD10591_14-30-58-014.txt Node
Date: Fri Jul 19 14:30:58 EDT 2019
User: cochatt
Spectrometer: HR+D1059
Trigger mode: 1
Integration Time (sec): 1.000000E-1
Scans to average: 1
Electric dark correction enabled: true
Nonlinearity correction enabled: false
Boxcar width: 0
XAxis mode: Wavelengths
Number of Pixels in Spectrum: 2048
>>>>>Begin Spectral Data<<<<<
223.165	-15.75
223.4	-15.75
223.635	-15.75
223.869	-31.75
224.104	-14.75
224.338	-10.75
224.573	-16.75
224.808	-14.75
225.042	8.25
225.277	-3.75
225.511	-7.75
225.746	9.25
225.98	9.25
226.215	13.25
226.449	12.25
226.683	21.25
226.918	16.25
227.152	26.25
227.387	38.25
227.621	39.25
227.856	46.25
228.09	55.25
228.324	39.25
228.559	50.25
228.793	63.25
229.027	56.25
229.262	61.25
229.496	64.25
229.73	79.25
229.964	69.25
230.199	83.25
230.433	69.25
230.667	82.25
230.901	77.25
231.136	79.25
231.37	79.25
231.604	85.25
231.838	89.25
232.072	82.25
232.306	74.25
232.541	90.25
232.775	88.25
233.009	76.25
233.243	93.25
233.477	80.25
233.711	78.25
233.945	81.25
234.179	82.25
234.413	77.25
234.647	78.25
234.881	88.25
235.115	80.25
235.349	83.25
235.583	82.25
235.817	62.25
236.051	82.25
236.285	72.25
236.519	87.25
236.753	77.25
236.987	82.25
237.221	79.25
237.455	86.25
237.689	72.25
237.922	92.25
238.156	75.25
238.39	75.25
238.624	80.25
238.858	85.25
239.091	79.25
239.325	69.25
239.559	88.25
239.793	71.25
240.027	83.25
240.26	78.25
240.494	86.25
240.728	80.25
240.961	65.25
241.195	97.25
241.429	79.25
241.662	79.25
241.896	81.25
242.13	80.25
242.363	77.25
242.597	74.25
242.83	79.25
243.064	64.25
243.298	90.25
243.531	87.25
243.765	81.25
243.998	85.25
244.232	80.25
244.465	78.25
244.699	76.25
244.932	87.25
245.166	85.25
245.399	79.25
245.633	63.25
245.866	62.25
246.099	83.25
246.333	91.25
246.566	76.25
246.8	76.25
247.033	69.25
247.266	76.25
247.5	88.25
247.733	74.25
247.966	82.25
248.2	89.25
248.433	86.25
248.666	82.25
248.899	87.25
249.133	75.25
249.366	92.25
249.599	86.25
249.832	72.25
250.066	65.25
250.299	82.25
250.532	79.25
250.765	86.25
250.998	88.25
251.231	85.25
251.465	82.25
251.698	79.25
251.931	72.25
252.164	72.25
252.397	86.25
252.63	90.25
252.863	74.25
253.096	90.25
253.329	74.25
253.562	78.25
253.795	79.25
254.028	76.25
254.261	83.25
254.494	78.25
254.727	79.25
254.96	94.25
255.193	89.25
255.426	87.25
255.659	76.25
255.892	72.25
256.124	87.25
256.357	87.25
256.59	93.25
256.823	84.25
257.056	90.25
257.289	74.25
257.521	94.25
257.754	77.25
257.987	76.25
258.22	80.25
258.452	77.25
258.685	87.25
258.918	76.25
259.151	85.25
259.383	88.25
259.616	94.25
259.849	71.25
260.081	78.25
260.314	72.25
260.547	74.25
260.779	97.25
261.012	90.25
261.244	70.25
261.477	86.25
261.71	93.25
261.942	88.25
262.175	77.25
262.407	80.25
262.64	76.25
262.872	88.25
263.105	69.25
263.337	71.25
263.57	80.25
263.802	82.25
264.035	55.25
264.267	65.25
264.499	77.25
264.732	83.25
264.964	86.25
265.197	71.25
265.429	75.25
265.661	82.25
265.894	98.25
266.126	95.25
266.358	87.25
266.591	76.25
266.823	84.25
267.055	81.25
267.287	87.25
267.52	92.25
267.752	64.25
267.984	84.25
268.216	84.25
268.448	96.25
268.681	80.25
268.913	85.25
269.145	78.25
269.377	86.25
269.609	88.25
269.841	74.25
270.073	102.25
270.306	88.25
270.538	85.25
270.77	82.25
271.002	87.25
271.234	85.25
271.466	92.25
271.698	77.25
271.93	77.25
272.162	90.25
272.394	76.25
272.626	87.25
272.858	88.25
273.09	84.25
273.322	72.25
273.553	90.25
273.785	78.25
274.017	85.25
274.249	85.25
274.481	85.25
274.713	83.25
274.945	100.25
275.176	76.25
275.408	79.25
275.64	69.25
275.872	92.25
276.104	69.25
276.335	85.25
276.567	71.25
276.799	77.25
277.031	79.25
277.262	90.25
277.494	80.25
277.726	81.25
277.957	82.25
278.189	76.25
278.421	90.25
278.652	81.25
278.884	81.25
279.115	85.25
279.347	86.25
279.579	84.25
279.81	77.25
280.042	86.25
280.273	75.25
280.505	86.25
280.736	97.25
280.968	76.25
281.199	84.25
281.431	94.25
281.662	88.25
281.894	99.25
282.125	95.25
282.356	95.25
282.588	87.25
282.819	71.25
283.051	80.25
283.282	92.25
283.513	86.25
283.745	84.25
283.976	94.25
284.207	88.25
284.439	87.25
284.67	78.25
284.901	104.25
285.132	85.25
285.364	67.25
285.595	75.25
285.826	82.25
286.057	90.25
286.288	88.25
286.52	86.25
286.751	83.25
286.982	84.25
287.213	84.25
287.444	106.25
287.675	81.25
287.906	86.25
288.138	72.25
288.369	92.25
288.6	83.25
288.831	97.25
289.062	89.25
289.293	93.25
289.524	96.25
289.755	93.25
289.986	82.25
290.217	94.25
290.448	88.25
290.679	88.25
290.91	79.25
291.141	87.25
291.371	98.25
291.602	89.25
291.833	78.25
292.064	86.25
292.295	86.25
292.526	98.25
292.757	83.25
292.987	82.25
293.218	60.25
293.449	81.25
293.68	91.25
293.91	93.25
294.141	101.25
294.372	90.25
294.603	95.25
294.833	98.25
295.064	89.25
295.295	87.25
295.525	83.25
295.756	94.25
295.987	88.25
296.217	101.25
296.448	82.25
296.679	88.25
296.909	90.25
297.14	82.25
297.37	85.25
297.601	78.25
297.831	79.25
298.062	89.25
298.292	73.25
298.523	82.25
298.753	87.25
298.984	87.25
299.214	90.25
299.445	94.25
299.675	94.25
299.905	85.25
300.136	86.25
300.366	85.25
300.597	80.25
300.827	86.25
301.057	94.25
301.288	75.25
301.518	84.25
301.748	78.25
301.979	103.25
302.209	109.25
302.439	85.25
302.669	86.25
302.9	78.25
303.13	93.25
303.36	88.25
303.59	78.25
303.82	84.25
304.051	79.25
304.281	77.25
304.511	87.25
304.741	75.25
304.971	88.25
305.201	98.25
305.431	99.25
305.661	77.25
305.891	78.25
306.121	88.25
306.352	68.25
306.582	79.25
306.812	81.25
307.042	87.25
307.272	81.25
307.502	83.25
307.731	86.25
307.961	89.25
308.191	85.25
308.421	79.25
308.651	91.25
308.881	95.25
309.111	88.25
309.341	85.25
309.571	85.25
309.8	85.25
310.03	92.25
310.26	83.25
310.49	77.25
310.72	87.25
310.949	82.25
311.179	70.25
311.409	96.25
311.639	81.25
311.868	86.25
312.098	86.25
312.328	91.25
312.557	94.25
312.787	86.25
313.017	93.25
313.246	94.25
313.476	95.25
313.706	81.25
313.935	76.25
314.165	88.25
314.394	85.25
314.624	82.25
314.853	95.25
315.083	82.25
315.312	79.25
315.542	97.25
315.771	78.25
316.001	71.25
316.23	85.25
316.46	75.25
316.689	79.25
316.919	91.25
317.148	87.25
317.377	96.25
317.607	95.25
317.836	69.25
318.065	94.25
318.295	72.25
318.524	82.25
318.753	86.25
318.983	90.25
319.212	70.25
319.441	70.25
319.67	87.25
319.9	84.25
320.129	87.25
320.358	92.25
320.587	90.25
320.816	80.25
321.046	90.25
321.275	90.25
321.504	87.25
321.733	80.25
321.962	88.25
322.191	89.25
322.42	79.25
322.649	84.25
322.878	92.25
323.108	86.25
323.337	75.25
323.566	98.25
323.795	97.25
324.024	92.25
324.253	86.25
324.482	104.25
324.71	97.25
324.939	92.25
325.168	82.25
325.397	98.25
325.626	92.25
325.855	93.25
326.084	93.25
326.313	86.25
326.542	90.25
326.77	93.25
326.999	90.25
327.228	90.25
327.457	79.25
327.686	81.25
327.914	96.25
328.143	91.25
328.372	91.25
328.6	93.25
328.829	79.25
329.058	106.25
329.287	89.25
329.515	75.25
329.744	89.25
329.972	84.25
330.201	91.25
330.43	103.25
330.658	84.25
330.887	80.25
331.115	85.25
331.344	80.25
331.572	92.25
331.801	83.25
332.03	81.25
332.258	77.25
332.486	94.25
332.715	102.25
332.943	91.25
333.172	89.25
333.4	78.25
333.629	95.25
333.857	90.25
334.085	88.25
334.314	85.25
334.542	98.25
334.771	79.25
334.999	99.25
335.227	94.25
335.455	92.25
335.684	101.25
335.912	102.25
336.14	90.25
336.369	91.25
336.597	80.25
336.825	70.25
337.053	91.25
337.281	90.25
337.51	87.25
337.738	86.25
337.966	84.25
338.194	81.25
338.422	90.25
338.65	85.25
338.878	88.25
339.106	86.25
339.334	91.25
339.562	76.25
339.79	89.25
340.018	92.25
340.246	95.25
340.474	85.25
340.702	66.25
340.93	87.25
341.158	84.25
341.386	83.25
341.614	79.25
341.842	79.25
342.07	90.25
342.298	100.25
342.526	87.25
342.754	85.25
342.981	81.25
343.209	87.25
343.437	86.25
343.665	88.25
343.893	85.25
344.12	84.25
344.348	87.25
344.576	81.25
344.804	88.25
345.031	94.25
345.259	80.25
345.487	68.25
345.714	74.25
345.942	88.25
346.17	91.25
346.397	90.25
346.625	80.25
346.853	98.25
347.08	83.25
347.308	90.25
347.535	89.25
347.763	86.25
347.99	93.25
348.218	80.25
348.445	90.25
348.673	95.25
348.9	88.25
349.128	89.25
349.355	78.25
349.583	82.25
349.81	77.25
350.037	90.25
350.265	117.25
350.492	76.25
350.72	96.25
350.947	105.25
351.174	78.25
351.402	79.25
351.629	97.25
351.856	83.25
352.083	90.25
352.311	95.25
352.538	88.25
352.765	93.25
352.992	79.25
353.22	93.25
353.447	86.25
353.674	96.25
353.901	79.25
354.128	81.25
354.355	91.25
354.583	81.25
354.81	86.25
355.037	81.25
355.264	86.25
355.491	88.25
355.718	86.25
355.945	88.25
356.172	86.25
356.399	79.25
356.626	77.25
356.853	72.25
357.08	81.25
357.307	92.25
357.534	87.25
357.761	79.25
357.988	90.25
358.215	88.25
358.441	79.25
358.668	94.25
358.895	81.25
359.122	77.25
359.349	79.25
359.576	75.25
359.802	95.25
360.029	103.25
360.256	82.25
360.483	90.25
360.709	82.25
360.936	97.25
361.163	92.25
361.39	90.25
361.616	77.25
361.843	84.25
362.07	74.25
362.296	81.25
362.523	71.25
362.749	82.25
362.976	98.25
363.203	87.25
363.429	90.25
363.656	86.25
363.882	90.25
364.109	85.25
364.335	85.25
364.562	79.25
364.788	95.25
365.015	80.25
365.241	86.25
365.468	92.25
365.694	93.25
365.92	88.25
366.147	68.25
366.373	80.25
366.599	76.25
366.826	92.25
367.052	89.25
367.278	110.25
367.505	98.25
367.731	88.25
367.957	87.25
368.184	100.25
368.41	86.25
368.636	93.25
368.862	87.25
369.089	97.25
369.315	81.25
369.541	96.25
369.767	98.25
369.993	86.25
370.219	79.25
370.445	91.25
370.672	77.25
370.898	83.25
371.124	96.25
371.35	92.25
371.576	99.25
371.802	101.25
372.028	94.25
372.254	82.25
372.48	108.25
372.706	93.25
372.932	84.25
373.158	104.25
373.384	90.25
373.61	101.25
373.835	104.25
374.061	83.25
374.287	88.25
374.513	89.25
374.739	89.25
374.965	107.25
375.191	92.25
375.416	98.25
375.642	102.25
375.868	106.25
376.094	105.25
376.319	84.25
376.545	81.25
376.771	94.25
376.997	94.25
377.222	105.25
377.448	111.25
377.674	91.25
377.899	103.25
378.125	103.25
378.35	85.25
378.576	91.25
378.802	101.25
379.027	103.25
379.253	97.25
379.478	99.25
379.704	102.25
379.929	97.25
380.155	89.25
380.38	88.25
380.606	89.25
380.831	93.25
381.057	103.25
381.282	101.25
381.507	98.25
381.733	97.25
381.958	99.25
382.184	101.25
382.409	90.25
382.634	102.25
382.86	101.25
383.085	93.25
383.31	95.25
383.535	94.25
383.761	82.25
383.986	91.25
384.211	113.25
384.436	85.25
384.662	106.25
384.887	98.25
385.112	91.25
385.337	92.25
385.562	90.25
385.787	101.25
386.013	118.25
386.238	100.25
386.463	93.25
386.688	93.25
386.913	104.25
387.138	100.25
387.363	88.25
387.588	95.25
387.813	104.25
388.038	85.25
388.263	100.25
388.488	107.25
388.713	109.25
388.938	104.25
389.163	108.25
389.387	110.25
389.612	93.25
389.837	100.25
390.062	101.25
390.287	93.25
390.512	105.25
390.736	116.25
390.961	114.25
391.186	96.25
391.411	109.25
391.636	98.25
391.86	78.25
392.085	102.25
392.31	109.25
392.534	87.25
392.759	94.25
392.984	99.25
393.208	114.25
393.433	109.25
393.658	109.25
393.882	98.25
394.107	109.25
394.331	117.25
394.556	97.25
394.78	112.25
395.005	109.25
395.229	126.25
395.454	124.25
395.678	94.25
395.903	102.25
396.127	100.25
396.352	99.25
396.576	127.25
396.801	99.25
397.025	106.25
397.249	109.25
397.474	109.25
397.698	116.25
397.922	104.25
398.147	116.25
398.371	113.25
398.595	101.25
398.82	105.25
399.044	101.25
399.268	104.25
399.492	121.25
399.717	112.25
399.941	112.25
400.165	122.25
400.389	104.25
400.613	104.25
400.837	115.25
401.062	114.25
401.286	114.25
401.51	90.25
401.734	109.25
401.958	113.25
402.182	104.25
402.406	126.25
402.63	105.25
402.854	109.25
403.078	109.25
403.302	119.25
403.526	110.25
403.75	112.25
403.974	110.25
404.198	114.25
404.422	119.25
404.645	129.25
404.869	110.25
405.093	117.25
405.317	106.25
405.541	115.25
405.765	127.25
405.988	113.25
406.212	105.25
406.436	112.25
406.66	130.25
406.883	116.25
407.107	132.25
407.331	118.25
407.555	121.25
407.778	110.25
408.002	130.25
408.226	111.25
408.449	110.25
408.673	111.25
408.896	119.25
409.12	122.25
409.344	112.25
409.567	120.25
409.791	130.25
410.014	112.25
410.238	118.25
410.461	112.25
410.685	122.25
410.908	141.25
411.132	144.25
411.355	128.25
411.578	121.25
411.802	128.25
412.025	125.25
412.249	121.25
412.472	128.25
412.695	124.25
412.919	113.25
413.142	124.25
413.365	114.25
413.589	122.25
413.812	117.25
414.035	123.25
414.258	125.25
414.482	111.25
414.705	132.25
414.928	111.25
415.151	134.25
415.374	134.25
415.597	112.25
415.821	122.25
416.044	138.25
416.267	122.25
416.49	116.25
416.713	118.25
416.936	116.25
417.159	128.25
417.382	126.25
417.605	130.25
417.828	123.25
418.051	130.25
418.274	123.25
418.497	135.25
418.72	145.25
418.943	131.25
419.166	133.25
419.389	134.25
419.611	122.25
419.834	140.25
420.057	129.25
420.28	130.25
420.503	137.25
420.726	129.25
420.948	126.25
421.171	120.25
421.394	133.25
421.617	139.25
421.839	137.25
422.062	147.25
422.285	130.25
422.507	148.25
422.73	128.25
422.953	121.25
423.175	127.25
423.398	124.25
423.621	126.25
423.843	123.25
424.066	141.25
424.288	139.25
424.511	134.25
424.733	135.25
424.956	132.25
425.178	125.25
425.401	146.25
425.623	135.25
425.846	128.25
426.068	121.25
426.291	125.25
426.513	138.25
426.735	132.25
426.958	125.25
427.18	122.25
427.402	129.25
427.625	121.25
427.847	118.25
428.069	151.25
428.292	125.25
428.514	123.25
428.736	122.25
428.958	128.25
429.181	133.25
429.403	128.25
429.625	120.25
429.847	133.25
430.069	127.25
430.292	135.25
430.514	124.25
430.736	132.25
430.958	116.25
431.18	119.25
431.402	112.25
431.624	106.25
431.846	118.25
432.068	93.25
432.29	99.25
432.512	117.25
432.734	124.25
432.956	120.25
433.178	132.25
433.4	148.25
433.622	136.25
433.844	132.25
434.066	130.25
434.287	120.25
434.509	100.25
434.731	103.25
434.953	104.25
435.175	113.25
435.397	131.25
435.618	128.25
435.84	113.25
436.062	104.25
436.284	132.25
436.505	127.25
436.727	139.25
436.949	129.25
437.17	120.25
437.392	128.25
437.614	123.25
437.835	104.25
438.057	110.25
438.278	110.25
438.5	127.25
438.721	128.25
438.943	131.25
439.165	146.25
439.386	145.25
439.608	136.25
439.829	139.25
440.05	135.25
440.272	129.25
440.493	135.25
440.715	135.25
440.936	127.25
441.158	135.25
441.379	138.25
441.6	142.25
441.822	156.25
442.043	144.25
442.264	134.25
442.486	132.25
442.707	131.25
442.928	147.25
443.149	147.25
443.371	137.25
443.592	140.25
443.813	135.25
444.034	141.25
444.255	147.25
444.476	133.25
444.698	126.25
444.919	132.25
445.14	252.25
445.361	201.25
445.582	156.25
445.803	151.25
446.024	156.25
446.245	160.25
446.466	145.25
446.687	156.25
446.908	163.25
447.129	148.25
447.35	157.25
447.571	151.25
447.792	145.25
448.013	148.25
448.234	152.25
448.455	142.25
448.675	143.25
448.896	152.25
449.117	139.25
449.338	139.25
449.559	138.25
449.779	154.25
450	137.25
450.221	135.25
450.442	143.25
450.662	141.25
450.883	136.25
451.104	124.25
451.324	124.25
451.545	116.25
451.766	122.25
451.986	129.25
452.207	125.25
452.428	126.25
452.648	118.25
452.869	126.25
453.089	128.25
453.31	117.25
453.53	103.25
453.751	111.25
453.971	103.25
454.192	123.25
454.412	121.25
454.633	100.25
454.853	104.25
455.073	106.25
455.294	122.25
455.514	128.25
455.734	124.25
455.955	135.25
456.175	123.25
456.395	116.25
456.616	114.25
456.836	123.25
457.056	116.25
457.276	110.25
457.497	112.25
457.717	121.25
457.937	112.25
458.157	103.25
458.377	103.25
458.598	106.25
458.818	87.25
459.038	78.25
459.258	83.25
459.478	86.25
459.698	98.25
459.918	105.25
460.138	110.25
460.358	116.25
460.578	112.25
460.798	121.25
461.018	117.25
461.238	119.25
461.458	118.25
461.678	111.25
461.898	113.25
462.118	103.25
462.338	108.25
462.558	114.25
462.777	98.25
462.997	106.25
463.217	112.25
463.437	100.25
463.657	97.25
463.876	118.25
464.096	98.25
464.316	104.25
464.536	120.25
464.755	110.25
464.975	123.25
465.195	106.25
465.414	110.25
465.634	133.25
465.854	116.25
466.073	128.25
466.293	135.25
466.512	137.25
466.732	138.25
466.951	130.25
467.171	143.25
467.391	144.25
467.61	135.25
467.829	124.25
468.049	124.25
468.268	138.25
468.488	134.25
468.707	140.25
468.927	130.25
469.146	144.25
469.365	125.25
469.585	129.25
469.804	146.25
470.023	134.25
470.243	146.25
470.462	138.25
470.681	143.25
470.901	132.25
471.12	140.25
471.339	133.25
471.558	126.25
471.777	135.25
471.997	124.25
472.216	124.25
472.435	112.25
472.654	118.25
472.873	102.25
473.092	115.25
473.311	122.25
473.53	115.25
473.749	129.25
473.968	134.25
474.187	115.25
474.406	118.25
474.625	128.25
474.844	116.25
475.063	125.25
475.282	125.25
475.501	119.25
475.72	117.25
475.939	123.25
476.158	131.25
476.377	139.25
476.596	123.25
476.814	121.25
477.033	106.25
477.252	113.25
477.471	123.25
477.69	130.25
477.908	124.25
478.127	156.25
478.346	137.25
478.564	140.25
478.783	139.25
479.002	123.25
479.22	127.25
479.439	128.25
479.658	117.25
479.876	118.25
480.095	100.25
480.313	104.25
480.532	110.25
480.751	111.25
480.969	106.25
481.188	96.25
481.406	86.25
481.624	86.25
481.843	87.25
482.061	94.25
482.28	119.25
482.498	112.25
482.717	104.25
482.935	134.25
483.153	132.25
483.372	138.25
483.59	137.25
483.808	130.25
484.027	130.25
484.245	133.25
484.463	145.25
484.681	159.25
484.9	159.25
485.118	136.25
485.336	132.25
485.554	113.25
485.772	99.25
485.99	101.25
486.209	109.25
486.427	120.25
486.645	127.25
486.863	128.25
487.081	141.25
487.299	140.25
487.517	140.25
487.735	177.25
487.953	194.25
488.171	201.25
488.389	166.25
488.607	167.25
488.825	146.25
489.043	132.25
489.261	126.25
489.479	147.25
489.696	143.25
489.914	144.25
490.132	134.25
490.35	143.25
490.568	154.25
490.786	161.25
491.003	180.25
491.221	181.25
491.439	181.25
491.657	180.25
491.874	208.25
492.092	213.25
492.31	234.25
492.527	224.25
492.745	213.25
492.963	203.25
493.18	182.25
493.398	194.25
493.615	184.25
493.833	188.25
494.05	187.25
494.268	161.25
494.485	163.25
494.703	180.25
494.92	166.25
495.138	172.25
495.355	169.25
495.573	160.25
495.79	164.25
496.008	182.25
496.225	166.25
496.442	165.25
496.66	170.25
496.877	162.25
497.094	177.25
497.312	159.25
497.529	169.25
497.746	150.25
497.963	148.25
498.181	129.25
498.398	120.25
498.615	118.25
498.832	122.25
499.049	133.25
499.267	130.25
499.484	124.25
499.701	124.25
499.918	144.25
500.135	144.25
500.352	133.25
500.569	124.25
500.786	136.25
501.003	139.25
501.22	149.25
501.437	134.25
501.654	146.25
501.871	144.25
502.088	131.25
502.305	128.25
502.522	125.25
502.739	123.25
502.956	128.25
503.172	128.25
503.389	109.25
503.606	122.25
503.823	120.25
504.04	120.25
504.256	128.25
504.473	101.25
504.69	100.25
504.907	125.25
505.123	122.25
505.34	99.25
505.557	127.25
505.773	126.25
505.99	132.25
506.207	129.25
506.423	128.25
506.64	119.25
506.856	127.25
507.073	128.25
507.289	113.25
507.506	130.25
507.722	117.25
507.939	121.25
508.155	111.25
508.372	104.25
508.588	105.25
508.805	115.25
509.021	95.25
509.238	95.25
509.454	112.25
509.67	96.25
509.887	109.25
510.103	100.25
510.319	93.25
510.536	85.25
510.752	92.25
510.968	89.25
511.184	97.25
511.401	82.25
