Data from Location1.07152019.Energy5.Lamp.07192019.3%Agarose_HRD10591_14-32-06-015.txt Node
Date: Fri Jul 19 14:32:06 EDT 2019
User: cochatt
Spectrometer: HR+D1059
Trigger mode: 1
Integration Time (sec): 1.000000E-1
Scans to average: 1
Electric dark correction enabled: true
Nonlinearity correction enabled: false
Boxcar width: 0
XAxis mode: Wavelengths
Number of Pixels in Spectrum: 2048
>>>>>Begin Spectral Data<<<<<
223.165	-11.88
223.4	-11.88
223.635	-11.88
223.869	-4.88
224.104	-20.88
224.338	-12.88
224.573	-19.88
224.808	-9.88
225.042	1.12
225.277	-3.88
225.511	-10.88
225.746	5.12
225.98	12.12
226.215	3.12
226.449	11.12
226.683	17.12
226.918	26.12
227.152	19.12
227.387	39.12
227.621	31.12
227.856	47.12
228.09	43.12
228.324	54.12
228.559	58.12
228.793	55.12
229.027	61.12
229.262	55.12
229.496	72.12
229.73	66.12
229.964	66.12
230.199	75.12
230.433	82.12
230.667	70.12
230.901	92.12
231.136	74.12
231.37	78.12
231.604	89.12
231.838	90.12
232.072	76.12
232.306	80.12
232.541	74.12
232.775	99.12
233.009	76.12
233.243	78.12
233.477	76.12
233.711	77.12
233.945	87.12
234.179	85.12
234.413	69.12
234.647	71.12
234.881	72.12
235.115	80.12
235.349	67.12
235.583	75.12
235.817	68.12
236.051	59.12
236.285	73.12
236.519	79.12
236.753	72.12
236.987	69.12
237.221	68.12
237.455	63.12
237.689	82.12
237.922	79.12
238.156	72.12
238.39	69.12
238.624	73.12
238.858	70.12
239.091	69.12
239.325	77.12
239.559	56.12
239.793	78.12
240.027	76.12
240.26	82.12
240.494	85.12
240.728	76.12
240.961	88.12
241.195	83.12
241.429	85.12
241.662	66.12
241.896	76.12
242.13	83.12
242.363	76.12
242.597	67.12
242.83	89.12
243.064	60.12
243.298	71.12
243.531	66.12
243.765	77.12
243.998	63.12
244.232	73.12
244.465	80.12
244.699	73.12
244.932	76.12
245.166	66.12
245.399	65.12
245.633	60.12
245.866	78.12
246.099	59.12
246.333	86.12
246.566	84.12
246.8	68.12
247.033	84.12
247.266	82.12
247.5	80.12
247.733	61.12
247.966	73.12
248.2	77.12
248.433	75.12
248.666	57.12
248.899	74.12
249.133	75.12
249.366	80.12
249.599	66.12
249.832	58.12
250.066	80.12
250.299	86.12
250.532	83.12
250.765	71.12
250.998	75.12
251.231	74.12
251.465	86.12
251.698	75.12
251.931	70.12
252.164	63.12
252.397	73.12
252.63	80.12
252.863	79.12
253.096	69.12
253.329	93.12
253.562	72.12
253.795	86.12
254.028	90.12
254.261	77.12
254.494	80.12
254.727	73.12
254.96	76.12
255.193	77.12
255.426	80.12
255.659	85.12
255.892	87.12
256.124	67.12
256.357	62.12
256.59	75.12
256.823	64.12
257.056	75.12
257.289	76.12
257.521	67.12
257.754	77.12
257.987	70.12
258.22	72.12
258.452	77.12
258.685	84.12
258.918	75.12
259.151	76.12
259.383	76.12
259.616	80.12
259.849	86.12
260.081	76.12
260.314	71.12
260.547	67.12
260.779	74.12
261.012	82.12
261.244	83.12
261.477	76.12
261.71	75.12
261.942	80.12
262.175	71.12
262.407	68.12
262.64	79.12
262.872	74.12
263.105	87.12
263.337	82.12
263.57	85.12
263.802	73.12
264.035	71.12
264.267	79.12
264.499	91.12
264.732	95.12
264.964	75.12
265.197	73.12
265.429	96.12
265.661	66.12
265.894	67.12
266.126	82.12
266.358	82.12
266.591	88.12
266.823	91.12
267.055	76.12
267.287	92.12
267.52	85.12
267.752	82.12
267.984	70.12
268.216	80.12
268.448	66.12
268.681	90.12
268.913	89.12
269.145	75.12
269.377	73.12
269.609	67.12
269.841	79.12
270.073	87.12
270.306	76.12
270.538	62.12
270.77	76.12
271.002	93.12
271.234	78.12
271.466	80.12
271.698	80.12
271.93	78.12
272.162	95.12
272.394	85.12
272.626	76.12
272.858	66.12
273.09	80.12
273.322	72.12
273.553	84.12
273.785	80.12
274.017	83.12
274.249	72.12
274.481	68.12
274.713	88.12
274.945	92.12
275.176	83.12
275.408	83.12
275.64	82.12
275.872	84.12
276.104	66.12
276.335	72.12
276.567	81.12
276.799	77.12
277.031	76.12
277.262	60.12
277.494	84.12
277.726	83.12
277.957	88.12
278.189	81.12
278.421	79.12
278.652	71.12
278.884	72.12
279.115	89.12
279.347	81.12
279.579	77.12
279.81	81.12
280.042	79.12
280.273	78.12
280.505	80.12
280.736	74.12
280.968	76.12
281.199	99.12
281.431	74.12
281.662	85.12
281.894	67.12
282.125	87.12
282.356	91.12
282.588	79.12
282.819	89.12
283.051	77.12
283.282	89.12
283.513	81.12
283.745	80.12
283.976	72.12
284.207	76.12
284.439	84.12
284.67	82.12
284.901	85.12
285.132	74.12
285.364	74.12
285.595	71.12
285.826	78.12
286.057	100.12
286.288	87.12
286.52	82.12
286.751	74.12
286.982	93.12
287.213	80.12
287.444	76.12
287.675	91.12
287.906	74.12
288.138	69.12
288.369	69.12
288.6	83.12
288.831	86.12
289.062	93.12
289.293	78.12
289.524	77.12
289.755	72.12
289.986	74.12
290.217	91.12
290.448	82.12
290.679	77.12
290.91	67.12
291.141	80.12
291.371	94.12
291.602	85.12
291.833	88.12
292.064	87.12
292.295	91.12
292.526	81.12
292.757	92.12
292.987	88.12
293.218	85.12
293.449	80.12
293.68	89.12
293.91	73.12
294.141	71.12
294.372	85.12
294.603	72.12
294.833	72.12
295.064	63.12
295.295	96.12
295.525	68.12
295.756	90.12
295.987	76.12
296.217	68.12
296.448	87.12
296.679	74.12
296.909	86.12
297.14	95.12
297.37	80.12
297.601	75.12
297.831	75.12
298.062	66.12
298.292	80.12
298.523	65.12
298.753	73.12
298.984	76.12
299.214	80.12
299.445	89.12
299.675	67.12
299.905	84.12
300.136	81.12
300.366	72.12
300.597	72.12
300.827	93.12
301.057	84.12
301.288	74.12
301.518	84.12
301.748	88.12
301.979	85.12
302.209	88.12
302.439	85.12
302.669	86.12
302.9	93.12
303.13	80.12
303.36	91.12
303.59	83.12
303.82	77.12
304.051	92.12
304.281	83.12
304.511	94.12
304.741	82.12
304.971	75.12
305.201	82.12
305.431	85.12
305.661	98.12
305.891	71.12
306.121	85.12
306.352	91.12
306.582	85.12
306.812	97.12
307.042	105.12
307.272	77.12
307.502	82.12
307.731	89.12
307.961	80.12
308.191	80.12
308.421	67.12
308.651	83.12
308.881	74.12
309.111	84.12
309.341	72.12
309.571	76.12
309.8	101.12
310.03	81.12
310.26	81.12
310.49	89.12
310.72	72.12
310.949	80.12
311.179	79.12
311.409	67.12
311.639	85.12
311.868	79.12
312.098	83.12
312.328	82.12
312.557	66.12
312.787	73.12
313.017	84.12
313.246	77.12
313.476	86.12
313.706	94.12
313.935	92.12
314.165	94.12
314.394	80.12
314.624	68.12
314.853	87.12
315.083	85.12
315.312	80.12
315.542	67.12
315.771	77.12
316.001	83.12
316.23	73.12
316.46	88.12
316.689	93.12
316.919	84.12
317.148	69.12
317.377	82.12
317.607	78.12
317.836	80.12
318.065	74.12
318.295	79.12
318.524	93.12
318.753	76.12
318.983	80.12
319.212	66.12
319.441	72.12
319.67	80.12
319.9	74.12
320.129	74.12
320.358	91.12
320.587	90.12
320.816	78.12
321.046	74.12
321.275	93.12
321.504	68.12
321.733	70.12
321.962	76.12
322.191	81.12
322.42	85.12
322.649	83.12
322.878	81.12
323.108	80.12
323.337	80.12
323.566	73.12
323.795	78.12
324.024	94.12
324.253	68.12
324.482	74.12
324.71	74.12
324.939	89.12
325.168	84.12
325.397	84.12
325.626	92.12
325.855	72.12
326.084	68.12
326.313	88.12
326.542	71.12
326.77	87.12
326.999	98.12
327.228	75.12
327.457	78.12
327.686	88.12
327.914	100.12
328.143	91.12
328.372	90.12
328.6	75.12
328.829	87.12
329.058	75.12
329.287	72.12
329.515	81.12
329.744	75.12
329.972	85.12
330.201	71.12
330.43	75.12
330.658	92.12
330.887	82.12
331.115	89.12
331.344	93.12
331.572	86.12
331.801	76.12
332.03	80.12
332.258	68.12
332.486	75.12
332.715	67.12
332.943	92.12
333.172	79.12
333.4	84.12
333.629	72.12
333.857	94.12
334.085	80.12
334.314	88.12
334.542	75.12
334.771	87.12
334.999	86.12
335.227	90.12
335.455	68.12
335.684	86.12
335.912	80.12
336.14	82.12
336.369	87.12
336.597	86.12
336.825	88.12
337.053	82.12
337.281	87.12
337.51	85.12
337.738	82.12
337.966	84.12
338.194	85.12
338.422	78.12
338.65	77.12
338.878	83.12
339.106	70.12
339.334	79.12
339.562	90.12
339.79	75.12
340.018	91.12
340.246	68.12
340.474	79.12
340.702	73.12
340.93	76.12
341.158	83.12
341.386	77.12
341.614	83.12
341.842	82.12
342.07	82.12
342.298	84.12
342.526	84.12
342.754	74.12
342.981	80.12
343.209	62.12
343.437	80.12
343.665	92.12
343.893	79.12
344.12	76.12
344.348	101.12
344.576	80.12
344.804	76.12
345.031	84.12
345.259	88.12
345.487	83.12
345.714	82.12
345.942	90.12
346.17	81.12
346.397	83.12
346.625	71.12
346.853	71.12
347.08	86.12
347.308	91.12
347.535	76.12
347.763	94.12
347.99	79.12
348.218	104.12
348.445	76.12
348.673	84.12
348.9	85.12
349.128	89.12
349.355	86.12
349.583	81.12
349.81	64.12
350.037	76.12
350.265	79.12
350.492	77.12
350.72	73.12
350.947	81.12
351.174	81.12
351.402	67.12
351.629	84.12
351.856	69.12
352.083	73.12
352.311	71.12
352.538	80.12
352.765	79.12
352.992	76.12
353.22	83.12
353.447	80.12
353.674	96.12
353.901	89.12
354.128	72.12
354.355	71.12
354.583	82.12
354.81	84.12
355.037	87.12
355.264	81.12
355.491	83.12
355.718	85.12
355.945	82.12
356.172	76.12
356.399	79.12
356.626	83.12
356.853	79.12
357.08	75.12
357.307	77.12
357.534	76.12
357.761	71.12
357.988	82.12
358.215	73.12
358.441	72.12
358.668	77.12
358.895	84.12
359.122	84.12
359.349	84.12
359.576	68.12
359.802	82.12
360.029	84.12
360.256	70.12
360.483	80.12
360.709	83.12
360.936	80.12
361.163	82.12
361.39	82.12
361.616	78.12
361.843	83.12
362.07	80.12
362.296	81.12
362.523	85.12
362.749	65.12
362.976	84.12
363.203	85.12
363.429	97.12
363.656	89.12
363.882	81.12
364.109	81.12
364.335	88.12
364.562	87.12
364.788	67.12
365.015	78.12
365.241	97.12
365.468	77.12
365.694	89.12
365.92	72.12
366.147	87.12
366.373	77.12
366.599	77.12
366.826	79.12
367.052	82.12
367.278	84.12
367.505	81.12
367.731	84.12
367.957	87.12
368.184	79.12
368.41	82.12
368.636	99.12
368.862	98.12
369.089	94.12
369.315	75.12
369.541	83.12
369.767	84.12
369.993	95.12
370.219	78.12
370.445	84.12
370.672	77.12
370.898	87.12
371.124	75.12
371.35	77.12
371.576	80.12
371.802	95.12
372.028	92.12
372.254	97.12
372.48	89.12
372.706	92.12
372.932	96.12
373.158	97.12
373.384	96.12
373.61	96.12
373.835	93.12
374.061	91.12
374.287	75.12
374.513	83.12
374.739	88.12
374.965	111.12
375.191	99.12
375.416	87.12
375.642	97.12
375.868	99.12
376.094	91.12
376.319	82.12
376.545	99.12
376.771	93.12
376.997	95.12
377.222	96.12
377.448	87.12
377.674	88.12
377.899	93.12
378.125	89.12
378.35	101.12
378.576	95.12
378.802	80.12
379.027	94.12
379.253	84.12
379.478	92.12
379.704	103.12
379.929	116.12
380.155	92.12
380.38	85.12
380.606	96.12
380.831	95.12
381.057	89.12
381.282	110.12
381.507	90.12
381.733	97.12
381.958	89.12
382.184	90.12
382.409	114.12
382.634	112.12
382.86	83.12
383.085	111.12
383.31	79.12
383.535	98.12
383.761	86.12
383.986	87.12
384.211	73.12
384.436	93.12
384.662	90.12
384.887	78.12
385.112	90.12
385.337	88.12
385.562	76.12
385.787	97.12
386.013	103.12
386.238	90.12
386.463	111.12
386.688	77.12
386.913	82.12
387.138	101.12
387.363	103.12
387.588	99.12
387.813	96.12
388.038	98.12
388.263	87.12
388.488	110.12
388.713	87.12
388.938	100.12
389.163	84.12
389.387	99.12
389.612	117.12
389.837	106.12
390.062	101.12
390.287	101.12
390.512	111.12
390.736	97.12
390.961	116.12
391.186	103.12
391.411	90.12
391.636	105.12
391.86	106.12
392.085	117.12
392.31	104.12
392.534	111.12
392.759	107.12
392.984	112.12
393.208	111.12
393.433	108.12
393.658	116.12
393.882	112.12
394.107	106.12
394.331	93.12
394.556	107.12
394.78	120.12
395.005	92.12
395.229	94.12
395.454	104.12
395.678	97.12
395.903	99.12
396.127	97.12
396.352	99.12
396.576	98.12
396.801	104.12
397.025	104.12
397.249	115.12
397.474	119.12
397.698	99.12
397.922	102.12
398.147	103.12
398.371	109.12
398.595	121.12
398.82	92.12
399.044	105.12
399.268	104.12
399.492	115.12
399.717	101.12
399.941	104.12
400.165	110.12
400.389	96.12
400.613	105.12
400.837	99.12
401.062	111.12
401.286	103.12
401.51	103.12
401.734	101.12
401.958	117.12
402.182	109.12
402.406	105.12
402.63	102.12
402.854	117.12
403.078	109.12
403.302	105.12
403.526	114.12
403.75	123.12
403.974	113.12
404.198	108.12
404.422	119.12
404.645	123.12
404.869	104.12
405.093	127.12
405.317	123.12
405.541	113.12
405.765	121.12
405.988	106.12
406.212	127.12
406.436	107.12
406.66	119.12
406.883	113.12
407.107	106.12
407.331	127.12
407.555	123.12
407.778	107.12
408.002	119.12
408.226	116.12
408.449	113.12
408.673	117.12
408.896	123.12
409.12	124.12
409.344	99.12
409.567	117.12
409.791	115.12
410.014	115.12
410.238	127.12
410.461	109.12
410.685	111.12
410.908	107.12
411.132	115.12
411.355	108.12
411.578	101.12
411.802	106.12
412.025	120.12
412.249	129.12
412.472	129.12
412.695	108.12
412.919	115.12
413.142	106.12
413.365	95.12
413.589	113.12
413.812	113.12
414.035	117.12
414.258	120.12
414.482	122.12
414.705	119.12
414.928	128.12
415.151	124.12
415.374	113.12
415.597	125.12
415.821	117.12
416.044	114.12
416.267	131.12
416.49	122.12
416.713	154.12
416.936	122.12
417.159	115.12
417.382	112.12
417.605	128.12
417.828	123.12
418.051	132.12
418.274	111.12
418.497	135.12
418.72	127.12
418.943	127.12
419.166	136.12
419.389	121.12
419.611	134.12
419.834	113.12
420.057	133.12
420.28	124.12
420.503	138.12
420.726	132.12
420.948	135.12
421.171	129.12
421.394	114.12
421.617	131.12
421.839	157.12
422.062	133.12
422.285	128.12
422.507	120.12
422.73	130.12
422.953	115.12
423.175	129.12
423.398	105.12
423.621	128.12
423.843	136.12
424.066	139.12
424.288	140.12
424.511	143.12
424.733	147.12
424.956	147.12
425.178	146.12
425.401	124.12
425.623	144.12
425.846	139.12
426.068	125.12
426.291	132.12
426.513	131.12
426.735	124.12
426.958	117.12
427.18	123.12
427.402	131.12
427.625	114.12
427.847	126.12
428.069	131.12
428.292	123.12
428.514	110.12
428.736	123.12
428.958	122.12
429.181	120.12
429.403	138.12
429.625	122.12
429.847	130.12
430.069	125.12
430.292	121.12
430.514	136.12
430.736	117.12
430.958	113.12
431.18	127.12
431.402	113.12
431.624	121.12
431.846	102.12
432.068	99.12
432.29	83.12
432.512	96.12
432.734	106.12
432.956	119.12
433.178	116.12
433.4	135.12
433.622	131.12
433.844	133.12
434.066	107.12
434.287	108.12
434.509	111.12
434.731	97.12
434.953	110.12
435.175	121.12
435.397	130.12
435.618	117.12
435.84	104.12
436.062	117.12
436.284	117.12
436.505	125.12
436.727	126.12
436.949	147.12
437.17	132.12
437.392	113.12
437.614	123.12
437.835	103.12
438.057	108.12
438.278	107.12
438.5	119.12
438.721	128.12
438.943	125.12
439.165	131.12
439.386	136.12
439.608	135.12
439.829	145.12
440.05	136.12
440.272	149.12
440.493	131.12
440.715	134.12
440.936	133.12
441.158	152.12
441.379	129.12
441.6	135.12
441.822	138.12
442.043	138.12
442.264	146.12
442.486	115.12
442.707	123.12
442.928	139.12
443.149	132.12
443.371	139.12
443.592	151.12
443.813	140.12
444.034	137.12
444.255	145.12
444.476	145.12
444.698	146.12
444.919	135.12
445.14	278.12
445.361	201.12
445.582	131.12
445.803	139.12
446.024	136.12
446.245	152.12
446.466	140.12
446.687	161.12
446.908	132.12
447.129	143.12
447.35	147.12
447.571	147.12
447.792	129.12
448.013	130.12
448.234	147.12
448.455	143.12
448.675	137.12
448.896	136.12
449.117	141.12
449.338	134.12
449.559	134.12
449.779	128.12
450	125.12
450.221	140.12
450.442	132.12
450.662	123.12
450.883	140.12
451.104	130.12
451.324	121.12
451.545	133.12
451.766	114.12
451.986	140.12
452.207	121.12
452.428	108.12
452.648	119.12
452.869	97.12
453.089	113.12
453.31	114.12
453.53	106.12
453.751	105.12
453.971	104.12
454.192	105.12
454.412	114.12
454.633	107.12
454.853	111.12
455.073	108.12
455.294	119.12
455.514	122.12
455.734	113.12
455.955	120.12
456.175	105.12
456.395	104.12
456.616	102.12
456.836	105.12
457.056	107.12
457.276	105.12
457.497	89.12
457.717	86.12
457.937	111.12
458.157	109.12
458.377	104.12
458.598	97.12
458.818	84.12
459.038	92.12
459.258	83.12
459.478	84.12
459.698	98.12
459.918	112.12
460.138	84.12
460.358	110.12
460.578	115.12
460.798	115.12
461.018	109.12
461.238	117.12
461.458	113.12
461.678	122.12
461.898	111.12
462.118	106.12
462.338	104.12
462.558	108.12
462.777	98.12
462.997	106.12
463.217	105.12
463.437	99.12
463.657	115.12
463.876	98.12
464.096	107.12
464.316	118.12
464.536	97.12
464.755	95.12
464.975	124.12
465.195	111.12
465.414	117.12
465.634	118.12
465.854	104.12
466.073	122.12
466.293	116.12
466.512	119.12
466.732	127.12
466.951	123.12
467.171	137.12
467.391	127.12
467.61	123.12
467.829	130.12
468.049	127.12
468.268	121.12
468.488	122.12
468.707	137.12
468.927	128.12
469.146	141.12
469.365	139.12
469.585	124.12
469.804	137.12
470.023	140.12
470.243	135.12
470.462	141.12
470.681	140.12
470.901	128.12
471.12	142.12
471.339	130.12
471.558	147.12
471.777	123.12
471.997	130.12
472.216	103.12
472.435	109.12
472.654	97.12
472.873	106.12
473.092	112.12
473.311	123.12
473.53	138.12
473.749	127.12
473.968	118.12
474.187	109.12
474.406	113.12
474.625	124.12
474.844	119.12
475.063	121.12
475.282	124.12
475.501	118.12
475.72	117.12
475.939	117.12
476.158	129.12
476.377	128.12
476.596	104.12
476.814	106.12
477.033	97.12
477.252	108.12
477.471	114.12
477.69	122.12
477.908	142.12
478.127	140.12
478.346	133.12
478.564	131.12
478.783	120.12
479.002	148.12
479.22	131.12
479.439	127.12
479.658	112.12
479.876	99.12
480.095	88.12
480.313	103.12
480.532	94.12
480.751	109.12
480.969	100.12
481.188	87.12
481.406	85.12
481.624	65.12
481.843	97.12
482.061	96.12
482.28	124.12
482.498	106.12
482.717	116.12
482.935	119.12
483.153	127.12
483.372	128.12
483.59	147.12
483.808	138.12
484.027	147.12
484.245	133.12
484.463	160.12
484.681	155.12
484.9	126.12
485.118	149.12
485.336	125.12
485.554	120.12
485.772	109.12
485.99	105.12
486.209	102.12
486.427	109.12
486.645	104.12
486.863	133.12
487.081	145.12
487.299	136.12
487.517	151.12
487.735	157.12
487.953	162.12
488.171	185.12
488.389	159.12
488.607	141.12
488.825	145.12
489.043	129.12
489.261	127.12
489.479	139.12
489.696	139.12
489.914	137.12
490.132	134.12
490.35	138.12
490.568	159.12
490.786	170.12
491.003	177.12
491.221	170.12
491.439	173.12
491.657	178.12
491.874	189.12
492.092	226.12
492.31	231.12
492.527	224.12
492.745	207.12
492.963	191.12
493.18	185.12
493.398	181.12
493.615	172.12
493.833	171.12
494.05	165.12
494.268	160.12
494.485	164.12
494.703	170.12
494.92	167.12
495.138	171.12
495.355	163.12
495.573	171.12
495.79	153.12
496.008	159.12
496.225	159.12
496.442	163.12
496.66	147.12
496.877	164.12
497.094	168.12
497.312	153.12
497.529	147.12
497.746	137.12
497.963	129.12
498.181	136.12
498.398	119.12
498.615	118.12
498.832	101.12
499.049	115.12
499.267	115.12
499.484	122.12
499.701	126.12
499.918	137.12
500.135	134.12
500.352	136.12
500.569	136.12
500.786	135.12
501.003	141.12
501.22	138.12
501.437	148.12
501.654	133.12
501.871	133.12
502.088	128.12
502.305	125.12
502.522	123.12
502.739	129.12
502.956	123.12
503.172	109.12
503.389	118.12
503.606	107.12
503.823	121.12
504.04	105.12
504.256	117.12
504.473	113.12
504.69	123.12
504.907	119.12
505.123	120.12
505.34	109.12
505.557	114.12
505.773	119.12
505.99	119.12
506.207	115.12
506.423	124.12
506.64	121.12
506.856	101.12
507.073	113.12
507.289	108.12
507.506	116.12
507.722	97.12
507.939	111.12
508.155	107.12
508.372	116.12
508.588	107.12
508.805	109.12
509.021	125.12
509.238	117.12
509.454	94.12
509.67	114.12
509.887	97.12
510.103	92.12
510.319	90.12
510.536	76.12
510.752	84.12
510.968	90.12
511.184	92.12
511.401	90.12
511.617	70.12
511.833	85.12
512.049	97.12
