Data from Location1.07152019.Energy5.Lamp.07192019.3%Agarose_HRD10591_14-30-13-015.txt Node
Date: Fri Jul 19 14:30:13 EDT 2019
User: cochatt
Spectrometer: HR+D1059
Trigger mode: 1
Integration Time (sec): 1.000000E-1
Scans to average: 1
Electric dark correction enabled: true
Nonlinearity correction enabled: false
Boxcar width: 0
XAxis mode: Wavelengths
Number of Pixels in Spectrum: 2048
>>>>>Begin Spectral Data<<<<<
223.165	-24.62
223.4	-24.62
223.635	-24.62
223.869	-13.62
224.104	-26.62
224.338	-13.62
224.573	-21.62
224.808	-18.62
225.042	-13.62
225.277	0.38
225.511	17.38
225.746	17.38
225.98	7.38
226.215	11.38
226.449	9.38
226.683	8.38
226.918	26.38
227.152	34.38
227.387	31.38
227.621	53.38
227.856	51.38
228.09	48.38
228.324	67.38
228.559	47.38
228.793	54.38
229.027	64.38
229.262	56.38
229.496	57.38
229.73	68.38
229.964	67.38
230.199	85.38
230.433	67.38
230.667	81.38
230.901	73.38
231.136	75.38
231.37	82.38
231.604	80.38
231.838	83.38
232.072	76.38
232.306	82.38
232.541	100.38
232.775	88.38
233.009	79.38
233.243	93.38
233.477	80.38
233.711	84.38
233.945	76.38
234.179	70.38
234.413	74.38
234.647	90.38
234.881	75.38
235.115	87.38
235.349	76.38
235.583	84.38
235.817	79.38
236.051	81.38
236.285	76.38
236.519	81.38
236.753	74.38
236.987	78.38
237.221	83.38
237.455	84.38
237.689	77.38
237.922	82.38
238.156	63.38
238.39	80.38
238.624	76.38
238.858	72.38
239.091	98.38
239.325	76.38
239.559	78.38
239.793	70.38
240.027	86.38
240.26	80.38
240.494	65.38
240.728	86.38
240.961	70.38
241.195	85.38
241.429	78.38
241.662	74.38
241.896	93.38
242.13	72.38
242.363	72.38
242.597	73.38
242.83	90.38
243.064	67.38
243.298	82.38
243.531	66.38
243.765	70.38
243.998	82.38
244.232	76.38
244.465	97.38
244.699	71.38
244.932	65.38
245.166	89.38
245.399	74.38
245.633	85.38
245.866	87.38
246.099	73.38
246.333	71.38
246.566	70.38
246.8	80.38
247.033	69.38
247.266	83.38
247.5	84.38
247.733	76.38
247.966	88.38
248.2	78.38
248.433	71.38
248.666	78.38
248.899	79.38
249.133	89.38
249.366	87.38
249.599	95.38
249.832	74.38
250.066	74.38
250.299	75.38
250.532	79.38
250.765	88.38
250.998	79.38
251.231	91.38
251.465	75.38
251.698	79.38
251.931	70.38
252.164	76.38
252.397	82.38
252.63	87.38
252.863	86.38
253.096	89.38
253.329	69.38
253.562	91.38
253.795	84.38
254.028	77.38
254.261	74.38
254.494	80.38
254.727	73.38
254.96	87.38
255.193	78.38
255.426	72.38
255.659	72.38
255.892	77.38
256.124	79.38
256.357	85.38
256.59	86.38
256.823	79.38
257.056	90.38
257.289	81.38
257.521	76.38
257.754	82.38
257.987	84.38
258.22	84.38
258.452	89.38
258.685	89.38
258.918	81.38
259.151	79.38
259.383	78.38
259.616	80.38
259.849	80.38
260.081	78.38
260.314	77.38
260.547	83.38
260.779	87.38
261.012	74.38
261.244	77.38
261.477	90.38
261.71	89.38
261.942	80.38
262.175	94.38
262.407	84.38
262.64	79.38
262.872	88.38
263.105	80.38
263.337	90.38
263.57	68.38
263.802	75.38
264.035	78.38
264.267	75.38
264.499	72.38
264.732	88.38
264.964	86.38
265.197	81.38
265.429	73.38
265.661	77.38
265.894	80.38
266.126	76.38
266.358	63.38
266.591	83.38
266.823	76.38
267.055	80.38
267.287	95.38
267.52	92.38
267.752	84.38
267.984	77.38
268.216	95.38
268.448	89.38
268.681	88.38
268.913	84.38
269.145	84.38
269.377	95.38
269.609	78.38
269.841	93.38
270.073	76.38
270.306	68.38
270.538	88.38
270.77	85.38
271.002	76.38
271.234	80.38
271.466	90.38
271.698	86.38
271.93	80.38
272.162	93.38
272.394	110.38
272.626	93.38
272.858	75.38
273.09	94.38
273.322	91.38
273.553	83.38
273.785	74.38
274.017	91.38
274.249	82.38
274.481	79.38
274.713	83.38
274.945	76.38
275.176	71.38
275.408	82.38
275.64	90.38
275.872	86.38
276.104	83.38
276.335	94.38
276.567	87.38
276.799	76.38
277.031	86.38
277.262	78.38
277.494	85.38
277.726	93.38
277.957	90.38
278.189	82.38
278.421	90.38
278.652	80.38
278.884	68.38
279.115	92.38
279.347	87.38
279.579	85.38
279.81	60.38
280.042	89.38
280.273	84.38
280.505	78.38
280.736	91.38
280.968	90.38
281.199	85.38
281.431	84.38
281.662	97.38
281.894	89.38
282.125	71.38
282.356	86.38
282.588	73.38
282.819	81.38
283.051	76.38
283.282	88.38
283.513	81.38
283.745	71.38
283.976	94.38
284.207	91.38
284.439	71.38
284.67	93.38
284.901	82.38
285.132	88.38
285.364	85.38
285.595	87.38
285.826	94.38
286.057	86.38
286.288	95.38
286.52	90.38
286.751	80.38
286.982	85.38
287.213	81.38
287.444	89.38
287.675	80.38
287.906	80.38
288.138	80.38
288.369	79.38
288.6	80.38
288.831	72.38
289.062	89.38
289.293	82.38
289.524	86.38
289.755	83.38
289.986	73.38
290.217	81.38
290.448	78.38
290.679	88.38
290.91	71.38
291.141	89.38
291.371	87.38
291.602	78.38
291.833	83.38
292.064	70.38
292.295	84.38
292.526	79.38
292.757	80.38
292.987	88.38
293.218	87.38
293.449	74.38
293.68	86.38
293.91	85.38
294.141	81.38
294.372	78.38
294.603	98.38
294.833	85.38
295.064	106.38
295.295	90.38
295.525	95.38
295.756	95.38
295.987	84.38
296.217	83.38
296.448	96.38
296.679	84.38
296.909	74.38
297.14	88.38
297.37	86.38
297.601	86.38
297.831	95.38
298.062	95.38
298.292	91.38
298.523	82.38
298.753	86.38
298.984	90.38
299.214	82.38
299.445	72.38
299.675	77.38
299.905	88.38
300.136	92.38
300.366	87.38
300.597	72.38
300.827	86.38
301.057	84.38
301.288	92.38
301.518	86.38
301.748	81.38
301.979	80.38
302.209	85.38
302.439	94.38
302.669	79.38
302.9	90.38
303.13	72.38
303.36	92.38
303.59	91.38
303.82	92.38
304.051	81.38
304.281	82.38
304.511	75.38
304.741	89.38
304.971	92.38
305.201	90.38
305.431	76.38
305.661	82.38
305.891	80.38
306.121	95.38
306.352	78.38
306.582	91.38
306.812	79.38
307.042	94.38
307.272	80.38
307.502	78.38
307.731	79.38
307.961	88.38
308.191	75.38
308.421	82.38
308.651	60.38
308.881	89.38
309.111	95.38
309.341	86.38
309.571	79.38
309.8	89.38
310.03	89.38
310.26	85.38
310.49	84.38
310.72	87.38
310.949	84.38
311.179	79.38
311.409	83.38
311.639	80.38
311.868	77.38
312.098	87.38
312.328	93.38
312.557	93.38
312.787	78.38
313.017	102.38
313.246	81.38
313.476	82.38
313.706	83.38
313.935	82.38
314.165	75.38
314.394	87.38
314.624	79.38
314.853	87.38
315.083	74.38
315.312	84.38
315.542	90.38
315.771	88.38
316.001	90.38
316.23	74.38
316.46	86.38
316.689	90.38
316.919	85.38
317.148	87.38
317.377	83.38
317.607	87.38
317.836	78.38
318.065	89.38
318.295	86.38
318.524	92.38
318.753	85.38
318.983	86.38
319.212	80.38
319.441	70.38
319.67	87.38
319.9	78.38
320.129	89.38
320.358	70.38
320.587	72.38
320.816	80.38
321.046	78.38
321.275	77.38
321.504	78.38
321.733	91.38
321.962	88.38
322.191	82.38
322.42	87.38
322.649	84.38
322.878	83.38
323.108	79.38
323.337	81.38
323.566	89.38
323.795	77.38
324.024	92.38
324.253	92.38
324.482	81.38
324.71	85.38
324.939	78.38
325.168	94.38
325.397	75.38
325.626	84.38
325.855	74.38
326.084	78.38
326.313	95.38
326.542	74.38
326.77	86.38
326.999	84.38
327.228	83.38
327.457	86.38
327.686	90.38
327.914	91.38
328.143	91.38
328.372	92.38
328.6	89.38
328.829	82.38
329.058	83.38
329.287	83.38
329.515	76.38
329.744	85.38
329.972	75.38
330.201	82.38
330.43	75.38
330.658	84.38
330.887	80.38
331.115	73.38
331.344	77.38
331.572	79.38
331.801	84.38
332.03	76.38
332.258	79.38
332.486	77.38
332.715	83.38
332.943	83.38
333.172	96.38
333.4	76.38
333.629	88.38
333.857	80.38
334.085	92.38
334.314	86.38
334.542	84.38
334.771	86.38
334.999	85.38
335.227	86.38
335.455	91.38
335.684	89.38
335.912	84.38
336.14	76.38
336.369	84.38
336.597	91.38
336.825	82.38
337.053	75.38
337.281	94.38
337.51	84.38
337.738	91.38
337.966	90.38
338.194	82.38
338.422	88.38
338.65	89.38
338.878	84.38
339.106	88.38
339.334	83.38
339.562	80.38
339.79	77.38
340.018	89.38
340.246	87.38
340.474	76.38
340.702	70.38
340.93	78.38
341.158	79.38
341.386	95.38
341.614	78.38
341.842	84.38
342.07	76.38
342.298	91.38
342.526	72.38
342.754	76.38
342.981	77.38
343.209	86.38
343.437	93.38
343.665	94.38
343.893	78.38
344.12	94.38
344.348	80.38
344.576	85.38
344.804	86.38
345.031	75.38
345.259	93.38
345.487	90.38
345.714	90.38
345.942	86.38
346.17	84.38
346.397	95.38
346.625	94.38
346.853	89.38
347.08	83.38
347.308	74.38
347.535	80.38
347.763	91.38
347.99	84.38
348.218	85.38
348.445	85.38
348.673	85.38
348.9	88.38
349.128	90.38
349.355	81.38
349.583	74.38
349.81	88.38
350.037	67.38
350.265	72.38
350.492	84.38
350.72	95.38
350.947	90.38
351.174	87.38
351.402	80.38
351.629	93.38
351.856	78.38
352.083	84.38
352.311	90.38
352.538	80.38
352.765	78.38
352.992	83.38
353.22	90.38
353.447	85.38
353.674	80.38
353.901	77.38
354.128	85.38
354.355	79.38
354.583	72.38
354.81	79.38
355.037	77.38
355.264	75.38
355.491	77.38
355.718	82.38
355.945	78.38
356.172	83.38
356.399	98.38
356.626	69.38
356.853	80.38
357.08	91.38
357.307	69.38
357.534	93.38
357.761	75.38
357.988	99.38
358.215	85.38
358.441	90.38
358.668	75.38
358.895	86.38
359.122	83.38
359.349	81.38
359.576	90.38
359.802	86.38
360.029	80.38
360.256	61.38
360.483	78.38
360.709	71.38
360.936	74.38
361.163	91.38
361.39	81.38
361.616	78.38
361.843	77.38
362.07	86.38
362.296	84.38
362.523	77.38
362.749	76.38
362.976	82.38
363.203	83.38
363.429	93.38
363.656	87.38
363.882	74.38
364.109	74.38
364.335	92.38
364.562	80.38
364.788	85.38
365.015	83.38
365.241	90.38
365.468	88.38
365.694	84.38
365.92	78.38
366.147	89.38
366.373	87.38
366.599	83.38
366.826	86.38
367.052	96.38
367.278	98.38
367.505	86.38
367.731	83.38
367.957	78.38
368.184	86.38
368.41	96.38
368.636	104.38
368.862	78.38
369.089	85.38
369.315	94.38
369.541	87.38
369.767	93.38
369.993	91.38
370.219	78.38
370.445	77.38
370.672	89.38
370.898	84.38
371.124	92.38
371.35	96.38
371.576	87.38
371.802	90.38
372.028	95.38
372.254	100.38
372.48	87.38
372.706	89.38
372.932	94.38
373.158	92.38
373.384	86.38
373.61	90.38
373.835	100.38
374.061	94.38
374.287	86.38
374.513	90.38
374.739	88.38
374.965	74.38
375.191	101.38
375.416	85.38
375.642	87.38
375.868	89.38
376.094	100.38
376.319	87.38
376.545	93.38
376.771	89.38
376.997	86.38
377.222	92.38
377.448	95.38
377.674	84.38
377.899	103.38
378.125	110.38
378.35	105.38
378.576	101.38
378.802	98.38
379.027	100.38
379.253	89.38
379.478	87.38
379.704	102.38
379.929	92.38
380.155	96.38
380.38	93.38
380.606	99.38
380.831	97.38
381.057	92.38
381.282	89.38
381.507	84.38
381.733	100.38
381.958	102.38
382.184	86.38
382.409	84.38
382.634	86.38
382.86	98.38
383.085	98.38
383.31	101.38
383.535	102.38
383.761	96.38
383.986	86.38
384.211	97.38
384.436	87.38
384.662	94.38
384.887	100.38
385.112	108.38
385.337	91.38
385.562	88.38
385.787	88.38
386.013	100.38
386.238	98.38
386.463	96.38
386.688	103.38
386.913	97.38
387.138	103.38
387.363	102.38
387.588	96.38
387.813	116.38
388.038	118.38
388.263	98.38
388.488	93.38
388.713	102.38
388.938	90.38
389.163	94.38
389.387	92.38
389.612	88.38
389.837	92.38
390.062	100.38
390.287	101.38
390.512	98.38
390.736	103.38
390.961	70.38
391.186	104.38
391.411	118.38
391.636	96.38
391.86	94.38
392.085	105.38
392.31	87.38
392.534	104.38
392.759	92.38
392.984	105.38
393.208	104.38
393.433	104.38
393.658	96.38
393.882	109.38
394.107	112.38
394.331	97.38
394.556	104.38
394.78	118.38
395.005	105.38
395.229	108.38
395.454	99.38
395.678	112.38
395.903	110.38
396.127	112.38
396.352	87.38
396.576	107.38
396.801	107.38
397.025	110.38
397.249	107.38
397.474	106.38
397.698	104.38
397.922	116.38
398.147	98.38
398.371	115.38
398.595	118.38
398.82	114.38
399.044	95.38
399.268	112.38
399.492	123.38
399.717	114.38
399.941	98.38
400.165	115.38
400.389	117.38
400.613	114.38
400.837	96.38
401.062	103.38
401.286	109.38
401.51	95.38
401.734	115.38
401.958	110.38
402.182	110.38
402.406	111.38
402.63	95.38
402.854	105.38
403.078	122.38
403.302	123.38
403.526	98.38
403.75	109.38
403.974	107.38
404.198	116.38
404.422	116.38
404.645	108.38
404.869	102.38
405.093	119.38
405.317	118.38
405.541	106.38
405.765	118.38
405.988	114.38
406.212	119.38
406.436	92.38
406.66	119.38
406.883	108.38
407.107	122.38
407.331	114.38
407.555	116.38
407.778	124.38
408.002	124.38
408.226	115.38
408.449	119.38
408.673	123.38
408.896	123.38
409.12	126.38
409.344	108.38
409.567	126.38
409.791	115.38
410.014	125.38
410.238	116.38
410.461	132.38
410.685	120.38
410.908	117.38
411.132	127.38
411.355	115.38
411.578	102.38
411.802	111.38
412.025	122.38
412.249	122.38
412.472	128.38
412.695	125.38
412.919	110.38
413.142	118.38
413.365	120.38
413.589	128.38
413.812	125.38
414.035	125.38
414.258	117.38
414.482	126.38
414.705	123.38
414.928	115.38
415.151	116.38
415.374	126.38
415.597	118.38
415.821	123.38
416.044	110.38
416.267	124.38
416.49	124.38
416.713	107.38
416.936	126.38
417.159	134.38
417.382	116.38
417.605	120.38
417.828	133.38
418.051	118.38
418.274	139.38
418.497	135.38
418.72	134.38
418.943	134.38
419.166	125.38
419.389	118.38
419.611	144.38
419.834	130.38
420.057	126.38
420.28	136.38
420.503	146.38
420.726	118.38
420.948	138.38
421.171	144.38
421.394	133.38
421.617	123.38
421.839	128.38
422.062	136.38
422.285	125.38
422.507	132.38
422.73	136.38
422.953	127.38
423.175	122.38
423.398	130.38
423.621	125.38
423.843	122.38
424.066	124.38
424.288	122.38
424.511	132.38
424.733	128.38
424.956	124.38
425.178	133.38
425.401	147.38
425.623	143.38
425.846	125.38
426.068	126.38
426.291	117.38
426.513	124.38
426.735	136.38
426.958	125.38
427.18	115.38
427.402	114.38
427.625	135.38
427.847	134.38
428.069	124.38
428.292	128.38
428.514	127.38
428.736	127.38
428.958	131.38
429.181	122.38
429.403	126.38
429.625	125.38
429.847	128.38
430.069	134.38
430.292	127.38
430.514	130.38
430.736	123.38
430.958	132.38
431.18	129.38
431.402	127.38
431.624	120.38
431.846	127.38
432.068	94.38
432.29	95.38
432.512	119.38
432.734	108.38
432.956	129.38
433.178	129.38
433.4	133.38
433.622	139.38
433.844	137.38
434.066	121.38
434.287	104.38
434.509	95.38
434.731	107.38
434.953	102.38
435.175	130.38
435.397	130.38
435.618	127.38
435.84	119.38
436.062	103.38
436.284	120.38
436.505	122.38
436.727	130.38
436.949	143.38
437.17	124.38
437.392	134.38
437.614	117.38
437.835	103.38
438.057	99.38
438.278	108.38
438.5	109.38
438.721	129.38
438.943	133.38
439.165	122.38
439.386	152.38
439.608	128.38
439.829	130.38
440.05	142.38
440.272	155.38
440.493	152.38
440.715	148.38
440.936	127.38
441.158	126.38
441.379	119.38
441.6	146.38
441.822	133.38
442.043	132.38
442.264	140.38
442.486	136.38
442.707	128.38
442.928	145.38
443.149	127.38
443.371	120.38
443.592	132.38
443.813	134.38
444.034	126.38
444.255	135.38
444.476	126.38
444.698	120.38
444.919	144.38
445.14	278.38
445.361	210.38
445.582	142.38
445.803	138.38
446.024	155.38
446.245	142.38
446.466	163.38
446.687	150.38
446.908	140.38
447.129	162.38
447.35	154.38
447.571	133.38
447.792	138.38
448.013	152.38
448.234	135.38
448.455	135.38
448.675	140.38
448.896	128.38
449.117	135.38
449.338	126.38
449.559	152.38
449.779	135.38
450	124.38
450.221	128.38
450.442	131.38
450.662	140.38
450.883	139.38
451.104	131.38
451.324	121.38
451.545	130.38
451.766	144.38
451.986	133.38
452.207	124.38
452.428	107.38
452.648	127.38
452.869	122.38
453.089	123.38
453.31	124.38
453.53	118.38
453.751	107.38
453.971	94.38
454.192	109.38
454.412	106.38
454.633	118.38
454.853	122.38
455.073	119.38
455.294	126.38
455.514	124.38
455.734	119.38
455.955	108.38
456.175	114.38
456.395	107.38
456.616	112.38
456.836	114.38
457.056	110.38
457.276	108.38
457.497	114.38
457.717	110.38
457.937	112.38
458.157	107.38
458.377	98.38
458.598	99.38
458.818	96.38
459.038	95.38
459.258	77.38
459.478	90.38
459.698	105.38
459.918	92.38
460.138	115.38
460.358	106.38
460.578	122.38
460.798	128.38
461.018	111.38
461.238	103.38
461.458	116.38
461.678	110.38
461.898	103.38
462.118	113.38
462.338	113.38
462.558	86.38
462.777	107.38
462.997	102.38
463.217	113.38
463.437	117.38
463.657	109.38
463.876	107.38
464.096	109.38
464.316	102.38
464.536	120.38
464.755	120.38
464.975	110.38
465.195	116.38
465.414	119.38
465.634	120.38
465.854	108.38
466.073	130.38
466.293	115.38
466.512	131.38
466.732	132.38
466.951	139.38
467.171	128.38
467.391	127.38
467.61	126.38
467.829	127.38
468.049	127.38
468.268	132.38
468.488	128.38
468.707	131.38
468.927	142.38
469.146	144.38
469.365	164.38
469.585	132.38
469.804	149.38
470.023	144.38
470.243	132.38
470.462	119.38
470.681	139.38
470.901	147.38
471.12	144.38
471.339	145.38
471.558	162.38
471.777	138.38
471.997	132.38
472.216	116.38
472.435	128.38
472.654	101.38
472.873	101.38
473.092	114.38
473.311	120.38
473.53	128.38
473.749	125.38
473.968	132.38
474.187	124.38
474.406	123.38
474.625	123.38
474.844	114.38
475.063	120.38
475.282	129.38
475.501	115.38
475.72	130.38
475.939	114.38
476.158	102.38
476.377	119.38
476.596	120.38
476.814	115.38
477.033	103.38
477.252	102.38
477.471	128.38
477.69	125.38
477.908	134.38
478.127	143.38
478.346	139.38
478.564	128.38
478.783	134.38
479.002	138.38
479.22	139.38
479.439	141.38
479.658	122.38
479.876	125.38
480.095	108.38
480.313	118.38
480.532	114.38
480.751	103.38
480.969	98.38
481.188	78.38
481.406	82.38
481.624	80.38
481.843	94.38
482.061	103.38
482.28	112.38
482.498	106.38
482.717	109.38
482.935	111.38
483.153	139.38
483.372	158.38
483.59	146.38
483.808	144.38
484.027	133.38
484.245	138.38
484.463	152.38
484.681	150.38
484.9	147.38
485.118	115.38
485.336	126.38
485.554	122.38
485.772	101.38
485.99	106.38
486.209	120.38
486.427	112.38
486.645	138.38
486.863	150.38
487.081	156.38
487.299	136.38
487.517	144.38
487.735	164.38
487.953	183.38
488.171	166.38
488.389	178.38
488.607	159.38
488.825	142.38
489.043	133.38
489.261	148.38
489.479	136.38
489.696	147.38
489.914	144.38
490.132	142.38
490.35	170.38
490.568	143.38
490.786	167.38
491.003	186.38
491.221	188.38
491.439	160.38
491.657	176.38
491.874	213.38
492.092	208.38
492.31	240.38
492.527	224.38
492.745	213.38
492.963	208.38
493.18	184.38
493.398	170.38
493.615	178.38
493.833	169.38
494.05	169.38
494.268	162.38
494.485	175.38
494.703	173.38
494.92	162.38
495.138	164.38
495.355	157.38
495.573	168.38
495.79	157.38
496.008	159.38
496.225	167.38
496.442	158.38
496.66	175.38
496.877	158.38
497.094	167.38
497.312	153.38
497.529	159.38
497.746	148.38
497.963	134.38
498.181	126.38
498.398	125.38
498.615	109.38
498.832	119.38
499.049	114.38
499.267	112.38
499.484	116.38
499.701	115.38
499.918	131.38
500.135	141.38
500.352	138.38
500.569	123.38
500.786	142.38
501.003	156.38
501.22	149.38
501.437	139.38
501.654	133.38
501.871	126.38
502.088	116.38
502.305	126.38
502.522	131.38
502.739	134.38
502.956	132.38
503.172	130.38
503.389	125.38
503.606	112.38
503.823	116.38
504.04	126.38
504.256	127.38
504.473	113.38
504.69	119.38
504.907	126.38
505.123	118.38
505.34	126.38
505.557	126.38
505.773	129.38
505.99	122.38
506.207	114.38
506.423	110.38
506.64	109.38
506.856	127.38
507.073	117.38
507.289	125.38
507.506	117.38
507.722	109.38
507.939	125.38
508.155	116.38
508.372	123.38
508.588	120.38
508.805	110.38
509.021	110.38
509.238	110.38
509.454	104.38
509.67	100.38
509.887	106.38
510.103	91.38
510.319	100.38
510.536	86.38
510.752	77.38
510.968	88.38
511.184	82.38
511.401	93.38
511.617	83.38
511.833	82.38
