Data from Location1.07152019.Energy5.Lamp.07192019.3%Agarose_HRD10591_14-33-04-016.txt Node
Date: Fri Jul 19 14:33:04 EDT 2019
User: cochatt
Spectrometer: HR+D1059
Trigger mode: 1
Integration Time (sec): 1.000000E-1
Scans to average: 1
Electric dark correction enabled: true
Nonlinearity correction enabled: false
Boxcar width: 0
XAxis mode: Wavelengths
Number of Pixels in Spectrum: 2048
>>>>>Begin Spectral Data<<<<<
223.165	-9.5
223.4	-9.5
223.635	-9.5
223.869	-18.5
224.104	-22.5
224.338	-13.5
224.573	-13.5
224.808	-8.5
225.042	-11.5
225.277	5.5
225.511	-8.5
225.746	0.5
225.98	3.5
226.215	5.5
226.449	13.5
226.683	18.5
226.918	33.5
227.152	25.5
227.387	34.5
227.621	31.5
227.856	35.5
228.09	42.5
228.324	40.5
228.559	48.5
228.793	65.5
229.027	62.5
229.262	63.5
229.496	60.5
229.73	62.5
229.964	64.5
230.199	69.5
230.433	76.5
230.667	62.5
230.901	76.5
231.136	75.5
231.37	76.5
231.604	94.5
231.838	72.5
232.072	83.5
232.306	92.5
232.541	80.5
232.775	88.5
233.009	80.5
233.243	70.5
233.477	92.5
233.711	80.5
233.945	58.5
234.179	82.5
234.413	86.5
234.647	82.5
234.881	91.5
235.115	85.5
235.349	86.5
235.583	92.5
235.817	77.5
236.051	79.5
236.285	84.5
236.519	86.5
236.753	89.5
236.987	71.5
237.221	72.5
237.455	84.5
237.689	70.5
237.922	73.5
238.156	83.5
238.39	78.5
238.624	71.5
238.858	65.5
239.091	79.5
239.325	72.5
239.559	79.5
239.793	88.5
240.027	98.5
240.26	80.5
240.494	80.5
240.728	82.5
240.961	80.5
241.195	71.5
241.429	82.5
241.662	84.5
241.896	62.5
242.13	68.5
242.363	83.5
242.597	74.5
242.83	70.5
243.064	84.5
243.298	82.5
243.531	77.5
243.765	68.5
243.998	73.5
244.232	69.5
244.465	64.5
244.699	66.5
244.932	75.5
245.166	76.5
245.399	99.5
245.633	84.5
245.866	86.5
246.099	62.5
246.333	66.5
246.566	80.5
246.8	68.5
247.033	77.5
247.266	92.5
247.5	89.5
247.733	85.5
247.966	77.5
248.2	96.5
248.433	75.5
248.666	61.5
248.899	90.5
249.133	75.5
249.366	75.5
249.599	79.5
249.832	81.5
250.066	93.5
250.299	98.5
250.532	60.5
250.765	73.5
250.998	68.5
251.231	67.5
251.465	72.5
251.698	84.5
251.931	74.5
252.164	67.5
252.397	89.5
252.63	70.5
252.863	73.5
253.096	86.5
253.329	81.5
253.562	77.5
253.795	83.5
254.028	85.5
254.261	84.5
254.494	81.5
254.727	77.5
254.96	82.5
255.193	73.5
255.426	86.5
255.659	91.5
255.892	92.5
256.124	71.5
256.357	93.5
256.59	86.5
256.823	87.5
257.056	75.5
257.289	83.5
257.521	75.5
257.754	79.5
257.987	78.5
258.22	88.5
258.452	73.5
258.685	76.5
258.918	79.5
259.151	90.5
259.383	84.5
259.616	86.5
259.849	79.5
260.081	85.5
260.314	82.5
260.547	83.5
260.779	86.5
261.012	82.5
261.244	75.5
261.477	75.5
261.71	90.5
261.942	61.5
262.175	92.5
262.407	92.5
262.64	74.5
262.872	86.5
263.105	92.5
263.337	95.5
263.57	71.5
263.802	76.5
264.035	74.5
264.267	83.5
264.499	82.5
264.732	86.5
264.964	85.5
265.197	79.5
265.429	88.5
265.661	78.5
265.894	76.5
266.126	74.5
266.358	83.5
266.591	78.5
266.823	83.5
267.055	94.5
267.287	80.5
267.52	90.5
267.752	83.5
267.984	79.5
268.216	84.5
268.448	84.5
268.681	79.5
268.913	84.5
269.145	78.5
269.377	72.5
269.609	91.5
269.841	82.5
270.073	87.5
270.306	86.5
270.538	70.5
270.77	80.5
271.002	93.5
271.234	72.5
271.466	83.5
271.698	77.5
271.93	82.5
272.162	91.5
272.394	96.5
272.626	87.5
272.858	84.5
273.09	73.5
273.322	85.5
273.553	86.5
273.785	80.5
274.017	77.5
274.249	98.5
274.481	76.5
274.713	85.5
274.945	83.5
275.176	90.5
275.408	79.5
275.64	86.5
275.872	67.5
276.104	82.5
276.335	88.5
276.567	84.5
276.799	94.5
277.031	80.5
277.262	68.5
277.494	84.5
277.726	87.5
277.957	74.5
278.189	84.5
278.421	84.5
278.652	94.5
278.884	95.5
279.115	92.5
279.347	84.5
279.579	78.5
279.81	90.5
280.042	86.5
280.273	82.5
280.505	81.5
280.736	84.5
280.968	79.5
281.199	91.5
281.431	92.5
281.662	84.5
281.894	88.5
282.125	89.5
282.356	87.5
282.588	86.5
282.819	81.5
283.051	78.5
283.282	85.5
283.513	74.5
283.745	85.5
283.976	84.5
284.207	82.5
284.439	93.5
284.67	96.5
284.901	79.5
285.132	70.5
285.364	87.5
285.595	86.5
285.826	83.5
286.057	88.5
286.288	90.5
286.52	75.5
286.751	82.5
286.982	81.5
287.213	88.5
287.444	86.5
287.675	87.5
287.906	91.5
288.138	88.5
288.369	70.5
288.6	84.5
288.831	74.5
289.062	81.5
289.293	66.5
289.524	80.5
289.755	86.5
289.986	89.5
290.217	93.5
290.448	85.5
290.679	89.5
290.91	84.5
291.141	94.5
291.371	95.5
291.602	89.5
291.833	71.5
292.064	84.5
292.295	75.5
292.526	87.5
292.757	90.5
292.987	80.5
293.218	83.5
293.449	80.5
293.68	97.5
293.91	82.5
294.141	98.5
294.372	80.5
294.603	77.5
294.833	87.5
295.064	84.5
295.295	80.5
295.525	85.5
295.756	88.5
295.987	77.5
296.217	84.5
296.448	81.5
296.679	72.5
296.909	91.5
297.14	74.5
297.37	78.5
297.601	80.5
297.831	80.5
298.062	89.5
298.292	74.5
298.523	78.5
298.753	75.5
298.984	66.5
299.214	93.5
299.445	77.5
299.675	90.5
299.905	83.5
300.136	80.5
300.366	71.5
300.597	74.5
300.827	80.5
301.057	61.5
301.288	88.5
301.518	88.5
301.748	90.5
301.979	85.5
302.209	78.5
302.439	80.5
302.669	75.5
302.9	78.5
303.13	79.5
303.36	80.5
303.59	84.5
303.82	97.5
304.051	88.5
304.281	90.5
304.511	86.5
304.741	80.5
304.971	98.5
305.201	98.5
305.431	75.5
305.661	95.5
305.891	85.5
306.121	102.5
306.352	90.5
306.582	79.5
306.812	89.5
307.042	83.5
307.272	87.5
307.502	80.5
307.731	85.5
307.961	87.5
308.191	83.5
308.421	82.5
308.651	84.5
308.881	96.5
309.111	58.5
309.341	87.5
309.571	80.5
309.8	82.5
310.03	88.5
310.26	71.5
310.49	84.5
310.72	98.5
310.949	85.5
311.179	80.5
311.409	71.5
311.639	67.5
311.868	82.5
312.098	83.5
312.328	96.5
312.557	92.5
312.787	83.5
313.017	87.5
313.246	85.5
313.476	78.5
313.706	69.5
313.935	86.5
314.165	86.5
314.394	77.5
314.624	78.5
314.853	74.5
315.083	89.5
315.312	99.5
315.542	74.5
315.771	79.5
316.001	101.5
316.23	92.5
316.46	92.5
316.689	84.5
316.919	91.5
317.148	99.5
317.377	88.5
317.607	75.5
317.836	71.5
318.065	77.5
318.295	84.5
318.524	84.5
318.753	91.5
318.983	93.5
319.212	89.5
319.441	67.5
319.67	74.5
319.9	89.5
320.129	78.5
320.358	92.5
320.587	79.5
320.816	79.5
321.046	92.5
321.275	87.5
321.504	83.5
321.733	84.5
321.962	85.5
322.191	78.5
322.42	86.5
322.649	71.5
322.878	75.5
323.108	68.5
323.337	85.5
323.566	84.5
323.795	81.5
324.024	84.5
324.253	80.5
324.482	86.5
324.71	84.5
324.939	73.5
325.168	88.5
325.397	93.5
325.626	76.5
325.855	81.5
326.084	72.5
326.313	99.5
326.542	69.5
326.77	90.5
326.999	83.5
327.228	70.5
327.457	79.5
327.686	85.5
327.914	88.5
328.143	83.5
328.372	84.5
328.6	86.5
328.829	72.5
329.058	84.5
329.287	68.5
329.515	73.5
329.744	81.5
329.972	80.5
330.201	88.5
330.43	93.5
330.658	91.5
330.887	83.5
331.115	90.5
331.344	88.5
331.572	80.5
331.801	78.5
332.03	79.5
332.258	71.5
332.486	86.5
332.715	74.5
332.943	88.5
333.172	83.5
333.4	83.5
333.629	84.5
333.857	73.5
334.085	80.5
334.314	80.5
334.542	85.5
334.771	95.5
334.999	95.5
335.227	66.5
335.455	76.5
335.684	85.5
335.912	72.5
336.14	90.5
336.369	94.5
336.597	81.5
336.825	103.5
337.053	79.5
337.281	74.5
337.51	74.5
337.738	90.5
337.966	74.5
338.194	77.5
338.422	89.5
338.65	78.5
338.878	82.5
339.106	84.5
339.334	88.5
339.562	89.5
339.79	96.5
340.018	79.5
340.246	80.5
340.474	91.5
340.702	66.5
340.93	87.5
341.158	89.5
341.386	79.5
341.614	75.5
341.842	87.5
342.07	83.5
342.298	91.5
342.526	81.5
342.754	83.5
342.981	85.5
343.209	83.5
343.437	87.5
343.665	83.5
343.893	75.5
344.12	75.5
344.348	89.5
344.576	74.5
344.804	74.5
345.031	90.5
345.259	87.5
345.487	80.5
345.714	77.5
345.942	88.5
346.17	77.5
346.397	84.5
346.625	95.5
346.853	87.5
347.08	84.5
347.308	90.5
347.535	86.5
347.763	63.5
347.99	82.5
348.218	92.5
348.445	75.5
348.673	88.5
348.9	85.5
349.128	78.5
349.355	86.5
349.583	76.5
349.81	75.5
350.037	83.5
350.265	95.5
350.492	80.5
350.72	106.5
350.947	99.5
351.174	95.5
351.402	95.5
351.629	84.5
351.856	86.5
352.083	72.5
352.311	74.5
352.538	82.5
352.765	83.5
352.992	78.5
353.22	75.5
353.447	77.5
353.674	79.5
353.901	78.5
354.128	86.5
354.355	77.5
354.583	78.5
354.81	71.5
355.037	95.5
355.264	72.5
355.491	71.5
355.718	92.5
355.945	71.5
356.172	79.5
356.399	87.5
356.626	89.5
356.853	68.5
357.08	92.5
357.307	95.5
357.534	83.5
357.761	76.5
357.988	77.5
358.215	85.5
358.441	74.5
358.668	96.5
358.895	83.5
359.122	83.5
359.349	75.5
359.576	94.5
359.802	71.5
360.029	72.5
360.256	92.5
360.483	73.5
360.709	90.5
360.936	95.5
361.163	90.5
361.39	91.5
361.616	93.5
361.843	96.5
362.07	78.5
362.296	78.5
362.523	93.5
362.749	94.5
362.976	88.5
363.203	91.5
363.429	80.5
363.656	91.5
363.882	80.5
364.109	89.5
364.335	93.5
364.562	83.5
364.788	80.5
365.015	85.5
365.241	76.5
365.468	95.5
365.694	95.5
365.92	75.5
366.147	71.5
366.373	85.5
366.599	92.5
366.826	80.5
367.052	79.5
367.278	101.5
367.505	84.5
367.731	87.5
367.957	84.5
368.184	91.5
368.41	85.5
368.636	78.5
368.862	94.5
369.089	71.5
369.315	82.5
369.541	85.5
369.767	98.5
369.993	93.5
370.219	87.5
370.445	88.5
370.672	97.5
370.898	85.5
371.124	101.5
371.35	102.5
371.576	88.5
371.802	91.5
372.028	101.5
372.254	84.5
372.48	90.5
372.706	89.5
372.932	83.5
373.158	91.5
373.384	97.5
373.61	86.5
373.835	91.5
374.061	102.5
374.287	76.5
374.513	88.5
374.739	78.5
374.965	91.5
375.191	77.5
375.416	84.5
375.642	102.5
375.868	102.5
376.094	95.5
376.319	81.5
376.545	98.5
376.771	100.5
376.997	83.5
377.222	100.5
377.448	90.5
377.674	78.5
377.899	93.5
378.125	96.5
378.35	82.5
378.576	85.5
378.802	95.5
379.027	89.5
379.253	114.5
379.478	89.5
379.704	101.5
379.929	89.5
380.155	88.5
380.38	103.5
380.606	88.5
380.831	103.5
381.057	100.5
381.282	108.5
381.507	93.5
381.733	99.5
381.958	93.5
382.184	91.5
382.409	88.5
382.634	107.5
382.86	101.5
383.085	106.5
383.31	98.5
383.535	89.5
383.761	108.5
383.986	96.5
384.211	99.5
384.436	103.5
384.662	81.5
384.887	103.5
385.112	80.5
385.337	89.5
385.562	104.5
385.787	105.5
386.013	100.5
386.238	93.5
386.463	94.5
386.688	90.5
386.913	110.5
387.138	99.5
387.363	92.5
387.588	107.5
387.813	104.5
388.038	109.5
388.263	97.5
388.488	95.5
388.713	101.5
388.938	102.5
389.163	107.5
389.387	84.5
389.612	101.5
389.837	93.5
390.062	90.5
390.287	110.5
390.512	95.5
390.736	113.5
390.961	101.5
391.186	92.5
391.411	104.5
391.636	100.5
391.86	93.5
392.085	111.5
392.31	111.5
392.534	96.5
392.759	95.5
392.984	112.5
393.208	110.5
393.433	106.5
393.658	90.5
393.882	91.5
394.107	91.5
394.331	107.5
394.556	112.5
394.78	96.5
395.005	91.5
395.229	111.5
395.454	104.5
395.678	107.5
395.903	115.5
396.127	117.5
396.352	107.5
396.576	113.5
396.801	103.5
397.025	108.5
397.249	95.5
397.474	94.5
397.698	102.5
397.922	104.5
398.147	108.5
398.371	91.5
398.595	121.5
398.82	107.5
399.044	109.5
399.268	115.5
399.492	103.5
399.717	126.5
399.941	103.5
400.165	96.5
400.389	101.5
400.613	108.5
400.837	113.5
401.062	110.5
401.286	116.5
401.51	102.5
401.734	121.5
401.958	114.5
402.182	93.5
402.406	102.5
402.63	120.5
402.854	105.5
403.078	111.5
403.302	115.5
403.526	121.5
403.75	125.5
403.974	119.5
404.198	115.5
404.422	117.5
404.645	116.5
404.869	117.5
405.093	116.5
405.317	120.5
405.541	123.5
405.765	115.5
405.988	112.5
406.212	116.5
406.436	104.5
406.66	118.5
406.883	101.5
407.107	106.5
407.331	121.5
407.555	121.5
407.778	122.5
408.002	112.5
408.226	114.5
408.449	115.5
408.673	106.5
408.896	108.5
409.12	93.5
409.344	113.5
409.567	103.5
409.791	129.5
410.014	122.5
410.238	121.5
410.461	118.5
410.685	127.5
410.908	132.5
411.132	129.5
411.355	124.5
411.578	130.5
411.802	124.5
412.025	124.5
412.249	110.5
412.472	120.5
412.695	128.5
412.919	127.5
413.142	128.5
413.365	113.5
413.589	117.5
413.812	119.5
414.035	127.5
414.258	127.5
414.482	122.5
414.705	118.5
414.928	129.5
415.151	121.5
415.374	126.5
415.597	119.5
415.821	116.5
416.044	109.5
416.267	126.5
416.49	124.5
416.713	116.5
416.936	125.5
417.159	131.5
417.382	132.5
417.605	119.5
417.828	135.5
418.051	120.5
418.274	136.5
418.497	147.5
418.72	134.5
418.943	144.5
419.166	147.5
419.389	135.5
419.611	136.5
419.834	129.5
420.057	127.5
420.28	149.5
420.503	139.5
420.726	140.5
420.948	138.5
421.171	140.5
421.394	150.5
421.617	126.5
421.839	140.5
422.062	140.5
422.285	129.5
422.507	131.5
422.73	123.5
422.953	142.5
423.175	124.5
423.398	116.5
423.621	131.5
423.843	129.5
424.066	137.5
424.288	139.5
424.511	139.5
424.733	134.5
424.956	147.5
425.178	144.5
425.401	131.5
425.623	125.5
425.846	123.5
426.068	125.5
426.291	141.5
426.513	118.5
426.735	134.5
426.958	120.5
427.18	139.5
427.402	131.5
427.625	139.5
427.847	125.5
428.069	128.5
428.292	138.5
428.514	126.5
428.736	124.5
428.958	125.5
429.181	120.5
429.403	128.5
429.625	125.5
429.847	122.5
430.069	127.5
430.292	128.5
430.514	117.5
430.736	124.5
430.958	120.5
431.18	126.5
431.402	127.5
431.624	118.5
431.846	99.5
432.068	108.5
432.29	111.5
432.512	110.5
432.734	119.5
432.956	136.5
433.178	143.5
433.4	134.5
433.622	127.5
433.844	130.5
434.066	117.5
434.287	111.5
434.509	93.5
434.731	96.5
434.953	104.5
435.175	125.5
435.397	125.5
435.618	115.5
435.84	115.5
436.062	135.5
436.284	136.5
436.505	121.5
436.727	135.5
436.949	130.5
437.17	130.5
437.392	120.5
437.614	125.5
437.835	91.5
438.057	111.5
438.278	109.5
438.5	122.5
438.721	134.5
438.943	125.5
439.165	138.5
439.386	132.5
439.608	134.5
439.829	143.5
440.05	154.5
440.272	134.5
440.493	144.5
440.715	142.5
440.936	161.5
441.158	159.5
441.379	162.5
441.6	148.5
441.822	162.5
442.043	147.5
442.264	143.5
442.486	146.5
442.707	123.5
442.928	135.5
443.149	163.5
443.371	120.5
443.592	135.5
443.813	134.5
444.034	139.5
444.255	138.5
444.476	144.5
444.698	132.5
444.919	133.5
445.14	215.5
445.361	203.5
445.582	150.5
445.803	138.5
446.024	141.5
446.245	151.5
446.466	167.5
446.687	150.5
446.908	168.5
447.129	165.5
447.35	158.5
447.571	148.5
447.792	136.5
448.013	141.5
448.234	139.5
448.455	136.5
448.675	142.5
448.896	124.5
449.117	138.5
449.338	136.5
449.559	132.5
449.779	141.5
450	134.5
450.221	130.5
450.442	135.5
450.662	132.5
450.883	135.5
451.104	141.5
451.324	129.5
451.545	135.5
451.766	148.5
451.986	124.5
452.207	119.5
452.428	116.5
452.648	124.5
452.869	123.5
453.089	103.5
453.31	124.5
453.53	93.5
453.751	107.5
453.971	99.5
454.192	107.5
454.412	99.5
454.633	114.5
454.853	113.5
455.073	119.5
455.294	121.5
455.514	122.5
455.734	114.5
455.955	110.5
456.175	105.5
456.395	115.5
456.616	122.5
456.836	119.5
457.056	107.5
457.276	98.5
457.497	84.5
457.717	98.5
457.937	101.5
458.157	100.5
458.377	111.5
458.598	116.5
458.818	89.5
459.038	90.5
459.258	81.5
459.478	76.5
459.698	85.5
459.918	96.5
460.138	124.5
460.358	120.5
460.578	114.5
460.798	107.5
461.018	110.5
461.238	115.5
461.458	114.5
461.678	116.5
461.898	119.5
462.118	121.5
462.338	124.5
462.558	125.5
462.777	119.5
462.997	115.5
463.217	114.5
463.437	124.5
463.657	109.5
463.876	122.5
464.096	116.5
464.316	102.5
464.536	107.5
464.755	130.5
464.975	106.5
465.195	107.5
465.414	127.5
465.634	122.5
465.854	125.5
466.073	116.5
466.293	111.5
466.512	116.5
466.732	126.5
466.951	134.5
467.171	127.5
467.391	130.5
467.61	129.5
467.829	131.5
468.049	132.5
468.268	125.5
468.488	118.5
468.707	136.5
468.927	134.5
469.146	152.5
469.365	141.5
469.585	131.5
469.804	140.5
470.023	124.5
470.243	126.5
470.462	150.5
470.681	141.5
470.901	146.5
471.12	140.5
471.339	135.5
471.558	133.5
471.777	151.5
471.997	131.5
472.216	108.5
472.435	110.5
472.654	103.5
472.873	104.5
473.092	109.5
473.311	121.5
473.53	129.5
473.749	120.5
473.968	123.5
474.187	124.5
474.406	118.5
474.625	128.5
474.844	135.5
475.063	141.5
475.282	121.5
475.501	119.5
475.72	127.5
475.939	130.5
476.158	130.5
476.377	126.5
476.596	123.5
476.814	115.5
477.033	116.5
477.252	115.5
477.471	133.5
477.69	118.5
477.908	127.5
478.127	138.5
478.346	134.5
478.564	137.5
478.783	131.5
479.002	150.5
479.22	154.5
479.439	125.5
479.658	128.5
479.876	100.5
480.095	111.5
480.313	118.5
480.532	122.5
480.751	124.5
480.969	90.5
481.188	102.5
481.406	73.5
481.624	79.5
481.843	93.5
482.061	100.5
482.28	116.5
482.498	123.5
482.717	101.5
482.935	125.5
483.153	127.5
483.372	145.5
483.59	141.5
483.808	136.5
484.027	125.5
484.245	133.5
484.463	152.5
484.681	161.5
484.9	139.5
485.118	139.5
485.336	137.5
485.554	117.5
485.772	102.5
485.99	117.5
486.209	117.5
486.427	112.5
486.645	128.5
486.863	136.5
487.081	131.5
487.299	140.5
487.517	131.5
487.735	167.5
487.953	178.5
488.171	172.5
488.389	181.5
488.607	167.5
488.825	135.5
489.043	140.5
489.261	140.5
489.479	127.5
489.696	127.5
489.914	138.5
490.132	142.5
490.35	158.5
490.568	174.5
490.786	167.5
491.003	175.5
491.221	180.5
491.439	166.5
491.657	188.5
491.874	207.5
492.092	218.5
492.31	247.5
492.527	224.5
492.745	200.5
492.963	218.5
493.18	194.5
493.398	202.5
493.615	187.5
493.833	168.5
494.05	158.5
494.268	158.5
494.485	158.5
494.703	180.5
494.92	175.5
495.138	175.5
495.355	171.5
495.573	154.5
495.79	156.5
496.008	172.5
496.225	167.5
496.442	165.5
496.66	154.5
496.877	149.5
497.094	152.5
497.312	158.5
497.529	170.5
497.746	154.5
497.963	128.5
498.181	133.5
498.398	127.5
498.615	131.5
498.832	125.5
499.049	103.5
499.267	111.5
499.484	115.5
499.701	124.5
499.918	134.5
500.135	139.5
500.352	143.5
500.569	148.5
500.786	143.5
501.003	146.5
501.22	136.5
501.437	130.5
501.654	133.5
501.871	128.5
502.088	111.5
502.305	126.5
502.522	120.5
502.739	127.5
502.956	144.5
503.172	124.5
503.389	107.5
503.606	121.5
503.823	120.5
504.04	114.5
504.256	127.5
504.473	122.5
504.69	126.5
504.907	120.5
505.123	110.5
505.34	134.5
505.557	143.5
505.773	126.5
505.99	111.5
506.207	120.5
506.423	110.5
506.64	114.5
506.856	125.5
507.073	126.5
507.289	123.5
507.506	110.5
507.722	114.5
507.939	122.5
508.155	123.5
508.372	111.5
508.588	111.5
508.805	104.5
509.021	112.5
509.238	99.5
509.454	110.5
509.67	106.5
509.887	90.5
510.103	100.5
510.319	101.5
510.536	98.5
510.752	101.5
510.968	90.5
511.184	93.5
511.401	98.5
511.617	93.5
511.833	92.5
512.049	96.5
512.265	105.5
512.481	103.5
512.698	94.5
512.914	100.5
513.13	107.5
513.346	101.5
513.562	96.5
513.778	86.5
513.994	94.5
514.21	94.5
514.426	80.5
514.642	96.5
514.858	94.5
515.074	100.5
515.29	95.5
515.506	103.5
515.721	87.5
515.937	80.5
516.153	79.5
516.369	96.5
516.585	88.5
516.801	99.5
517.016	87.5
517.232	88.5
517.448	93.5
517.664	95.5
517.879	94.5
518.095	99.5
518.311	96.5
518.527	92.5
518.742	92.5
518.958	89.5
519.173	115.5
519.389	104.5
519.605	101.5
519.82	123.5
520.036	114.5
520.251	110.5
520.467	95.5
520.682	98.5
520.898	96.5
521.113	89.5
521.329	86.5
521.544	97.5
521.76	110.5
521.975	85.5
522.19	113.5
522.406	106.5
522.621	105.5
522.836	96.5
523.052	92.5
523.267	103.5
523.482	105.5
523.698	113.5
523.913	114.5
524.128	120.5
524.343	126.5
524.559	110.5
524.774	106.5
524.989	117.5
525.204	128.5
525.419	130.5
525.634	114.5
525.849	103.5
526.064	92.5
526.28	100.5
526.495	93.5
526.71	94.5
526.925	88.5
527.14	87.5
527.355	71.5
527.57	75.5
527.785	82.5
527.999	86.5
528.214	98.5
528.429	118.5
528.644	130.5
528.859	130.5
529.074	149.5
529.289	167.5
529.503	153.5
529.718	129.5
529.933	115.5
530.148	101.5
530.363	93.5
530.577	97.5
530.792	84.5
531.007	76.5
