Data from Location1.07152019.Energy5.Lamp.07192019.3%Agarose_HRD10591_14-31-49-016.txt Node
Date: Fri Jul 19 14:31:49 EDT 2019
User: cochatt
Spectrometer: HR+D1059
Trigger mode: 1
Integration Time (sec): 1.000000E-1
Scans to average: 1
Electric dark correction enabled: true
Nonlinearity correction enabled: false
Boxcar width: 0
XAxis mode: Wavelengths
Number of Pixels in Spectrum: 2048
>>>>>Begin Spectral Data<<<<<
223.165	-9.25
223.4	-9.25
223.635	-9.25
223.869	-22.25
224.104	-14.25
224.338	-10.25
224.573	-21.25
224.808	-28.25
225.042	-7.25
225.277	1.75
225.511	2.75
225.746	5.75
225.98	17.75
226.215	9.75
226.449	24.75
226.683	9.75
226.918	6.75
227.152	33.75
227.387	33.75
227.621	31.75
227.856	49.75
228.09	31.75
228.324	41.75
228.559	40.75
228.793	62.75
229.027	71.75
229.262	53.75
229.496	56.75
229.73	57.75
229.964	75.75
230.199	79.75
230.433	76.75
230.667	71.75
230.901	78.75
231.136	78.75
231.37	90.75
231.604	80.75
231.838	83.75
232.072	72.75
232.306	74.75
232.541	91.75
232.775	78.75
233.009	83.75
233.243	65.75
233.477	95.75
233.711	74.75
233.945	87.75
234.179	75.75
234.413	81.75
234.647	82.75
234.881	92.75
235.115	85.75
235.349	69.75
235.583	70.75
235.817	74.75
236.051	71.75
236.285	80.75
236.519	76.75
236.753	66.75
236.987	71.75
237.221	75.75
237.455	75.75
237.689	78.75
237.922	75.75
238.156	72.75
238.39	84.75
238.624	75.75
238.858	84.75
239.091	81.75
239.325	77.75
239.559	75.75
239.793	69.75
240.027	68.75
240.26	70.75
240.494	90.75
240.728	66.75
240.961	70.75
241.195	87.75
241.429	78.75
241.662	76.75
241.896	82.75
242.13	78.75
242.363	79.75
242.597	68.75
242.83	83.75
243.064	81.75
243.298	78.75
243.531	70.75
243.765	67.75
243.998	78.75
244.232	65.75
244.465	69.75
244.699	79.75
244.932	82.75
245.166	75.75
245.399	75.75
245.633	73.75
245.866	68.75
246.099	79.75
246.333	74.75
246.566	84.75
246.8	85.75
247.033	69.75
247.266	87.75
247.5	74.75
247.733	70.75
247.966	89.75
248.2	86.75
248.433	71.75
248.666	81.75
248.899	83.75
249.133	89.75
249.366	101.75
249.599	69.75
249.832	77.75
250.066	83.75
250.299	78.75
250.532	89.75
250.765	69.75
250.998	70.75
251.231	83.75
251.465	73.75
251.698	77.75
251.931	92.75
252.164	72.75
252.397	65.75
252.63	66.75
252.863	76.75
253.096	71.75
253.329	85.75
253.562	76.75
253.795	70.75
254.028	79.75
254.261	79.75
254.494	86.75
254.727	80.75
254.96	84.75
255.193	76.75
255.426	82.75
255.659	102.75
255.892	80.75
256.124	86.75
256.357	86.75
256.59	94.75
256.823	75.75
257.056	74.75
257.289	84.75
257.521	77.75
257.754	68.75
257.987	74.75
258.22	90.75
258.452	79.75
258.685	67.75
258.918	79.75
259.151	78.75
259.383	88.75
259.616	95.75
259.849	75.75
260.081	79.75
260.314	73.75
260.547	76.75
260.779	81.75
261.012	78.75
261.244	73.75
261.477	72.75
261.71	79.75
261.942	75.75
262.175	78.75
262.407	87.75
262.64	81.75
262.872	81.75
263.105	77.75
263.337	77.75
263.57	91.75
263.802	81.75
264.035	74.75
264.267	78.75
264.499	77.75
264.732	78.75
264.964	104.75
265.197	84.75
265.429	81.75
265.661	86.75
265.894	83.75
266.126	77.75
266.358	72.75
266.591	78.75
266.823	78.75
267.055	89.75
267.287	81.75
267.52	86.75
267.752	83.75
267.984	83.75
268.216	83.75
268.448	89.75
268.681	84.75
268.913	87.75
269.145	81.75
269.377	75.75
269.609	82.75
269.841	97.75
270.073	93.75
270.306	88.75
270.538	77.75
270.77	76.75
271.002	89.75
271.234	86.75
271.466	74.75
271.698	93.75
271.93	82.75
272.162	77.75
272.394	79.75
272.626	95.75
272.858	88.75
273.09	83.75
273.322	71.75
273.553	74.75
273.785	91.75
274.017	78.75
274.249	85.75
274.481	101.75
274.713	80.75
274.945	82.75
275.176	77.75
275.408	73.75
275.64	80.75
275.872	83.75
276.104	98.75
276.335	83.75
276.567	79.75
276.799	67.75
277.031	64.75
277.262	79.75
277.494	85.75
277.726	86.75
277.957	96.75
278.189	72.75
278.421	65.75
278.652	77.75
278.884	95.75
279.115	88.75
279.347	78.75
279.579	88.75
279.81	77.75
280.042	67.75
280.273	80.75
280.505	82.75
280.736	87.75
280.968	83.75
281.199	82.75
281.431	77.75
281.662	87.75
281.894	92.75
282.125	88.75
282.356	82.75
282.588	92.75
282.819	95.75
283.051	77.75
283.282	79.75
283.513	73.75
283.745	75.75
283.976	86.75
284.207	77.75
284.439	77.75
284.67	63.75
284.901	74.75
285.132	84.75
285.364	75.75
285.595	78.75
285.826	73.75
286.057	87.75
286.288	83.75
286.52	83.75
286.751	71.75
286.982	81.75
287.213	78.75
287.444	85.75
287.675	78.75
287.906	78.75
288.138	87.75
288.369	103.75
288.6	86.75
288.831	74.75
289.062	84.75
289.293	84.75
289.524	78.75
289.755	79.75
289.986	74.75
290.217	90.75
290.448	85.75
290.679	84.75
290.91	75.75
291.141	85.75
291.371	85.75
291.602	73.75
291.833	74.75
292.064	79.75
292.295	84.75
292.526	81.75
292.757	88.75
292.987	91.75
293.218	69.75
293.449	78.75
293.68	87.75
293.91	64.75
294.141	74.75
294.372	81.75
294.603	76.75
294.833	84.75
295.064	76.75
295.295	89.75
295.525	82.75
295.756	85.75
295.987	74.75
296.217	81.75
296.448	83.75
296.679	78.75
296.909	83.75
297.14	83.75
297.37	82.75
297.601	86.75
297.831	88.75
298.062	85.75
298.292	88.75
298.523	103.75
298.753	88.75
298.984	94.75
299.214	86.75
299.445	79.75
299.675	82.75
299.905	93.75
300.136	89.75
300.366	90.75
300.597	89.75
300.827	81.75
301.057	84.75
301.288	86.75
301.518	81.75
301.748	78.75
301.979	93.75
302.209	79.75
302.439	82.75
302.669	79.75
302.9	82.75
303.13	92.75
303.36	85.75
303.59	92.75
303.82	71.75
304.051	89.75
304.281	79.75
304.511	82.75
304.741	86.75
304.971	78.75
305.201	88.75
305.431	78.75
305.661	79.75
305.891	83.75
306.121	81.75
306.352	85.75
306.582	93.75
306.812	82.75
307.042	97.75
307.272	79.75
307.502	85.75
307.731	90.75
307.961	89.75
308.191	84.75
308.421	91.75
308.651	90.75
308.881	67.75
309.111	86.75
309.341	85.75
309.571	90.75
309.8	79.75
310.03	93.75
310.26	91.75
310.49	83.75
310.72	89.75
310.949	87.75
311.179	78.75
311.409	82.75
311.639	70.75
311.868	75.75
312.098	91.75
312.328	97.75
312.557	78.75
312.787	85.75
313.017	77.75
313.246	83.75
313.476	75.75
313.706	81.75
313.935	79.75
314.165	70.75
314.394	92.75
314.624	77.75
314.853	91.75
315.083	87.75
315.312	83.75
315.542	84.75
315.771	75.75
316.001	73.75
316.23	79.75
316.46	84.75
316.689	80.75
316.919	86.75
317.148	90.75
317.377	87.75
317.607	75.75
317.836	81.75
318.065	90.75
318.295	75.75
318.524	82.75
318.753	83.75
318.983	70.75
319.212	90.75
319.441	79.75
319.67	83.75
319.9	89.75
320.129	86.75
320.358	77.75
320.587	85.75
320.816	98.75
321.046	82.75
321.275	80.75
321.504	86.75
321.733	89.75
321.962	90.75
322.191	90.75
322.42	88.75
322.649	92.75
322.878	82.75
323.108	90.75
323.337	93.75
323.566	77.75
323.795	88.75
324.024	84.75
324.253	71.75
324.482	73.75
324.71	78.75
324.939	90.75
325.168	71.75
325.397	86.75
325.626	86.75
325.855	86.75
326.084	84.75
326.313	88.75
326.542	77.75
326.77	90.75
326.999	73.75
327.228	82.75
327.457	81.75
327.686	78.75
327.914	85.75
328.143	86.75
328.372	87.75
328.6	84.75
328.829	86.75
329.058	85.75
329.287	75.75
329.515	71.75
329.744	78.75
329.972	94.75
330.201	77.75
330.43	82.75
330.658	85.75
330.887	88.75
331.115	74.75
331.344	94.75
331.572	78.75
331.801	84.75
332.03	74.75
332.258	83.75
332.486	89.75
332.715	70.75
332.943	87.75
333.172	77.75
333.4	92.75
333.629	79.75
333.857	95.75
334.085	88.75
334.314	85.75
334.542	85.75
334.771	82.75
334.999	79.75
335.227	90.75
335.455	80.75
335.684	82.75
335.912	93.75
336.14	89.75
336.369	93.75
336.597	90.75
336.825	73.75
337.053	84.75
337.281	80.75
337.51	92.75
337.738	90.75
337.966	99.75
338.194	93.75
338.422	78.75
338.65	72.75
338.878	89.75
339.106	89.75
339.334	88.75
339.562	84.75
339.79	83.75
340.018	86.75
340.246	85.75
340.474	98.75
340.702	98.75
340.93	101.75
341.158	87.75
341.386	94.75
341.614	95.75
341.842	85.75
342.07	89.75
342.298	91.75
342.526	86.75
342.754	80.75
342.981	68.75
343.209	88.75
343.437	91.75
343.665	83.75
343.893	89.75
344.12	85.75
344.348	89.75
344.576	94.75
344.804	89.75
345.031	91.75
345.259	79.75
345.487	74.75
345.714	79.75
345.942	81.75
346.17	90.75
346.397	80.75
346.625	75.75
346.853	80.75
347.08	88.75
347.308	80.75
347.535	85.75
347.763	86.75
347.99	82.75
348.218	84.75
348.445	92.75
348.673	85.75
348.9	99.75
349.128	86.75
349.355	85.75
349.583	86.75
349.81	75.75
350.037	84.75
350.265	75.75
350.492	75.75
350.72	68.75
350.947	93.75
351.174	100.75
351.402	92.75
351.629	82.75
351.856	76.75
352.083	74.75
352.311	87.75
352.538	76.75
352.765	82.75
352.992	78.75
353.22	91.75
353.447	100.75
353.674	73.75
353.901	91.75
354.128	90.75
354.355	82.75
354.583	79.75
354.81	92.75
355.037	102.75
355.264	96.75
355.491	83.75
355.718	85.75
355.945	88.75
356.172	87.75
356.399	91.75
356.626	83.75
356.853	83.75
357.08	87.75
357.307	87.75
357.534	83.75
357.761	84.75
357.988	101.75
358.215	81.75
358.441	78.75
358.668	86.75
358.895	84.75
359.122	82.75
359.349	95.75
359.576	95.75
359.802	82.75
360.029	89.75
360.256	82.75
360.483	85.75
360.709	108.75
360.936	87.75
361.163	87.75
361.39	85.75
361.616	75.75
361.843	91.75
362.07	71.75
362.296	84.75
362.523	83.75
362.749	95.75
362.976	74.75
363.203	84.75
363.429	91.75
363.656	80.75
363.882	78.75
364.109	81.75
364.335	90.75
364.562	102.75
364.788	78.75
365.015	96.75
365.241	73.75
365.468	81.75
365.694	83.75
365.92	81.75
366.147	83.75
366.373	81.75
366.599	100.75
366.826	92.75
367.052	81.75
367.278	79.75
367.505	98.75
367.731	87.75
367.957	66.75
368.184	87.75
368.41	82.75
368.636	73.75
368.862	89.75
369.089	93.75
369.315	83.75
369.541	84.75
369.767	78.75
369.993	92.75
370.219	92.75
370.445	79.75
370.672	80.75
370.898	78.75
371.124	82.75
371.35	86.75
371.576	98.75
371.802	89.75
372.028	89.75
372.254	87.75
372.48	84.75
372.706	70.75
372.932	89.75
373.158	94.75
373.384	89.75
373.61	86.75
373.835	77.75
374.061	90.75
374.287	86.75
374.513	82.75
374.739	91.75
374.965	89.75
375.191	88.75
375.416	94.75
375.642	101.75
375.868	94.75
376.094	94.75
376.319	100.75
376.545	94.75
376.771	100.75
376.997	78.75
377.222	80.75
377.448	91.75
377.674	98.75
377.899	85.75
378.125	94.75
378.35	75.75
378.576	91.75
378.802	98.75
379.027	93.75
379.253	90.75
379.478	103.75
379.704	98.75
379.929	77.75
380.155	93.75
380.38	97.75
380.606	85.75
380.831	95.75
381.057	93.75
381.282	100.75
381.507	103.75
381.733	100.75
381.958	96.75
382.184	85.75
382.409	100.75
382.634	108.75
382.86	109.75
383.085	85.75
383.31	93.75
383.535	100.75
383.761	94.75
383.986	103.75
384.211	92.75
384.436	88.75
384.662	80.75
384.887	90.75
385.112	94.75
385.337	97.75
385.562	107.75
385.787	85.75
386.013	93.75
386.238	99.75
386.463	99.75
386.688	108.75
386.913	97.75
387.138	94.75
387.363	106.75
387.588	114.75
387.813	99.75
388.038	98.75
388.263	87.75
388.488	104.75
388.713	97.75
388.938	101.75
389.163	94.75
389.387	119.75
389.612	99.75
389.837	106.75
390.062	100.75
390.287	108.75
390.512	95.75
390.736	115.75
390.961	93.75
391.186	102.75
391.411	103.75
391.636	102.75
391.86	103.75
392.085	99.75
392.31	125.75
392.534	102.75
392.759	89.75
392.984	102.75
393.208	100.75
393.433	111.75
393.658	116.75
393.882	107.75
394.107	110.75
394.331	108.75
394.556	98.75
394.78	94.75
395.005	99.75
395.229	105.75
395.454	100.75
395.678	98.75
395.903	105.75
396.127	113.75
396.352	102.75
396.576	95.75
396.801	121.75
397.025	107.75
397.249	88.75
397.474	115.75
397.698	94.75
397.922	105.75
398.147	105.75
398.371	94.75
398.595	116.75
398.82	107.75
399.044	101.75
399.268	109.75
399.492	98.75
399.717	94.75
399.941	115.75
400.165	124.75
400.389	115.75
400.613	107.75
400.837	118.75
401.062	120.75
401.286	121.75
401.51	109.75
401.734	116.75
401.958	96.75
402.182	119.75
402.406	105.75
402.63	122.75
402.854	111.75
403.078	111.75
403.302	108.75
403.526	108.75
403.75	128.75
403.974	110.75
404.198	117.75
404.422	103.75
404.645	103.75
404.869	121.75
405.093	115.75
405.317	111.75
405.541	115.75
405.765	114.75
405.988	99.75
406.212	115.75
406.436	94.75
406.66	121.75
406.883	107.75
407.107	118.75
407.331	117.75
407.555	118.75
407.778	101.75
408.002	115.75
408.226	117.75
408.449	124.75
408.673	109.75
408.896	120.75
409.12	122.75
409.344	121.75
409.567	124.75
409.791	121.75
410.014	114.75
410.238	133.75
410.461	122.75
410.685	109.75
410.908	122.75
411.132	124.75
411.355	105.75
411.578	127.75
411.802	124.75
412.025	117.75
412.249	108.75
412.472	113.75
412.695	108.75
412.919	122.75
413.142	119.75
413.365	119.75
413.589	117.75
413.812	117.75
414.035	130.75
414.258	122.75
414.482	109.75
414.705	117.75
414.928	125.75
415.151	133.75
415.374	117.75
415.597	130.75
415.821	113.75
416.044	131.75
416.267	124.75
416.49	128.75
416.713	124.75
416.936	110.75
417.159	117.75
417.382	127.75
417.605	126.75
417.828	133.75
418.051	135.75
418.274	135.75
418.497	134.75
418.72	137.75
418.943	137.75
419.166	131.75
419.389	143.75
419.611	119.75
419.834	137.75
420.057	128.75
420.28	133.75
420.503	124.75
420.726	122.75
420.948	131.75
421.171	118.75
421.394	143.75
421.617	141.75
421.839	136.75
422.062	131.75
422.285	136.75
422.507	127.75
422.73	139.75
422.953	137.75
423.175	126.75
423.398	135.75
423.621	121.75
423.843	121.75
424.066	133.75
424.288	133.75
424.511	155.75
424.733	157.75
424.956	142.75
425.178	137.75
425.401	124.75
425.623	132.75
425.846	129.75
426.068	119.75
426.291	134.75
426.513	127.75
426.735	138.75
426.958	121.75
427.18	123.75
427.402	109.75
427.625	123.75
427.847	120.75
428.069	122.75
428.292	118.75
428.514	106.75
428.736	133.75
428.958	134.75
429.181	138.75
429.403	123.75
429.625	142.75
429.847	118.75
430.069	126.75
430.292	130.75
430.514	129.75
430.736	132.75
430.958	125.75
431.18	127.75
431.402	125.75
431.624	97.75
431.846	111.75
432.068	106.75
432.29	115.75
432.512	108.75
432.734	123.75
432.956	142.75
433.178	145.75
433.4	141.75
433.622	134.75
433.844	140.75
434.066	126.75
434.287	105.75
434.509	86.75
434.731	103.75
434.953	110.75
435.175	126.75
435.397	134.75
435.618	120.75
435.84	109.75
436.062	105.75
436.284	120.75
436.505	118.75
436.727	125.75
436.949	136.75
437.17	123.75
437.392	130.75
437.614	126.75
437.835	122.75
438.057	101.75
438.278	101.75
438.5	117.75
438.721	135.75
438.943	119.75
439.165	147.75
439.386	130.75
439.608	153.75
439.829	141.75
440.05	140.75
440.272	139.75
440.493	137.75
440.715	137.75
440.936	141.75
441.158	140.75
441.379	141.75
441.6	140.75
441.822	131.75
442.043	136.75
442.264	141.75
442.486	127.75
442.707	125.75
442.928	150.75
443.149	140.75
443.371	134.75
443.592	141.75
443.813	131.75
444.034	131.75
444.255	140.75
444.476	125.75
444.698	139.75
444.919	151.75
445.14	259.75
445.361	203.75
445.582	140.75
445.803	147.75
446.024	145.75
446.245	152.75
446.466	150.75
446.687	159.75
446.908	154.75
447.129	150.75
447.35	143.75
447.571	138.75
447.792	131.75
448.013	149.75
448.234	134.75
448.455	129.75
448.675	143.75
448.896	134.75
449.117	132.75
449.338	122.75
449.559	140.75
449.779	151.75
450	129.75
450.221	124.75
450.442	133.75
450.662	134.75
450.883	122.75
451.104	146.75
451.324	130.75
451.545	121.75
451.766	113.75
451.986	135.75
452.207	136.75
452.428	141.75
452.648	127.75
452.869	123.75
453.089	116.75
453.31	115.75
453.53	110.75
453.751	98.75
453.971	109.75
454.192	109.75
454.412	114.75
454.633	117.75
454.853	119.75
455.073	130.75
455.294	117.75
455.514	118.75
455.734	114.75
455.955	107.75
456.175	106.75
456.395	106.75
456.616	113.75
456.836	109.75
457.056	101.75
457.276	105.75
457.497	94.75
457.717	114.75
457.937	103.75
458.157	126.75
458.377	102.75
458.598	93.75
458.818	96.75
459.038	78.75
459.258	81.75
459.478	94.75
459.698	87.75
459.918	102.75
460.138	102.75
460.358	95.75
460.578	116.75
460.798	117.75
461.018	113.75
461.238	103.75
461.458	117.75
461.678	130.75
461.898	118.75
462.118	117.75
462.338	106.75
462.558	123.75
462.777	108.75
462.997	113.75
463.217	101.75
463.437	97.75
463.657	121.75
463.876	103.75
464.096	98.75
464.316	111.75
464.536	109.75
464.755	113.75
464.975	127.75
465.195	104.75
465.414	113.75
465.634	104.75
465.854	111.75
466.073	123.75
466.293	117.75
466.512	119.75
466.732	135.75
466.951	123.75
467.171	136.75
467.391	125.75
467.61	135.75
467.829	132.75
468.049	131.75
468.268	137.75
468.488	130.75
468.707	137.75
468.927	136.75
469.146	129.75
469.365	135.75
469.585	131.75
469.804	131.75
470.023	138.75
470.243	147.75
470.462	140.75
470.681	129.75
470.901	137.75
471.12	134.75
471.339	143.75
471.558	125.75
471.777	137.75
471.997	129.75
472.216	131.75
472.435	111.75
472.654	115.75
472.873	121.75
473.092	106.75
473.311	126.75
473.53	124.75
473.749	130.75
473.968	131.75
474.187	102.75
474.406	120.75
474.625	107.75
474.844	132.75
475.063	140.75
475.282	129.75
475.501	121.75
475.72	127.75
475.939	124.75
476.158	120.75
476.377	133.75
476.596	120.75
476.814	112.75
477.033	106.75
477.252	104.75
477.471	120.75
477.69	125.75
477.908	126.75
478.127	138.75
478.346	139.75
478.564	133.75
478.783	127.75
479.002	134.75
479.22	119.75
479.439	123.75
479.658	125.75
479.876	110.75
480.095	110.75
480.313	117.75
480.532	116.75
480.751	116.75
480.969	83.75
481.188	107.75
481.406	94.75
481.624	92.75
481.843	85.75
482.061	108.75
482.28	106.75
482.498	116.75
482.717	103.75
482.935	110.75
483.153	144.75
483.372	150.75
483.59	145.75
483.808	149.75
484.027	116.75
484.245	122.75
484.463	141.75
484.681	154.75
484.9	140.75
485.118	154.75
485.336	123.75
485.554	111.75
485.772	89.75
485.99	103.75
486.209	96.75
486.427	117.75
486.645	117.75
486.863	136.75
487.081	133.75
487.299	129.75
487.517	148.75
487.735	169.75
487.953	164.75
488.171	181.75
488.389	176.75
488.607	149.75
488.825	139.75
489.043	141.75
489.261	139.75
489.479	144.75
489.696	147.75
489.914	131.75
490.132	123.75
490.35	147.75
490.568	161.75
490.786	162.75
491.003	169.75
491.221	159.75
491.439	193.75
491.657	182.75
491.874	206.75
492.092	202.75
492.31	241.75
492.527	217.75
492.745	221.75
492.963	183.75
493.18	171.75
493.398	181.75
493.615	168.75
493.833	167.75
494.05	152.75
494.268	162.75
494.485	161.75
494.703	187.75
494.92	174.75
495.138	169.75
495.355	170.75
495.573	169.75
495.79	165.75
496.008	178.75
496.225	178.75
496.442	157.75
496.66	181.75
496.877	149.75
497.094	159.75
497.312	157.75
497.529	165.75
497.746	154.75
497.963	143.75
498.181	136.75
498.398	127.75
498.615	116.75
498.832	120.75
499.049	107.75
499.267	121.75
499.484	119.75
499.701	124.75
499.918	134.75
500.135	122.75
500.352	141.75
500.569	145.75
500.786	142.75
501.003	140.75
501.22	138.75
501.437	141.75
501.654	143.75
501.871	137.75
502.088	127.75
502.305	133.75
502.522	134.75
502.739	125.75
502.956	118.75
503.172	137.75
503.389	120.75
503.606	124.75
503.823	115.75
504.04	116.75
504.256	107.75
504.473	121.75
504.69	115.75
504.907	134.75
505.123	113.75
505.34	109.75
505.557	101.75
505.773	131.75
505.99	119.75
506.207	111.75
506.423	122.75
506.64	121.75
506.856	113.75
507.073	121.75
507.289	125.75
507.506	107.75
507.722	125.75
507.939	115.75
508.155	117.75
508.372	101.75
508.588	123.75
508.805	121.75
509.021	97.75
509.238	106.75
509.454	106.75
509.67	100.75
509.887	98.75
510.103	100.75
510.319	97.75
510.536	96.75
510.752	77.75
510.968	85.75
511.184	96.75
511.401	89.75
511.617	86.75
511.833	80.75
