Data from Location1.07152019.Energy5.Lamp.07192019.3%Agarose_HRD10591_14-31-37-017.txt Node
Date: Fri Jul 19 14:31:37 EDT 2019
User: cochatt
Spectrometer: HR+D1059
Trigger mode: 1
Integration Time (sec): 1.000000E-1
Scans to average: 1
Electric dark correction enabled: true
Nonlinearity correction enabled: false
Boxcar width: 0
XAxis mode: Wavelengths
Number of Pixels in Spectrum: 2048
>>>>>Begin Spectral Data<<<<<
223.165	-3.25
223.4	-3.25
223.635	-3.25
223.869	-21.25
224.104	-14.25
224.338	-5.25
224.573	-16.25
224.808	-22.25
225.042	-11.25
225.277	3.75
225.511	0.75
225.746	2.75
225.98	8.75
226.215	-4.25
226.449	17.75
226.683	11.75
226.918	33.75
227.152	18.75
227.387	22.75
227.621	28.75
227.856	36.75
228.09	54.75
228.324	35.75
228.559	56.75
228.793	57.75
229.027	65.75
229.262	57.75
229.496	67.75
229.73	73.75
229.964	69.75
230.199	60.75
230.433	67.75
230.667	64.75
230.901	75.75
231.136	78.75
231.37	79.75
231.604	71.75
231.838	77.75
232.072	79.75
232.306	73.75
232.541	78.75
232.775	81.75
233.009	88.75
233.243	65.75
233.477	85.75
233.711	90.75
233.945	94.75
234.179	90.75
234.413	80.75
234.647	86.75
234.881	63.75
235.115	68.75
235.349	74.75
235.583	78.75
235.817	83.75
236.051	101.75
236.285	69.75
236.519	77.75
236.753	92.75
236.987	74.75
237.221	73.75
237.455	74.75
237.689	77.75
237.922	80.75
238.156	70.75
238.39	73.75
238.624	84.75
238.858	78.75
239.091	84.75
239.325	81.75
239.559	72.75
239.793	82.75
240.027	77.75
240.26	76.75
240.494	68.75
240.728	78.75
240.961	79.75
241.195	74.75
241.429	72.75
241.662	74.75
241.896	90.75
242.13	79.75
242.363	75.75
242.597	71.75
242.83	71.75
243.064	67.75
243.298	66.75
243.531	74.75
243.765	74.75
243.998	93.75
244.232	79.75
244.465	61.75
244.699	89.75
244.932	68.75
245.166	88.75
245.399	83.75
245.633	83.75
245.866	76.75
246.099	79.75
246.333	85.75
246.566	83.75
246.8	71.75
247.033	84.75
247.266	69.75
247.5	71.75
247.733	74.75
247.966	60.75
248.2	86.75
248.433	81.75
248.666	80.75
248.899	79.75
249.133	67.75
249.366	72.75
249.599	78.75
249.832	75.75
250.066	74.75
250.299	70.75
250.532	89.75
250.765	89.75
250.998	80.75
251.231	63.75
251.465	72.75
251.698	77.75
251.931	82.75
252.164	82.75
252.397	73.75
252.63	77.75
252.863	72.75
253.096	75.75
253.329	73.75
253.562	63.75
253.795	83.75
254.028	76.75
254.261	87.75
254.494	85.75
254.727	77.75
254.96	81.75
255.193	67.75
255.426	77.75
255.659	75.75
255.892	65.75
256.124	76.75
256.357	80.75
256.59	73.75
256.823	87.75
257.056	99.75
257.289	78.75
257.521	88.75
257.754	91.75
257.987	87.75
258.22	77.75
258.452	73.75
258.685	76.75
258.918	82.75
259.151	78.75
259.383	72.75
259.616	79.75
259.849	81.75
260.081	67.75
260.314	85.75
260.547	78.75
260.779	75.75
261.012	67.75
261.244	87.75
261.477	79.75
261.71	99.75
261.942	69.75
262.175	76.75
262.407	88.75
262.64	82.75
262.872	83.75
263.105	76.75
263.337	81.75
263.57	79.75
263.802	84.75
264.035	80.75
264.267	85.75
264.499	85.75
264.732	93.75
264.964	87.75
265.197	96.75
265.429	79.75
265.661	85.75
265.894	80.75
266.126	92.75
266.358	77.75
266.591	84.75
266.823	79.75
267.055	68.75
267.287	81.75
267.52	70.75
267.752	83.75
267.984	89.75
268.216	87.75
268.448	83.75
268.681	77.75
268.913	89.75
269.145	81.75
269.377	77.75
269.609	86.75
269.841	59.75
270.073	79.75
270.306	78.75
270.538	74.75
270.77	86.75
271.002	69.75
271.234	82.75
271.466	88.75
271.698	81.75
271.93	66.75
272.162	88.75
272.394	82.75
272.626	79.75
272.858	92.75
273.09	78.75
273.322	79.75
273.553	76.75
273.785	84.75
274.017	82.75
274.249	90.75
274.481	89.75
274.713	74.75
274.945	85.75
275.176	94.75
275.408	79.75
275.64	79.75
275.872	88.75
276.104	67.75
276.335	93.75
276.567	80.75
276.799	73.75
277.031	80.75
277.262	70.75
277.494	79.75
277.726	83.75
277.957	89.75
278.189	95.75
278.421	85.75
278.652	83.75
278.884	83.75
279.115	86.75
279.347	94.75
279.579	74.75
279.81	73.75
280.042	91.75
280.273	77.75
280.505	85.75
280.736	86.75
280.968	92.75
281.199	90.75
281.431	79.75
281.662	79.75
281.894	81.75
282.125	88.75
282.356	75.75
282.588	91.75
282.819	89.75
283.051	96.75
283.282	77.75
283.513	85.75
283.745	81.75
283.976	90.75
284.207	78.75
284.439	87.75
284.67	105.75
284.901	95.75
285.132	93.75
285.364	90.75
285.595	77.75
285.826	85.75
286.057	80.75
286.288	85.75
286.52	85.75
286.751	85.75
286.982	70.75
287.213	81.75
287.444	85.75
287.675	100.75
287.906	78.75
288.138	85.75
288.369	82.75
288.6	77.75
288.831	77.75
289.062	79.75
289.293	84.75
289.524	99.75
289.755	79.75
289.986	87.75
290.217	78.75
290.448	89.75
290.679	98.75
290.91	98.75
291.141	93.75
291.371	101.75
291.602	82.75
291.833	78.75
292.064	87.75
292.295	78.75
292.526	78.75
292.757	83.75
292.987	73.75
293.218	76.75
293.449	72.75
293.68	79.75
293.91	76.75
294.141	81.75
294.372	81.75
294.603	79.75
294.833	78.75
295.064	66.75
295.295	82.75
295.525	74.75
295.756	88.75
295.987	87.75
296.217	87.75
296.448	82.75
296.679	76.75
296.909	81.75
297.14	78.75
297.37	87.75
297.601	95.75
297.831	80.75
298.062	73.75
298.292	83.75
298.523	98.75
298.753	88.75
298.984	78.75
299.214	72.75
299.445	79.75
299.675	89.75
299.905	81.75
300.136	78.75
300.366	82.75
300.597	84.75
300.827	93.75
301.057	85.75
301.288	91.75
301.518	85.75
301.748	81.75
301.979	76.75
302.209	85.75
302.439	86.75
302.669	95.75
302.9	89.75
303.13	81.75
303.36	92.75
303.59	97.75
303.82	87.75
304.051	79.75
304.281	90.75
304.511	99.75
304.741	89.75
304.971	78.75
305.201	88.75
305.431	94.75
305.661	66.75
305.891	69.75
306.121	72.75
306.352	76.75
306.582	78.75
306.812	87.75
307.042	69.75
307.272	92.75
307.502	84.75
307.731	90.75
307.961	92.75
308.191	83.75
308.421	87.75
308.651	75.75
308.881	84.75
309.111	89.75
309.341	81.75
309.571	81.75
309.8	79.75
310.03	69.75
310.26	72.75
310.49	70.75
310.72	97.75
310.949	97.75
311.179	101.75
311.409	82.75
311.639	67.75
311.868	87.75
312.098	68.75
312.328	87.75
312.557	87.75
312.787	71.75
313.017	82.75
313.246	78.75
313.476	88.75
313.706	81.75
313.935	80.75
314.165	88.75
314.394	83.75
314.624	94.75
314.853	88.75
315.083	83.75
315.312	84.75
315.542	74.75
315.771	95.75
316.001	82.75
316.23	87.75
316.46	89.75
316.689	79.75
316.919	87.75
317.148	88.75
317.377	90.75
317.607	95.75
317.836	78.75
318.065	84.75
318.295	92.75
318.524	93.75
318.753	82.75
318.983	85.75
319.212	87.75
319.441	88.75
319.67	60.75
319.9	89.75
320.129	76.75
320.358	91.75
320.587	72.75
320.816	78.75
321.046	82.75
321.275	79.75
321.504	68.75
321.733	74.75
321.962	80.75
322.191	85.75
322.42	94.75
322.649	88.75
322.878	75.75
323.108	90.75
323.337	79.75
323.566	78.75
323.795	68.75
324.024	78.75
324.253	79.75
324.482	76.75
324.71	89.75
324.939	97.75
325.168	77.75
325.397	79.75
325.626	84.75
325.855	83.75
326.084	69.75
326.313	82.75
326.542	89.75
326.77	73.75
326.999	83.75
327.228	76.75
327.457	77.75
327.686	71.75
327.914	84.75
328.143	81.75
328.372	97.75
328.6	87.75
328.829	94.75
329.058	92.75
329.287	77.75
329.515	78.75
329.744	86.75
329.972	93.75
330.201	89.75
330.43	88.75
330.658	87.75
330.887	81.75
331.115	86.75
331.344	77.75
331.572	75.75
331.801	87.75
332.03	93.75
332.258	85.75
332.486	93.75
332.715	93.75
332.943	89.75
333.172	78.75
333.4	72.75
333.629	80.75
333.857	77.75
334.085	77.75
334.314	76.75
334.542	92.75
334.771	85.75
334.999	86.75
335.227	78.75
335.455	83.75
335.684	72.75
335.912	76.75
336.14	85.75
336.369	75.75
336.597	79.75
336.825	76.75
337.053	87.75
337.281	80.75
337.51	85.75
337.738	80.75
337.966	82.75
338.194	71.75
338.422	76.75
338.65	70.75
338.878	78.75
339.106	83.75
339.334	77.75
339.562	91.75
339.79	79.75
340.018	75.75
340.246	89.75
340.474	62.75
340.702	94.75
340.93	78.75
341.158	89.75
341.386	92.75
341.614	88.75
341.842	82.75
342.07	83.75
342.298	87.75
342.526	73.75
342.754	89.75
342.981	79.75
343.209	78.75
343.437	89.75
343.665	76.75
343.893	83.75
344.12	87.75
344.348	77.75
344.576	99.75
344.804	85.75
345.031	78.75
345.259	91.75
345.487	91.75
345.714	91.75
345.942	91.75
346.17	86.75
346.397	88.75
346.625	80.75
346.853	82.75
347.08	80.75
347.308	81.75
347.535	90.75
347.763	85.75
347.99	73.75
348.218	85.75
348.445	81.75
348.673	89.75
348.9	94.75
349.128	77.75
349.355	79.75
349.583	72.75
349.81	84.75
350.037	72.75
350.265	84.75
350.492	78.75
350.72	83.75
350.947	77.75
351.174	65.75
351.402	85.75
351.629	90.75
351.856	83.75
352.083	83.75
352.311	70.75
352.538	73.75
352.765	89.75
352.992	93.75
353.22	81.75
353.447	80.75
353.674	84.75
353.901	78.75
354.128	82.75
354.355	77.75
354.583	85.75
354.81	83.75
355.037	100.75
355.264	95.75
355.491	69.75
355.718	84.75
355.945	84.75
356.172	91.75
356.399	77.75
356.626	87.75
356.853	82.75
357.08	78.75
357.307	90.75
357.534	76.75
357.761	83.75
357.988	97.75
358.215	88.75
358.441	83.75
358.668	93.75
358.895	86.75
359.122	74.75
359.349	76.75
359.576	79.75
359.802	94.75
360.029	70.75
360.256	79.75
360.483	84.75
360.709	64.75
360.936	76.75
361.163	86.75
361.39	67.75
361.616	79.75
361.843	88.75
362.07	94.75
362.296	97.75
362.523	87.75
362.749	84.75
362.976	76.75
363.203	89.75
363.429	89.75
363.656	91.75
363.882	79.75
364.109	88.75
364.335	79.75
364.562	85.75
364.788	83.75
365.015	91.75
365.241	90.75
365.468	89.75
365.694	85.75
365.92	83.75
366.147	101.75
366.373	87.75
366.599	73.75
366.826	79.75
367.052	73.75
367.278	83.75
367.505	89.75
367.731	79.75
367.957	76.75
368.184	88.75
368.41	81.75
368.636	82.75
368.862	100.75
369.089	91.75
369.315	89.75
369.541	90.75
369.767	92.75
369.993	95.75
370.219	89.75
370.445	90.75
370.672	81.75
370.898	90.75
371.124	86.75
371.35	107.75
371.576	91.75
371.802	85.75
372.028	84.75
372.254	83.75
372.48	82.75
372.706	94.75
372.932	94.75
373.158	87.75
373.384	91.75
373.61	91.75
373.835	87.75
374.061	84.75
374.287	83.75
374.513	105.75
374.739	87.75
374.965	75.75
375.191	95.75
375.416	96.75
375.642	90.75
375.868	97.75
376.094	96.75
376.319	105.75
376.545	94.75
376.771	83.75
376.997	99.75
377.222	90.75
377.448	98.75
377.674	94.75
377.899	91.75
378.125	78.75
378.35	97.75
378.576	87.75
378.802	91.75
379.027	86.75
379.253	86.75
379.478	89.75
379.704	106.75
379.929	103.75
380.155	96.75
380.38	114.75
380.606	99.75
380.831	98.75
381.057	88.75
381.282	90.75
381.507	85.75
381.733	101.75
381.958	93.75
382.184	102.75
382.409	109.75
382.634	98.75
382.86	87.75
383.085	86.75
383.31	91.75
383.535	94.75
383.761	94.75
383.986	104.75
384.211	94.75
384.436	113.75
384.662	106.75
384.887	97.75
385.112	91.75
385.337	93.75
385.562	86.75
385.787	83.75
386.013	97.75
386.238	94.75
386.463	94.75
386.688	98.75
386.913	93.75
387.138	98.75
387.363	98.75
387.588	86.75
387.813	96.75
388.038	121.75
388.263	94.75
388.488	107.75
388.713	108.75
388.938	99.75
389.163	93.75
389.387	108.75
389.612	109.75
389.837	89.75
390.062	87.75
390.287	119.75
390.512	100.75
390.736	92.75
390.961	105.75
391.186	123.75
391.411	89.75
391.636	104.75
391.86	100.75
392.085	102.75
392.31	98.75
392.534	94.75
392.759	87.75
392.984	111.75
393.208	98.75
393.433	90.75
393.658	99.75
393.882	106.75
394.107	101.75
394.331	89.75
394.556	110.75
394.78	106.75
395.005	102.75
395.229	117.75
395.454	112.75
395.678	101.75
395.903	110.75
396.127	104.75
396.352	94.75
396.576	101.75
396.801	95.75
397.025	96.75
397.249	98.75
397.474	109.75
397.698	119.75
397.922	118.75
398.147	99.75
398.371	102.75
398.595	101.75
398.82	94.75
399.044	99.75
399.268	118.75
399.492	114.75
399.717	106.75
399.941	100.75
400.165	112.75
400.389	114.75
400.613	102.75
400.837	85.75
401.062	113.75
401.286	110.75
401.51	126.75
401.734	117.75
401.958	100.75
402.182	105.75
402.406	127.75
402.63	107.75
402.854	104.75
403.078	109.75
403.302	109.75
403.526	119.75
403.75	115.75
403.974	107.75
404.198	113.75
404.422	95.75
404.645	105.75
404.869	115.75
405.093	114.75
405.317	123.75
405.541	122.75
405.765	113.75
405.988	110.75
406.212	123.75
406.436	129.75
406.66	119.75
406.883	124.75
407.107	125.75
407.331	118.75
407.555	113.75
407.778	109.75
408.002	111.75
408.226	110.75
408.449	113.75
408.673	105.75
408.896	118.75
409.12	119.75
409.344	117.75
409.567	115.75
409.791	115.75
410.014	124.75
410.238	132.75
410.461	123.75
410.685	135.75
410.908	121.75
411.132	111.75
411.355	100.75
411.578	97.75
411.802	103.75
412.025	114.75
412.249	112.75
412.472	117.75
412.695	133.75
412.919	124.75
413.142	119.75
413.365	129.75
413.589	109.75
413.812	113.75
414.035	124.75
414.258	106.75
414.482	104.75
414.705	110.75
414.928	127.75
415.151	117.75
415.374	121.75
415.597	131.75
415.821	118.75
416.044	128.75
416.267	117.75
416.49	135.75
416.713	127.75
416.936	128.75
417.159	124.75
417.382	113.75
417.605	123.75
417.828	137.75
418.051	120.75
418.274	133.75
418.497	131.75
418.72	125.75
418.943	132.75
419.166	139.75
419.389	127.75
419.611	135.75
419.834	125.75
420.057	141.75
420.28	131.75
420.503	135.75
420.726	126.75
420.948	133.75
421.171	137.75
421.394	130.75
421.617	139.75
421.839	130.75
422.062	142.75
422.285	137.75
422.507	111.75
422.73	121.75
422.953	117.75
423.175	126.75
423.398	129.75
423.621	131.75
423.843	134.75
424.066	123.75
424.288	138.75
424.511	136.75
424.733	150.75
424.956	150.75
425.178	121.75
425.401	131.75
425.623	139.75
425.846	124.75
426.068	124.75
426.291	115.75
426.513	129.75
426.735	133.75
426.958	129.75
427.18	115.75
427.402	127.75
427.625	127.75
427.847	133.75
428.069	135.75
428.292	116.75
428.514	121.75
428.736	121.75
428.958	119.75
429.181	117.75
429.403	136.75
429.625	126.75
429.847	125.75
430.069	131.75
430.292	125.75
430.514	119.75
430.736	127.75
430.958	129.75
431.18	123.75
431.402	116.75
431.624	113.75
431.846	87.75
432.068	94.75
432.29	96.75
432.512	119.75
432.734	132.75
432.956	124.75
433.178	129.75
433.4	133.75
433.622	139.75
433.844	142.75
434.066	115.75
434.287	113.75
434.509	103.75
434.731	87.75
434.953	119.75
435.175	119.75
435.397	124.75
435.618	120.75
435.84	117.75
436.062	109.75
436.284	142.75
436.505	135.75
436.727	126.75
436.949	117.75
437.17	133.75
437.392	127.75
437.614	138.75
437.835	103.75
438.057	99.75
438.278	111.75
438.5	113.75
438.721	132.75
438.943	144.75
439.165	120.75
439.386	129.75
439.608	136.75
439.829	141.75
440.05	142.75
440.272	130.75
440.493	141.75
440.715	139.75
440.936	144.75
441.158	132.75
441.379	127.75
441.6	138.75
441.822	135.75
442.043	147.75
442.264	133.75
442.486	132.75
442.707	143.75
442.928	127.75
443.149	147.75
443.371	123.75
443.592	135.75
443.813	140.75
444.034	127.75
444.255	135.75
444.476	133.75
444.698	153.75
444.919	145.75
445.14	282.75
445.361	207.75
445.582	157.75
445.803	137.75
446.024	145.75
446.245	161.75
446.466	150.75
446.687	165.75
446.908	141.75
447.129	167.75
447.35	146.75
447.571	141.75
447.792	145.75
448.013	138.75
448.234	153.75
448.455	157.75
448.675	126.75
448.896	141.75
449.117	123.75
449.338	133.75
449.559	129.75
449.779	139.75
450	139.75
450.221	147.75
450.442	126.75
450.662	148.75
450.883	137.75
451.104	137.75
451.324	132.75
451.545	131.75
451.766	127.75
451.986	119.75
452.207	135.75
452.428	142.75
452.648	137.75
452.869	134.75
453.089	108.75
453.31	116.75
453.53	99.75
453.751	107.75
453.971	122.75
454.192	106.75
454.412	115.75
454.633	117.75
454.853	115.75
455.073	120.75
455.294	118.75
455.514	119.75
455.734	114.75
455.955	117.75
456.175	118.75
456.395	110.75
456.616	104.75
456.836	105.75
457.056	102.75
457.276	109.75
457.497	117.75
457.717	95.75
457.937	102.75
458.157	113.75
458.377	106.75
458.598	113.75
458.818	106.75
459.038	84.75
459.258	88.75
459.478	94.75
459.698	99.75
459.918	88.75
460.138	96.75
460.358	110.75
460.578	110.75
460.798	117.75
461.018	111.75
461.238	109.75
461.458	115.75
461.678	117.75
461.898	117.75
462.118	104.75
462.338	117.75
462.558	119.75
462.777	119.75
462.997	117.75
463.217	115.75
463.437	100.75
463.657	104.75
463.876	118.75
464.096	111.75
464.316	111.75
464.536	105.75
464.755	108.75
464.975	115.75
465.195	119.75
465.414	124.75
465.634	134.75
465.854	115.75
466.073	123.75
466.293	122.75
466.512	120.75
466.732	139.75
466.951	104.75
467.171	117.75
467.391	135.75
467.61	134.75
467.829	139.75
468.049	142.75
468.268	136.75
468.488	131.75
468.707	133.75
468.927	150.75
469.146	132.75
469.365	140.75
469.585	134.75
469.804	122.75
470.023	140.75
470.243	132.75
470.462	138.75
470.681	132.75
470.901	131.75
471.12	137.75
471.339	133.75
471.558	125.75
471.777	141.75
471.997	135.75
472.216	127.75
472.435	131.75
472.654	101.75
472.873	102.75
473.092	117.75
473.311	129.75
473.53	125.75
473.749	130.75
473.968	115.75
474.187	123.75
474.406	106.75
474.625	108.75
474.844	138.75
475.063	119.75
475.282	113.75
475.501	120.75
475.72	108.75
475.939	129.75
476.158	125.75
476.377	126.75
476.596	114.75
476.814	122.75
477.033	105.75
477.252	105.75
477.471	115.75
477.69	127.75
477.908	122.75
478.127	131.75
478.346	129.75
478.564	138.75
478.783	131.75
479.002	141.75
479.22	138.75
479.439	139.75
479.658	115.75
479.876	87.75
480.095	107.75
480.313	126.75
480.532	125.75
480.751	111.75
480.969	99.75
481.188	89.75
481.406	90.75
481.624	79.75
481.843	83.75
482.061	107.75
482.28	116.75
482.498	126.75
482.717	116.75
482.935	122.75
483.153	127.75
483.372	151.75
483.59	150.75
483.808	136.75
484.027	125.75
484.245	129.75
484.463	129.75
484.681	144.75
484.9	137.75
485.118	128.75
485.336	110.75
485.554	117.75
485.772	113.75
485.99	102.75
486.209	91.75
486.427	95.75
486.645	118.75
486.863	128.75
487.081	125.75
487.299	129.75
487.517	153.75
487.735	159.75
487.953	183.75
488.171	161.75
488.389	165.75
488.607	147.75
488.825	135.75
489.043	129.75
489.261	138.75
489.479	139.75
489.696	142.75
489.914	153.75
490.132	125.75
490.35	148.75
490.568	154.75
490.786	162.75
491.003	172.75
491.221	158.75
491.439	171.75
491.657	190.75
491.874	184.75
492.092	208.75
492.31	219.75
492.527	226.75
492.745	186.75
492.963	201.75
493.18	188.75
493.398	157.75
493.615	173.75
493.833	168.75
494.05	168.75
494.268	162.75
494.485	169.75
494.703	148.75
494.92	158.75
495.138	163.75
495.355	155.75
495.573	159.75
495.79	169.75
496.008	158.75
496.225	155.75
496.442	162.75
496.66	171.75
496.877	153.75
497.094	167.75
497.312	153.75
497.529	151.75
497.746	146.75
497.963	137.75
498.181	117.75
498.398	117.75
498.615	122.75
498.832	107.75
499.049	104.75
499.267	122.75
499.484	117.75
499.701	125.75
499.918	146.75
500.135	141.75
500.352	137.75
500.569	133.75
500.786	130.75
501.003	149.75
501.22	122.75
501.437	129.75
501.654	127.75
501.871	131.75
502.088	122.75
502.305	125.75
502.522	123.75
502.739	125.75
502.956	132.75
503.172	116.75
503.389	124.75
503.606	123.75
503.823	116.75
504.04	125.75
504.256	126.75
504.473	117.75
504.69	129.75
504.907	133.75
505.123	124.75
505.34	119.75
505.557	131.75
505.773	118.75
505.99	129.75
506.207	125.75
506.423	123.75
506.64	137.75
506.856	119.75
507.073	123.75
507.289	106.75
507.506	125.75
507.722	126.75
507.939	115.75
508.155	103.75
508.372	103.75
508.588	113.75
508.805	119.75
509.021	107.75
509.238	110.75
509.454	95.75
509.67	94.75
509.887	96.75
510.103	84.75
510.319	85.75
510.536	99.75
510.752	86.75
510.968	82.75
511.184	89.75
511.401	79.75
511.617	77.75
511.833	90.75
512.049	93.75
