Data from Location1.07152019.Energy5.Lamp.07192019.3%Agarose_HRD10591_14-32-22-017.txt Node
Date: Fri Jul 19 14:32:22 EDT 2019
User: cochatt
Spectrometer: HR+D1059
Trigger mode: 1
Integration Time (sec): 1.000000E-1
Scans to average: 1
Electric dark correction enabled: true
Nonlinearity correction enabled: false
Boxcar width: 0
XAxis mode: Wavelengths
Number of Pixels in Spectrum: 2048
>>>>>Begin Spectral Data<<<<<
223.165	-12.06
223.4	-12.06
223.635	-12.06
223.869	-20.06
224.104	-20.06
224.338	-11.06
224.573	-13.06
224.808	-18.06
225.042	-13.06
225.277	-12.06
225.511	-0.06
225.746	3.94
225.98	14.94
226.215	28.94
226.449	11.94
226.683	20.94
226.918	19.94
227.152	18.94
227.387	25.94
227.621	29.94
227.856	33.94
228.09	36.94
228.324	52.94
228.559	58.94
228.793	42.94
229.027	69.94
229.262	70.94
229.496	64.94
229.73	76.94
229.964	71.94
230.199	59.94
230.433	75.94
230.667	70.94
230.901	81.94
231.136	87.94
231.37	89.94
231.604	94.94
231.838	79.94
232.072	80.94
232.306	72.94
232.541	84.94
232.775	70.94
233.009	85.94
233.243	71.94
233.477	77.94
233.711	81.94
233.945	77.94
234.179	72.94
234.413	81.94
234.647	70.94
234.881	71.94
235.115	82.94
235.349	67.94
235.583	88.94
235.817	89.94
236.051	75.94
236.285	79.94
236.519	86.94
236.753	83.94
236.987	76.94
237.221	71.94
237.455	77.94
237.689	84.94
237.922	72.94
238.156	74.94
238.39	59.94
238.624	83.94
238.858	83.94
239.091	84.94
239.325	81.94
239.559	68.94
239.793	86.94
240.027	81.94
240.26	74.94
240.494	72.94
240.728	90.94
240.961	82.94
241.195	84.94
241.429	80.94
241.662	66.94
241.896	66.94
242.13	75.94
242.363	84.94
242.597	67.94
242.83	78.94
243.064	72.94
243.298	71.94
243.531	66.94
243.765	72.94
243.998	70.94
244.232	76.94
244.465	84.94
244.699	71.94
244.932	66.94
245.166	85.94
245.399	80.94
245.633	73.94
245.866	79.94
246.099	76.94
246.333	60.94
246.566	61.94
246.8	61.94
247.033	74.94
247.266	72.94
247.5	86.94
247.733	60.94
247.966	85.94
248.2	71.94
248.433	77.94
248.666	80.94
248.899	77.94
249.133	78.94
249.366	78.94
249.599	73.94
249.832	71.94
250.066	91.94
250.299	80.94
250.532	77.94
250.765	77.94
250.998	88.94
251.231	88.94
251.465	88.94
251.698	80.94
251.931	73.94
252.164	88.94
252.397	75.94
252.63	72.94
252.863	83.94
253.096	73.94
253.329	74.94
253.562	93.94
253.795	75.94
254.028	88.94
254.261	84.94
254.494	76.94
254.727	84.94
254.96	78.94
255.193	72.94
255.426	86.94
255.659	85.94
255.892	90.94
256.124	86.94
256.357	83.94
256.59	84.94
256.823	78.94
257.056	77.94
257.289	86.94
257.521	66.94
257.754	83.94
257.987	86.94
258.22	65.94
258.452	73.94
258.685	85.94
258.918	69.94
259.151	73.94
259.383	85.94
259.616	78.94
259.849	84.94
260.081	78.94
260.314	97.94
260.547	93.94
260.779	84.94
261.012	78.94
261.244	83.94
261.477	84.94
261.71	72.94
261.942	73.94
262.175	60.94
262.407	76.94
262.64	91.94
262.872	87.94
263.105	77.94
263.337	88.94
263.57	78.94
263.802	75.94
264.035	82.94
264.267	91.94
264.499	83.94
264.732	80.94
264.964	91.94
265.197	83.94
265.429	80.94
265.661	72.94
265.894	85.94
266.126	76.94
266.358	71.94
266.591	89.94
266.823	83.94
267.055	82.94
267.287	80.94
267.52	89.94
267.752	94.94
267.984	81.94
268.216	77.94
268.448	68.94
268.681	77.94
268.913	76.94
269.145	84.94
269.377	73.94
269.609	76.94
269.841	85.94
270.073	90.94
270.306	90.94
270.538	90.94
270.77	79.94
271.002	74.94
271.234	84.94
271.466	90.94
271.698	78.94
271.93	85.94
272.162	83.94
272.394	84.94
272.626	87.94
272.858	94.94
273.09	76.94
273.322	86.94
273.553	67.94
273.785	80.94
274.017	80.94
274.249	64.94
274.481	82.94
274.713	83.94
274.945	88.94
275.176	89.94
275.408	76.94
275.64	82.94
275.872	74.94
276.104	71.94
276.335	80.94
276.567	85.94
276.799	75.94
277.031	74.94
277.262	102.94
277.494	104.94
277.726	84.94
277.957	90.94
278.189	81.94
278.421	87.94
278.652	85.94
278.884	76.94
279.115	76.94
279.347	91.94
279.579	72.94
279.81	78.94
280.042	90.94
280.273	81.94
280.505	67.94
280.736	88.94
280.968	80.94
281.199	81.94
281.431	94.94
281.662	88.94
281.894	84.94
282.125	70.94
282.356	87.94
282.588	79.94
282.819	91.94
283.051	88.94
283.282	98.94
283.513	80.94
283.745	76.94
283.976	93.94
284.207	84.94
284.439	77.94
284.67	77.94
284.901	79.94
285.132	84.94
285.364	74.94
285.595	101.94
285.826	83.94
286.057	84.94
286.288	66.94
286.52	86.94
286.751	70.94
286.982	82.94
287.213	93.94
287.444	93.94
287.675	75.94
287.906	78.94
288.138	88.94
288.369	81.94
288.6	82.94
288.831	74.94
289.062	94.94
289.293	93.94
289.524	92.94
289.755	97.94
289.986	86.94
290.217	86.94
290.448	86.94
290.679	71.94
290.91	77.94
291.141	90.94
291.371	80.94
291.602	69.94
291.833	92.94
292.064	90.94
292.295	89.94
292.526	84.94
292.757	76.94
292.987	96.94
293.218	89.94
293.449	92.94
293.68	77.94
293.91	81.94
294.141	68.94
294.372	85.94
294.603	89.94
294.833	81.94
295.064	87.94
295.295	85.94
295.525	81.94
295.756	92.94
295.987	77.94
296.217	74.94
296.448	91.94
296.679	89.94
296.909	95.94
297.14	76.94
297.37	86.94
297.601	68.94
297.831	86.94
298.062	80.94
298.292	93.94
298.523	85.94
298.753	86.94
298.984	96.94
299.214	101.94
299.445	71.94
299.675	70.94
299.905	92.94
300.136	93.94
300.366	84.94
300.597	86.94
300.827	84.94
301.057	70.94
301.288	85.94
301.518	75.94
301.748	86.94
301.979	85.94
302.209	88.94
302.439	72.94
302.669	86.94
302.9	85.94
303.13	88.94
303.36	89.94
303.59	80.94
303.82	85.94
304.051	87.94
304.281	89.94
304.511	87.94
304.741	85.94
304.971	91.94
305.201	82.94
305.431	98.94
305.661	85.94
305.891	92.94
306.121	88.94
306.352	93.94
306.582	90.94
306.812	80.94
307.042	87.94
307.272	103.94
307.502	101.94
307.731	86.94
307.961	79.94
308.191	83.94
308.421	88.94
308.651	94.94
308.881	85.94
309.111	81.94
309.341	87.94
309.571	82.94
309.8	89.94
310.03	84.94
310.26	79.94
310.49	80.94
310.72	91.94
310.949	69.94
311.179	89.94
311.409	83.94
311.639	95.94
311.868	100.94
312.098	90.94
312.328	90.94
312.557	68.94
312.787	74.94
313.017	87.94
313.246	88.94
313.476	82.94
313.706	83.94
313.935	77.94
314.165	94.94
314.394	80.94
314.624	81.94
314.853	81.94
315.083	91.94
315.312	83.94
315.542	77.94
315.771	73.94
316.001	86.94
316.23	85.94
316.46	77.94
316.689	86.94
316.919	91.94
317.148	76.94
317.377	85.94
317.607	88.94
317.836	77.94
318.065	94.94
318.295	84.94
318.524	70.94
318.753	89.94
318.983	88.94
319.212	72.94
319.441	96.94
319.67	71.94
319.9	81.94
320.129	88.94
320.358	96.94
320.587	81.94
320.816	81.94
321.046	79.94
321.275	85.94
321.504	77.94
321.733	92.94
321.962	86.94
322.191	85.94
322.42	79.94
322.649	89.94
322.878	83.94
323.108	91.94
323.337	81.94
323.566	85.94
323.795	93.94
324.024	90.94
324.253	87.94
324.482	68.94
324.71	84.94
324.939	91.94
325.168	88.94
325.397	86.94
325.626	85.94
325.855	73.94
326.084	84.94
326.313	83.94
326.542	87.94
326.77	82.94
326.999	94.94
327.228	84.94
327.457	86.94
327.686	88.94
327.914	76.94
328.143	84.94
328.372	76.94
328.6	75.94
328.829	84.94
329.058	76.94
329.287	77.94
329.515	73.94
329.744	74.94
329.972	85.94
330.201	94.94
330.43	81.94
330.658	77.94
330.887	87.94
331.115	84.94
331.344	102.94
331.572	92.94
331.801	98.94
332.03	81.94
332.258	79.94
332.486	81.94
332.715	94.94
332.943	93.94
333.172	76.94
333.4	98.94
333.629	79.94
333.857	88.94
334.085	82.94
334.314	91.94
334.542	85.94
334.771	74.94
334.999	87.94
335.227	87.94
335.455	86.94
335.684	81.94
335.912	71.94
336.14	85.94
336.369	80.94
336.597	93.94
336.825	76.94
337.053	78.94
337.281	96.94
337.51	86.94
337.738	94.94
337.966	100.94
338.194	77.94
338.422	86.94
338.65	85.94
338.878	96.94
339.106	70.94
339.334	79.94
339.562	87.94
339.79	81.94
340.018	85.94
340.246	99.94
340.474	89.94
340.702	80.94
340.93	86.94
341.158	89.94
341.386	78.94
341.614	93.94
341.842	84.94
342.07	91.94
342.298	84.94
342.526	84.94
342.754	76.94
342.981	81.94
343.209	71.94
343.437	81.94
343.665	88.94
343.893	99.94
344.12	82.94
344.348	85.94
344.576	75.94
344.804	85.94
345.031	75.94
345.259	69.94
345.487	80.94
345.714	81.94
345.942	84.94
346.17	84.94
346.397	78.94
346.625	92.94
346.853	80.94
347.08	89.94
347.308	78.94
347.535	84.94
347.763	86.94
347.99	81.94
348.218	85.94
348.445	88.94
348.673	82.94
348.9	77.94
349.128	77.94
349.355	77.94
349.583	89.94
349.81	81.94
350.037	89.94
350.265	77.94
350.492	79.94
350.72	78.94
350.947	84.94
351.174	70.94
351.402	85.94
351.629	82.94
351.856	79.94
352.083	77.94
352.311	97.94
352.538	91.94
352.765	82.94
352.992	78.94
353.22	86.94
353.447	94.94
353.674	96.94
353.901	68.94
354.128	90.94
354.355	84.94
354.583	82.94
354.81	82.94
355.037	75.94
355.264	75.94
355.491	68.94
355.718	72.94
355.945	74.94
356.172	91.94
356.399	89.94
356.626	78.94
356.853	88.94
357.08	77.94
357.307	77.94
357.534	78.94
357.761	88.94
357.988	77.94
358.215	74.94
358.441	76.94
358.668	78.94
358.895	86.94
359.122	71.94
359.349	81.94
359.576	66.94
359.802	76.94
360.029	73.94
360.256	76.94
360.483	74.94
360.709	84.94
360.936	76.94
361.163	76.94
361.39	78.94
361.616	86.94
361.843	81.94
362.07	85.94
362.296	91.94
362.523	74.94
362.749	87.94
362.976	80.94
363.203	80.94
363.429	89.94
363.656	69.94
363.882	88.94
364.109	86.94
364.335	95.94
364.562	77.94
364.788	85.94
365.015	69.94
365.241	89.94
365.468	78.94
365.694	90.94
365.92	80.94
366.147	89.94
366.373	86.94
366.599	93.94
366.826	84.94
367.052	77.94
367.278	81.94
367.505	66.94
367.731	89.94
367.957	88.94
368.184	93.94
368.41	89.94
368.636	82.94
368.862	78.94
369.089	77.94
369.315	77.94
369.541	76.94
369.767	98.94
369.993	104.94
370.219	88.94
370.445	74.94
370.672	77.94
370.898	82.94
371.124	91.94
371.35	100.94
371.576	80.94
371.802	92.94
372.028	90.94
372.254	99.94
372.48	84.94
372.706	105.94
372.932	76.94
373.158	89.94
373.384	92.94
373.61	93.94
373.835	90.94
374.061	80.94
374.287	89.94
374.513	84.94
374.739	76.94
374.965	88.94
375.191	90.94
375.416	90.94
375.642	99.94
375.868	87.94
376.094	84.94
376.319	92.94
376.545	82.94
376.771	94.94
376.997	92.94
377.222	82.94
377.448	94.94
377.674	88.94
377.899	82.94
378.125	85.94
378.35	85.94
378.576	91.94
378.802	95.94
379.027	84.94
379.253	107.94
379.478	92.94
379.704	87.94
379.929	85.94
380.155	92.94
380.38	88.94
380.606	84.94
380.831	89.94
381.057	106.94
381.282	114.94
381.507	94.94
381.733	90.94
381.958	95.94
382.184	98.94
382.409	93.94
382.634	95.94
382.86	85.94
383.085	91.94
383.31	98.94
383.535	100.94
383.761	103.94
383.986	103.94
384.211	88.94
384.436	97.94
384.662	88.94
384.887	95.94
385.112	98.94
385.337	88.94
385.562	89.94
385.787	87.94
386.013	103.94
386.238	88.94
386.463	96.94
386.688	90.94
386.913	85.94
387.138	85.94
387.363	98.94
387.588	90.94
387.813	97.94
388.038	107.94
388.263	112.94
388.488	93.94
388.713	90.94
388.938	94.94
389.163	107.94
389.387	98.94
389.612	97.94
389.837	104.94
390.062	101.94
390.287	94.94
390.512	99.94
390.736	92.94
390.961	89.94
391.186	97.94
391.411	97.94
391.636	103.94
391.86	95.94
392.085	107.94
392.31	103.94
392.534	100.94
392.759	105.94
392.984	101.94
393.208	111.94
393.433	91.94
393.658	100.94
393.882	95.94
394.107	101.94
394.331	118.94
394.556	110.94
394.78	96.94
395.005	93.94
395.229	107.94
395.454	99.94
395.678	108.94
395.903	101.94
396.127	104.94
396.352	104.94
396.576	110.94
396.801	91.94
397.025	107.94
397.249	94.94
397.474	98.94
397.698	100.94
397.922	113.94
398.147	93.94
398.371	108.94
398.595	98.94
398.82	94.94
399.044	107.94
399.268	105.94
399.492	115.94
399.717	118.94
399.941	102.94
400.165	105.94
400.389	105.94
400.613	105.94
400.837	114.94
401.062	107.94
401.286	105.94
401.51	122.94
401.734	123.94
401.958	94.94
402.182	103.94
402.406	101.94
402.63	114.94
402.854	112.94
403.078	109.94
403.302	119.94
403.526	114.94
403.75	110.94
403.974	117.94
404.198	108.94
404.422	120.94
404.645	116.94
404.869	121.94
405.093	107.94
405.317	122.94
405.541	110.94
405.765	106.94
405.988	134.94
406.212	110.94
406.436	106.94
406.66	121.94
406.883	110.94
407.107	114.94
407.331	99.94
407.555	112.94
407.778	112.94
408.002	115.94
408.226	110.94
408.449	108.94
408.673	128.94
408.896	116.94
409.12	110.94
409.344	126.94
409.567	118.94
409.791	123.94
410.014	117.94
410.238	108.94
410.461	128.94
410.685	109.94
410.908	123.94
411.132	131.94
411.355	124.94
411.578	128.94
411.802	126.94
412.025	127.94
412.249	134.94
412.472	114.94
412.695	109.94
412.919	120.94
413.142	113.94
413.365	120.94
413.589	114.94
413.812	122.94
414.035	116.94
414.258	117.94
414.482	125.94
414.705	121.94
414.928	131.94
415.151	115.94
415.374	107.94
415.597	114.94
415.821	124.94
416.044	114.94
416.267	118.94
416.49	130.94
416.713	121.94
416.936	132.94
417.159	132.94
417.382	133.94
417.605	123.94
417.828	116.94
418.051	128.94
418.274	138.94
418.497	128.94
418.72	132.94
418.943	126.94
419.166	134.94
419.389	121.94
419.611	120.94
419.834	124.94
420.057	136.94
420.28	128.94
420.503	125.94
420.726	114.94
420.948	130.94
421.171	154.94
421.394	133.94
421.617	118.94
421.839	142.94
422.062	141.94
422.285	144.94
422.507	124.94
422.73	133.94
422.953	116.94
423.175	119.94
423.398	128.94
423.621	125.94
423.843	130.94
424.066	132.94
424.288	121.94
424.511	134.94
424.733	153.94
424.956	144.94
425.178	144.94
425.401	135.94
425.623	130.94
425.846	130.94
426.068	125.94
426.291	124.94
426.513	129.94
426.735	132.94
426.958	132.94
427.18	116.94
427.402	122.94
427.625	132.94
427.847	128.94
428.069	137.94
428.292	125.94
428.514	130.94
428.736	139.94
428.958	138.94
429.181	137.94
429.403	115.94
429.625	130.94
429.847	121.94
430.069	123.94
430.292	134.94
430.514	129.94
430.736	121.94
430.958	121.94
431.18	114.94
431.402	129.94
431.624	120.94
431.846	109.94
432.068	84.94
432.29	86.94
432.512	108.94
432.734	101.94
432.956	120.94
433.178	120.94
433.4	140.94
433.622	130.94
433.844	114.94
434.066	116.94
434.287	113.94
434.509	91.94
434.731	87.94
434.953	107.94
435.175	120.94
435.397	115.94
435.618	115.94
435.84	112.94
436.062	109.94
436.284	120.94
436.505	123.94
436.727	130.94
436.949	128.94
437.17	117.94
437.392	132.94
437.614	119.94
437.835	112.94
438.057	122.94
438.278	114.94
438.5	133.94
438.721	129.94
438.943	128.94
439.165	139.94
439.386	127.94
439.608	137.94
439.829	132.94
440.05	132.94
440.272	141.94
440.493	147.94
440.715	133.94
440.936	148.94
441.158	144.94
441.379	148.94
441.6	137.94
441.822	146.94
442.043	137.94
442.264	138.94
442.486	130.94
442.707	142.94
442.928	139.94
443.149	135.94
443.371	145.94
443.592	136.94
443.813	148.94
444.034	139.94
444.255	138.94
444.476	128.94
444.698	129.94
444.919	148.94
445.14	246.94
445.361	189.94
445.582	160.94
445.803	153.94
446.024	157.94
446.245	133.94
446.466	163.94
446.687	154.94
446.908	153.94
447.129	159.94
447.35	144.94
447.571	154.94
447.792	152.94
448.013	146.94
448.234	135.94
448.455	134.94
448.675	141.94
448.896	123.94
449.117	131.94
449.338	131.94
449.559	121.94
449.779	123.94
450	132.94
450.221	134.94
450.442	134.94
450.662	125.94
450.883	126.94
451.104	133.94
451.324	117.94
451.545	125.94
451.766	134.94
451.986	110.94
452.207	132.94
452.428	128.94
452.648	127.94
452.869	106.94
453.089	109.94
453.31	110.94
453.53	108.94
453.751	101.94
453.971	109.94
454.192	110.94
454.412	121.94
454.633	109.94
454.853	107.94
455.073	120.94
455.294	102.94
455.514	104.94
455.734	120.94
455.955	118.94
456.175	108.94
456.395	116.94
456.616	105.94
456.836	116.94
457.056	115.94
457.276	99.94
457.497	108.94
457.717	110.94
457.937	107.94
458.157	113.94
458.377	103.94
458.598	108.94
458.818	98.94
459.038	99.94
459.258	93.94
459.478	92.94
459.698	76.94
459.918	96.94
460.138	109.94
460.358	95.94
460.578	110.94
460.798	117.94
461.018	116.94
461.238	117.94
461.458	102.94
461.678	111.94
461.898	96.94
462.118	112.94
462.338	98.94
462.558	104.94
462.777	117.94
462.997	107.94
463.217	112.94
463.437	122.94
463.657	109.94
463.876	112.94
464.096	106.94
464.316	106.94
464.536	117.94
464.755	109.94
464.975	107.94
465.195	115.94
465.414	122.94
465.634	117.94
465.854	112.94
466.073	110.94
466.293	102.94
466.512	122.94
466.732	126.94
466.951	125.94
467.171	120.94
467.391	121.94
467.61	139.94
467.829	128.94
468.049	138.94
468.268	136.94
468.488	132.94
468.707	135.94
468.927	137.94
469.146	140.94
469.365	143.94
469.585	160.94
469.804	130.94
470.023	133.94
470.243	127.94
470.462	137.94
470.681	123.94
470.901	131.94
471.12	114.94
471.339	142.94
471.558	147.94
471.777	140.94
471.997	131.94
472.216	126.94
472.435	124.94
472.654	115.94
472.873	107.94
473.092	103.94
473.311	129.94
473.53	132.94
473.749	118.94
473.968	134.94
474.187	117.94
474.406	123.94
474.625	119.94
474.844	125.94
475.063	140.94
475.282	130.94
475.501	103.94
475.72	117.94
475.939	128.94
476.158	109.94
476.377	124.94
476.596	100.94
476.814	108.94
477.033	114.94
477.252	110.94
477.471	123.94
477.69	139.94
477.908	135.94
478.127	146.94
478.346	140.94
478.564	136.94
478.783	128.94
479.002	142.94
479.22	138.94
479.439	115.94
479.658	117.94
479.876	120.94
480.095	114.94
480.313	122.94
480.532	119.94
480.751	107.94
480.969	82.94
481.188	82.94
481.406	77.94
481.624	77.94
481.843	81.94
482.061	87.94
482.28	118.94
482.498	118.94
482.717	119.94
482.935	118.94
483.153	128.94
483.372	143.94
483.59	137.94
483.808	148.94
484.027	140.94
484.245	132.94
484.463	153.94
484.681	154.94
484.9	148.94
485.118	134.94
485.336	127.94
485.554	117.94
485.772	109.94
485.99	81.94
486.209	104.94
486.427	118.94
486.645	122.94
486.863	138.94
487.081	128.94
487.299	133.94
487.517	132.94
487.735	173.94
487.953	171.94
488.171	176.94
488.389	164.94
488.607	164.94
488.825	146.94
489.043	128.94
489.261	121.94
489.479	133.94
489.696	121.94
489.914	127.94
490.132	154.94
490.35	148.94
490.568	136.94
490.786	172.94
491.003	170.94
491.221	182.94
491.439	196.94
491.657	201.94
491.874	187.94
492.092	213.94
492.31	228.94
492.527	237.94
492.745	211.94
492.963	187.94
493.18	197.94
493.398	192.94
493.615	174.94
493.833	157.94
494.05	167.94
494.268	171.94
494.485	165.94
494.703	184.94
494.92	187.94
495.138	170.94
495.355	168.94
495.573	171.94
495.79	173.94
496.008	167.94
496.225	163.94
496.442	154.94
496.66	156.94
496.877	172.94
497.094	169.94
497.312	133.94
497.529	168.94
497.746	136.94
497.963	151.94
498.181	152.94
498.398	120.94
498.615	93.94
498.832	120.94
499.049	117.94
499.267	116.94
499.484	115.94
499.701	130.94
499.918	130.94
500.135	131.94
500.352	143.94
500.569	150.94
500.786	141.94
501.003	136.94
501.22	145.94
501.437	132.94
501.654	125.94
501.871	121.94
502.088	126.94
502.305	133.94
502.522	128.94
502.739	128.94
502.956	117.94
503.172	141.94
503.389	116.94
503.606	106.94
503.823	113.94
504.04	133.94
504.256	112.94
504.473	130.94
504.69	127.94
504.907	125.94
505.123	129.94
505.34	141.94
505.557	122.94
505.773	127.94
505.99	120.94
506.207	120.94
506.423	122.94
506.64	114.94
506.856	112.94
507.073	114.94
507.289	117.94
507.506	116.94
507.722	109.94
507.939	101.94
508.155	120.94
508.372	114.94
508.588	109.94
508.805	112.94
509.021	106.94
509.238	101.94
509.454	109.94
509.67	108.94
509.887	89.94
510.103	89.94
510.319	104.94
510.536	98.94
510.752	92.94
510.968	98.94
511.184	73.94
511.401	88.94
511.617	85.94
511.833	95.94
