Data from Location1.07152019.Energy5.Lamp.07192019.3%Agarose_HRD10591_14-32-37-016.txt Node
Date: Fri Jul 19 14:32:37 EDT 2019
User: cochatt
Spectrometer: HR+D1059
Trigger mode: 1
Integration Time (sec): 1.000000E-1
Scans to average: 1
Electric dark correction enabled: true
Nonlinearity correction enabled: false
Boxcar width: 0
XAxis mode: Wavelengths
Number of Pixels in Spectrum: 2048
>>>>>Begin Spectral Data<<<<<
223.165	-8.88
223.4	-8.88
223.635	-8.88
223.869	-12.88
224.104	-11.88
224.338	-12.88
224.573	-16.88
224.808	-22.88
225.042	-5.88
225.277	-8.88
225.511	-13.88
225.746	15.12
225.98	13.12
226.215	-1.88
226.449	6.12
226.683	35.12
226.918	25.12
227.152	22.12
227.387	31.12
227.621	34.12
227.856	47.12
228.09	49.12
228.324	59.12
228.559	44.12
228.793	50.12
229.027	58.12
229.262	61.12
229.496	78.12
229.73	65.12
229.964	55.12
230.199	61.12
230.433	78.12
230.667	77.12
230.901	67.12
231.136	97.12
231.37	64.12
231.604	87.12
231.838	88.12
232.072	66.12
232.306	82.12
232.541	73.12
232.775	82.12
233.009	85.12
233.243	92.12
233.477	77.12
233.711	69.12
233.945	82.12
234.179	71.12
234.413	76.12
234.647	89.12
234.881	79.12
235.115	75.12
235.349	71.12
235.583	75.12
235.817	78.12
236.051	74.12
236.285	86.12
236.519	67.12
236.753	65.12
236.987	79.12
237.221	86.12
237.455	83.12
237.689	76.12
237.922	74.12
238.156	70.12
238.39	89.12
238.624	85.12
238.858	75.12
239.091	72.12
239.325	79.12
239.559	67.12
239.793	72.12
240.027	62.12
240.26	76.12
240.494	86.12
240.728	68.12
240.961	69.12
241.195	84.12
241.429	69.12
241.662	69.12
241.896	76.12
242.13	99.12
242.363	81.12
242.597	85.12
242.83	63.12
243.064	94.12
243.298	75.12
243.531	71.12
243.765	85.12
243.998	65.12
244.232	82.12
244.465	71.12
244.699	83.12
244.932	72.12
245.166	62.12
245.399	58.12
245.633	77.12
245.866	65.12
246.099	60.12
246.333	79.12
246.566	85.12
246.8	74.12
247.033	73.12
247.266	77.12
247.5	59.12
247.733	75.12
247.966	69.12
248.2	97.12
248.433	86.12
248.666	72.12
248.899	85.12
249.133	64.12
249.366	82.12
249.599	70.12
249.832	90.12
250.066	86.12
250.299	71.12
250.532	79.12
250.765	69.12
250.998	88.12
251.231	74.12
251.465	79.12
251.698	70.12
251.931	81.12
252.164	73.12
252.397	73.12
252.63	77.12
252.863	72.12
253.096	81.12
253.329	77.12
253.562	83.12
253.795	68.12
254.028	81.12
254.261	79.12
254.494	92.12
254.727	69.12
254.96	83.12
255.193	80.12
255.426	77.12
255.659	79.12
255.892	84.12
256.124	77.12
256.357	78.12
256.59	87.12
256.823	75.12
257.056	82.12
257.289	80.12
257.521	78.12
257.754	75.12
257.987	103.12
258.22	79.12
258.452	88.12
258.685	94.12
258.918	77.12
259.151	67.12
259.383	87.12
259.616	68.12
259.849	85.12
260.081	89.12
260.314	75.12
260.547	102.12
260.779	86.12
261.012	76.12
261.244	94.12
261.477	78.12
261.71	69.12
261.942	85.12
262.175	80.12
262.407	82.12
262.64	71.12
262.872	99.12
263.105	85.12
263.337	78.12
263.57	78.12
263.802	79.12
264.035	74.12
264.267	82.12
264.499	76.12
264.732	79.12
264.964	83.12
265.197	79.12
265.429	76.12
265.661	87.12
265.894	76.12
266.126	81.12
266.358	61.12
266.591	79.12
266.823	83.12
267.055	72.12
267.287	79.12
267.52	79.12
267.752	74.12
267.984	86.12
268.216	86.12
268.448	87.12
268.681	86.12
268.913	77.12
269.145	80.12
269.377	97.12
269.609	79.12
269.841	89.12
270.073	86.12
270.306	71.12
270.538	89.12
270.77	71.12
271.002	84.12
271.234	69.12
271.466	96.12
271.698	73.12
271.93	87.12
272.162	79.12
272.394	89.12
272.626	77.12
272.858	82.12
273.09	81.12
273.322	75.12
273.553	76.12
273.785	77.12
274.017	76.12
274.249	90.12
274.481	72.12
274.713	86.12
274.945	89.12
275.176	81.12
275.408	83.12
275.64	86.12
275.872	70.12
276.104	80.12
276.335	96.12
276.567	89.12
276.799	100.12
277.031	75.12
277.262	74.12
277.494	90.12
277.726	89.12
277.957	85.12
278.189	77.12
278.421	72.12
278.652	86.12
278.884	77.12
279.115	77.12
279.347	71.12
279.579	79.12
279.81	77.12
280.042	85.12
280.273	65.12
280.505	88.12
280.736	94.12
280.968	94.12
281.199	77.12
281.431	83.12
281.662	87.12
281.894	97.12
282.125	75.12
282.356	81.12
282.588	82.12
282.819	82.12
283.051	90.12
283.282	82.12
283.513	83.12
283.745	84.12
283.976	87.12
284.207	67.12
284.439	85.12
284.67	99.12
284.901	73.12
285.132	74.12
285.364	85.12
285.595	89.12
285.826	91.12
286.057	98.12
286.288	73.12
286.52	79.12
286.751	80.12
286.982	85.12
287.213	76.12
287.444	74.12
287.675	81.12
287.906	99.12
288.138	88.12
288.369	92.12
288.6	93.12
288.831	87.12
289.062	88.12
289.293	92.12
289.524	80.12
289.755	81.12
289.986	93.12
290.217	85.12
290.448	100.12
290.679	61.12
290.91	78.12
291.141	72.12
291.371	95.12
291.602	82.12
291.833	79.12
292.064	89.12
292.295	91.12
292.526	77.12
292.757	79.12
292.987	105.12
293.218	79.12
293.449	71.12
293.68	79.12
293.91	79.12
294.141	83.12
294.372	84.12
294.603	74.12
294.833	71.12
295.064	94.12
295.295	80.12
295.525	80.12
295.756	83.12
295.987	89.12
296.217	89.12
296.448	84.12
296.679	82.12
296.909	73.12
297.14	90.12
297.37	82.12
297.601	94.12
297.831	73.12
298.062	75.12
298.292	66.12
298.523	93.12
298.753	79.12
298.984	77.12
299.214	86.12
299.445	76.12
299.675	89.12
299.905	80.12
300.136	78.12
300.366	86.12
300.597	98.12
300.827	84.12
301.057	91.12
301.288	88.12
301.518	90.12
301.748	84.12
301.979	97.12
302.209	101.12
302.439	79.12
302.669	97.12
302.9	86.12
303.13	97.12
303.36	99.12
303.59	82.12
303.82	83.12
304.051	94.12
304.281	106.12
304.511	101.12
304.741	77.12
304.971	79.12
305.201	86.12
305.431	75.12
305.661	70.12
305.891	79.12
306.121	88.12
306.352	95.12
306.582	76.12
306.812	78.12
307.042	84.12
307.272	71.12
307.502	68.12
307.731	81.12
307.961	78.12
308.191	75.12
308.421	76.12
308.651	82.12
308.881	75.12
309.111	74.12
309.341	87.12
309.571	75.12
309.8	78.12
310.03	76.12
310.26	96.12
310.49	94.12
310.72	83.12
310.949	77.12
311.179	85.12
311.409	83.12
311.639	82.12
311.868	91.12
312.098	85.12
312.328	85.12
312.557	89.12
312.787	82.12
313.017	82.12
313.246	86.12
313.476	82.12
313.706	77.12
313.935	75.12
314.165	77.12
314.394	81.12
314.624	82.12
314.853	85.12
315.083	82.12
315.312	102.12
315.542	69.12
315.771	83.12
316.001	86.12
316.23	83.12
316.46	67.12
316.689	82.12
316.919	87.12
317.148	84.12
317.377	92.12
317.607	91.12
317.836	84.12
318.065	92.12
318.295	94.12
318.524	93.12
318.753	77.12
318.983	78.12
319.212	83.12
319.441	87.12
319.67	86.12
319.9	82.12
320.129	90.12
320.358	77.12
320.587	92.12
320.816	85.12
321.046	100.12
321.275	78.12
321.504	92.12
321.733	83.12
321.962	76.12
322.191	83.12
322.42	79.12
322.649	90.12
322.878	88.12
323.108	74.12
323.337	88.12
323.566	76.12
323.795	94.12
324.024	102.12
324.253	83.12
324.482	84.12
324.71	82.12
324.939	87.12
325.168	87.12
325.397	77.12
325.626	77.12
325.855	82.12
326.084	66.12
326.313	90.12
326.542	74.12
326.77	69.12
326.999	82.12
327.228	77.12
327.457	84.12
327.686	82.12
327.914	86.12
328.143	76.12
328.372	90.12
328.6	88.12
328.829	103.12
329.058	90.12
329.287	70.12
329.515	70.12
329.744	75.12
329.972	88.12
330.201	93.12
330.43	78.12
330.658	86.12
330.887	75.12
331.115	75.12
331.344	79.12
331.572	77.12
331.801	88.12
332.03	81.12
332.258	78.12
332.486	73.12
332.715	88.12
332.943	88.12
333.172	93.12
333.4	83.12
333.629	86.12
333.857	79.12
334.085	83.12
334.314	84.12
334.542	75.12
334.771	89.12
334.999	78.12
335.227	78.12
335.455	90.12
335.684	86.12
335.912	79.12
336.14	89.12
336.369	78.12
336.597	86.12
336.825	100.12
337.053	75.12
337.281	78.12
337.51	99.12
337.738	91.12
337.966	94.12
338.194	73.12
338.422	82.12
338.65	86.12
338.878	89.12
339.106	77.12
339.334	87.12
339.562	94.12
339.79	84.12
340.018	100.12
340.246	70.12
340.474	77.12
340.702	83.12
340.93	93.12
341.158	74.12
341.386	78.12
341.614	73.12
341.842	71.12
342.07	77.12
342.298	76.12
342.526	83.12
342.754	79.12
342.981	79.12
343.209	78.12
343.437	80.12
343.665	77.12
343.893	81.12
344.12	78.12
344.348	79.12
344.576	83.12
344.804	86.12
345.031	78.12
345.259	75.12
345.487	69.12
345.714	84.12
345.942	80.12
346.17	90.12
346.397	95.12
346.625	81.12
346.853	79.12
347.08	71.12
347.308	75.12
347.535	97.12
347.763	89.12
347.99	93.12
348.218	97.12
348.445	89.12
348.673	89.12
348.9	98.12
349.128	76.12
349.355	79.12
349.583	80.12
349.81	88.12
350.037	94.12
350.265	82.12
350.492	84.12
350.72	74.12
350.947	84.12
351.174	94.12
351.402	80.12
351.629	99.12
351.856	81.12
352.083	78.12
352.311	91.12
352.538	78.12
352.765	77.12
352.992	78.12
353.22	90.12
353.447	82.12
353.674	94.12
353.901	84.12
354.128	83.12
354.355	90.12
354.583	97.12
354.81	94.12
355.037	96.12
355.264	87.12
355.491	84.12
355.718	86.12
355.945	83.12
356.172	71.12
356.399	83.12
356.626	74.12
356.853	73.12
357.08	78.12
357.307	82.12
357.534	69.12
357.761	69.12
357.988	73.12
358.215	90.12
358.441	83.12
358.668	77.12
358.895	77.12
359.122	73.12
359.349	89.12
359.576	103.12
359.802	74.12
360.029	93.12
360.256	75.12
360.483	74.12
360.709	72.12
360.936	87.12
361.163	80.12
361.39	92.12
361.616	86.12
361.843	85.12
362.07	85.12
362.296	77.12
362.523	69.12
362.749	96.12
362.976	71.12
363.203	84.12
363.429	100.12
363.656	75.12
363.882	74.12
364.109	91.12
364.335	83.12
364.562	76.12
364.788	73.12
365.015	74.12
365.241	82.12
365.468	78.12
365.694	101.12
365.92	86.12
366.147	92.12
366.373	68.12
366.599	82.12
366.826	89.12
367.052	78.12
367.278	89.12
367.505	92.12
367.731	80.12
367.957	95.12
368.184	103.12
368.41	88.12
368.636	92.12
368.862	84.12
369.089	69.12
369.315	75.12
369.541	93.12
369.767	82.12
369.993	83.12
370.219	94.12
370.445	81.12
370.672	73.12
370.898	79.12
371.124	90.12
371.35	82.12
371.576	79.12
371.802	101.12
372.028	87.12
372.254	93.12
372.48	98.12
372.706	79.12
372.932	83.12
373.158	90.12
373.384	78.12
373.61	94.12
373.835	87.12
374.061	101.12
374.287	90.12
374.513	86.12
374.739	85.12
374.965	74.12
375.191	71.12
375.416	80.12
375.642	88.12
375.868	85.12
376.094	80.12
376.319	83.12
376.545	84.12
376.771	91.12
376.997	97.12
377.222	78.12
377.448	87.12
377.674	102.12
377.899	86.12
378.125	94.12
378.35	101.12
378.576	86.12
378.802	111.12
379.027	119.12
379.253	83.12
379.478	87.12
379.704	91.12
379.929	76.12
380.155	81.12
380.38	99.12
380.606	86.12
380.831	100.12
381.057	98.12
381.282	105.12
381.507	100.12
381.733	105.12
381.958	90.12
382.184	91.12
382.409	113.12
382.634	97.12
382.86	96.12
383.085	110.12
383.31	100.12
383.535	100.12
383.761	95.12
383.986	89.12
384.211	94.12
384.436	87.12
384.662	94.12
384.887	100.12
385.112	105.12
385.337	99.12
385.562	99.12
385.787	95.12
386.013	99.12
386.238	102.12
386.463	98.12
386.688	101.12
386.913	91.12
387.138	89.12
387.363	96.12
387.588	102.12
387.813	105.12
388.038	94.12
388.263	97.12
388.488	95.12
388.713	101.12
388.938	91.12
389.163	103.12
389.387	94.12
389.612	108.12
389.837	100.12
390.062	84.12
390.287	107.12
390.512	99.12
390.736	98.12
390.961	95.12
391.186	115.12
391.411	105.12
391.636	89.12
391.86	105.12
392.085	98.12
392.31	98.12
392.534	109.12
392.759	106.12
392.984	94.12
393.208	116.12
393.433	97.12
393.658	102.12
393.882	106.12
394.107	104.12
394.331	107.12
394.556	113.12
394.78	103.12
395.005	104.12
395.229	114.12
395.454	104.12
395.678	98.12
395.903	117.12
396.127	105.12
396.352	104.12
396.576	104.12
396.801	104.12
397.025	102.12
397.249	107.12
397.474	117.12
397.698	118.12
397.922	99.12
398.147	114.12
398.371	114.12
398.595	103.12
398.82	111.12
399.044	118.12
399.268	108.12
399.492	110.12
399.717	104.12
399.941	100.12
400.165	99.12
400.389	100.12
400.613	98.12
400.837	105.12
401.062	115.12
401.286	94.12
401.51	105.12
401.734	109.12
401.958	105.12
402.182	108.12
402.406	136.12
402.63	120.12
402.854	123.12
403.078	116.12
403.302	110.12
403.526	108.12
403.75	108.12
403.974	119.12
404.198	109.12
404.422	119.12
404.645	123.12
404.869	115.12
405.093	112.12
405.317	122.12
405.541	123.12
405.765	118.12
405.988	121.12
406.212	112.12
406.436	125.12
406.66	124.12
406.883	125.12
407.107	120.12
407.331	123.12
407.555	119.12
407.778	108.12
408.002	117.12
408.226	113.12
408.449	126.12
408.673	115.12
408.896	108.12
409.12	128.12
409.344	104.12
409.567	117.12
409.791	111.12
410.014	122.12
410.238	117.12
410.461	121.12
410.685	117.12
410.908	115.12
411.132	115.12
411.355	122.12
411.578	118.12
411.802	113.12
412.025	133.12
412.249	125.12
412.472	113.12
412.695	131.12
412.919	110.12
413.142	121.12
413.365	118.12
413.589	127.12
413.812	110.12
414.035	125.12
414.258	119.12
414.482	113.12
414.705	120.12
414.928	144.12
415.151	131.12
415.374	123.12
415.597	119.12
415.821	124.12
416.044	118.12
416.267	131.12
416.49	108.12
416.713	117.12
416.936	125.12
417.159	124.12
417.382	123.12
417.605	122.12
417.828	137.12
418.051	130.12
418.274	137.12
418.497	124.12
418.72	135.12
418.943	130.12
419.166	136.12
419.389	141.12
419.611	137.12
419.834	137.12
420.057	136.12
420.28	142.12
420.503	126.12
420.726	115.12
420.948	139.12
421.171	129.12
421.394	140.12
421.617	140.12
421.839	132.12
422.062	147.12
422.285	138.12
422.507	130.12
422.73	114.12
422.953	125.12
423.175	133.12
423.398	122.12
423.621	141.12
423.843	118.12
424.066	135.12
424.288	126.12
424.511	139.12
424.733	136.12
424.956	137.12
425.178	139.12
425.401	135.12
425.623	130.12
425.846	135.12
426.068	127.12
426.291	123.12
426.513	137.12
426.735	140.12
426.958	136.12
427.18	138.12
427.402	142.12
427.625	135.12
427.847	134.12
428.069	133.12
428.292	129.12
428.514	127.12
428.736	133.12
428.958	123.12
429.181	123.12
429.403	125.12
429.625	125.12
429.847	127.12
430.069	141.12
430.292	127.12
430.514	132.12
430.736	128.12
430.958	132.12
431.18	137.12
431.402	122.12
431.624	111.12
431.846	114.12
432.068	87.12
432.29	116.12
432.512	112.12
432.734	138.12
432.956	123.12
433.178	144.12
433.4	134.12
433.622	150.12
433.844	129.12
434.066	117.12
434.287	120.12
434.509	107.12
434.731	100.12
434.953	113.12
435.175	125.12
435.397	115.12
435.618	113.12
435.84	117.12
436.062	104.12
436.284	111.12
436.505	116.12
436.727	125.12
436.949	124.12
437.17	113.12
437.392	121.12
437.614	122.12
437.835	115.12
438.057	114.12
438.278	124.12
438.5	124.12
438.721	141.12
438.943	134.12
439.165	158.12
439.386	149.12
439.608	138.12
439.829	143.12
440.05	142.12
440.272	145.12
440.493	143.12
440.715	146.12
440.936	121.12
441.158	133.12
441.379	142.12
441.6	168.12
441.822	143.12
442.043	133.12
442.264	141.12
442.486	146.12
442.707	145.12
442.928	140.12
443.149	139.12
443.371	131.12
443.592	132.12
443.813	120.12
444.034	130.12
444.255	135.12
444.476	142.12
444.698	154.12
444.919	141.12
445.14	271.12
445.361	212.12
445.582	154.12
445.803	139.12
446.024	138.12
446.245	142.12
446.466	157.12
446.687	150.12
446.908	150.12
447.129	143.12
447.35	141.12
447.571	139.12
447.792	137.12
448.013	134.12
448.234	135.12
448.455	132.12
448.675	141.12
448.896	144.12
449.117	133.12
449.338	135.12
449.559	133.12
449.779	138.12
450	122.12
450.221	121.12
450.442	139.12
450.662	150.12
450.883	125.12
451.104	142.12
451.324	121.12
451.545	134.12
451.766	126.12
451.986	120.12
452.207	133.12
452.428	122.12
452.648	139.12
452.869	121.12
453.089	109.12
453.31	99.12
453.53	115.12
453.751	105.12
453.971	97.12
454.192	119.12
454.412	118.12
454.633	110.12
454.853	118.12
455.073	125.12
455.294	123.12
455.514	123.12
455.734	125.12
455.955	123.12
456.175	123.12
456.395	123.12
456.616	108.12
456.836	117.12
457.056	110.12
457.276	99.12
457.497	106.12
457.717	116.12
457.937	99.12
458.157	105.12
458.377	100.12
458.598	97.12
458.818	99.12
459.038	94.12
459.258	93.12
459.478	85.12
459.698	89.12
459.918	91.12
460.138	107.12
460.358	117.12
460.578	125.12
460.798	111.12
461.018	106.12
461.238	107.12
461.458	108.12
461.678	119.12
461.898	107.12
462.118	122.12
462.338	100.12
462.558	123.12
462.777	115.12
462.997	105.12
463.217	110.12
463.437	108.12
463.657	106.12
463.876	113.12
464.096	103.12
464.316	88.12
464.536	112.12
464.755	106.12
464.975	121.12
465.195	123.12
465.414	125.12
465.634	125.12
465.854	109.12
466.073	109.12
466.293	102.12
466.512	119.12
466.732	122.12
466.951	147.12
467.171	126.12
467.391	136.12
467.61	134.12
467.829	133.12
468.049	134.12
468.268	137.12
468.488	133.12
468.707	137.12
468.927	140.12
469.146	142.12
469.365	125.12
469.585	137.12
469.804	141.12
470.023	138.12
470.243	152.12
470.462	141.12
470.681	149.12
470.901	139.12
471.12	155.12
471.339	153.12
471.558	141.12
471.777	131.12
471.997	137.12
472.216	125.12
472.435	101.12
472.654	101.12
472.873	106.12
473.092	97.12
473.311	125.12
473.53	135.12
473.749	143.12
473.968	141.12
474.187	128.12
474.406	115.12
474.625	120.12
474.844	147.12
475.063	143.12
475.282	119.12
475.501	118.12
475.72	128.12
475.939	118.12
476.158	128.12
476.377	134.12
476.596	106.12
476.814	111.12
477.033	103.12
477.252	106.12
477.471	119.12
477.69	141.12
477.908	135.12
478.127	152.12
478.346	142.12
478.564	124.12
478.783	126.12
479.002	126.12
479.22	126.12
479.439	126.12
479.658	142.12
479.876	121.12
480.095	104.12
480.313	117.12
480.532	127.12
480.751	124.12
480.969	98.12
481.188	93.12
481.406	84.12
481.624	92.12
481.843	98.12
482.061	76.12
482.28	119.12
482.498	116.12
482.717	104.12
482.935	125.12
483.153	130.12
483.372	143.12
483.59	153.12
483.808	154.12
484.027	135.12
484.245	122.12
484.463	157.12
484.681	163.12
484.9	139.12
485.118	157.12
485.336	125.12
485.554	127.12
485.772	102.12
485.99	97.12
486.209	117.12
486.427	110.12
486.645	126.12
486.863	130.12
487.081	149.12
487.299	139.12
487.517	143.12
487.735	158.12
487.953	189.12
488.171	189.12
488.389	181.12
488.607	166.12
488.825	127.12
489.043	126.12
489.261	131.12
489.479	141.12
489.696	143.12
489.914	134.12
490.132	146.12
490.35	144.12
490.568	157.12
490.786	173.12
491.003	174.12
491.221	187.12
491.439	183.12
491.657	189.12
491.874	202.12
492.092	223.12
492.31	237.12
492.527	219.12
492.745	204.12
492.963	205.12
493.18	201.12
493.398	183.12
493.615	188.12
493.833	169.12
494.05	173.12
494.268	163.12
494.485	172.12
494.703	182.12
494.92	169.12
495.138	171.12
495.355	183.12
495.573	173.12
495.79	169.12
496.008	158.12
496.225	153.12
496.442	159.12
496.66	171.12
496.877	159.12
497.094	155.12
497.312	138.12
497.529	147.12
497.746	160.12
497.963	150.12
498.181	135.12
498.398	119.12
498.615	110.12
498.832	108.12
499.049	110.12
499.267	115.12
499.484	119.12
499.701	140.12
499.918	137.12
500.135	143.12
500.352	138.12
500.569	140.12
500.786	137.12
501.003	142.12
501.22	140.12
501.437	140.12
501.654	153.12
501.871	145.12
502.088	130.12
502.305	133.12
502.522	121.12
502.739	131.12
502.956	128.12
503.172	109.12
503.389	120.12
503.606	121.12
503.823	120.12
504.04	114.12
504.256	119.12
504.473	115.12
504.69	133.12
504.907	113.12
505.123	115.12
505.34	124.12
505.557	129.12
505.773	119.12
505.99	121.12
506.207	123.12
506.423	119.12
506.64	115.12
506.856	114.12
507.073	120.12
507.289	117.12
507.506	118.12
507.722	110.12
507.939	116.12
508.155	115.12
508.372	133.12
508.588	106.12
508.805	113.12
509.021	102.12
509.238	108.12
509.454	97.12
509.67	114.12
509.887	99.12
510.103	110.12
510.319	99.12
510.536	96.12
510.752	85.12
510.968	84.12
511.184	74.12
511.401	86.12
511.617	94.12
