Data from Location1.07152019.Energy5.Lamp.07192019.3%Agarose_HRD10591_14-33-21-018.txt Node
Date: Fri Jul 19 14:33:21 EDT 2019
User: cochatt
Spectrometer: HR+D1059
Trigger mode: 1
Integration Time (sec): 1.000000E-1
Scans to average: 1
Electric dark correction enabled: true
Nonlinearity correction enabled: false
Boxcar width: 0
XAxis mode: Wavelengths
Number of Pixels in Spectrum: 2048
>>>>>Begin Spectral Data<<<<<
223.165	-8.31
223.4	-8.31
223.635	-8.31
223.869	-19.31
224.104	-18.31
224.338	-10.31
224.573	-16.31
224.808	-22.31
225.042	4.69
225.277	-5.31
225.511	3.69
225.746	-1.31
225.98	0.69
226.215	13.69
226.449	21.69
226.683	10.69
226.918	30.69
227.152	15.69
227.387	28.69
227.621	37.69
227.856	40.69
228.09	44.69
228.324	57.69
228.559	64.69
228.793	36.69
229.027	53.69
229.262	62.69
229.496	69.69
229.73	69.69
229.964	79.69
230.199	81.69
230.433	91.69
230.667	59.69
230.901	80.69
231.136	70.69
231.37	62.69
231.604	88.69
231.838	80.69
232.072	83.69
232.306	86.69
232.541	87.69
232.775	94.69
233.009	85.69
233.243	82.69
233.477	79.69
233.711	80.69
233.945	76.69
234.179	93.69
234.413	102.69
234.647	80.69
234.881	73.69
235.115	79.69
235.349	71.69
235.583	85.69
235.817	69.69
236.051	91.69
236.285	80.69
236.519	85.69
236.753	91.69
236.987	86.69
237.221	81.69
237.455	79.69
237.689	71.69
237.922	81.69
238.156	80.69
238.39	80.69
238.624	72.69
238.858	79.69
239.091	91.69
239.325	72.69
239.559	70.69
239.793	78.69
240.027	77.69
240.26	78.69
240.494	76.69
240.728	84.69
240.961	83.69
241.195	83.69
241.429	77.69
241.662	74.69
241.896	62.69
242.13	88.69
242.363	85.69
242.597	80.69
242.83	70.69
243.064	80.69
243.298	69.69
243.531	89.69
243.765	89.69
243.998	90.69
244.232	69.69
244.465	75.69
244.699	86.69
244.932	88.69
245.166	84.69
245.399	71.69
245.633	100.69
245.866	72.69
246.099	79.69
246.333	92.69
246.566	89.69
246.8	89.69
247.033	73.69
247.266	80.69
247.5	86.69
247.733	83.69
247.966	98.69
248.2	73.69
248.433	91.69
248.666	84.69
248.899	91.69
249.133	89.69
249.366	77.69
249.599	75.69
249.832	71.69
250.066	78.69
250.299	78.69
250.532	76.69
250.765	80.69
250.998	73.69
251.231	73.69
251.465	81.69
251.698	69.69
251.931	78.69
252.164	95.69
252.397	71.69
252.63	75.69
252.863	90.69
253.096	80.69
253.329	75.69
253.562	81.69
253.795	100.69
254.028	77.69
254.261	71.69
254.494	72.69
254.727	89.69
254.96	64.69
255.193	74.69
255.426	71.69
255.659	79.69
255.892	86.69
256.124	85.69
256.357	79.69
256.59	78.69
256.823	77.69
257.056	85.69
257.289	83.69
257.521	81.69
257.754	86.69
257.987	81.69
258.22	82.69
258.452	87.69
258.685	83.69
258.918	80.69
259.151	90.69
259.383	72.69
259.616	78.69
259.849	77.69
260.081	81.69
260.314	73.69
260.547	84.69
260.779	87.69
261.012	86.69
261.244	68.69
261.477	75.69
261.71	73.69
261.942	94.69
262.175	92.69
262.407	88.69
262.64	89.69
262.872	100.69
263.105	92.69
263.337	80.69
263.57	61.69
263.802	71.69
264.035	79.69
264.267	93.69
264.499	76.69
264.732	80.69
264.964	95.69
265.197	87.69
265.429	80.69
265.661	78.69
265.894	80.69
266.126	80.69
266.358	84.69
266.591	60.69
266.823	83.69
267.055	87.69
267.287	76.69
267.52	100.69
267.752	85.69
267.984	71.69
268.216	91.69
268.448	92.69
268.681	73.69
268.913	77.69
269.145	76.69
269.377	72.69
269.609	95.69
269.841	76.69
270.073	97.69
270.306	82.69
270.538	76.69
270.77	91.69
271.002	79.69
271.234	93.69
271.466	94.69
271.698	86.69
271.93	100.69
272.162	80.69
272.394	92.69
272.626	94.69
272.858	80.69
273.09	84.69
273.322	78.69
273.553	85.69
273.785	96.69
274.017	80.69
274.249	94.69
274.481	87.69
274.713	88.69
274.945	75.69
275.176	83.69
275.408	75.69
275.64	91.69
275.872	93.69
276.104	92.69
276.335	81.69
276.567	84.69
276.799	73.69
277.031	98.69
277.262	84.69
277.494	64.69
277.726	86.69
277.957	82.69
278.189	92.69
278.421	78.69
278.652	86.69
278.884	79.69
279.115	76.69
279.347	80.69
279.579	78.69
279.81	76.69
280.042	84.69
280.273	81.69
280.505	91.69
280.736	81.69
280.968	79.69
281.199	84.69
281.431	83.69
281.662	80.69
281.894	85.69
282.125	87.69
282.356	93.69
282.588	86.69
282.819	88.69
283.051	77.69
283.282	86.69
283.513	85.69
283.745	93.69
283.976	91.69
284.207	92.69
284.439	79.69
284.67	88.69
284.901	90.69
285.132	88.69
285.364	106.69
285.595	83.69
285.826	82.69
286.057	90.69
286.288	93.69
286.52	79.69
286.751	82.69
286.982	84.69
287.213	92.69
287.444	90.69
287.675	96.69
287.906	90.69
288.138	84.69
288.369	96.69
288.6	78.69
288.831	86.69
289.062	83.69
289.293	73.69
289.524	75.69
289.755	91.69
289.986	95.69
290.217	93.69
290.448	72.69
290.679	82.69
290.91	87.69
291.141	97.69
291.371	80.69
291.602	88.69
291.833	96.69
292.064	74.69
292.295	80.69
292.526	93.69
292.757	91.69
292.987	81.69
293.218	80.69
293.449	93.69
293.68	92.69
293.91	95.69
294.141	85.69
294.372	99.69
294.603	92.69
294.833	99.69
295.064	81.69
295.295	88.69
295.525	84.69
295.756	92.69
295.987	92.69
296.217	83.69
296.448	73.69
296.679	80.69
296.909	93.69
297.14	90.69
297.37	85.69
297.601	89.69
297.831	84.69
298.062	78.69
298.292	81.69
298.523	80.69
298.753	96.69
298.984	90.69
299.214	96.69
299.445	107.69
299.675	91.69
299.905	87.69
300.136	91.69
300.366	91.69
300.597	79.69
300.827	81.69
301.057	76.69
301.288	87.69
301.518	88.69
301.748	93.69
301.979	97.69
302.209	78.69
302.439	81.69
302.669	85.69
302.9	101.69
303.13	88.69
303.36	88.69
303.59	76.69
303.82	79.69
304.051	83.69
304.281	89.69
304.511	107.69
304.741	92.69
304.971	86.69
305.201	80.69
305.431	83.69
305.661	88.69
305.891	82.69
306.121	90.69
306.352	97.69
306.582	82.69
306.812	68.69
307.042	76.69
307.272	79.69
307.502	85.69
307.731	70.69
307.961	83.69
308.191	76.69
308.421	81.69
308.651	81.69
308.881	79.69
309.111	88.69
309.341	83.69
309.571	87.69
309.8	87.69
310.03	92.69
310.26	77.69
310.49	91.69
310.72	80.69
310.949	77.69
311.179	93.69
311.409	80.69
311.639	77.69
311.868	85.69
312.098	84.69
312.328	91.69
312.557	82.69
312.787	83.69
313.017	91.69
313.246	89.69
313.476	89.69
313.706	84.69
313.935	97.69
314.165	84.69
314.394	81.69
314.624	80.69
314.853	92.69
315.083	79.69
315.312	95.69
315.542	93.69
315.771	80.69
316.001	87.69
316.23	81.69
316.46	90.69
316.689	91.69
316.919	85.69
317.148	94.69
317.377	76.69
317.607	87.69
317.836	94.69
318.065	88.69
318.295	98.69
318.524	66.69
318.753	87.69
318.983	83.69
319.212	97.69
319.441	94.69
319.67	83.69
319.9	81.69
320.129	93.69
320.358	88.69
320.587	85.69
320.816	83.69
321.046	93.69
321.275	87.69
321.504	71.69
321.733	75.69
321.962	66.69
322.191	84.69
322.42	80.69
322.649	91.69
322.878	94.69
323.108	88.69
323.337	81.69
323.566	85.69
323.795	75.69
324.024	99.69
324.253	71.69
324.482	79.69
324.71	91.69
324.939	84.69
325.168	91.69
325.397	92.69
325.626	62.69
325.855	86.69
326.084	88.69
326.313	90.69
326.542	79.69
326.77	99.69
326.999	89.69
327.228	87.69
327.457	79.69
327.686	79.69
327.914	87.69
328.143	88.69
328.372	100.69
328.6	75.69
328.829	63.69
329.058	75.69
329.287	81.69
329.515	80.69
329.744	83.69
329.972	90.69
330.201	76.69
330.43	92.69
330.658	99.69
330.887	71.69
331.115	81.69
331.344	81.69
331.572	81.69
331.801	91.69
332.03	84.69
332.258	74.69
332.486	96.69
332.715	91.69
332.943	79.69
333.172	76.69
333.4	89.69
333.629	87.69
333.857	89.69
334.085	81.69
334.314	97.69
334.542	67.69
334.771	87.69
334.999	82.69
335.227	95.69
335.455	79.69
335.684	84.69
335.912	81.69
336.14	82.69
336.369	90.69
336.597	76.69
336.825	97.69
337.053	84.69
337.281	72.69
337.51	80.69
337.738	93.69
337.966	81.69
338.194	79.69
338.422	99.69
338.65	87.69
338.878	86.69
339.106	85.69
339.334	76.69
339.562	93.69
339.79	88.69
340.018	93.69
340.246	84.69
340.474	88.69
340.702	91.69
340.93	97.69
341.158	80.69
341.386	80.69
341.614	88.69
341.842	78.69
342.07	96.69
342.298	93.69
342.526	83.69
342.754	94.69
342.981	92.69
343.209	77.69
343.437	75.69
343.665	97.69
343.893	80.69
344.12	88.69
344.348	79.69
344.576	98.69
344.804	97.69
345.031	79.69
345.259	73.69
345.487	76.69
345.714	71.69
345.942	71.69
346.17	87.69
346.397	79.69
346.625	87.69
346.853	91.69
347.08	83.69
347.308	71.69
347.535	76.69
347.763	88.69
347.99	75.69
348.218	79.69
348.445	80.69
348.673	86.69
348.9	92.69
349.128	84.69
349.355	81.69
349.583	80.69
349.81	86.69
350.037	74.69
350.265	94.69
350.492	75.69
350.72	86.69
350.947	76.69
351.174	85.69
351.402	86.69
351.629	91.69
351.856	92.69
352.083	94.69
352.311	91.69
352.538	69.69
352.765	81.69
352.992	82.69
353.22	87.69
353.447	85.69
353.674	75.69
353.901	87.69
354.128	95.69
354.355	86.69
354.583	83.69
354.81	94.69
355.037	85.69
355.264	76.69
355.491	91.69
355.718	87.69
355.945	84.69
356.172	80.69
356.399	71.69
356.626	77.69
356.853	92.69
357.08	85.69
357.307	83.69
357.534	84.69
357.761	83.69
357.988	82.69
358.215	91.69
358.441	78.69
358.668	73.69
358.895	103.69
359.122	101.69
359.349	84.69
359.576	80.69
359.802	87.69
360.029	80.69
360.256	68.69
360.483	81.69
360.709	91.69
360.936	78.69
361.163	83.69
361.39	101.69
361.616	91.69
361.843	95.69
362.07	94.69
362.296	84.69
362.523	91.69
362.749	82.69
362.976	77.69
363.203	85.69
363.429	83.69
363.656	85.69
363.882	81.69
364.109	85.69
364.335	86.69
364.562	81.69
364.788	93.69
365.015	90.69
365.241	93.69
365.468	95.69
365.694	78.69
365.92	94.69
366.147	96.69
366.373	87.69
366.599	96.69
366.826	92.69
367.052	72.69
367.278	76.69
367.505	94.69
367.731	89.69
367.957	82.69
368.184	94.69
368.41	78.69
368.636	95.69
368.862	87.69
369.089	90.69
369.315	99.69
369.541	82.69
369.767	90.69
369.993	87.69
370.219	80.69
370.445	92.69
370.672	83.69
370.898	78.69
371.124	89.69
371.35	86.69
371.576	85.69
371.802	85.69
372.028	92.69
372.254	90.69
372.48	90.69
372.706	100.69
372.932	92.69
373.158	105.69
373.384	91.69
373.61	100.69
373.835	99.69
374.061	92.69
374.287	94.69
374.513	87.69
374.739	95.69
374.965	104.69
375.191	80.69
375.416	97.69
375.642	96.69
375.868	89.69
376.094	86.69
376.319	96.69
376.545	96.69
376.771	98.69
376.997	95.69
377.222	88.69
377.448	95.69
377.674	89.69
377.899	91.69
378.125	79.69
378.35	95.69
378.576	95.69
378.802	93.69
379.027	97.69
379.253	111.69
379.478	102.69
379.704	87.69
379.929	91.69
380.155	96.69
380.38	91.69
380.606	102.69
380.831	84.69
381.057	106.69
381.282	94.69
381.507	103.69
381.733	83.69
381.958	90.69
382.184	94.69
382.409	94.69
382.634	91.69
382.86	88.69
383.085	113.69
383.31	109.69
383.535	116.69
383.761	88.69
383.986	84.69
384.211	100.69
384.436	96.69
384.662	103.69
384.887	105.69
385.112	92.69
385.337	100.69
385.562	87.69
385.787	68.69
386.013	106.69
386.238	92.69
386.463	113.69
386.688	94.69
386.913	91.69
387.138	99.69
387.363	110.69
387.588	113.69
387.813	102.69
388.038	103.69
388.263	96.69
388.488	96.69
388.713	102.69
388.938	119.69
389.163	111.69
389.387	102.69
389.612	100.69
389.837	95.69
390.062	93.69
390.287	89.69
390.512	95.69
390.736	95.69
390.961	108.69
391.186	102.69
391.411	115.69
391.636	103.69
391.86	112.69
392.085	118.69
392.31	120.69
392.534	109.69
392.759	88.69
392.984	91.69
393.208	99.69
393.433	105.69
393.658	102.69
393.882	102.69
394.107	94.69
394.331	118.69
394.556	106.69
394.78	100.69
395.005	101.69
395.229	99.69
395.454	100.69
395.678	96.69
395.903	103.69
396.127	123.69
396.352	121.69
396.576	117.69
396.801	102.69
397.025	105.69
397.249	108.69
397.474	112.69
397.698	125.69
397.922	121.69
398.147	124.69
398.371	112.69
398.595	109.69
398.82	114.69
399.044	117.69
399.268	103.69
399.492	101.69
399.717	107.69
399.941	105.69
400.165	115.69
400.389	105.69
400.613	118.69
400.837	123.69
401.062	116.69
401.286	128.69
401.51	117.69
401.734	92.69
401.958	119.69
402.182	110.69
402.406	120.69
402.63	123.69
402.854	123.69
403.078	125.69
403.302	103.69
403.526	121.69
403.75	95.69
403.974	117.69
404.198	110.69
404.422	101.69
404.645	114.69
404.869	108.69
405.093	121.69
405.317	128.69
405.541	110.69
405.765	110.69
405.988	124.69
406.212	113.69
406.436	114.69
406.66	117.69
406.883	118.69
407.107	108.69
407.331	103.69
407.555	111.69
407.778	121.69
408.002	119.69
408.226	122.69
408.449	113.69
408.673	128.69
408.896	138.69
409.12	123.69
409.344	118.69
409.567	120.69
409.791	120.69
410.014	124.69
410.238	121.69
410.461	120.69
410.685	132.69
410.908	103.69
411.132	122.69
411.355	142.69
411.578	129.69
411.802	122.69
412.025	129.69
412.249	138.69
412.472	135.69
412.695	119.69
412.919	122.69
413.142	113.69
413.365	129.69
413.589	131.69
413.812	125.69
414.035	123.69
414.258	121.69
414.482	124.69
414.705	117.69
414.928	121.69
415.151	119.69
415.374	132.69
415.597	124.69
415.821	128.69
416.044	116.69
416.267	122.69
416.49	118.69
416.713	125.69
416.936	125.69
417.159	127.69
417.382	124.69
417.605	128.69
417.828	138.69
418.051	139.69
418.274	129.69
418.497	133.69
418.72	136.69
418.943	130.69
419.166	132.69
419.389	141.69
419.611	115.69
419.834	127.69
420.057	124.69
420.28	127.69
420.503	127.69
420.726	134.69
420.948	135.69
421.171	129.69
421.394	132.69
421.617	121.69
421.839	128.69
422.062	129.69
422.285	127.69
422.507	133.69
422.73	131.69
422.953	126.69
423.175	141.69
423.398	139.69
423.621	124.69
423.843	133.69
424.066	117.69
424.288	135.69
424.511	152.69
424.733	127.69
424.956	145.69
425.178	145.69
425.401	138.69
425.623	125.69
425.846	142.69
426.068	133.69
426.291	127.69
426.513	130.69
426.735	139.69
426.958	123.69
427.18	122.69
427.402	128.69
427.625	132.69
427.847	127.69
428.069	140.69
428.292	128.69
428.514	126.69
428.736	133.69
428.958	131.69
429.181	132.69
429.403	126.69
429.625	138.69
429.847	128.69
430.069	126.69
430.292	141.69
430.514	129.69
430.736	119.69
430.958	136.69
431.18	134.69
431.402	124.69
431.624	114.69
431.846	99.69
432.068	94.69
432.29	89.69
432.512	104.69
432.734	122.69
432.956	141.69
433.178	128.69
433.4	131.69
433.622	135.69
433.844	128.69
434.066	136.69
434.287	100.69
434.509	90.69
434.731	99.69
434.953	94.69
435.175	122.69
435.397	127.69
435.618	119.69
435.84	111.69
436.062	118.69
436.284	127.69
436.505	135.69
436.727	116.69
436.949	134.69
437.17	127.69
437.392	129.69
437.614	127.69
437.835	124.69
438.057	130.69
438.278	121.69
438.5	115.69
438.721	132.69
438.943	137.69
439.165	125.69
439.386	151.69
439.608	142.69
439.829	140.69
440.05	134.69
440.272	145.69
440.493	137.69
440.715	158.69
440.936	148.69
441.158	144.69
441.379	143.69
441.6	141.69
441.822	153.69
442.043	141.69
442.264	143.69
442.486	140.69
442.707	140.69
442.928	138.69
443.149	132.69
443.371	127.69
443.592	134.69
443.813	149.69
444.034	130.69
444.255	133.69
444.476	144.69
444.698	123.69
444.919	131.69
445.14	227.69
445.361	187.69
445.582	157.69
445.803	141.69
446.024	161.69
446.245	139.69
446.466	159.69
446.687	156.69
446.908	149.69
447.129	138.69
447.35	151.69
447.571	153.69
447.792	138.69
448.013	139.69
448.234	135.69
448.455	146.69
448.675	139.69
448.896	153.69
449.117	136.69
449.338	129.69
449.559	128.69
449.779	139.69
450	131.69
450.221	130.69
450.442	149.69
450.662	138.69
450.883	135.69
451.104	136.69
451.324	131.69
451.545	139.69
451.766	117.69
451.986	112.69
452.207	117.69
452.428	127.69
452.648	132.69
452.869	123.69
453.089	135.69
453.31	127.69
453.53	112.69
453.751	107.69
453.971	101.69
454.192	111.69
454.412	117.69
454.633	125.69
454.853	117.69
455.073	124.69
455.294	112.69
455.514	127.69
455.734	130.69
455.955	108.69
456.175	117.69
456.395	117.69
456.616	117.69
456.836	107.69
457.056	121.69
457.276	107.69
457.497	111.69
457.717	103.69
457.937	118.69
458.157	111.69
458.377	109.69
458.598	112.69
458.818	95.69
459.038	88.69
459.258	90.69
459.478	79.69
459.698	88.69
459.918	89.69
460.138	110.69
460.358	104.69
460.578	119.69
460.798	123.69
461.018	116.69
461.238	113.69
461.458	134.69
461.678	100.69
461.898	123.69
462.118	135.69
462.338	125.69
462.558	122.69
462.777	110.69
462.997	108.69
463.217	102.69
463.437	110.69
463.657	106.69
463.876	128.69
464.096	113.69
464.316	117.69
464.536	119.69
464.755	116.69
464.975	116.69
465.195	113.69
465.414	101.69
465.634	119.69
465.854	119.69
466.073	127.69
466.293	122.69
466.512	145.69
466.732	133.69
466.951	147.69
467.171	127.69
467.391	128.69
467.61	139.69
467.829	133.69
468.049	152.69
468.268	145.69
468.488	132.69
468.707	135.69
468.927	147.69
469.146	141.69
469.365	138.69
469.585	118.69
469.804	131.69
470.023	149.69
470.243	133.69
470.462	133.69
470.681	155.69
470.901	131.69
471.12	127.69
471.339	138.69
471.558	149.69
471.777	126.69
471.997	133.69
472.216	117.69
472.435	113.69
472.654	109.69
472.873	105.69
473.092	111.69
473.311	120.69
473.53	125.69
473.749	115.69
473.968	129.69
474.187	107.69
474.406	112.69
474.625	120.69
474.844	127.69
475.063	140.69
475.282	131.69
475.501	107.69
475.72	126.69
475.939	123.69
476.158	120.69
476.377	132.69
476.596	128.69
476.814	115.69
477.033	110.69
477.252	117.69
477.471	129.69
477.69	113.69
477.908	138.69
478.127	127.69
478.346	132.69
478.564	135.69
478.783	124.69
479.002	139.69
479.22	122.69
479.439	136.69
479.658	125.69
479.876	104.69
480.095	109.69
480.313	125.69
480.532	128.69
480.751	108.69
480.969	95.69
481.188	105.69
481.406	85.69
481.624	84.69
481.843	95.69
482.061	110.69
482.28	126.69
482.498	121.69
482.717	109.69
482.935	122.69
483.153	152.69
483.372	149.69
483.59	146.69
483.808	143.69
484.027	123.69
484.245	128.69
484.463	145.69
484.681	147.69
484.9	151.69
485.118	155.69
485.336	128.69
485.554	99.69
485.772	99.69
485.99	96.69
486.209	121.69
486.427	106.69
486.645	109.69
486.863	138.69
487.081	134.69
487.299	127.69
487.517	130.69
487.735	169.69
487.953	163.69
488.171	168.69
488.389	173.69
488.607	169.69
488.825	130.69
489.043	125.69
489.261	133.69
489.479	137.69
489.696	147.69
489.914	143.69
490.132	151.69
490.35	154.69
490.568	184.69
490.786	179.69
491.003	182.69
491.221	186.69
491.439	182.69
491.657	206.69
491.874	209.69
492.092	213.69
492.31	249.69
492.527	217.69
492.745	227.69
492.963	179.69
493.18	189.69
493.398	179.69
493.615	190.69
493.833	169.69
494.05	161.69
494.268	183.69
494.485	178.69
494.703	172.69
494.92	176.69
495.138	180.69
495.355	185.69
495.573	172.69
495.79	171.69
496.008	172.69
496.225	164.69
496.442	170.69
496.66	185.69
496.877	168.69
497.094	165.69
497.312	148.69
497.529	145.69
497.746	159.69
497.963	141.69
498.181	129.69
498.398	120.69
498.615	120.69
498.832	117.69
499.049	124.69
499.267	118.69
499.484	119.69
499.701	126.69
499.918	131.69
500.135	135.69
500.352	138.69
500.569	149.69
500.786	167.69
501.003	137.69
501.22	141.69
501.437	137.69
501.654	130.69
501.871	135.69
502.088	129.69
502.305	137.69
502.522	129.69
502.739	133.69
502.956	118.69
503.172	117.69
503.389	105.69
503.606	115.69
503.823	120.69
504.04	126.69
504.256	113.69
504.473	118.69
504.69	128.69
504.907	127.69
505.123	124.69
505.34	118.69
505.557	128.69
505.773	129.69
505.99	135.69
506.207	110.69
506.423	121.69
506.64	118.69
506.856	118.69
507.073	128.69
507.289	123.69
507.506	116.69
507.722	140.69
507.939	111.69
508.155	116.69
508.372	105.69
508.588	114.69
508.805	112.69
509.021	112.69
509.238	99.69
509.454	111.69
509.67	103.69
509.887	101.69
510.103	93.69
510.319	106.69
510.536	91.69
510.752	86.69
510.968	85.69
511.184	83.69
511.401	79.69
511.617	86.69
