Data from Location1.07152019.Energy5.Lamp.07192019.3%Agarose_HRD10591_14-30-41-018.txt Node
Date: Fri Jul 19 14:30:41 EDT 2019
User: cochatt
Spectrometer: HR+D1059
Trigger mode: 1
Integration Time (sec): 1.000000E-1
Scans to average: 1
Electric dark correction enabled: true
Nonlinearity correction enabled: false
Boxcar width: 0
XAxis mode: Wavelengths
Number of Pixels in Spectrum: 2048
>>>>>Begin Spectral Data<<<<<
223.165	-15.56
223.4	-15.56
223.635	-15.56
223.869	-22.56
224.104	-15.56
224.338	0.44
224.573	-11.56
224.808	-20.56
225.042	-1.56
225.277	-12.56
225.511	-6.56
225.746	7.44
225.98	7.44
226.215	10.44
226.449	11.44
226.683	16.44
226.918	20.44
227.152	32.44
227.387	40.44
227.621	45.44
227.856	45.44
228.09	49.44
228.324	48.44
228.559	55.44
228.793	62.44
229.027	55.44
229.262	53.44
229.496	57.44
229.73	56.44
229.964	75.44
230.199	72.44
230.433	62.44
230.667	85.44
230.901	78.44
231.136	81.44
231.37	91.44
231.604	85.44
231.838	79.44
232.072	72.44
232.306	96.44
232.541	81.44
232.775	75.44
233.009	77.44
233.243	80.44
233.477	84.44
233.711	73.44
233.945	91.44
234.179	89.44
234.413	84.44
234.647	75.44
234.881	93.44
235.115	85.44
235.349	84.44
235.583	80.44
235.817	85.44
236.051	80.44
236.285	85.44
236.519	96.44
236.753	75.44
236.987	63.44
237.221	77.44
237.455	76.44
237.689	86.44
237.922	79.44
238.156	85.44
238.39	84.44
238.624	72.44
238.858	75.44
239.091	65.44
239.325	76.44
239.559	78.44
239.793	80.44
240.027	70.44
240.26	74.44
240.494	73.44
240.728	74.44
240.961	79.44
241.195	76.44
241.429	80.44
241.662	71.44
241.896	64.44
242.13	77.44
242.363	75.44
242.597	72.44
242.83	73.44
243.064	78.44
243.298	83.44
243.531	79.44
243.765	66.44
243.998	88.44
244.232	81.44
244.465	84.44
244.699	76.44
244.932	73.44
245.166	81.44
245.399	81.44
245.633	82.44
245.866	88.44
246.099	65.44
246.333	75.44
246.566	79.44
246.8	81.44
247.033	84.44
247.266	81.44
247.5	78.44
247.733	74.44
247.966	73.44
248.2	87.44
248.433	76.44
248.666	70.44
248.899	92.44
249.133	67.44
249.366	82.44
249.599	85.44
249.832	70.44
250.066	75.44
250.299	84.44
250.532	92.44
250.765	82.44
250.998	72.44
251.231	85.44
251.465	76.44
251.698	79.44
251.931	73.44
252.164	81.44
252.397	72.44
252.63	85.44
252.863	85.44
253.096	83.44
253.329	77.44
253.562	84.44
253.795	80.44
254.028	77.44
254.261	98.44
254.494	84.44
254.727	79.44
254.96	67.44
255.193	77.44
255.426	81.44
255.659	79.44
255.892	85.44
256.124	97.44
256.357	87.44
256.59	85.44
256.823	85.44
257.056	85.44
257.289	70.44
257.521	84.44
257.754	68.44
257.987	81.44
258.22	77.44
258.452	80.44
258.685	87.44
258.918	94.44
259.151	69.44
259.383	76.44
259.616	79.44
259.849	61.44
260.081	70.44
260.314	90.44
260.547	77.44
260.779	76.44
261.012	75.44
261.244	69.44
261.477	91.44
261.71	75.44
261.942	77.44
262.175	71.44
262.407	75.44
262.64	83.44
262.872	86.44
263.105	65.44
263.337	87.44
263.57	87.44
263.802	81.44
264.035	87.44
264.267	73.44
264.499	86.44
264.732	92.44
264.964	78.44
265.197	79.44
265.429	80.44
265.661	92.44
265.894	81.44
266.126	85.44
266.358	86.44
266.591	73.44
266.823	79.44
267.055	78.44
267.287	95.44
267.52	93.44
267.752	94.44
267.984	92.44
268.216	97.44
268.448	84.44
268.681	100.44
268.913	80.44
269.145	78.44
269.377	87.44
269.609	72.44
269.841	76.44
270.073	76.44
270.306	85.44
270.538	79.44
270.77	76.44
271.002	84.44
271.234	78.44
271.466	92.44
271.698	81.44
271.93	77.44
272.162	95.44
272.394	89.44
272.626	93.44
272.858	86.44
273.09	85.44
273.322	92.44
273.553	74.44
273.785	93.44
274.017	92.44
274.249	78.44
274.481	69.44
274.713	78.44
274.945	78.44
275.176	87.44
275.408	91.44
275.64	105.44
275.872	85.44
276.104	92.44
276.335	79.44
276.567	81.44
276.799	86.44
277.031	103.44
277.262	79.44
277.494	86.44
277.726	89.44
277.957	78.44
278.189	84.44
278.421	76.44
278.652	71.44
278.884	86.44
279.115	86.44
279.347	96.44
279.579	85.44
279.81	81.44
280.042	102.44
280.273	85.44
280.505	89.44
280.736	99.44
280.968	74.44
281.199	65.44
281.431	84.44
281.662	71.44
281.894	86.44
282.125	72.44
282.356	85.44
282.588	85.44
282.819	78.44
283.051	85.44
283.282	97.44
283.513	89.44
283.745	86.44
283.976	74.44
284.207	79.44
284.439	82.44
284.67	83.44
284.901	87.44
285.132	73.44
285.364	90.44
285.595	90.44
285.826	84.44
286.057	76.44
286.288	80.44
286.52	88.44
286.751	85.44
286.982	81.44
287.213	83.44
287.444	73.44
287.675	78.44
287.906	85.44
288.138	73.44
288.369	85.44
288.6	80.44
288.831	80.44
289.062	79.44
289.293	94.44
289.524	87.44
289.755	85.44
289.986	83.44
290.217	89.44
290.448	85.44
290.679	78.44
290.91	85.44
291.141	83.44
291.371	89.44
291.602	80.44
291.833	78.44
292.064	84.44
292.295	83.44
292.526	90.44
292.757	81.44
292.987	80.44
293.218	89.44
293.449	91.44
293.68	91.44
293.91	93.44
294.141	79.44
294.372	72.44
294.603	79.44
294.833	98.44
295.064	96.44
295.295	90.44
295.525	88.44
295.756	84.44
295.987	85.44
296.217	80.44
296.448	89.44
296.679	72.44
296.909	85.44
297.14	79.44
297.37	92.44
297.601	78.44
297.831	71.44
298.062	69.44
298.292	78.44
298.523	91.44
298.753	76.44
298.984	85.44
299.214	68.44
299.445	83.44
299.675	87.44
299.905	79.44
300.136	93.44
300.366	88.44
300.597	100.44
300.827	83.44
301.057	83.44
301.288	90.44
301.518	86.44
301.748	100.44
301.979	88.44
302.209	83.44
302.439	89.44
302.669	87.44
302.9	87.44
303.13	100.44
303.36	82.44
303.59	82.44
303.82	79.44
304.051	95.44
304.281	83.44
304.511	87.44
304.741	90.44
304.971	79.44
305.201	92.44
305.431	79.44
305.661	84.44
305.891	81.44
306.121	81.44
306.352	82.44
306.582	71.44
306.812	83.44
307.042	97.44
307.272	76.44
307.502	81.44
307.731	93.44
307.961	78.44
308.191	83.44
308.421	89.44
308.651	75.44
308.881	79.44
309.111	85.44
309.341	85.44
309.571	93.44
309.8	91.44
310.03	90.44
310.26	89.44
310.49	84.44
310.72	86.44
310.949	91.44
311.179	88.44
311.409	80.44
311.639	91.44
311.868	86.44
312.098	92.44
312.328	77.44
312.557	95.44
312.787	81.44
313.017	93.44
313.246	74.44
313.476	85.44
313.706	92.44
313.935	80.44
314.165	86.44
314.394	78.44
314.624	102.44
314.853	82.44
315.083	76.44
315.312	90.44
315.542	87.44
315.771	81.44
316.001	84.44
316.23	80.44
316.46	79.44
316.689	89.44
316.919	83.44
317.148	108.44
317.377	84.44
317.607	91.44
317.836	77.44
318.065	73.44
318.295	86.44
318.524	91.44
318.753	86.44
318.983	99.44
319.212	84.44
319.441	87.44
319.67	85.44
319.9	86.44
320.129	93.44
320.358	84.44
320.587	81.44
320.816	79.44
321.046	93.44
321.275	90.44
321.504	89.44
321.733	85.44
321.962	86.44
322.191	88.44
322.42	82.44
322.649	96.44
322.878	77.44
323.108	81.44
323.337	86.44
323.566	92.44
323.795	79.44
324.024	69.44
324.253	70.44
324.482	94.44
324.71	88.44
324.939	76.44
325.168	90.44
325.397	93.44
325.626	88.44
325.855	89.44
326.084	87.44
326.313	77.44
326.542	87.44
326.77	75.44
326.999	93.44
327.228	87.44
327.457	81.44
327.686	99.44
327.914	92.44
328.143	89.44
328.372	92.44
328.6	79.44
328.829	76.44
329.058	79.44
329.287	95.44
329.515	94.44
329.744	79.44
329.972	88.44
330.201	92.44
330.43	80.44
330.658	68.44
330.887	83.44
331.115	86.44
331.344	80.44
331.572	87.44
331.801	83.44
332.03	81.44
332.258	85.44
332.486	74.44
332.715	81.44
332.943	72.44
333.172	74.44
333.4	77.44
333.629	79.44
333.857	94.44
334.085	76.44
334.314	75.44
334.542	81.44
334.771	72.44
334.999	81.44
335.227	73.44
335.455	94.44
335.684	89.44
335.912	88.44
336.14	100.44
336.369	97.44
336.597	95.44
336.825	87.44
337.053	91.44
337.281	100.44
337.51	75.44
337.738	86.44
337.966	78.44
338.194	95.44
338.422	92.44
338.65	87.44
338.878	82.44
339.106	77.44
339.334	81.44
339.562	85.44
339.79	91.44
340.018	83.44
340.246	72.44
340.474	94.44
340.702	97.44
340.93	93.44
341.158	85.44
341.386	87.44
341.614	81.44
341.842	64.44
342.07	90.44
342.298	86.44
342.526	93.44
342.754	96.44
342.981	81.44
343.209	91.44
343.437	83.44
343.665	87.44
343.893	85.44
344.12	77.44
344.348	87.44
344.576	76.44
344.804	77.44
345.031	81.44
345.259	63.44
345.487	76.44
345.714	85.44
345.942	104.44
346.17	92.44
346.397	86.44
346.625	93.44
346.853	71.44
347.08	73.44
347.308	84.44
347.535	72.44
347.763	76.44
347.99	91.44
348.218	84.44
348.445	72.44
348.673	85.44
348.9	80.44
349.128	88.44
349.355	92.44
349.583	88.44
349.81	87.44
350.037	79.44
350.265	87.44
350.492	69.44
350.72	77.44
350.947	92.44
351.174	71.44
351.402	70.44
351.629	90.44
351.856	85.44
352.083	87.44
352.311	92.44
352.538	96.44
352.765	92.44
352.992	89.44
353.22	88.44
353.447	92.44
353.674	81.44
353.901	99.44
354.128	79.44
354.355	94.44
354.583	92.44
354.81	81.44
355.037	75.44
355.264	89.44
355.491	86.44
355.718	74.44
355.945	88.44
356.172	88.44
356.399	83.44
356.626	83.44
356.853	84.44
357.08	83.44
357.307	87.44
357.534	69.44
357.761	71.44
357.988	85.44
358.215	80.44
358.441	89.44
358.668	79.44
358.895	101.44
359.122	99.44
359.349	91.44
359.576	101.44
359.802	65.44
360.029	84.44
360.256	91.44
360.483	85.44
360.709	87.44
360.936	80.44
361.163	72.44
361.39	73.44
361.616	78.44
361.843	80.44
362.07	91.44
362.296	85.44
362.523	70.44
362.749	84.44
362.976	86.44
363.203	88.44
363.429	78.44
363.656	80.44
363.882	90.44
364.109	84.44
364.335	83.44
364.562	81.44
364.788	92.44
365.015	106.44
365.241	81.44
365.468	84.44
365.694	83.44
365.92	80.44
366.147	89.44
366.373	85.44
366.599	80.44
366.826	85.44
367.052	88.44
367.278	88.44
367.505	90.44
367.731	92.44
367.957	80.44
368.184	97.44
368.41	91.44
368.636	90.44
368.862	87.44
369.089	87.44
369.315	103.44
369.541	99.44
369.767	100.44
369.993	89.44
370.219	78.44
370.445	102.44
370.672	87.44
370.898	94.44
371.124	100.44
371.35	84.44
371.576	97.44
371.802	87.44
372.028	81.44
372.254	78.44
372.48	102.44
372.706	91.44
372.932	78.44
373.158	106.44
373.384	84.44
373.61	81.44
373.835	95.44
374.061	101.44
374.287	88.44
374.513	100.44
374.739	85.44
374.965	95.44
375.191	92.44
375.416	98.44
375.642	94.44
375.868	93.44
376.094	97.44
376.319	97.44
376.545	97.44
376.771	109.44
376.997	103.44
377.222	94.44
377.448	89.44
377.674	83.44
377.899	88.44
378.125	101.44
378.35	84.44
378.576	100.44
378.802	88.44
379.027	91.44
379.253	101.44
379.478	90.44
379.704	95.44
379.929	105.44
380.155	103.44
380.38	91.44
380.606	97.44
380.831	108.44
381.057	105.44
381.282	87.44
381.507	101.44
381.733	100.44
381.958	110.44
382.184	79.44
382.409	88.44
382.634	104.44
382.86	89.44
383.085	97.44
383.31	104.44
383.535	97.44
383.761	102.44
383.986	93.44
384.211	104.44
384.436	94.44
384.662	87.44
384.887	109.44
385.112	92.44
385.337	95.44
385.562	100.44
385.787	95.44
386.013	98.44
386.238	78.44
386.463	98.44
386.688	99.44
386.913	113.44
387.138	100.44
387.363	92.44
387.588	93.44
387.813	102.44
388.038	94.44
388.263	105.44
388.488	105.44
388.713	107.44
388.938	98.44
389.163	105.44
389.387	100.44
389.612	104.44
389.837	103.44
390.062	96.44
390.287	101.44
390.512	123.44
390.736	97.44
390.961	110.44
391.186	96.44
391.411	103.44
391.636	102.44
391.86	104.44
392.085	119.44
392.31	108.44
392.534	80.44
392.759	102.44
392.984	95.44
393.208	101.44
393.433	102.44
393.658	108.44
393.882	103.44
394.107	118.44
394.331	82.44
394.556	102.44
394.78	103.44
395.005	110.44
395.229	100.44
395.454	98.44
395.678	95.44
395.903	113.44
396.127	106.44
396.352	100.44
396.576	103.44
396.801	106.44
397.025	97.44
397.249	104.44
397.474	102.44
397.698	95.44
397.922	118.44
398.147	93.44
398.371	117.44
398.595	106.44
398.82	107.44
399.044	106.44
399.268	129.44
399.492	115.44
399.717	117.44
399.941	112.44
400.165	111.44
400.389	111.44
400.613	104.44
400.837	110.44
401.062	117.44
401.286	121.44
401.51	106.44
401.734	108.44
401.958	127.44
402.182	112.44
402.406	123.44
402.63	108.44
402.854	112.44
403.078	129.44
403.302	106.44
403.526	96.44
403.75	112.44
403.974	127.44
404.198	107.44
404.422	125.44
404.645	115.44
404.869	108.44
405.093	121.44
405.317	108.44
405.541	123.44
405.765	125.44
405.988	121.44
406.212	115.44
406.436	122.44
406.66	118.44
406.883	122.44
407.107	124.44
407.331	127.44
407.555	119.44
407.778	119.44
408.002	122.44
408.226	121.44
408.449	111.44
408.673	119.44
408.896	109.44
409.12	99.44
409.344	111.44
409.567	124.44
409.791	125.44
410.014	115.44
410.238	118.44
410.461	116.44
410.685	118.44
410.908	108.44
411.132	123.44
411.355	123.44
411.578	125.44
411.802	132.44
412.025	131.44
412.249	113.44
412.472	118.44
412.695	125.44
412.919	118.44
413.142	118.44
413.365	124.44
413.589	116.44
413.812	117.44
414.035	117.44
414.258	129.44
414.482	130.44
414.705	109.44
414.928	127.44
415.151	122.44
415.374	130.44
415.597	112.44
415.821	128.44
416.044	104.44
416.267	127.44
416.49	121.44
416.713	126.44
416.936	115.44
417.159	121.44
417.382	116.44
417.605	123.44
417.828	140.44
418.051	142.44
418.274	125.44
418.497	139.44
418.72	133.44
418.943	121.44
419.166	132.44
419.389	127.44
419.611	131.44
419.834	143.44
420.057	148.44
420.28	127.44
420.503	119.44
420.726	135.44
420.948	129.44
421.171	139.44
421.394	146.44
421.617	136.44
421.839	155.44
422.062	127.44
422.285	115.44
422.507	125.44
422.73	127.44
422.953	143.44
423.175	127.44
423.398	124.44
423.621	112.44
423.843	125.44
424.066	131.44
424.288	140.44
424.511	124.44
424.733	143.44
424.956	147.44
425.178	152.44
425.401	138.44
425.623	125.44
425.846	133.44
426.068	149.44
426.291	129.44
426.513	137.44
426.735	130.44
426.958	134.44
427.18	154.44
427.402	133.44
427.625	136.44
427.847	125.44
428.069	131.44
428.292	108.44
428.514	133.44
428.736	118.44
428.958	120.44
429.181	123.44
429.403	127.44
429.625	134.44
429.847	151.44
430.069	139.44
430.292	134.44
430.514	123.44
430.736	121.44
430.958	118.44
431.18	116.44
431.402	115.44
431.624	112.44
431.846	108.44
432.068	97.44
432.29	92.44
432.512	116.44
432.734	124.44
432.956	126.44
433.178	147.44
433.4	138.44
433.622	138.44
433.844	140.44
434.066	121.44
434.287	95.44
434.509	117.44
434.731	89.44
434.953	116.44
435.175	133.44
435.397	113.44
435.618	129.44
435.84	104.44
436.062	119.44
436.284	121.44
436.505	127.44
436.727	133.44
436.949	128.44
437.17	135.44
437.392	122.44
437.614	135.44
437.835	115.44
438.057	133.44
438.278	121.44
438.5	124.44
438.721	116.44
438.943	123.44
439.165	131.44
439.386	133.44
439.608	131.44
439.829	135.44
440.05	144.44
440.272	160.44
440.493	150.44
440.715	139.44
440.936	141.44
441.158	135.44
441.379	135.44
441.6	140.44
441.822	139.44
442.043	140.44
442.264	141.44
442.486	148.44
442.707	146.44
442.928	138.44
443.149	139.44
443.371	141.44
443.592	125.44
443.813	127.44
444.034	127.44
444.255	138.44
444.476	135.44
444.698	128.44
444.919	144.44
445.14	275.44
445.361	211.44
445.582	160.44
445.803	135.44
446.024	147.44
446.245	137.44
446.466	150.44
446.687	160.44
446.908	157.44
447.129	150.44
447.35	156.44
447.571	135.44
447.792	135.44
448.013	138.44
448.234	139.44
448.455	147.44
448.675	149.44
448.896	140.44
449.117	143.44
449.338	139.44
449.559	142.44
449.779	128.44
450	137.44
450.221	143.44
450.442	143.44
450.662	145.44
450.883	153.44
451.104	137.44
451.324	132.44
451.545	134.44
451.766	127.44
451.986	135.44
452.207	133.44
452.428	125.44
452.648	117.44
452.869	128.44
453.089	113.44
453.31	109.44
453.53	108.44
453.751	104.44
453.971	107.44
454.192	108.44
454.412	105.44
454.633	106.44
454.853	115.44
455.073	109.44
455.294	109.44
455.514	131.44
455.734	115.44
455.955	115.44
456.175	126.44
456.395	109.44
456.616	127.44
456.836	123.44
457.056	111.44
457.276	101.44
457.497	111.44
457.717	106.44
457.937	118.44
458.157	94.44
458.377	82.44
458.598	108.44
458.818	103.44
459.038	97.44
459.258	100.44
459.478	97.44
459.698	88.44
459.918	108.44
460.138	110.44
460.358	125.44
460.578	128.44
460.798	108.44
461.018	115.44
461.238	121.44
461.458	117.44
461.678	105.44
461.898	124.44
462.118	108.44
462.338	117.44
462.558	119.44
462.777	117.44
462.997	112.44
463.217	115.44
463.437	110.44
463.657	102.44
463.876	106.44
464.096	104.44
464.316	103.44
464.536	109.44
464.755	111.44
464.975	114.44
465.195	121.44
465.414	102.44
465.634	106.44
465.854	128.44
466.073	115.44
466.293	104.44
466.512	131.44
466.732	145.44
466.951	137.44
467.171	141.44
467.391	135.44
467.61	149.44
467.829	133.44
468.049	149.44
468.268	127.44
468.488	129.44
468.707	142.44
468.927	134.44
469.146	135.44
469.365	146.44
469.585	145.44
469.804	141.44
470.023	141.44
470.243	128.44
470.462	139.44
470.681	138.44
470.901	144.44
471.12	135.44
471.339	141.44
471.558	146.44
471.777	153.44
471.997	143.44
472.216	129.44
472.435	117.44
472.654	100.44
472.873	106.44
473.092	119.44
473.311	122.44
473.53	139.44
473.749	135.44
473.968	118.44
474.187	124.44
474.406	107.44
474.625	129.44
474.844	128.44
475.063	125.44
475.282	126.44
475.501	119.44
475.72	126.44
475.939	149.44
476.158	136.44
476.377	124.44
476.596	126.44
476.814	123.44
477.033	111.44
477.252	121.44
477.471	131.44
477.69	137.44
477.908	133.44
478.127	144.44
478.346	135.44
478.564	132.44
478.783	125.44
479.002	130.44
479.22	139.44
479.439	121.44
479.658	113.44
479.876	122.44
480.095	115.44
480.313	113.44
480.532	121.44
480.751	115.44
480.969	101.44
481.188	111.44
481.406	85.44
481.624	93.44
481.843	78.44
482.061	91.44
482.28	123.44
482.498	116.44
482.717	119.44
482.935	123.44
483.153	139.44
483.372	148.44
483.59	149.44
483.808	144.44
484.027	133.44
484.245	145.44
484.463	136.44
484.681	152.44
484.9	152.44
485.118	143.44
485.336	123.44
485.554	124.44
485.772	109.44
485.99	106.44
486.209	124.44
486.427	117.44
486.645	115.44
486.863	145.44
487.081	131.44
487.299	128.44
487.517	133.44
487.735	161.44
487.953	187.44
488.171	175.44
488.389	161.44
488.607	151.44
488.825	136.44
489.043	130.44
489.261	143.44
489.479	132.44
489.696	143.44
489.914	143.44
490.132	139.44
490.35	147.44
490.568	153.44
490.786	169.44
491.003	159.44
491.221	185.44
491.439	187.44
491.657	171.44
491.874	205.44
492.092	206.44
492.31	224.44
492.527	233.44
492.745	188.44
492.963	183.44
493.18	205.44
493.398	195.44
493.615	186.44
493.833	179.44
494.05	183.44
494.268	173.44
494.485	177.44
494.703	165.44
494.92	177.44
495.138	182.44
495.355	171.44
495.573	171.44
495.79	159.44
496.008	164.44
496.225	169.44
496.442	154.44
496.66	160.44
496.877	165.44
497.094	177.44
497.312	151.44
497.529	159.44
497.746	150.44
497.963	140.44
498.181	141.44
498.398	107.44
498.615	115.44
498.832	117.44
499.049	112.44
499.267	103.44
499.484	127.44
499.701	143.44
499.918	131.44
500.135	141.44
500.352	144.44
500.569	145.44
500.786	134.44
501.003	135.44
501.22	128.44
501.437	138.44
501.654	149.44
501.871	131.44
502.088	121.44
502.305	125.44
502.522	137.44
502.739	127.44
502.956	137.44
503.172	123.44
503.389	134.44
503.606	129.44
503.823	118.44
504.04	109.44
504.256	115.44
504.473	121.44
504.69	123.44
504.907	123.44
505.123	106.44
505.34	115.44
505.557	111.44
505.773	111.44
505.99	115.44
506.207	117.44
506.423	127.44
506.64	122.44
506.856	119.44
507.073	120.44
507.289	129.44
507.506	116.44
507.722	111.44
507.939	113.44
508.155	120.44
508.372	107.44
508.588	125.44
508.805	125.44
509.021	106.44
509.238	115.44
509.454	101.44
509.67	115.44
509.887	98.44
510.103	99.44
510.319	89.44
510.536	97.44
510.752	94.44
510.968	91.44
511.184	91.44
511.401	89.44
