Data from Location1.07152019.Energy5.Lamp.07192019.3%Agarose_HRD10591_14-30-39-015.txt Node
Date: Fri Jul 19 14:30:39 EDT 2019
User: cochatt
Spectrometer: HR+D1059
Trigger mode: 1
Integration Time (sec): 1.000000E-1
Scans to average: 1
Electric dark correction enabled: true
Nonlinearity correction enabled: false
Boxcar width: 0
XAxis mode: Wavelengths
Number of Pixels in Spectrum: 2048
>>>>>Begin Spectral Data<<<<<
223.165	-9.31
223.4	-9.31
223.635	-9.31
223.869	-19.31
224.104	-12.31
224.338	-8.31
224.573	-19.31
224.808	-35.31
225.042	-12.31
225.277	-0.31
225.511	-0.31
225.746	-7.31
225.98	4.69
226.215	19.69
226.449	10.69
226.683	33.69
226.918	36.69
227.152	18.69
227.387	36.69
227.621	38.69
227.856	33.69
228.09	32.69
228.324	45.69
228.559	54.69
228.793	62.69
229.027	63.69
229.262	54.69
229.496	60.69
229.73	70.69
229.964	64.69
230.199	75.69
230.433	70.69
230.667	77.69
230.901	81.69
231.136	92.69
231.37	71.69
231.604	76.69
231.838	78.69
232.072	72.69
232.306	83.69
232.541	100.69
232.775	91.69
233.009	84.69
233.243	87.69
233.477	86.69
233.711	87.69
233.945	81.69
234.179	90.69
234.413	69.69
234.647	92.69
234.881	78.69
235.115	62.69
235.349	92.69
235.583	78.69
235.817	74.69
236.051	87.69
236.285	71.69
236.519	74.69
236.753	83.69
236.987	74.69
237.221	80.69
237.455	68.69
237.689	75.69
237.922	72.69
238.156	75.69
238.39	77.69
238.624	84.69
238.858	77.69
239.091	76.69
239.325	79.69
239.559	82.69
239.793	77.69
240.027	75.69
240.26	65.69
240.494	75.69
240.728	72.69
240.961	63.69
241.195	81.69
241.429	69.69
241.662	76.69
241.896	77.69
242.13	72.69
242.363	53.69
242.597	76.69
242.83	70.69
243.064	81.69
243.298	71.69
243.531	77.69
243.765	87.69
243.998	87.69
244.232	79.69
244.465	80.69
244.699	64.69
244.932	73.69
245.166	79.69
245.399	77.69
245.633	65.69
245.866	78.69
246.099	73.69
246.333	67.69
246.566	72.69
246.8	74.69
247.033	87.69
247.266	84.69
247.5	75.69
247.733	83.69
247.966	74.69
248.2	76.69
248.433	89.69
248.666	75.69
248.899	77.69
249.133	76.69
249.366	79.69
249.599	90.69
249.832	82.69
250.066	84.69
250.299	70.69
250.532	72.69
250.765	93.69
250.998	87.69
251.231	77.69
251.465	82.69
251.698	76.69
251.931	83.69
252.164	78.69
252.397	79.69
252.63	84.69
252.863	67.69
253.096	84.69
253.329	87.69
253.562	84.69
253.795	81.69
254.028	73.69
254.261	79.69
254.494	72.69
254.727	77.69
254.96	86.69
255.193	78.69
255.426	61.69
255.659	65.69
255.892	77.69
256.124	83.69
256.357	76.69
256.59	77.69
256.823	84.69
257.056	79.69
257.289	78.69
257.521	74.69
257.754	62.69
257.987	91.69
258.22	62.69
258.452	76.69
258.685	70.69
258.918	80.69
259.151	79.69
259.383	89.69
259.616	79.69
259.849	85.69
260.081	81.69
260.314	72.69
260.547	88.69
260.779	70.69
261.012	63.69
261.244	79.69
261.477	90.69
261.71	78.69
261.942	71.69
262.175	77.69
262.407	82.69
262.64	93.69
262.872	82.69
263.105	97.69
263.337	94.69
263.57	71.69
263.802	72.69
264.035	70.69
264.267	79.69
264.499	82.69
264.732	75.69
264.964	74.69
265.197	86.69
265.429	91.69
265.661	95.69
265.894	79.69
266.126	85.69
266.358	90.69
266.591	87.69
266.823	90.69
267.055	82.69
267.287	79.69
267.52	76.69
267.752	81.69
267.984	90.69
268.216	85.69
268.448	85.69
268.681	66.69
268.913	81.69
269.145	81.69
269.377	75.69
269.609	79.69
269.841	75.69
270.073	89.69
270.306	87.69
270.538	87.69
270.77	79.69
271.002	77.69
271.234	70.69
271.466	70.69
271.698	75.69
271.93	85.69
272.162	82.69
272.394	80.69
272.626	85.69
272.858	80.69
273.09	87.69
273.322	86.69
273.553	79.69
273.785	89.69
274.017	84.69
274.249	78.69
274.481	89.69
274.713	78.69
274.945	80.69
275.176	90.69
275.408	72.69
275.64	71.69
275.872	74.69
276.104	86.69
276.335	92.69
276.567	88.69
276.799	78.69
277.031	82.69
277.262	91.69
277.494	77.69
277.726	88.69
277.957	82.69
278.189	65.69
278.421	85.69
278.652	90.69
278.884	82.69
279.115	81.69
279.347	88.69
279.579	89.69
279.81	79.69
280.042	90.69
280.273	84.69
280.505	101.69
280.736	87.69
280.968	79.69
281.199	87.69
281.431	103.69
281.662	69.69
281.894	89.69
282.125	92.69
282.356	68.69
282.588	81.69
282.819	78.69
283.051	71.69
283.282	83.69
283.513	95.69
283.745	80.69
283.976	77.69
284.207	78.69
284.439	76.69
284.67	82.69
284.901	76.69
285.132	90.69
285.364	89.69
285.595	93.69
285.826	79.69
286.057	84.69
286.288	75.69
286.52	86.69
286.751	83.69
286.982	75.69
287.213	93.69
287.444	87.69
287.675	85.69
287.906	101.69
288.138	77.69
288.369	92.69
288.6	94.69
288.831	84.69
289.062	84.69
289.293	84.69
289.524	78.69
289.755	72.69
289.986	87.69
290.217	80.69
290.448	73.69
290.679	88.69
290.91	91.69
291.141	80.69
291.371	70.69
291.602	89.69
291.833	89.69
292.064	70.69
292.295	77.69
292.526	71.69
292.757	74.69
292.987	84.69
293.218	81.69
293.449	99.69
293.68	88.69
293.91	75.69
294.141	92.69
294.372	80.69
294.603	93.69
294.833	80.69
295.064	83.69
295.295	78.69
295.525	65.69
295.756	94.69
295.987	91.69
296.217	90.69
296.448	74.69
296.679	77.69
296.909	90.69
297.14	98.69
297.37	85.69
297.601	84.69
297.831	82.69
298.062	92.69
298.292	75.69
298.523	70.69
298.753	88.69
298.984	89.69
299.214	85.69
299.445	95.69
299.675	92.69
299.905	87.69
300.136	82.69
300.366	90.69
300.597	85.69
300.827	87.69
301.057	88.69
301.288	75.69
301.518	79.69
301.748	94.69
301.979	91.69
302.209	84.69
302.439	83.69
302.669	78.69
302.9	91.69
303.13	86.69
303.36	72.69
303.59	79.69
303.82	74.69
304.051	94.69
304.281	82.69
304.511	78.69
304.741	86.69
304.971	79.69
305.201	92.69
305.431	80.69
305.661	93.69
305.891	83.69
306.121	85.69
306.352	76.69
306.582	102.69
306.812	74.69
307.042	78.69
307.272	82.69
307.502	89.69
307.731	84.69
307.961	93.69
308.191	79.69
308.421	80.69
308.651	75.69
308.881	97.69
309.111	78.69
309.341	86.69
309.571	89.69
309.8	90.69
310.03	85.69
310.26	80.69
310.49	90.69
310.72	79.69
310.949	69.69
311.179	94.69
311.409	93.69
311.639	91.69
311.868	84.69
312.098	72.69
312.328	106.69
312.557	86.69
312.787	89.69
313.017	76.69
313.246	81.69
313.476	84.69
313.706	85.69
313.935	90.69
314.165	98.69
314.394	82.69
314.624	82.69
314.853	84.69
315.083	73.69
315.312	85.69
315.542	85.69
315.771	91.69
316.001	85.69
316.23	80.69
316.46	84.69
316.689	82.69
316.919	89.69
317.148	75.69
317.377	93.69
317.607	77.69
317.836	89.69
318.065	82.69
318.295	81.69
318.524	82.69
318.753	77.69
318.983	79.69
319.212	69.69
319.441	102.69
319.67	84.69
319.9	95.69
320.129	79.69
320.358	88.69
320.587	81.69
320.816	89.69
321.046	95.69
321.275	75.69
321.504	81.69
321.733	74.69
321.962	97.69
322.191	84.69
322.42	87.69
322.649	76.69
322.878	99.69
323.108	90.69
323.337	86.69
323.566	76.69
323.795	79.69
324.024	96.69
324.253	88.69
324.482	89.69
324.71	82.69
324.939	84.69
325.168	89.69
325.397	92.69
325.626	86.69
325.855	83.69
326.084	97.69
326.313	89.69
326.542	89.69
326.77	91.69
326.999	86.69
327.228	87.69
327.457	83.69
327.686	90.69
327.914	77.69
328.143	90.69
328.372	78.69
328.6	86.69
328.829	76.69
329.058	87.69
329.287	90.69
329.515	73.69
329.744	82.69
329.972	81.69
330.201	90.69
330.43	77.69
330.658	86.69
330.887	93.69
331.115	73.69
331.344	85.69
331.572	89.69
331.801	76.69
332.03	100.69
332.258	68.69
332.486	84.69
332.715	91.69
332.943	81.69
333.172	82.69
333.4	84.69
333.629	90.69
333.857	80.69
334.085	79.69
334.314	100.69
334.542	83.69
334.771	73.69
334.999	84.69
335.227	72.69
335.455	74.69
335.684	94.69
335.912	95.69
336.14	90.69
336.369	94.69
336.597	83.69
336.825	96.69
337.053	88.69
337.281	87.69
337.51	92.69
337.738	86.69
337.966	94.69
338.194	81.69
338.422	72.69
338.65	93.69
338.878	88.69
339.106	79.69
339.334	102.69
339.562	91.69
339.79	77.69
340.018	79.69
340.246	76.69
340.474	95.69
340.702	66.69
340.93	79.69
341.158	75.69
341.386	86.69
341.614	76.69
341.842	76.69
342.07	78.69
342.298	74.69
342.526	80.69
342.754	77.69
342.981	93.69
343.209	80.69
343.437	97.69
343.665	68.69
343.893	90.69
344.12	88.69
344.348	86.69
344.576	76.69
344.804	77.69
345.031	89.69
345.259	85.69
345.487	97.69
345.714	73.69
345.942	87.69
346.17	87.69
346.397	73.69
346.625	61.69
346.853	81.69
347.08	67.69
347.308	78.69
347.535	95.69
347.763	86.69
347.99	68.69
348.218	81.69
348.445	87.69
348.673	81.69
348.9	91.69
349.128	86.69
349.355	82.69
349.583	74.69
349.81	93.69
350.037	77.69
350.265	89.69
350.492	75.69
350.72	86.69
350.947	78.69
351.174	73.69
351.402	84.69
351.629	93.69
351.856	78.69
352.083	75.69
352.311	92.69
352.538	88.69
352.765	99.69
352.992	75.69
353.22	88.69
353.447	88.69
353.674	70.69
353.901	70.69
354.128	83.69
354.355	83.69
354.583	94.69
354.81	85.69
355.037	74.69
355.264	86.69
355.491	79.69
355.718	82.69
355.945	92.69
356.172	94.69
356.399	87.69
356.626	79.69
356.853	77.69
357.08	87.69
357.307	65.69
357.534	76.69
357.761	80.69
357.988	95.69
358.215	78.69
358.441	77.69
358.668	81.69
358.895	82.69
359.122	75.69
359.349	76.69
359.576	69.69
359.802	73.69
360.029	83.69
360.256	73.69
360.483	79.69
360.709	86.69
360.936	86.69
361.163	78.69
361.39	86.69
361.616	77.69
361.843	72.69
362.07	89.69
362.296	72.69
362.523	75.69
362.749	73.69
362.976	85.69
363.203	91.69
363.429	80.69
363.656	80.69
363.882	73.69
364.109	73.69
364.335	74.69
364.562	79.69
364.788	77.69
365.015	75.69
365.241	73.69
365.468	90.69
365.694	78.69
365.92	77.69
366.147	84.69
366.373	84.69
366.599	93.69
366.826	83.69
367.052	85.69
367.278	82.69
367.505	84.69
367.731	76.69
367.957	83.69
368.184	89.69
368.41	100.69
368.636	101.69
368.862	77.69
369.089	82.69
369.315	67.69
369.541	100.69
369.767	82.69
369.993	93.69
370.219	85.69
370.445	101.69
370.672	79.69
370.898	93.69
371.124	84.69
371.35	83.69
371.576	83.69
371.802	78.69
372.028	95.69
372.254	82.69
372.48	78.69
372.706	84.69
372.932	78.69
373.158	81.69
373.384	81.69
373.61	81.69
373.835	94.69
374.061	79.69
374.287	89.69
374.513	92.69
374.739	93.69
374.965	78.69
375.191	83.69
375.416	78.69
375.642	101.69
375.868	100.69
376.094	86.69
376.319	91.69
376.545	88.69
376.771	79.69
376.997	92.69
377.222	87.69
377.448	103.69
377.674	102.69
377.899	90.69
378.125	100.69
378.35	99.69
378.576	101.69
378.802	103.69
379.027	99.69
379.253	110.69
379.478	100.69
379.704	99.69
379.929	95.69
380.155	109.69
380.38	108.69
380.606	82.69
380.831	110.69
381.057	104.69
381.282	85.69
381.507	96.69
381.733	93.69
381.958	113.69
382.184	97.69
382.409	89.69
382.634	100.69
382.86	85.69
383.085	100.69
383.31	95.69
383.535	100.69
383.761	83.69
383.986	98.69
384.211	105.69
384.436	93.69
384.662	86.69
384.887	90.69
385.112	73.69
385.337	109.69
385.562	104.69
385.787	79.69
386.013	93.69
386.238	100.69
386.463	92.69
386.688	113.69
386.913	93.69
387.138	89.69
387.363	96.69
387.588	99.69
387.813	98.69
388.038	94.69
388.263	110.69
388.488	103.69
388.713	100.69
388.938	101.69
389.163	94.69
389.387	102.69
389.612	92.69
389.837	99.69
390.062	105.69
390.287	107.69
390.512	107.69
390.736	96.69
390.961	95.69
391.186	116.69
391.411	98.69
391.636	107.69
391.86	95.69
392.085	94.69
392.31	93.69
392.534	95.69
392.759	93.69
392.984	99.69
393.208	86.69
393.433	98.69
393.658	104.69
393.882	101.69
394.107	93.69
394.331	103.69
394.556	109.69
394.78	86.69
395.005	92.69
395.229	122.69
395.454	102.69
395.678	113.69
395.903	121.69
396.127	106.69
396.352	106.69
396.576	102.69
396.801	122.69
397.025	110.69
397.249	97.69
397.474	115.69
397.698	107.69
397.922	113.69
398.147	105.69
398.371	107.69
398.595	101.69
398.82	103.69
399.044	102.69
399.268	102.69
399.492	104.69
399.717	104.69
399.941	93.69
400.165	103.69
400.389	108.69
400.613	98.69
400.837	111.69
401.062	108.69
401.286	117.69
401.51	107.69
401.734	117.69
401.958	95.69
402.182	113.69
402.406	106.69
402.63	103.69
402.854	103.69
403.078	126.69
403.302	122.69
403.526	99.69
403.75	104.69
403.974	126.69
404.198	141.69
404.422	108.69
404.645	107.69
404.869	125.69
405.093	115.69
405.317	105.69
405.541	115.69
405.765	116.69
405.988	115.69
406.212	110.69
406.436	113.69
406.66	117.69
406.883	123.69
407.107	126.69
407.331	115.69
407.555	109.69
407.778	115.69
408.002	115.69
408.226	123.69
408.449	108.69
408.673	119.69
408.896	106.69
409.12	115.69
409.344	133.69
409.567	104.69
409.791	108.69
410.014	119.69
410.238	102.69
410.461	122.69
410.685	111.69
410.908	101.69
411.132	131.69
411.355	122.69
411.578	123.69
411.802	119.69
412.025	115.69
412.249	116.69
412.472	113.69
412.695	125.69
412.919	107.69
413.142	107.69
413.365	131.69
413.589	125.69
413.812	110.69
414.035	115.69
414.258	125.69
414.482	129.69
414.705	130.69
414.928	118.69
415.151	121.69
415.374	109.69
415.597	124.69
415.821	121.69
416.044	123.69
416.267	138.69
416.49	117.69
416.713	116.69
416.936	135.69
417.159	101.69
417.382	122.69
417.605	125.69
417.828	103.69
418.051	129.69
418.274	137.69
418.497	132.69
418.72	126.69
418.943	139.69
419.166	133.69
419.389	124.69
419.611	137.69
419.834	129.69
420.057	119.69
420.28	137.69
420.503	117.69
420.726	124.69
420.948	131.69
421.171	126.69
421.394	144.69
421.617	121.69
421.839	142.69
422.062	139.69
422.285	134.69
422.507	140.69
422.73	125.69
422.953	119.69
423.175	121.69
423.398	130.69
423.621	128.69
423.843	115.69
424.066	139.69
424.288	127.69
424.511	140.69
424.733	145.69
424.956	136.69
425.178	127.69
425.401	121.69
425.623	131.69
425.846	115.69
426.068	138.69
426.291	127.69
426.513	126.69
426.735	134.69
426.958	120.69
427.18	111.69
427.402	135.69
427.625	132.69
427.847	128.69
428.069	110.69
428.292	122.69
428.514	110.69
428.736	131.69
428.958	129.69
429.181	119.69
429.403	119.69
429.625	142.69
429.847	126.69
430.069	124.69
430.292	136.69
430.514	138.69
430.736	116.69
430.958	123.69
431.18	131.69
431.402	117.69
431.624	124.69
431.846	116.69
432.068	102.69
432.29	90.69
432.512	109.69
432.734	113.69
432.956	113.69
433.178	130.69
433.4	138.69
433.622	136.69
433.844	130.69
434.066	131.69
434.287	107.69
434.509	87.69
434.731	98.69
434.953	107.69
435.175	104.69
435.397	118.69
435.618	123.69
435.84	114.69
436.062	109.69
436.284	113.69
436.505	125.69
436.727	121.69
436.949	122.69
437.17	123.69
437.392	120.69
437.614	121.69
437.835	125.69
438.057	106.69
438.278	121.69
438.5	122.69
438.721	125.69
438.943	135.69
439.165	138.69
439.386	131.69
439.608	129.69
439.829	145.69
440.05	127.69
440.272	136.69
440.493	141.69
440.715	136.69
440.936	146.69
441.158	148.69
441.379	139.69
441.6	131.69
441.822	138.69
442.043	141.69
442.264	140.69
442.486	134.69
442.707	144.69
442.928	139.69
443.149	147.69
443.371	129.69
443.592	133.69
443.813	132.69
444.034	143.69
444.255	133.69
444.476	130.69
444.698	140.69
444.919	133.69
445.14	277.69
445.361	207.69
445.582	141.69
445.803	141.69
446.024	139.69
446.245	150.69
446.466	139.69
446.687	143.69
446.908	140.69
447.129	153.69
447.35	153.69
447.571	140.69
447.792	132.69
448.013	144.69
448.234	141.69
448.455	135.69
448.675	140.69
448.896	126.69
449.117	130.69
449.338	131.69
449.559	129.69
449.779	130.69
450	140.69
450.221	122.69
450.442	128.69
450.662	139.69
450.883	137.69
451.104	130.69
451.324	126.69
451.545	114.69
451.766	111.69
451.986	133.69
452.207	133.69
452.428	128.69
452.648	118.69
452.869	109.69
453.089	107.69
453.31	111.69
453.53	91.69
453.751	94.69
453.971	102.69
454.192	118.69
454.412	97.69
454.633	95.69
454.853	109.69
455.073	116.69
455.294	116.69
455.514	119.69
455.734	106.69
455.955	113.69
456.175	110.69
456.395	97.69
456.616	101.69
456.836	123.69
457.056	110.69
457.276	97.69
457.497	98.69
457.717	111.69
457.937	110.69
458.157	102.69
458.377	106.69
458.598	102.69
458.818	82.69
459.038	86.69
459.258	79.69
459.478	90.69
459.698	91.69
459.918	97.69
460.138	95.69
460.358	102.69
460.578	106.69
460.798	114.69
461.018	107.69
461.238	117.69
461.458	108.69
461.678	115.69
461.898	113.69
462.118	109.69
462.338	116.69
462.558	120.69
462.777	117.69
462.997	101.69
463.217	110.69
463.437	113.69
463.657	113.69
463.876	105.69
464.096	111.69
464.316	104.69
464.536	122.69
464.755	132.69
464.975	97.69
465.195	117.69
465.414	103.69
465.634	128.69
465.854	112.69
466.073	122.69
466.293	128.69
466.512	141.69
466.732	114.69
466.951	125.69
467.171	130.69
467.391	113.69
467.61	119.69
467.829	144.69
468.049	119.69
468.268	144.69
468.488	131.69
468.707	139.69
468.927	134.69
469.146	144.69
469.365	146.69
469.585	128.69
469.804	141.69
470.023	129.69
470.243	129.69
470.462	154.69
470.681	137.69
470.901	143.69
471.12	128.69
471.339	138.69
471.558	138.69
471.777	136.69
471.997	125.69
472.216	133.69
472.435	125.69
472.654	106.69
472.873	116.69
473.092	110.69
473.311	131.69
473.53	119.69
473.749	124.69
473.968	132.69
474.187	123.69
474.406	109.69
474.625	120.69
474.844	114.69
475.063	130.69
475.282	133.69
475.501	126.69
475.72	126.69
475.939	126.69
476.158	132.69
476.377	124.69
476.596	110.69
476.814	107.69
477.033	100.69
477.252	112.69
477.471	116.69
477.69	121.69
477.908	131.69
478.127	148.69
478.346	124.69
478.564	145.69
478.783	133.69
479.002	137.69
479.22	137.69
479.439	123.69
479.658	126.69
479.876	114.69
480.095	112.69
480.313	111.69
480.532	103.69
480.751	119.69
480.969	95.69
481.188	79.69
481.406	85.69
481.624	89.69
481.843	101.69
482.061	103.69
482.28	122.69
482.498	117.69
482.717	103.69
482.935	121.69
483.153	127.69
483.372	141.69
483.59	149.69
483.808	127.69
484.027	145.69
484.245	132.69
484.463	141.69
484.681	170.69
484.9	157.69
485.118	131.69
485.336	123.69
485.554	109.69
485.772	104.69
485.99	96.69
486.209	101.69
486.427	111.69
486.645	123.69
486.863	128.69
487.081	124.69
487.299	145.69
487.517	136.69
487.735	149.69
487.953	173.69
488.171	172.69
488.389	162.69
488.607	169.69
488.825	153.69
489.043	127.69
489.261	133.69
489.479	131.69
489.696	131.69
489.914	135.69
490.132	143.69
490.35	143.69
490.568	158.69
490.786	175.69
491.003	190.69
491.221	178.69
491.439	164.69
491.657	180.69
491.874	203.69
492.092	220.69
492.31	216.69
492.527	238.69
492.745	212.69
492.963	186.69
493.18	171.69
493.398	181.69
493.615	158.69
493.833	174.69
494.05	155.69
494.268	156.69
494.485	172.69
494.703	170.69
494.92	158.69
495.138	165.69
495.355	179.69
495.573	171.69
495.79	151.69
496.008	177.69
496.225	167.69
496.442	159.69
496.66	164.69
496.877	167.69
497.094	171.69
497.312	149.69
497.529	157.69
497.746	146.69
497.963	133.69
498.181	131.69
498.398	122.69
498.615	106.69
498.832	117.69
499.049	125.69
499.267	127.69
499.484	140.69
499.701	135.69
499.918	123.69
500.135	127.69
500.352	132.69
500.569	131.69
500.786	134.69
501.003	137.69
501.22	150.69
501.437	141.69
501.654	155.69
501.871	145.69
502.088	133.69
502.305	128.69
502.522	127.69
502.739	138.69
502.956	143.69
503.172	117.69
503.389	126.69
503.606	112.69
503.823	113.69
504.04	129.69
504.256	134.69
504.473	126.69
504.69	116.69
504.907	125.69
505.123	123.69
505.34	104.69
505.557	109.69
505.773	117.69
505.99	122.69
506.207	107.69
506.423	118.69
506.64	116.69
506.856	109.69
507.073	124.69
507.289	116.69
507.506	111.69
507.722	111.69
507.939	127.69
508.155	117.69
508.372	107.69
508.588	94.69
508.805	111.69
509.021	114.69
509.238	97.69
509.454	95.69
509.67	101.69
509.887	107.69
510.103	85.69
510.319	101.69
510.536	100.69
510.752	100.69
510.968	80.69
511.184	95.69
511.401	96.69
511.617	83.69
