Data from Location1.07152019.Energy5.Lamp.07192019.3%Agarose_HRD10591_14-30-20-015.txt Node
Date: Fri Jul 19 14:30:20 EDT 2019
User: cochatt
Spectrometer: HR+D1059
Trigger mode: 1
Integration Time (sec): 1.000000E-1
Scans to average: 1
Electric dark correction enabled: true
Nonlinearity correction enabled: false
Boxcar width: 0
XAxis mode: Wavelengths
Number of Pixels in Spectrum: 2048
>>>>>Begin Spectral Data<<<<<
223.165	-16.75
223.4	-16.75
223.635	-16.75
223.869	-10.75
224.104	-21.75
224.338	-14.75
224.573	-25.75
224.808	-6.75
225.042	2.25
225.277	6.25
225.511	8.25
225.746	-8.75
225.98	-4.75
226.215	3.25
226.449	16.25
226.683	15.25
226.918	25.25
227.152	33.25
227.387	24.25
227.621	41.25
227.856	29.25
228.09	45.25
228.324	46.25
228.559	47.25
228.793	57.25
229.027	59.25
229.262	51.25
229.496	56.25
229.73	80.25
229.964	73.25
230.199	73.25
230.433	68.25
230.667	76.25
230.901	76.25
231.136	92.25
231.37	81.25
231.604	75.25
231.838	85.25
232.072	76.25
232.306	90.25
232.541	72.25
232.775	79.25
233.009	74.25
233.243	75.25
233.477	84.25
233.711	74.25
233.945	71.25
234.179	85.25
234.413	95.25
234.647	75.25
234.881	75.25
235.115	71.25
235.349	85.25
235.583	71.25
235.817	84.25
236.051	68.25
236.285	73.25
236.519	80.25
236.753	74.25
236.987	79.25
237.221	76.25
237.455	80.25
237.689	74.25
237.922	85.25
238.156	60.25
238.39	72.25
238.624	70.25
238.858	75.25
239.091	71.25
239.325	78.25
239.559	76.25
239.793	77.25
240.027	82.25
240.26	54.25
240.494	85.25
240.728	74.25
240.961	91.25
241.195	79.25
241.429	72.25
241.662	79.25
241.896	74.25
242.13	80.25
242.363	77.25
242.597	79.25
242.83	87.25
243.064	89.25
243.298	83.25
243.531	76.25
243.765	82.25
243.998	86.25
244.232	68.25
244.465	96.25
244.699	88.25
244.932	89.25
245.166	86.25
245.399	80.25
245.633	84.25
245.866	80.25
246.099	81.25
246.333	61.25
246.566	72.25
246.8	73.25
247.033	69.25
247.266	84.25
247.5	72.25
247.733	78.25
247.966	83.25
248.2	88.25
248.433	83.25
248.666	80.25
248.899	68.25
249.133	77.25
249.366	80.25
249.599	73.25
249.832	70.25
250.066	84.25
250.299	67.25
250.532	74.25
250.765	93.25
250.998	76.25
251.231	77.25
251.465	91.25
251.698	94.25
251.931	86.25
252.164	82.25
252.397	78.25
252.63	76.25
252.863	86.25
253.096	82.25
253.329	84.25
253.562	87.25
253.795	80.25
254.028	98.25
254.261	82.25
254.494	70.25
254.727	94.25
254.96	88.25
255.193	66.25
255.426	72.25
255.659	78.25
255.892	77.25
256.124	75.25
256.357	84.25
256.59	79.25
256.823	80.25
257.056	80.25
257.289	80.25
257.521	85.25
257.754	69.25
257.987	74.25
258.22	70.25
258.452	83.25
258.685	80.25
258.918	81.25
259.151	95.25
259.383	80.25
259.616	97.25
259.849	96.25
260.081	75.25
260.314	79.25
260.547	78.25
260.779	82.25
261.012	85.25
261.244	87.25
261.477	87.25
261.71	86.25
261.942	84.25
262.175	78.25
262.407	80.25
262.64	71.25
262.872	76.25
263.105	73.25
263.337	75.25
263.57	72.25
263.802	84.25
264.035	90.25
264.267	73.25
264.499	68.25
264.732	90.25
264.964	80.25
265.197	88.25
265.429	86.25
265.661	75.25
265.894	78.25
266.126	84.25
266.358	83.25
266.591	70.25
266.823	86.25
267.055	80.25
267.287	75.25
267.52	77.25
267.752	76.25
267.984	89.25
268.216	77.25
268.448	94.25
268.681	82.25
268.913	89.25
269.145	81.25
269.377	86.25
269.609	85.25
269.841	85.25
270.073	76.25
270.306	91.25
270.538	84.25
270.77	84.25
271.002	94.25
271.234	86.25
271.466	79.25
271.698	82.25
271.93	84.25
272.162	84.25
272.394	81.25
272.626	85.25
272.858	79.25
273.09	88.25
273.322	92.25
273.553	83.25
273.785	84.25
274.017	83.25
274.249	84.25
274.481	80.25
274.713	88.25
274.945	84.25
275.176	74.25
275.408	85.25
275.64	91.25
275.872	85.25
276.104	82.25
276.335	75.25
276.567	85.25
276.799	85.25
277.031	91.25
277.262	82.25
277.494	81.25
277.726	90.25
277.957	70.25
278.189	81.25
278.421	103.25
278.652	74.25
278.884	77.25
279.115	76.25
279.347	92.25
279.579	74.25
279.81	71.25
280.042	96.25
280.273	70.25
280.505	83.25
280.736	74.25
280.968	82.25
281.199	89.25
281.431	86.25
281.662	79.25
281.894	92.25
282.125	68.25
282.356	79.25
282.588	79.25
282.819	94.25
283.051	101.25
283.282	68.25
283.513	95.25
283.745	86.25
283.976	86.25
284.207	87.25
284.439	86.25
284.67	95.25
284.901	84.25
285.132	84.25
285.364	82.25
285.595	80.25
285.826	78.25
286.057	91.25
286.288	82.25
286.52	83.25
286.751	87.25
286.982	76.25
287.213	77.25
287.444	77.25
287.675	86.25
287.906	79.25
288.138	86.25
288.369	80.25
288.6	89.25
288.831	89.25
289.062	85.25
289.293	89.25
289.524	92.25
289.755	87.25
289.986	88.25
290.217	93.25
290.448	80.25
290.679	80.25
290.91	93.25
291.141	87.25
291.371	86.25
291.602	75.25
291.833	90.25
292.064	90.25
292.295	92.25
292.526	78.25
292.757	86.25
292.987	94.25
293.218	82.25
293.449	89.25
293.68	87.25
293.91	84.25
294.141	89.25
294.372	84.25
294.603	84.25
294.833	87.25
295.064	89.25
295.295	76.25
295.525	82.25
295.756	73.25
295.987	89.25
296.217	84.25
296.448	87.25
296.679	84.25
296.909	78.25
297.14	94.25
297.37	81.25
297.601	82.25
297.831	82.25
298.062	71.25
298.292	74.25
298.523	74.25
298.753	75.25
298.984	81.25
299.214	76.25
299.445	76.25
299.675	92.25
299.905	77.25
300.136	94.25
300.366	82.25
300.597	82.25
300.827	67.25
301.057	88.25
301.288	87.25
301.518	85.25
301.748	79.25
301.979	76.25
302.209	91.25
302.439	87.25
302.669	86.25
302.9	90.25
303.13	85.25
303.36	78.25
303.59	84.25
303.82	71.25
304.051	79.25
304.281	88.25
304.511	75.25
304.741	90.25
304.971	86.25
305.201	99.25
305.431	86.25
305.661	83.25
305.891	91.25
306.121	98.25
306.352	93.25
306.582	90.25
306.812	76.25
307.042	76.25
307.272	86.25
307.502	91.25
307.731	83.25
307.961	80.25
308.191	85.25
308.421	77.25
308.651	96.25
308.881	89.25
309.111	79.25
309.341	96.25
309.571	73.25
309.8	79.25
310.03	88.25
310.26	87.25
310.49	93.25
310.72	81.25
310.949	92.25
311.179	90.25
311.409	88.25
311.639	83.25
311.868	90.25
312.098	83.25
312.328	91.25
312.557	86.25
312.787	82.25
313.017	97.25
313.246	78.25
313.476	67.25
313.706	81.25
313.935	79.25
314.165	86.25
314.394	75.25
314.624	74.25
314.853	93.25
315.083	97.25
315.312	75.25
315.542	91.25
315.771	94.25
316.001	81.25
316.23	73.25
316.46	72.25
316.689	62.25
316.919	90.25
317.148	82.25
317.377	84.25
317.607	80.25
317.836	86.25
318.065	87.25
318.295	85.25
318.524	85.25
318.753	87.25
318.983	86.25
319.212	84.25
319.441	79.25
319.67	75.25
319.9	86.25
320.129	94.25
320.358	91.25
320.587	82.25
320.816	97.25
321.046	93.25
321.275	88.25
321.504	80.25
321.733	84.25
321.962	79.25
322.191	82.25
322.42	86.25
322.649	87.25
322.878	88.25
323.108	79.25
323.337	86.25
323.566	88.25
323.795	93.25
324.024	74.25
324.253	75.25
324.482	87.25
324.71	85.25
324.939	83.25
325.168	75.25
325.397	86.25
325.626	88.25
325.855	88.25
326.084	84.25
326.313	86.25
326.542	88.25
326.77	87.25
326.999	83.25
327.228	90.25
327.457	70.25
327.686	87.25
327.914	78.25
328.143	104.25
328.372	88.25
328.6	97.25
328.829	88.25
329.058	84.25
329.287	94.25
329.515	76.25
329.744	102.25
329.972	90.25
330.201	95.25
330.43	92.25
330.658	79.25
330.887	83.25
331.115	89.25
331.344	82.25
331.572	84.25
331.801	82.25
332.03	76.25
332.258	94.25
332.486	80.25
332.715	80.25
332.943	85.25
333.172	74.25
333.4	69.25
333.629	72.25
333.857	79.25
334.085	79.25
334.314	99.25
334.542	95.25
334.771	71.25
334.999	80.25
335.227	87.25
335.455	76.25
335.684	77.25
335.912	77.25
336.14	81.25
336.369	80.25
336.597	74.25
336.825	82.25
337.053	89.25
337.281	85.25
337.51	76.25
337.738	96.25
337.966	90.25
338.194	82.25
338.422	84.25
338.65	80.25
338.878	77.25
339.106	90.25
339.334	76.25
339.562	78.25
339.79	82.25
340.018	83.25
340.246	86.25
340.474	84.25
340.702	92.25
340.93	101.25
341.158	71.25
341.386	85.25
341.614	76.25
341.842	88.25
342.07	87.25
342.298	93.25
342.526	86.25
342.754	79.25
342.981	76.25
343.209	87.25
343.437	88.25
343.665	81.25
343.893	70.25
344.12	90.25
344.348	89.25
344.576	71.25
344.804	82.25
345.031	90.25
345.259	78.25
345.487	101.25
345.714	88.25
345.942	83.25
346.17	71.25
346.397	87.25
346.625	91.25
346.853	100.25
347.08	90.25
347.308	86.25
347.535	76.25
347.763	82.25
347.99	86.25
348.218	88.25
348.445	65.25
348.673	72.25
348.9	76.25
349.128	88.25
349.355	72.25
349.583	83.25
349.81	83.25
350.037	88.25
350.265	106.25
350.492	76.25
350.72	90.25
350.947	85.25
351.174	88.25
351.402	84.25
351.629	77.25
351.856	93.25
352.083	75.25
352.311	88.25
352.538	89.25
352.765	85.25
352.992	83.25
353.22	75.25
353.447	84.25
353.674	82.25
353.901	74.25
354.128	89.25
354.355	84.25
354.583	91.25
354.81	93.25
355.037	91.25
355.264	76.25
355.491	91.25
355.718	67.25
355.945	87.25
356.172	70.25
356.399	75.25
356.626	82.25
356.853	84.25
357.08	80.25
357.307	88.25
357.534	75.25
357.761	76.25
357.988	92.25
358.215	79.25
358.441	73.25
358.668	71.25
358.895	85.25
359.122	97.25
359.349	82.25
359.576	73.25
359.802	93.25
360.029	84.25
360.256	81.25
360.483	89.25
360.709	87.25
360.936	99.25
361.163	77.25
361.39	86.25
361.616	72.25
361.843	71.25
362.07	80.25
362.296	76.25
362.523	77.25
362.749	80.25
362.976	86.25
363.203	83.25
363.429	89.25
363.656	77.25
363.882	68.25
364.109	86.25
364.335	92.25
364.562	94.25
364.788	86.25
365.015	80.25
365.241	76.25
365.468	92.25
365.694	88.25
365.92	76.25
366.147	81.25
366.373	79.25
366.599	84.25
366.826	87.25
367.052	83.25
367.278	89.25
367.505	94.25
367.731	90.25
367.957	91.25
368.184	85.25
368.41	97.25
368.636	84.25
368.862	83.25
369.089	73.25
369.315	83.25
369.541	91.25
369.767	84.25
369.993	87.25
370.219	87.25
370.445	80.25
370.672	91.25
370.898	89.25
371.124	86.25
371.35	86.25
371.576	80.25
371.802	95.25
372.028	88.25
372.254	94.25
372.48	107.25
372.706	99.25
372.932	84.25
373.158	95.25
373.384	102.25
373.61	82.25
373.835	102.25
374.061	92.25
374.287	75.25
374.513	99.25
374.739	85.25
374.965	97.25
375.191	93.25
375.416	93.25
375.642	94.25
375.868	72.25
376.094	84.25
376.319	93.25
376.545	110.25
376.771	98.25
376.997	87.25
377.222	80.25
377.448	91.25
377.674	88.25
377.899	107.25
378.125	107.25
378.35	93.25
378.576	82.25
378.802	95.25
379.027	84.25
379.253	96.25
379.478	94.25
379.704	98.25
379.929	96.25
380.155	98.25
380.38	87.25
380.606	100.25
380.831	95.25
381.057	106.25
381.282	105.25
381.507	99.25
381.733	91.25
381.958	91.25
382.184	92.25
382.409	97.25
382.634	88.25
382.86	87.25
383.085	92.25
383.31	104.25
383.535	103.25
383.761	94.25
383.986	94.25
384.211	95.25
384.436	91.25
384.662	96.25
384.887	98.25
385.112	97.25
385.337	98.25
385.562	99.25
385.787	85.25
386.013	102.25
386.238	98.25
386.463	105.25
386.688	90.25
386.913	97.25
387.138	104.25
387.363	101.25
387.588	105.25
387.813	100.25
388.038	106.25
388.263	88.25
388.488	95.25
388.713	117.25
388.938	108.25
389.163	95.25
389.387	95.25
389.612	109.25
389.837	106.25
390.062	96.25
390.287	116.25
390.512	101.25
390.736	106.25
390.961	84.25
391.186	98.25
391.411	94.25
391.636	104.25
391.86	89.25
392.085	98.25
392.31	105.25
392.534	104.25
392.759	106.25
392.984	92.25
393.208	97.25
393.433	105.25
393.658	103.25
393.882	108.25
394.107	112.25
394.331	106.25
394.556	107.25
394.78	106.25
395.005	122.25
395.229	116.25
395.454	108.25
395.678	112.25
395.903	99.25
396.127	110.25
396.352	103.25
396.576	112.25
396.801	110.25
397.025	127.25
397.249	112.25
397.474	123.25
397.698	100.25
397.922	103.25
398.147	106.25
398.371	91.25
398.595	107.25
398.82	107.25
399.044	116.25
399.268	120.25
399.492	108.25
399.717	120.25
399.941	108.25
400.165	122.25
400.389	104.25
400.613	108.25
400.837	109.25
401.062	135.25
401.286	103.25
401.51	119.25
401.734	102.25
401.958	126.25
402.182	106.25
402.406	102.25
402.63	107.25
402.854	98.25
403.078	104.25
403.302	115.25
403.526	112.25
403.75	116.25
403.974	125.25
404.198	110.25
404.422	123.25
404.645	117.25
404.869	110.25
405.093	119.25
405.317	104.25
405.541	110.25
405.765	100.25
405.988	111.25
406.212	123.25
406.436	105.25
406.66	125.25
406.883	118.25
407.107	132.25
407.331	109.25
407.555	118.25
407.778	101.25
408.002	107.25
408.226	108.25
408.449	119.25
408.673	111.25
408.896	122.25
409.12	122.25
409.344	120.25
409.567	108.25
409.791	116.25
410.014	120.25
410.238	125.25
410.461	116.25
410.685	120.25
410.908	133.25
411.132	122.25
411.355	114.25
411.578	106.25
411.802	120.25
412.025	134.25
412.249	118.25
412.472	120.25
412.695	111.25
412.919	118.25
413.142	126.25
413.365	120.25
413.589	123.25
413.812	115.25
414.035	109.25
414.258	116.25
414.482	127.25
414.705	105.25
414.928	126.25
415.151	119.25
415.374	112.25
415.597	123.25
415.821	133.25
416.044	122.25
416.267	124.25
416.49	126.25
416.713	131.25
416.936	134.25
417.159	143.25
417.382	132.25
417.605	111.25
417.828	118.25
418.051	120.25
418.274	126.25
418.497	122.25
418.72	149.25
418.943	117.25
419.166	136.25
419.389	128.25
419.611	135.25
419.834	124.25
420.057	134.25
420.28	119.25
420.503	126.25
420.726	126.25
420.948	125.25
421.171	126.25
421.394	116.25
421.617	128.25
421.839	140.25
422.062	128.25
422.285	142.25
422.507	127.25
422.73	126.25
422.953	119.25
423.175	122.25
423.398	135.25
423.621	134.25
423.843	125.25
424.066	135.25
424.288	140.25
424.511	138.25
424.733	144.25
424.956	145.25
425.178	143.25
425.401	146.25
425.623	142.25
425.846	141.25
426.068	126.25
426.291	115.25
426.513	130.25
426.735	119.25
426.958	137.25
427.18	109.25
427.402	133.25
427.625	127.25
427.847	125.25
428.069	126.25
428.292	122.25
428.514	114.25
428.736	141.25
428.958	135.25
429.181	134.25
429.403	115.25
429.625	135.25
429.847	126.25
430.069	137.25
430.292	126.25
430.514	120.25
430.736	138.25
430.958	135.25
431.18	132.25
431.402	116.25
431.624	110.25
431.846	106.25
432.068	91.25
432.29	82.25
432.512	96.25
432.734	118.25
432.956	117.25
433.178	137.25
433.4	132.25
433.622	144.25
433.844	131.25
434.066	118.25
434.287	103.25
434.509	103.25
434.731	111.25
434.953	104.25
435.175	132.25
435.397	116.25
435.618	110.25
435.84	112.25
436.062	122.25
436.284	126.25
436.505	132.25
436.727	124.25
436.949	138.25
437.17	151.25
437.392	136.25
437.614	114.25
437.835	116.25
438.057	120.25
438.278	125.25
438.5	125.25
438.721	118.25
438.943	145.25
439.165	133.25
439.386	138.25
439.608	152.25
439.829	148.25
440.05	148.25
440.272	152.25
440.493	143.25
440.715	138.25
440.936	139.25
441.158	132.25
441.379	133.25
441.6	136.25
441.822	133.25
442.043	138.25
442.264	125.25
442.486	145.25
442.707	148.25
442.928	137.25
443.149	130.25
443.371	134.25
443.592	142.25
443.813	134.25
444.034	136.25
444.255	143.25
444.476	123.25
444.698	142.25
444.919	148.25
445.14	266.25
445.361	206.25
445.582	162.25
445.803	152.25
446.024	146.25
446.245	166.25
446.466	158.25
446.687	144.25
446.908	156.25
447.129	162.25
447.35	141.25
447.571	148.25
447.792	142.25
448.013	131.25
448.234	135.25
448.455	133.25
448.675	144.25
448.896	138.25
449.117	139.25
449.338	131.25
449.559	131.25
449.779	126.25
450	132.25
450.221	134.25
450.442	149.25
450.662	132.25
450.883	124.25
451.104	143.25
451.324	119.25
451.545	136.25
451.766	136.25
451.986	138.25
452.207	118.25
452.428	120.25
452.648	116.25
452.869	126.25
453.089	111.25
453.31	110.25
453.53	125.25
453.751	105.25
453.971	107.25
454.192	125.25
454.412	105.25
454.633	125.25
454.853	126.25
455.073	112.25
455.294	134.25
455.514	129.25
455.734	113.25
455.955	108.25
456.175	109.25
456.395	104.25
456.616	111.25
456.836	115.25
457.056	112.25
457.276	106.25
457.497	102.25
457.717	111.25
457.937	114.25
458.157	104.25
458.377	97.25
458.598	93.25
458.818	85.25
459.038	94.25
459.258	84.25
459.478	94.25
459.698	85.25
459.918	106.25
460.138	109.25
460.358	142.25
460.578	108.25
460.798	118.25
461.018	130.25
461.238	114.25
461.458	117.25
461.678	122.25
461.898	122.25
462.118	106.25
462.338	104.25
462.558	118.25
462.777	126.25
462.997	101.25
463.217	101.25
463.437	107.25
463.657	115.25
463.876	111.25
464.096	124.25
464.316	120.25
464.536	112.25
464.755	134.25
464.975	111.25
465.195	103.25
465.414	120.25
465.634	126.25
465.854	108.25
466.073	128.25
466.293	129.25
466.512	116.25
466.732	135.25
466.951	133.25
467.171	135.25
467.391	137.25
467.61	124.25
467.829	140.25
468.049	151.25
468.268	134.25
468.488	148.25
468.707	126.25
468.927	130.25
469.146	146.25
469.365	138.25
469.585	129.25
469.804	135.25
470.023	142.25
470.243	158.25
470.462	134.25
470.681	136.25
470.901	134.25
471.12	138.25
471.339	129.25
471.558	144.25
471.777	145.25
471.997	126.25
472.216	125.25
472.435	116.25
472.654	118.25
472.873	114.25
473.092	120.25
473.311	130.25
473.53	130.25
473.749	124.25
473.968	125.25
474.187	125.25
474.406	118.25
474.625	133.25
474.844	138.25
475.063	126.25
475.282	114.25
475.501	117.25
475.72	126.25
475.939	121.25
476.158	118.25
476.377	138.25
476.596	122.25
476.814	109.25
477.033	114.25
477.252	114.25
477.471	112.25
477.69	136.25
477.908	124.25
478.127	130.25
478.346	143.25
478.564	118.25
478.783	131.25
479.002	134.25
479.22	120.25
479.439	142.25
479.658	122.25
479.876	121.25
480.095	111.25
480.313	128.25
480.532	104.25
480.751	116.25
480.969	99.25
481.188	89.25
481.406	96.25
481.624	88.25
481.843	82.25
482.061	110.25
482.28	100.25
482.498	123.25
482.717	121.25
482.935	118.25
483.153	136.25
483.372	139.25
483.59	151.25
483.808	146.25
484.027	141.25
484.245	136.25
484.463	138.25
484.681	151.25
484.9	146.25
485.118	158.25
485.336	128.25
485.554	121.25
485.772	104.25
485.99	106.25
486.209	104.25
486.427	103.25
486.645	114.25
486.863	136.25
487.081	132.25
487.299	129.25
487.517	148.25
487.735	154.25
487.953	183.25
488.171	188.25
488.389	170.25
488.607	159.25
488.825	148.25
489.043	134.25
489.261	139.25
489.479	140.25
489.696	155.25
489.914	138.25
490.132	137.25
490.35	153.25
490.568	152.25
490.786	174.25
491.003	170.25
491.221	179.25
491.439	162.25
491.657	181.25
491.874	206.25
492.092	221.25
492.31	241.25
492.527	214.25
492.745	201.25
492.963	201.25
493.18	191.25
493.398	183.25
493.615	171.25
493.833	186.25
494.05	164.25
494.268	166.25
494.485	146.25
494.703	165.25
494.92	163.25
495.138	178.25
495.355	160.25
495.573	162.25
495.79	158.25
496.008	160.25
496.225	162.25
496.442	176.25
496.66	174.25
496.877	156.25
497.094	169.25
497.312	162.25
497.529	166.25
497.746	159.25
497.963	131.25
498.181	129.25
498.398	107.25
498.615	120.25
498.832	99.25
499.049	111.25
499.267	116.25
499.484	126.25
499.701	130.25
499.918	141.25
500.135	134.25
500.352	152.25
500.569	133.25
500.786	142.25
501.003	135.25
501.22	142.25
501.437	136.25
501.654	119.25
501.871	136.25
502.088	127.25
502.305	129.25
502.522	126.25
502.739	131.25
502.956	123.25
503.172	117.25
503.389	126.25
503.606	122.25
503.823	118.25
504.04	106.25
504.256	126.25
504.473	124.25
504.69	108.25
504.907	120.25
505.123	122.25
505.34	128.25
505.557	133.25
505.773	122.25
505.99	116.25
506.207	130.25
506.423	127.25
506.64	126.25
506.856	126.25
507.073	110.25
507.289	114.25
507.506	114.25
507.722	126.25
507.939	124.25
508.155	115.25
508.372	96.25
508.588	111.25
508.805	102.25
509.021	109.25
509.238	97.25
509.454	108.25
509.67	91.25
509.887	96.25
510.103	98.25
510.319	92.25
510.536	92.25
510.752	88.25
510.968	81.25
511.184	88.25
511.401	96.25
511.617	87.25
