Data from Location1.07152019.Energy5.Lamp.07192019.3%Agarose_HRD10591_14-30-28-015.txt Node
Date: Fri Jul 19 14:30:28 EDT 2019
User: cochatt
Spectrometer: HR+D1059
Trigger mode: 1
Integration Time (sec): 1.000000E-1
Scans to average: 1
Electric dark correction enabled: true
Nonlinearity correction enabled: false
Boxcar width: 0
XAxis mode: Wavelengths
Number of Pixels in Spectrum: 2048
>>>>>Begin Spectral Data<<<<<
223.165	-14.81
223.4	-14.81
223.635	-14.81
223.869	-14.81
224.104	-12.81
224.338	-4.81
224.573	-11.81
224.808	-1.81
225.042	-14.81
225.277	-5.81
225.511	-18.81
225.746	8.19
225.98	4.19
226.215	13.19
226.449	10.19
226.683	26.19
226.918	25.19
227.152	13.19
227.387	20.19
227.621	39.19
227.856	28.19
228.09	34.19
228.324	44.19
228.559	51.19
228.793	66.19
229.027	52.19
229.262	49.19
229.496	59.19
229.73	51.19
229.964	61.19
230.199	63.19
230.433	66.19
230.667	81.19
230.901	76.19
231.136	87.19
231.37	78.19
231.604	86.19
231.838	86.19
232.072	78.19
232.306	88.19
232.541	81.19
232.775	83.19
233.009	79.19
233.243	90.19
233.477	72.19
233.711	81.19
233.945	84.19
234.179	88.19
234.413	87.19
234.647	91.19
234.881	80.19
235.115	68.19
235.349	66.19
235.583	80.19
235.817	61.19
236.051	71.19
236.285	62.19
236.519	67.19
236.753	79.19
236.987	57.19
237.221	74.19
237.455	80.19
237.689	74.19
237.922	80.19
238.156	91.19
238.39	83.19
238.624	84.19
238.858	66.19
239.091	82.19
239.325	67.19
239.559	73.19
239.793	65.19
240.027	70.19
240.26	59.19
240.494	71.19
240.728	80.19
240.961	85.19
241.195	72.19
241.429	74.19
241.662	68.19
241.896	72.19
242.13	89.19
242.363	64.19
242.597	67.19
242.83	81.19
243.064	71.19
243.298	70.19
243.531	77.19
243.765	80.19
243.998	88.19
244.232	74.19
244.465	68.19
244.699	84.19
244.932	73.19
245.166	83.19
245.399	82.19
245.633	73.19
245.866	73.19
246.099	72.19
246.333	73.19
246.566	74.19
246.8	62.19
247.033	71.19
247.266	76.19
247.5	80.19
247.733	72.19
247.966	86.19
248.2	81.19
248.433	62.19
248.666	78.19
248.899	70.19
249.133	80.19
249.366	82.19
249.599	66.19
249.832	78.19
250.066	72.19
250.299	62.19
250.532	74.19
250.765	66.19
250.998	75.19
251.231	74.19
251.465	78.19
251.698	89.19
251.931	83.19
252.164	76.19
252.397	74.19
252.63	65.19
252.863	81.19
253.096	75.19
253.329	86.19
253.562	80.19
253.795	84.19
254.028	94.19
254.261	75.19
254.494	87.19
254.727	78.19
254.96	79.19
255.193	66.19
255.426	77.19
255.659	79.19
255.892	78.19
256.124	85.19
256.357	91.19
256.59	63.19
256.823	75.19
257.056	82.19
257.289	81.19
257.521	68.19
257.754	71.19
257.987	78.19
258.22	78.19
258.452	69.19
258.685	82.19
258.918	77.19
259.151	81.19
259.383	71.19
259.616	86.19
259.849	79.19
260.081	79.19
260.314	68.19
260.547	78.19
260.779	77.19
261.012	96.19
261.244	72.19
261.477	83.19
261.71	71.19
261.942	82.19
262.175	78.19
262.407	77.19
262.64	74.19
262.872	72.19
263.105	68.19
263.337	91.19
263.57	78.19
263.802	72.19
264.035	78.19
264.267	82.19
264.499	71.19
264.732	76.19
264.964	66.19
265.197	90.19
265.429	81.19
265.661	81.19
265.894	66.19
266.126	77.19
266.358	82.19
266.591	82.19
266.823	84.19
267.055	75.19
267.287	82.19
267.52	69.19
267.752	85.19
267.984	89.19
268.216	79.19
268.448	84.19
268.681	64.19
268.913	64.19
269.145	87.19
269.377	79.19
269.609	81.19
269.841	94.19
270.073	78.19
270.306	92.19
270.538	76.19
270.77	89.19
271.002	73.19
271.234	79.19
271.466	82.19
271.698	70.19
271.93	75.19
272.162	82.19
272.394	86.19
272.626	74.19
272.858	90.19
273.09	76.19
273.322	71.19
273.553	68.19
273.785	79.19
274.017	79.19
274.249	88.19
274.481	79.19
274.713	72.19
274.945	87.19
275.176	64.19
275.408	92.19
275.64	76.19
275.872	70.19
276.104	84.19
276.335	75.19
276.567	75.19
276.799	69.19
277.031	89.19
277.262	79.19
277.494	90.19
277.726	70.19
277.957	76.19
278.189	85.19
278.421	83.19
278.652	86.19
278.884	98.19
279.115	82.19
279.347	82.19
279.579	68.19
279.81	82.19
280.042	74.19
280.273	80.19
280.505	77.19
280.736	74.19
280.968	70.19
281.199	80.19
281.431	93.19
281.662	82.19
281.894	80.19
282.125	88.19
282.356	74.19
282.588	75.19
282.819	73.19
283.051	73.19
283.282	88.19
283.513	88.19
283.745	82.19
283.976	80.19
284.207	92.19
284.439	71.19
284.67	87.19
284.901	79.19
285.132	67.19
285.364	86.19
285.595	75.19
285.826	84.19
286.057	82.19
286.288	84.19
286.52	72.19
286.751	78.19
286.982	67.19
287.213	71.19
287.444	76.19
287.675	86.19
287.906	73.19
288.138	87.19
288.369	77.19
288.6	82.19
288.831	79.19
289.062	90.19
289.293	82.19
289.524	87.19
289.755	76.19
289.986	80.19
290.217	83.19
290.448	87.19
290.679	79.19
290.91	86.19
291.141	90.19
291.371	69.19
291.602	82.19
291.833	87.19
292.064	83.19
292.295	75.19
292.526	81.19
292.757	72.19
292.987	82.19
293.218	82.19
293.449	87.19
293.68	61.19
293.91	84.19
294.141	77.19
294.372	97.19
294.603	75.19
294.833	69.19
295.064	78.19
295.295	87.19
295.525	77.19
295.756	86.19
295.987	92.19
296.217	81.19
296.448	84.19
296.679	69.19
296.909	83.19
297.14	77.19
297.37	84.19
297.601	80.19
297.831	91.19
298.062	76.19
298.292	83.19
298.523	86.19
298.753	80.19
298.984	88.19
299.214	72.19
299.445	93.19
299.675	84.19
299.905	85.19
300.136	79.19
300.366	76.19
300.597	96.19
300.827	76.19
301.057	58.19
301.288	78.19
301.518	80.19
301.748	81.19
301.979	75.19
302.209	80.19
302.439	85.19
302.669	83.19
302.9	84.19
303.13	81.19
303.36	67.19
303.59	72.19
303.82	73.19
304.051	79.19
304.281	90.19
304.511	84.19
304.741	82.19
304.971	74.19
305.201	88.19
305.431	75.19
305.661	71.19
305.891	72.19
306.121	87.19
306.352	81.19
306.582	93.19
306.812	81.19
307.042	69.19
307.272	90.19
307.502	87.19
307.731	75.19
307.961	84.19
308.191	76.19
308.421	73.19
308.651	77.19
308.881	81.19
309.111	81.19
309.341	81.19
309.571	81.19
309.8	81.19
310.03	64.19
310.26	82.19
310.49	79.19
310.72	74.19
310.949	88.19
311.179	83.19
311.409	71.19
311.639	92.19
311.868	78.19
312.098	88.19
312.328	86.19
312.557	80.19
312.787	73.19
313.017	92.19
313.246	84.19
313.476	85.19
313.706	81.19
313.935	96.19
314.165	80.19
314.394	80.19
314.624	82.19
314.853	73.19
315.083	73.19
315.312	76.19
315.542	73.19
315.771	91.19
316.001	70.19
316.23	75.19
316.46	74.19
316.689	82.19
316.919	90.19
317.148	84.19
317.377	75.19
317.607	84.19
317.836	62.19
318.065	66.19
318.295	71.19
318.524	80.19
318.753	92.19
318.983	85.19
319.212	72.19
319.441	83.19
319.67	87.19
319.9	74.19
320.129	63.19
320.358	62.19
320.587	96.19
320.816	83.19
321.046	88.19
321.275	72.19
321.504	86.19
321.733	89.19
321.962	79.19
322.191	91.19
322.42	73.19
322.649	84.19
322.878	84.19
323.108	72.19
323.337	85.19
323.566	96.19
323.795	76.19
324.024	76.19
324.253	80.19
324.482	74.19
324.71	81.19
324.939	75.19
325.168	80.19
325.397	80.19
325.626	75.19
325.855	83.19
326.084	81.19
326.313	84.19
326.542	82.19
326.77	91.19
326.999	71.19
327.228	81.19
327.457	86.19
327.686	72.19
327.914	71.19
328.143	87.19
328.372	73.19
328.6	68.19
328.829	70.19
329.058	69.19
329.287	76.19
329.515	83.19
329.744	88.19
329.972	83.19
330.201	81.19
330.43	75.19
330.658	74.19
330.887	76.19
331.115	80.19
331.344	74.19
331.572	83.19
331.801	78.19
332.03	90.19
332.258	83.19
332.486	84.19
332.715	72.19
332.943	84.19
333.172	80.19
333.4	89.19
333.629	78.19
333.857	84.19
334.085	83.19
334.314	75.19
334.542	75.19
334.771	82.19
334.999	87.19
335.227	81.19
335.455	81.19
335.684	76.19
335.912	81.19
336.14	90.19
336.369	75.19
336.597	82.19
336.825	96.19
337.053	83.19
337.281	80.19
337.51	71.19
337.738	72.19
337.966	93.19
338.194	85.19
338.422	82.19
338.65	91.19
338.878	80.19
339.106	72.19
339.334	83.19
339.562	78.19
339.79	81.19
340.018	91.19
340.246	76.19
340.474	83.19
340.702	80.19
340.93	91.19
341.158	76.19
341.386	79.19
341.614	86.19
341.842	78.19
342.07	82.19
342.298	86.19
342.526	84.19
342.754	87.19
342.981	80.19
343.209	91.19
343.437	84.19
343.665	75.19
343.893	77.19
344.12	91.19
344.348	74.19
344.576	82.19
344.804	82.19
345.031	83.19
345.259	83.19
345.487	84.19
345.714	73.19
345.942	90.19
346.17	79.19
346.397	77.19
346.625	92.19
346.853	77.19
347.08	87.19
347.308	90.19
347.535	85.19
347.763	62.19
347.99	81.19
348.218	86.19
348.445	81.19
348.673	80.19
348.9	70.19
349.128	91.19
349.355	77.19
349.583	97.19
349.81	81.19
350.037	83.19
350.265	79.19
350.492	83.19
350.72	87.19
350.947	88.19
351.174	89.19
351.402	66.19
351.629	75.19
351.856	67.19
352.083	87.19
352.311	74.19
352.538	82.19
352.765	80.19
352.992	71.19
353.22	81.19
353.447	87.19
353.674	78.19
353.901	76.19
354.128	75.19
354.355	94.19
354.583	87.19
354.81	77.19
355.037	87.19
355.264	79.19
355.491	81.19
355.718	72.19
355.945	74.19
356.172	76.19
356.399	73.19
356.626	99.19
356.853	82.19
357.08	78.19
357.307	101.19
357.534	82.19
357.761	76.19
357.988	76.19
358.215	76.19
358.441	79.19
358.668	78.19
358.895	76.19
359.122	82.19
359.349	76.19
359.576	84.19
359.802	88.19
360.029	91.19
360.256	83.19
360.483	75.19
360.709	84.19
360.936	80.19
361.163	73.19
361.39	89.19
361.616	93.19
361.843	64.19
362.07	95.19
362.296	86.19
362.523	80.19
362.749	88.19
362.976	71.19
363.203	78.19
363.429	82.19
363.656	85.19
363.882	83.19
364.109	88.19
364.335	82.19
364.562	80.19
364.788	84.19
365.015	81.19
365.241	80.19
365.468	89.19
365.694	72.19
365.92	74.19
366.147	71.19
366.373	91.19
366.599	79.19
366.826	80.19
367.052	82.19
367.278	79.19
367.505	72.19
367.731	86.19
367.957	89.19
368.184	82.19
368.41	79.19
368.636	86.19
368.862	86.19
369.089	87.19
369.315	90.19
369.541	86.19
369.767	89.19
369.993	91.19
370.219	89.19
370.445	83.19
370.672	102.19
370.898	84.19
371.124	72.19
371.35	82.19
371.576	87.19
371.802	98.19
372.028	85.19
372.254	84.19
372.48	96.19
372.706	84.19
372.932	84.19
373.158	84.19
373.384	100.19
373.61	81.19
373.835	75.19
374.061	87.19
374.287	73.19
374.513	79.19
374.739	78.19
374.965	81.19
375.191	89.19
375.416	96.19
375.642	74.19
375.868	95.19
376.094	87.19
376.319	90.19
376.545	90.19
376.771	100.19
376.997	86.19
377.222	82.19
377.448	70.19
377.674	82.19
377.899	69.19
378.125	89.19
378.35	94.19
378.576	93.19
378.802	87.19
379.027	90.19
379.253	98.19
379.478	101.19
379.704	99.19
379.929	97.19
380.155	90.19
380.38	98.19
380.606	92.19
380.831	88.19
381.057	87.19
381.282	85.19
381.507	86.19
381.733	96.19
381.958	88.19
382.184	88.19
382.409	88.19
382.634	92.19
382.86	93.19
383.085	89.19
383.31	112.19
383.535	105.19
383.761	93.19
383.986	98.19
384.211	91.19
384.436	102.19
384.662	86.19
384.887	87.19
385.112	80.19
385.337	94.19
385.562	94.19
385.787	102.19
386.013	114.19
386.238	105.19
386.463	99.19
386.688	86.19
386.913	98.19
387.138	86.19
387.363	94.19
387.588	102.19
387.813	91.19
388.038	97.19
388.263	96.19
388.488	92.19
388.713	98.19
388.938	82.19
389.163	89.19
389.387	94.19
389.612	99.19
389.837	92.19
390.062	98.19
390.287	96.19
390.512	118.19
390.736	100.19
390.961	102.19
391.186	101.19
391.411	82.19
391.636	88.19
391.86	93.19
392.085	96.19
392.31	101.19
392.534	100.19
392.759	111.19
392.984	103.19
393.208	103.19
393.433	89.19
393.658	86.19
393.882	110.19
394.107	106.19
394.331	95.19
394.556	100.19
394.78	103.19
395.005	91.19
395.229	106.19
395.454	86.19
395.678	90.19
395.903	94.19
396.127	105.19
396.352	100.19
396.576	98.19
396.801	98.19
397.025	94.19
397.249	98.19
397.474	118.19
397.698	98.19
397.922	104.19
398.147	113.19
398.371	102.19
398.595	95.19
398.82	79.19
399.044	101.19
399.268	107.19
399.492	108.19
399.717	115.19
399.941	112.19
400.165	100.19
400.389	112.19
400.613	110.19
400.837	103.19
401.062	97.19
401.286	104.19
401.51	112.19
401.734	108.19
401.958	101.19
402.182	106.19
402.406	110.19
402.63	101.19
402.854	117.19
403.078	110.19
403.302	106.19
403.526	98.19
403.75	99.19
403.974	107.19
404.198	115.19
404.422	107.19
404.645	98.19
404.869	92.19
405.093	99.19
405.317	117.19
405.541	124.19
405.765	103.19
405.988	101.19
406.212	113.19
406.436	118.19
406.66	114.19
406.883	99.19
407.107	78.19
407.331	121.19
407.555	103.19
407.778	104.19
408.002	113.19
408.226	121.19
408.449	107.19
408.673	119.19
408.896	110.19
409.12	114.19
409.344	114.19
409.567	106.19
409.791	103.19
410.014	122.19
410.238	120.19
410.461	110.19
410.685	130.19
410.908	102.19
411.132	110.19
411.355	100.19
411.578	112.19
411.802	121.19
412.025	114.19
412.249	106.19
412.472	106.19
412.695	122.19
412.919	110.19
413.142	118.19
413.365	132.19
413.589	120.19
413.812	116.19
414.035	119.19
414.258	107.19
414.482	118.19
414.705	124.19
414.928	118.19
415.151	119.19
415.374	122.19
415.597	106.19
415.821	132.19
416.044	125.19
416.267	120.19
416.49	130.19
416.713	120.19
416.936	122.19
417.159	131.19
417.382	130.19
417.605	117.19
417.828	134.19
418.051	121.19
418.274	124.19
418.497	133.19
418.72	128.19
418.943	139.19
419.166	129.19
419.389	129.19
419.611	122.19
419.834	119.19
420.057	119.19
420.28	126.19
420.503	121.19
420.726	131.19
420.948	131.19
421.171	124.19
421.394	126.19
421.617	144.19
421.839	122.19
422.062	141.19
422.285	122.19
422.507	113.19
422.73	136.19
422.953	136.19
423.175	116.19
423.398	122.19
423.621	122.19
423.843	116.19
424.066	132.19
424.288	125.19
424.511	134.19
424.733	135.19
424.956	145.19
425.178	138.19
425.401	131.19
425.623	131.19
425.846	128.19
426.068	138.19
426.291	126.19
426.513	132.19
426.735	127.19
426.958	124.19
427.18	116.19
427.402	119.19
427.625	120.19
427.847	123.19
428.069	126.19
428.292	128.19
428.514	109.19
428.736	122.19
428.958	115.19
429.181	133.19
429.403	128.19
429.625	136.19
429.847	118.19
430.069	132.19
430.292	125.19
430.514	138.19
430.736	129.19
430.958	136.19
431.18	113.19
431.402	122.19
431.624	115.19
431.846	103.19
432.068	94.19
432.29	106.19
432.512	103.19
432.734	114.19
432.956	132.19
433.178	134.19
433.4	128.19
433.622	134.19
433.844	123.19
434.066	128.19
434.287	103.19
434.509	97.19
434.731	89.19
434.953	96.19
435.175	96.19
435.397	120.19
435.618	116.19
435.84	92.19
436.062	103.19
436.284	119.19
436.505	125.19
436.727	121.19
436.949	124.19
437.17	122.19
437.392	124.19
437.614	121.19
437.835	118.19
438.057	114.19
438.278	106.19
438.5	106.19
438.721	121.19
438.943	125.19
439.165	120.19
439.386	134.19
439.608	145.19
439.829	124.19
440.05	136.19
440.272	135.19
440.493	122.19
440.715	137.19
440.936	131.19
441.158	132.19
441.379	131.19
441.6	141.19
441.822	149.19
442.043	143.19
442.264	134.19
442.486	140.19
442.707	144.19
442.928	142.19
443.149	135.19
443.371	133.19
443.592	124.19
443.813	130.19
444.034	118.19
444.255	126.19
444.476	134.19
444.698	133.19
444.919	137.19
445.14	289.19
445.361	208.19
445.582	146.19
445.803	145.19
446.024	132.19
446.245	164.19
446.466	137.19
446.687	134.19
446.908	142.19
447.129	142.19
447.35	147.19
447.571	140.19
447.792	132.19
448.013	124.19
448.234	144.19
448.455	134.19
448.675	123.19
448.896	143.19
449.117	125.19
449.338	133.19
449.559	129.19
449.779	118.19
450	126.19
450.221	127.19
450.442	120.19
450.662	116.19
450.883	120.19
451.104	121.19
451.324	136.19
451.545	124.19
451.766	125.19
451.986	126.19
452.207	110.19
452.428	133.19
452.648	141.19
452.869	114.19
453.089	118.19
453.31	108.19
453.53	99.19
453.751	113.19
453.971	96.19
454.192	94.19
454.412	92.19
454.633	108.19
454.853	111.19
455.073	117.19
455.294	111.19
455.514	121.19
455.734	120.19
455.955	104.19
456.175	114.19
456.395	106.19
456.616	98.19
456.836	95.19
457.056	96.19
457.276	106.19
457.497	99.19
457.717	113.19
457.937	118.19
458.157	107.19
458.377	99.19
458.598	99.19
458.818	91.19
459.038	84.19
459.258	88.19
459.478	85.19
459.698	90.19
459.918	88.19
460.138	105.19
460.358	111.19
460.578	126.19
460.798	106.19
461.018	122.19
461.238	115.19
461.458	103.19
461.678	99.19
461.898	97.19
462.118	105.19
462.338	92.19
462.558	94.19
462.777	99.19
462.997	121.19
463.217	98.19
463.437	106.19
463.657	111.19
463.876	103.19
464.096	96.19
464.316	104.19
464.536	111.19
464.755	107.19
464.975	103.19
465.195	106.19
465.414	122.19
465.634	104.19
465.854	102.19
466.073	113.19
466.293	118.19
466.512	118.19
466.732	118.19
466.951	131.19
467.171	139.19
467.391	116.19
467.61	122.19
467.829	123.19
468.049	138.19
468.268	124.19
468.488	116.19
468.707	120.19
468.927	140.19
469.146	131.19
469.365	137.19
469.585	141.19
469.804	126.19
470.023	135.19
470.243	133.19
470.462	143.19
470.681	138.19
470.901	124.19
471.12	141.19
471.339	120.19
471.558	134.19
471.777	131.19
471.997	130.19
472.216	131.19
472.435	118.19
472.654	109.19
472.873	100.19
473.092	112.19
473.311	110.19
473.53	114.19
473.749	126.19
473.968	120.19
474.187	111.19
474.406	119.19
474.625	128.19
474.844	130.19
475.063	115.19
475.282	127.19
475.501	124.19
475.72	105.19
475.939	106.19
476.158	123.19
476.377	122.19
476.596	113.19
476.814	103.19
477.033	106.19
477.252	115.19
477.471	112.19
477.69	126.19
477.908	134.19
478.127	129.19
478.346	124.19
478.564	131.19
478.783	138.19
479.002	134.19
479.22	124.19
479.439	131.19
479.658	97.19
479.876	100.19
480.095	86.19
480.313	118.19
480.532	124.19
480.751	106.19
480.969	93.19
481.188	85.19
481.406	88.19
481.624	91.19
481.843	84.19
482.061	100.19
482.28	119.19
482.498	109.19
482.717	104.19
482.935	130.19
483.153	145.19
483.372	142.19
483.59	139.19
483.808	132.19
484.027	121.19
484.245	139.19
484.463	151.19
484.681	161.19
484.9	120.19
485.118	138.19
485.336	124.19
485.554	118.19
485.772	89.19
485.99	86.19
486.209	101.19
486.427	100.19
486.645	123.19
486.863	138.19
487.081	127.19
487.299	128.19
487.517	122.19
487.735	154.19
487.953	190.19
488.171	178.19
488.389	171.19
488.607	150.19
488.825	139.19
489.043	134.19
489.261	148.19
489.479	126.19
489.696	138.19
489.914	136.19
490.132	126.19
490.35	146.19
490.568	158.19
490.786	144.19
491.003	163.19
491.221	185.19
491.439	164.19
491.657	199.19
491.874	199.19
492.092	218.19
492.31	236.19
492.527	223.19
492.745	198.19
492.963	179.19
493.18	184.19
493.398	181.19
493.615	176.19
493.833	182.19
494.05	173.19
494.268	162.19
494.485	164.19
494.703	164.19
494.92	154.19
495.138	158.19
495.355	174.19
495.573	161.19
495.79	163.19
496.008	159.19
496.225	155.19
496.442	160.19
496.66	166.19
496.877	167.19
497.094	165.19
497.312	154.19
497.529	158.19
497.746	154.19
497.963	140.19
498.181	123.19
498.398	121.19
498.615	123.19
498.832	115.19
499.049	122.19
499.267	118.19
499.484	114.19
499.701	124.19
499.918	133.19
500.135	120.19
500.352	139.19
500.569	129.19
500.786	134.19
501.003	132.19
501.22	132.19
501.437	130.19
501.654	128.19
501.871	129.19
502.088	133.19
502.305	119.19
502.522	118.19
502.739	133.19
502.956	117.19
503.172	116.19
503.389	117.19
503.606	121.19
503.823	117.19
504.04	119.19
504.256	114.19
504.473	102.19
504.69	101.19
504.907	122.19
505.123	112.19
505.34	124.19
505.557	122.19
505.773	123.19
505.99	134.19
506.207	106.19
506.423	112.19
506.64	124.19
506.856	107.19
507.073	103.19
507.289	98.19
507.506	119.19
507.722	114.19
507.939	117.19
508.155	114.19
508.372	98.19
508.588	103.19
508.805	90.19
509.021	90.19
509.238	108.19
509.454	117.19
509.67	96.19
509.887	83.19
510.103	99.19
510.319	99.19
510.536	88.19
510.752	72.19
510.968	91.19
511.184	87.19
511.401	83.19
511.617	74.19
511.833	89.19
512.049	87.19
512.265	82.19
512.481	88.19
