Data from Location1.07152019.Energy5.Lamp.07192019.3%Agarose_HRD10591_14-30-55-014.txt Node
Date: Fri Jul 19 14:30:55 EDT 2019
User: cochatt
Spectrometer: HR+D1059
Trigger mode: 1
Integration Time (sec): 1.000000E-1
Scans to average: 1
Electric dark correction enabled: true
Nonlinearity correction enabled: false
Boxcar width: 0
XAxis mode: Wavelengths
Number of Pixels in Spectrum: 2048
>>>>>Begin Spectral Data<<<<<
223.165	-21.25
223.4	-21.25
223.635	-21.25
223.869	-25.25
224.104	-18.25
224.338	-19.25
224.573	-1.25
224.808	-28.25
225.042	-2.25
225.277	-13.25
225.511	-6.25
225.746	-0.25
225.98	11.75
226.215	13.75
226.449	20.75
226.683	21.75
226.918	27.75
227.152	39.75
227.387	35.75
227.621	22.75
227.856	34.75
228.09	44.75
228.324	55.75
228.559	55.75
228.793	56.75
229.027	70.75
229.262	58.75
229.496	56.75
229.73	66.75
229.964	71.75
230.199	86.75
230.433	77.75
230.667	77.75
230.901	75.75
231.136	76.75
231.37	62.75
231.604	73.75
231.838	75.75
232.072	72.75
232.306	76.75
232.541	70.75
232.775	93.75
233.009	77.75
233.243	85.75
233.477	78.75
233.711	76.75
233.945	78.75
234.179	71.75
234.413	77.75
234.647	68.75
234.881	85.75
235.115	73.75
235.349	82.75
235.583	81.75
235.817	73.75
236.051	92.75
236.285	86.75
236.519	80.75
236.753	73.75
236.987	77.75
237.221	74.75
237.455	78.75
237.689	93.75
237.922	77.75
238.156	74.75
238.39	70.75
238.624	70.75
238.858	74.75
239.091	74.75
239.325	76.75
239.559	78.75
239.793	70.75
240.027	62.75
240.26	67.75
240.494	84.75
240.728	87.75
240.961	74.75
241.195	75.75
241.429	80.75
241.662	89.75
241.896	71.75
242.13	74.75
242.363	67.75
242.597	78.75
242.83	85.75
243.064	67.75
243.298	79.75
243.531	75.75
243.765	76.75
243.998	68.75
244.232	70.75
244.465	83.75
244.699	90.75
244.932	97.75
245.166	74.75
245.399	77.75
245.633	90.75
245.866	87.75
246.099	72.75
246.333	75.75
246.566	80.75
246.8	76.75
247.033	77.75
247.266	93.75
247.5	74.75
247.733	84.75
247.966	67.75
248.2	74.75
248.433	67.75
248.666	83.75
248.899	89.75
249.133	77.75
249.366	83.75
249.599	94.75
249.832	83.75
250.066	76.75
250.299	83.75
250.532	89.75
250.765	86.75
250.998	73.75
251.231	72.75
251.465	72.75
251.698	83.75
251.931	79.75
252.164	73.75
252.397	76.75
252.63	89.75
252.863	74.75
253.096	64.75
253.329	80.75
253.562	78.75
253.795	70.75
254.028	73.75
254.261	81.75
254.494	87.75
254.727	78.75
254.96	71.75
255.193	82.75
255.426	88.75
255.659	72.75
255.892	76.75
256.124	72.75
256.357	78.75
256.59	61.75
256.823	80.75
257.056	71.75
257.289	64.75
257.521	70.75
257.754	71.75
257.987	89.75
258.22	75.75
258.452	76.75
258.685	68.75
258.918	91.75
259.151	91.75
259.383	86.75
259.616	95.75
259.849	90.75
260.081	84.75
260.314	88.75
260.547	79.75
260.779	81.75
261.012	99.75
261.244	88.75
261.477	83.75
261.71	80.75
261.942	67.75
262.175	85.75
262.407	92.75
262.64	81.75
262.872	80.75
263.105	66.75
263.337	91.75
263.57	90.75
263.802	84.75
264.035	83.75
264.267	78.75
264.499	94.75
264.732	90.75
264.964	87.75
265.197	86.75
265.429	77.75
265.661	85.75
265.894	90.75
266.126	92.75
266.358	77.75
266.591	91.75
266.823	76.75
267.055	79.75
267.287	92.75
267.52	80.75
267.752	85.75
267.984	86.75
268.216	84.75
268.448	72.75
268.681	86.75
268.913	88.75
269.145	73.75
269.377	85.75
269.609	91.75
269.841	78.75
270.073	85.75
270.306	70.75
270.538	80.75
270.77	75.75
271.002	96.75
271.234	85.75
271.466	97.75
271.698	80.75
271.93	87.75
272.162	73.75
272.394	83.75
272.626	82.75
272.858	71.75
273.09	97.75
273.322	69.75
273.553	72.75
273.785	92.75
274.017	90.75
274.249	80.75
274.481	91.75
274.713	99.75
274.945	91.75
275.176	80.75
275.408	78.75
275.64	90.75
275.872	72.75
276.104	78.75
276.335	70.75
276.567	95.75
276.799	83.75
277.031	74.75
277.262	84.75
277.494	89.75
277.726	81.75
277.957	86.75
278.189	93.75
278.421	91.75
278.652	95.75
278.884	93.75
279.115	86.75
279.347	92.75
279.579	90.75
279.81	76.75
280.042	77.75
280.273	77.75
280.505	75.75
280.736	86.75
280.968	80.75
281.199	81.75
281.431	71.75
281.662	79.75
281.894	89.75
282.125	82.75
282.356	79.75
282.588	81.75
282.819	92.75
283.051	87.75
283.282	90.75
283.513	77.75
283.745	87.75
283.976	82.75
284.207	74.75
284.439	80.75
284.67	93.75
284.901	93.75
285.132	89.75
285.364	89.75
285.595	87.75
285.826	91.75
286.057	84.75
286.288	81.75
286.52	78.75
286.751	81.75
286.982	90.75
287.213	80.75
287.444	85.75
287.675	88.75
287.906	94.75
288.138	83.75
288.369	79.75
288.6	90.75
288.831	92.75
289.062	81.75
289.293	73.75
289.524	98.75
289.755	91.75
289.986	68.75
290.217	84.75
290.448	89.75
290.679	83.75
290.91	79.75
291.141	75.75
291.371	74.75
291.602	84.75
291.833	75.75
292.064	65.75
292.295	66.75
292.526	86.75
292.757	98.75
292.987	88.75
293.218	71.75
293.449	86.75
293.68	89.75
293.91	89.75
294.141	87.75
294.372	75.75
294.603	95.75
294.833	91.75
295.064	86.75
295.295	102.75
295.525	92.75
295.756	94.75
295.987	79.75
296.217	96.75
296.448	81.75
296.679	95.75
296.909	73.75
297.14	80.75
297.37	95.75
297.601	78.75
297.831	79.75
298.062	91.75
298.292	80.75
298.523	74.75
298.753	98.75
298.984	90.75
299.214	83.75
299.445	90.75
299.675	73.75
299.905	78.75
300.136	84.75
300.366	85.75
300.597	81.75
300.827	76.75
301.057	81.75
301.288	69.75
301.518	84.75
301.748	92.75
301.979	87.75
302.209	83.75
302.439	91.75
302.669	93.75
302.9	84.75
303.13	85.75
303.36	90.75
303.59	91.75
303.82	82.75
304.051	87.75
304.281	86.75
304.511	82.75
304.741	82.75
304.971	96.75
305.201	83.75
305.431	90.75
305.661	79.75
305.891	101.75
306.121	88.75
306.352	79.75
306.582	68.75
306.812	84.75
307.042	93.75
307.272	103.75
307.502	100.75
307.731	93.75
307.961	79.75
308.191	70.75
308.421	81.75
308.651	89.75
308.881	77.75
309.111	59.75
309.341	71.75
309.571	87.75
309.8	95.75
310.03	76.75
310.26	87.75
310.49	81.75
310.72	96.75
310.949	95.75
311.179	86.75
311.409	81.75
311.639	101.75
311.868	89.75
312.098	97.75
312.328	82.75
312.557	86.75
312.787	87.75
313.017	83.75
313.246	82.75
313.476	85.75
313.706	97.75
313.935	90.75
314.165	80.75
314.394	89.75
314.624	83.75
314.853	72.75
315.083	78.75
315.312	72.75
315.542	84.75
315.771	90.75
316.001	93.75
316.23	86.75
316.46	80.75
316.689	94.75
316.919	63.75
317.148	91.75
317.377	98.75
317.607	87.75
317.836	91.75
318.065	82.75
318.295	79.75
318.524	84.75
318.753	69.75
318.983	83.75
319.212	82.75
319.441	78.75
319.67	86.75
319.9	90.75
320.129	92.75
320.358	104.75
320.587	82.75
320.816	93.75
321.046	87.75
321.275	90.75
321.504	87.75
321.733	101.75
321.962	83.75
322.191	69.75
322.42	84.75
322.649	93.75
322.878	85.75
323.108	94.75
323.337	94.75
323.566	74.75
323.795	84.75
324.024	83.75
324.253	96.75
324.482	78.75
324.71	87.75
324.939	83.75
325.168	86.75
325.397	94.75
325.626	90.75
325.855	84.75
326.084	84.75
326.313	79.75
326.542	82.75
326.77	95.75
326.999	89.75
327.228	99.75
327.457	83.75
327.686	80.75
327.914	81.75
328.143	79.75
328.372	91.75
328.6	94.75
328.829	70.75
329.058	81.75
329.287	91.75
329.515	86.75
329.744	85.75
329.972	89.75
330.201	79.75
330.43	84.75
330.658	89.75
330.887	77.75
331.115	94.75
331.344	82.75
331.572	82.75
331.801	85.75
332.03	78.75
332.258	81.75
332.486	84.75
332.715	79.75
332.943	81.75
333.172	82.75
333.4	79.75
333.629	77.75
333.857	86.75
334.085	93.75
334.314	96.75
334.542	93.75
334.771	74.75
334.999	90.75
335.227	91.75
335.455	90.75
335.684	100.75
335.912	80.75
336.14	81.75
336.369	83.75
336.597	87.75
336.825	79.75
337.053	90.75
337.281	82.75
337.51	69.75
337.738	79.75
337.966	91.75
338.194	73.75
338.422	98.75
338.65	88.75
338.878	75.75
339.106	99.75
339.334	101.75
339.562	93.75
339.79	84.75
340.018	85.75
340.246	79.75
340.474	76.75
340.702	79.75
340.93	92.75
341.158	88.75
341.386	81.75
341.614	85.75
341.842	77.75
342.07	85.75
342.298	92.75
342.526	83.75
342.754	86.75
342.981	86.75
343.209	79.75
343.437	93.75
343.665	93.75
343.893	94.75
344.12	88.75
344.348	78.75
344.576	87.75
344.804	77.75
345.031	81.75
345.259	82.75
345.487	82.75
345.714	79.75
345.942	94.75
346.17	74.75
346.397	90.75
346.625	91.75
346.853	93.75
347.08	78.75
347.308	84.75
347.535	71.75
347.763	92.75
347.99	83.75
348.218	94.75
348.445	90.75
348.673	105.75
348.9	102.75
349.128	94.75
349.355	92.75
349.583	87.75
349.81	77.75
350.037	78.75
350.265	88.75
350.492	99.75
350.72	86.75
350.947	83.75
351.174	95.75
351.402	71.75
351.629	86.75
351.856	95.75
352.083	83.75
352.311	92.75
352.538	79.75
352.765	79.75
352.992	99.75
353.22	91.75
353.447	84.75
353.674	73.75
353.901	90.75
354.128	84.75
354.355	84.75
354.583	94.75
354.81	86.75
355.037	92.75
355.264	84.75
355.491	87.75
355.718	90.75
355.945	73.75
356.172	90.75
356.399	78.75
356.626	85.75
356.853	88.75
357.08	76.75
357.307	76.75
357.534	74.75
357.761	89.75
357.988	79.75
358.215	95.75
358.441	92.75
358.668	83.75
358.895	81.75
359.122	86.75
359.349	83.75
359.576	92.75
359.802	97.75
360.029	86.75
360.256	90.75
360.483	81.75
360.709	94.75
360.936	93.75
361.163	90.75
361.39	95.75
361.616	77.75
361.843	96.75
362.07	84.75
362.296	77.75
362.523	89.75
362.749	82.75
362.976	73.75
363.203	77.75
363.429	81.75
363.656	90.75
363.882	82.75
364.109	81.75
364.335	82.75
364.562	91.75
364.788	75.75
365.015	87.75
365.241	90.75
365.468	80.75
365.694	87.75
365.92	81.75
366.147	92.75
366.373	92.75
366.599	84.75
366.826	82.75
367.052	69.75
367.278	83.75
367.505	81.75
367.731	76.75
367.957	80.75
368.184	88.75
368.41	106.75
368.636	86.75
368.862	87.75
369.089	101.75
369.315	90.75
369.541	95.75
369.767	92.75
369.993	96.75
370.219	95.75
370.445	92.75
370.672	84.75
370.898	89.75
371.124	65.75
371.35	71.75
371.576	83.75
371.802	86.75
372.028	79.75
372.254	75.75
372.48	92.75
372.706	92.75
372.932	84.75
373.158	78.75
373.384	85.75
373.61	71.75
373.835	100.75
374.061	87.75
374.287	84.75
374.513	69.75
374.739	99.75
374.965	88.75
375.191	86.75
375.416	90.75
375.642	87.75
375.868	90.75
376.094	91.75
376.319	98.75
376.545	89.75
376.771	79.75
376.997	94.75
377.222	90.75
377.448	94.75
377.674	96.75
377.899	100.75
378.125	81.75
378.35	95.75
378.576	79.75
378.802	91.75
379.027	95.75
379.253	92.75
379.478	90.75
379.704	84.75
379.929	93.75
380.155	94.75
380.38	88.75
380.606	86.75
380.831	94.75
381.057	90.75
381.282	89.75
381.507	80.75
381.733	104.75
381.958	114.75
382.184	79.75
382.409	91.75
382.634	92.75
382.86	100.75
383.085	87.75
383.31	96.75
383.535	88.75
383.761	85.75
383.986	109.75
384.211	103.75
384.436	97.75
384.662	99.75
384.887	88.75
385.112	92.75
385.337	105.75
385.562	87.75
385.787	98.75
386.013	106.75
386.238	101.75
386.463	110.75
386.688	86.75
386.913	100.75
387.138	100.75
387.363	104.75
387.588	104.75
387.813	94.75
388.038	94.75
388.263	101.75
388.488	103.75
388.713	107.75
388.938	99.75
389.163	96.75
389.387	104.75
389.612	100.75
389.837	90.75
390.062	91.75
390.287	113.75
390.512	124.75
390.736	98.75
390.961	111.75
391.186	88.75
391.411	109.75
391.636	100.75
391.86	96.75
392.085	94.75
392.31	114.75
392.534	97.75
392.759	104.75
392.984	111.75
393.208	99.75
393.433	100.75
393.658	107.75
393.882	102.75
394.107	97.75
394.331	113.75
394.556	111.75
394.78	105.75
395.005	99.75
395.229	94.75
395.454	98.75
395.678	103.75
395.903	109.75
396.127	113.75
396.352	104.75
396.576	95.75
396.801	99.75
397.025	105.75
397.249	117.75
397.474	119.75
397.698	116.75
397.922	102.75
398.147	105.75
398.371	104.75
398.595	116.75
398.82	117.75
399.044	108.75
399.268	105.75
399.492	118.75
399.717	107.75
399.941	97.75
400.165	114.75
400.389	106.75
400.613	106.75
400.837	119.75
401.062	107.75
401.286	119.75
401.51	105.75
401.734	123.75
401.958	120.75
402.182	109.75
402.406	103.75
402.63	101.75
402.854	119.75
403.078	104.75
403.302	106.75
403.526	108.75
403.75	107.75
403.974	120.75
404.198	96.75
404.422	120.75
404.645	117.75
404.869	107.75
405.093	117.75
405.317	118.75
405.541	109.75
405.765	124.75
405.988	105.75
406.212	121.75
406.436	111.75
406.66	120.75
406.883	113.75
407.107	118.75
407.331	110.75
407.555	119.75
407.778	123.75
408.002	118.75
408.226	105.75
408.449	120.75
408.673	109.75
408.896	116.75
409.12	125.75
409.344	117.75
409.567	121.75
409.791	107.75
410.014	110.75
410.238	113.75
410.461	121.75
410.685	119.75
410.908	115.75
411.132	119.75
411.355	106.75
411.578	123.75
411.802	135.75
412.025	117.75
412.249	129.75
412.472	125.75
412.695	109.75
412.919	103.75
413.142	129.75
413.365	123.75
413.589	115.75
413.812	120.75
414.035	122.75
414.258	120.75
414.482	118.75
414.705	118.75
414.928	118.75
415.151	129.75
415.374	118.75
415.597	128.75
415.821	118.75
416.044	123.75
416.267	123.75
416.49	119.75
416.713	127.75
416.936	129.75
417.159	111.75
417.382	118.75
417.605	122.75
417.828	138.75
418.051	132.75
418.274	129.75
418.497	126.75
418.72	136.75
418.943	125.75
419.166	130.75
419.389	123.75
419.611	127.75
419.834	135.75
420.057	142.75
420.28	134.75
420.503	125.75
420.726	120.75
420.948	126.75
421.171	145.75
421.394	121.75
421.617	128.75
421.839	154.75
422.062	137.75
422.285	131.75
422.507	138.75
422.73	124.75
422.953	121.75
423.175	130.75
423.398	122.75
423.621	124.75
423.843	127.75
424.066	137.75
424.288	134.75
424.511	133.75
424.733	136.75
424.956	121.75
425.178	150.75
425.401	141.75
425.623	131.75
425.846	133.75
426.068	124.75
426.291	127.75
426.513	131.75
426.735	139.75
426.958	119.75
427.18	123.75
427.402	123.75
427.625	116.75
427.847	117.75
428.069	123.75
428.292	131.75
428.514	129.75
428.736	127.75
428.958	138.75
429.181	127.75
429.403	125.75
429.625	128.75
429.847	125.75
430.069	126.75
430.292	138.75
430.514	124.75
430.736	135.75
430.958	127.75
431.18	142.75
431.402	122.75
431.624	127.75
431.846	113.75
432.068	81.75
432.29	102.75
432.512	114.75
432.734	117.75
432.956	121.75
433.178	133.75
433.4	132.75
433.622	117.75
433.844	143.75
434.066	117.75
434.287	102.75
434.509	101.75
434.731	105.75
434.953	103.75
435.175	124.75
435.397	131.75
435.618	128.75
435.84	105.75
436.062	103.75
436.284	101.75
436.505	132.75
436.727	127.75
436.949	127.75
437.17	134.75
437.392	129.75
437.614	115.75
437.835	123.75
438.057	110.75
438.278	100.75
438.5	129.75
438.721	121.75
438.943	125.75
439.165	138.75
439.386	131.75
439.608	143.75
439.829	159.75
440.05	130.75
440.272	147.75
440.493	135.75
440.715	136.75
440.936	151.75
441.158	140.75
441.379	141.75
441.6	146.75
441.822	131.75
442.043	142.75
442.264	138.75
442.486	126.75
442.707	157.75
442.928	158.75
443.149	122.75
443.371	132.75
443.592	141.75
443.813	139.75
444.034	129.75
444.255	142.75
444.476	143.75
444.698	131.75
444.919	155.75
445.14	261.75
445.361	181.75
445.582	129.75
445.803	159.75
446.024	151.75
446.245	132.75
446.466	161.75
446.687	150.75
446.908	149.75
447.129	157.75
447.35	145.75
447.571	153.75
447.792	118.75
448.013	157.75
448.234	141.75
448.455	136.75
448.675	131.75
448.896	129.75
449.117	126.75
449.338	156.75
449.559	136.75
449.779	130.75
450	135.75
450.221	123.75
450.442	143.75
450.662	109.75
450.883	143.75
451.104	136.75
451.324	133.75
451.545	135.75
451.766	144.75
451.986	147.75
452.207	122.75
452.428	120.75
452.648	134.75
452.869	113.75
453.089	98.75
453.31	99.75
453.53	103.75
453.751	120.75
453.971	101.75
454.192	98.75
454.412	111.75
454.633	102.75
454.853	113.75
455.073	123.75
455.294	122.75
455.514	129.75
455.734	133.75
455.955	120.75
456.175	120.75
456.395	123.75
456.616	116.75
456.836	101.75
457.056	108.75
457.276	110.75
457.497	110.75
457.717	113.75
457.937	109.75
458.157	126.75
458.377	92.75
458.598	106.75
458.818	97.75
459.038	72.75
459.258	86.75
459.478	83.75
459.698	79.75
459.918	93.75
460.138	107.75
460.358	110.75
460.578	123.75
460.798	110.75
461.018	118.75
461.238	132.75
461.458	117.75
461.678	109.75
461.898	100.75
462.118	103.75
462.338	108.75
462.558	111.75
462.777	116.75
462.997	115.75
463.217	116.75
463.437	110.75
463.657	125.75
463.876	99.75
464.096	100.75
464.316	98.75
464.536	117.75
464.755	118.75
464.975	126.75
465.195	113.75
465.414	101.75
465.634	129.75
465.854	110.75
466.073	110.75
466.293	119.75
466.512	133.75
466.732	134.75
466.951	136.75
467.171	127.75
467.391	118.75
467.61	132.75
467.829	134.75
468.049	133.75
468.268	128.75
468.488	124.75
468.707	134.75
468.927	125.75
469.146	120.75
469.365	143.75
469.585	141.75
469.804	151.75
470.023	137.75
470.243	142.75
470.462	129.75
470.681	139.75
470.901	136.75
471.12	125.75
471.339	133.75
471.558	139.75
471.777	147.75
471.997	133.75
472.216	125.75
472.435	118.75
472.654	117.75
472.873	110.75
473.092	111.75
473.311	125.75
473.53	125.75
473.749	117.75
473.968	126.75
474.187	110.75
474.406	115.75
474.625	115.75
474.844	132.75
475.063	122.75
475.282	132.75
475.501	110.75
475.72	120.75
475.939	122.75
476.158	131.75
476.377	127.75
476.596	129.75
476.814	99.75
477.033	121.75
477.252	119.75
477.471	121.75
477.69	129.75
477.908	121.75
478.127	130.75
478.346	124.75
478.564	121.75
478.783	132.75
479.002	131.75
479.22	125.75
479.439	134.75
479.658	106.75
479.876	133.75
480.095	101.75
480.313	119.75
480.532	120.75
480.751	116.75
480.969	88.75
481.188	89.75
481.406	106.75
481.624	87.75
481.843	83.75
482.061	93.75
482.28	111.75
482.498	104.75
482.717	113.75
482.935	124.75
483.153	147.75
483.372	163.75
483.59	153.75
483.808	147.75
484.027	150.75
484.245	133.75
484.463	141.75
484.681	154.75
484.9	140.75
485.118	155.75
485.336	130.75
485.554	93.75
485.772	104.75
485.99	103.75
486.209	106.75
486.427	112.75
486.645	119.75
486.863	124.75
487.081	149.75
487.299	138.75
487.517	137.75
487.735	161.75
487.953	175.75
488.171	170.75
488.389	163.75
488.607	166.75
488.825	148.75
489.043	132.75
489.261	125.75
489.479	134.75
489.696	148.75
489.914	139.75
490.132	131.75
490.35	151.75
490.568	148.75
490.786	169.75
491.003	174.75
491.221	172.75
491.439	177.75
491.657	192.75
491.874	198.75
492.092	221.75
492.31	245.75
492.527	241.75
492.745	216.75
492.963	195.75
493.18	180.75
493.398	204.75
493.615	188.75
493.833	168.75
494.05	177.75
494.268	166.75
494.485	184.75
494.703	174.75
494.92	165.75
495.138	169.75
495.355	160.75
495.573	172.75
495.79	166.75
496.008	187.75
496.225	165.75
496.442	162.75
496.66	162.75
496.877	153.75
497.094	156.75
497.312	146.75
497.529	169.75
497.746	152.75
497.963	133.75
498.181	129.75
498.398	124.75
498.615	116.75
498.832	109.75
499.049	118.75
499.267	127.75
499.484	125.75
499.701	131.75
499.918	135.75
500.135	139.75
500.352	148.75
500.569	141.75
500.786	133.75
501.003	140.75
501.22	142.75
501.437	142.75
501.654	148.75
501.871	139.75
502.088	149.75
502.305	154.75
502.522	129.75
502.739	120.75
502.956	124.75
503.172	122.75
503.389	116.75
503.606	110.75
503.823	118.75
504.04	123.75
504.256	121.75
504.473	120.75
504.69	117.75
504.907	135.75
505.123	131.75
505.34	115.75
505.557	126.75
505.773	125.75
505.99	106.75
506.207	120.75
506.423	111.75
506.64	101.75
506.856	115.75
507.073	117.75
507.289	127.75
507.506	132.75
507.722	100.75
507.939	106.75
508.155	109.75
508.372	103.75
508.588	114.75
508.805	117.75
509.021	113.75
509.238	121.75
509.454	99.75
509.67	100.75
509.887	98.75
510.103	100.75
510.319	92.75
510.536	108.75
510.752	98.75
510.968	87.75
511.184	81.75
511.401	85.75
511.617	83.75
