Data from Location1.07152019.Energy5.Lamp.07192019.3%Agarose_HRD10591_14-30-51-015.txt Node
Date: Fri Jul 19 14:30:51 EDT 2019
User: cochatt
Spectrometer: HR+D1059
Trigger mode: 1
Integration Time (sec): 1.000000E-1
Scans to average: 1
Electric dark correction enabled: true
Nonlinearity correction enabled: false
Boxcar width: 0
XAxis mode: Wavelengths
Number of Pixels in Spectrum: 2048
>>>>>Begin Spectral Data<<<<<
223.165	-12.44
223.4	-12.44
223.635	-12.44
223.869	-17.44
224.104	-23.44
224.338	-11.44
224.573	-6.44
224.808	-7.44
225.042	-5.44
225.277	-8.44
225.511	-6.44
225.746	10.56
225.98	2.56
226.215	16.56
226.449	13.56
226.683	17.56
226.918	16.56
227.152	21.56
227.387	20.56
227.621	28.56
227.856	33.56
228.09	41.56
228.324	42.56
228.559	45.56
228.793	46.56
229.027	46.56
229.262	53.56
229.496	74.56
229.73	73.56
229.964	75.56
230.199	50.56
230.433	88.56
230.667	73.56
230.901	67.56
231.136	73.56
231.37	77.56
231.604	74.56
231.838	76.56
232.072	62.56
232.306	80.56
232.541	75.56
232.775	85.56
233.009	84.56
233.243	68.56
233.477	76.56
233.711	73.56
233.945	76.56
234.179	72.56
234.413	66.56
234.647	88.56
234.881	70.56
235.115	85.56
235.349	80.56
235.583	81.56
235.817	84.56
236.051	58.56
236.285	72.56
236.519	80.56
236.753	70.56
236.987	71.56
237.221	69.56
237.455	57.56
237.689	62.56
237.922	65.56
238.156	76.56
238.39	78.56
238.624	71.56
238.858	73.56
239.091	79.56
239.325	77.56
239.559	56.56
239.793	82.56
240.027	72.56
240.26	67.56
240.494	74.56
240.728	73.56
240.961	94.56
241.195	76.56
241.429	79.56
241.662	76.56
241.896	87.56
242.13	72.56
242.363	74.56
242.597	82.56
242.83	67.56
243.064	86.56
243.298	82.56
243.531	70.56
243.765	94.56
243.998	73.56
244.232	68.56
244.465	68.56
244.699	76.56
244.932	60.56
245.166	68.56
245.399	86.56
245.633	82.56
245.866	71.56
246.099	69.56
246.333	74.56
246.566	68.56
246.8	71.56
247.033	81.56
247.266	59.56
247.5	64.56
247.733	71.56
247.966	73.56
248.2	82.56
248.433	86.56
248.666	73.56
248.899	76.56
249.133	69.56
249.366	77.56
249.599	71.56
249.832	72.56
250.066	80.56
250.299	68.56
250.532	72.56
250.765	61.56
250.998	70.56
251.231	66.56
251.465	66.56
251.698	80.56
251.931	69.56
252.164	73.56
252.397	85.56
252.63	70.56
252.863	76.56
253.096	58.56
253.329	79.56
253.562	76.56
253.795	68.56
254.028	67.56
254.261	65.56
254.494	78.56
254.727	66.56
254.96	61.56
255.193	73.56
255.426	85.56
255.659	82.56
255.892	86.56
256.124	77.56
256.357	77.56
256.59	74.56
256.823	62.56
257.056	77.56
257.289	70.56
257.521	70.56
257.754	77.56
257.987	69.56
258.22	72.56
258.452	80.56
258.685	86.56
258.918	79.56
259.151	82.56
259.383	89.56
259.616	72.56
259.849	67.56
260.081	62.56
260.314	72.56
260.547	72.56
260.779	68.56
261.012	71.56
261.244	77.56
261.477	75.56
261.71	74.56
261.942	64.56
262.175	72.56
262.407	71.56
262.64	85.56
262.872	75.56
263.105	68.56
263.337	83.56
263.57	73.56
263.802	71.56
264.035	75.56
264.267	79.56
264.499	87.56
264.732	87.56
264.964	85.56
265.197	73.56
265.429	70.56
265.661	68.56
265.894	66.56
266.126	76.56
266.358	70.56
266.591	84.56
266.823	73.56
267.055	73.56
267.287	71.56
267.52	68.56
267.752	77.56
267.984	83.56
268.216	75.56
268.448	73.56
268.681	78.56
268.913	85.56
269.145	75.56
269.377	80.56
269.609	70.56
269.841	89.56
270.073	67.56
270.306	74.56
270.538	75.56
270.77	77.56
271.002	79.56
271.234	60.56
271.466	74.56
271.698	81.56
271.93	74.56
272.162	78.56
272.394	82.56
272.626	73.56
272.858	89.56
273.09	81.56
273.322	86.56
273.553	74.56
273.785	82.56
274.017	89.56
274.249	83.56
274.481	87.56
274.713	81.56
274.945	68.56
275.176	82.56
275.408	69.56
275.64	68.56
275.872	63.56
276.104	76.56
276.335	72.56
276.567	79.56
276.799	82.56
277.031	69.56
277.262	84.56
277.494	82.56
277.726	70.56
277.957	86.56
278.189	71.56
278.421	71.56
278.652	64.56
278.884	87.56
279.115	85.56
279.347	76.56
279.579	80.56
279.81	77.56
280.042	74.56
280.273	70.56
280.505	79.56
280.736	76.56
280.968	85.56
281.199	85.56
281.431	81.56
281.662	83.56
281.894	80.56
282.125	73.56
282.356	93.56
282.588	67.56
282.819	78.56
283.051	74.56
283.282	80.56
283.513	88.56
283.745	66.56
283.976	77.56
284.207	83.56
284.439	90.56
284.67	90.56
284.901	88.56
285.132	81.56
285.364	78.56
285.595	75.56
285.826	97.56
286.057	88.56
286.288	80.56
286.52	77.56
286.751	66.56
286.982	69.56
287.213	83.56
287.444	80.56
287.675	74.56
287.906	84.56
288.138	89.56
288.369	85.56
288.6	82.56
288.831	86.56
289.062	76.56
289.293	82.56
289.524	75.56
289.755	85.56
289.986	78.56
290.217	73.56
290.448	74.56
290.679	79.56
290.91	86.56
291.141	95.56
291.371	97.56
291.602	69.56
291.833	83.56
292.064	85.56
292.295	78.56
292.526	86.56
292.757	74.56
292.987	80.56
293.218	68.56
293.449	88.56
293.68	78.56
293.91	76.56
294.141	93.56
294.372	69.56
294.603	77.56
294.833	83.56
295.064	80.56
295.295	71.56
295.525	76.56
295.756	81.56
295.987	86.56
296.217	76.56
296.448	81.56
296.679	68.56
296.909	71.56
297.14	70.56
297.37	72.56
297.601	85.56
297.831	84.56
298.062	76.56
298.292	85.56
298.523	78.56
298.753	79.56
298.984	82.56
299.214	71.56
299.445	72.56
299.675	73.56
299.905	101.56
300.136	72.56
300.366	90.56
300.597	82.56
300.827	78.56
301.057	76.56
301.288	79.56
301.518	70.56
301.748	78.56
301.979	76.56
302.209	74.56
302.439	77.56
302.669	100.56
302.9	83.56
303.13	78.56
303.36	63.56
303.59	81.56
303.82	73.56
304.051	93.56
304.281	72.56
304.511	98.56
304.741	83.56
304.971	83.56
305.201	77.56
305.431	79.56
305.661	81.56
305.891	89.56
306.121	76.56
306.352	79.56
306.582	80.56
306.812	97.56
307.042	64.56
307.272	71.56
307.502	77.56
307.731	70.56
307.961	71.56
308.191	85.56
308.421	82.56
308.651	83.56
308.881	68.56
309.111	71.56
309.341	66.56
309.571	87.56
309.8	74.56
310.03	75.56
310.26	86.56
310.49	77.56
310.72	83.56
310.949	77.56
311.179	72.56
311.409	70.56
311.639	84.56
311.868	72.56
312.098	88.56
312.328	69.56
312.557	79.56
312.787	74.56
313.017	73.56
313.246	77.56
313.476	83.56
313.706	77.56
313.935	84.56
314.165	77.56
314.394	80.56
314.624	84.56
314.853	80.56
315.083	84.56
315.312	85.56
315.542	93.56
315.771	80.56
316.001	70.56
316.23	76.56
316.46	84.56
316.689	88.56
316.919	75.56
317.148	80.56
317.377	77.56
317.607	77.56
317.836	76.56
318.065	83.56
318.295	71.56
318.524	70.56
318.753	85.56
318.983	85.56
319.212	85.56
319.441	96.56
319.67	87.56
319.9	76.56
320.129	73.56
320.358	72.56
320.587	74.56
320.816	86.56
321.046	71.56
321.275	88.56
321.504	76.56
321.733	89.56
321.962	79.56
322.191	92.56
322.42	71.56
322.649	85.56
322.878	101.56
323.108	88.56
323.337	81.56
323.566	83.56
323.795	67.56
324.024	81.56
324.253	79.56
324.482	76.56
324.71	92.56
324.939	97.56
325.168	78.56
325.397	83.56
325.626	95.56
325.855	71.56
326.084	87.56
326.313	90.56
326.542	77.56
326.77	96.56
326.999	90.56
327.228	83.56
327.457	83.56
327.686	84.56
327.914	84.56
328.143	78.56
328.372	63.56
328.6	80.56
328.829	87.56
329.058	103.56
329.287	77.56
329.515	81.56
329.744	80.56
329.972	75.56
330.201	90.56
330.43	77.56
330.658	81.56
330.887	74.56
331.115	70.56
331.344	81.56
331.572	81.56
331.801	87.56
332.03	82.56
332.258	90.56
332.486	73.56
332.715	71.56
332.943	80.56
333.172	66.56
333.4	78.56
333.629	95.56
333.857	68.56
334.085	84.56
334.314	82.56
334.542	85.56
334.771	92.56
334.999	72.56
335.227	88.56
335.455	80.56
335.684	94.56
335.912	73.56
336.14	62.56
336.369	78.56
336.597	92.56
336.825	76.56
337.053	75.56
337.281	87.56
337.51	70.56
337.738	78.56
337.966	78.56
338.194	97.56
338.422	90.56
338.65	92.56
338.878	93.56
339.106	68.56
339.334	96.56
339.562	78.56
339.79	79.56
340.018	90.56
340.246	76.56
340.474	74.56
340.702	83.56
340.93	80.56
341.158	97.56
341.386	78.56
341.614	73.56
341.842	78.56
342.07	80.56
342.298	73.56
342.526	81.56
342.754	78.56
342.981	77.56
343.209	81.56
343.437	72.56
343.665	69.56
343.893	92.56
344.12	79.56
344.348	84.56
344.576	64.56
344.804	71.56
345.031	72.56
345.259	76.56
345.487	85.56
345.714	94.56
345.942	87.56
346.17	74.56
346.397	78.56
346.625	75.56
346.853	68.56
347.08	85.56
347.308	95.56
347.535	91.56
347.763	78.56
347.99	70.56
348.218	89.56
348.445	84.56
348.673	89.56
348.9	83.56
349.128	85.56
349.355	70.56
349.583	87.56
349.81	95.56
350.037	80.56
350.265	89.56
350.492	83.56
350.72	69.56
350.947	73.56
351.174	85.56
351.402	87.56
351.629	79.56
351.856	84.56
352.083	82.56
352.311	80.56
352.538	77.56
352.765	78.56
352.992	85.56
353.22	73.56
353.447	72.56
353.674	85.56
353.901	78.56
354.128	93.56
354.355	77.56
354.583	82.56
354.81	74.56
355.037	86.56
355.264	84.56
355.491	70.56
355.718	78.56
355.945	78.56
356.172	83.56
356.399	95.56
356.626	71.56
356.853	79.56
357.08	80.56
357.307	70.56
357.534	82.56
357.761	68.56
357.988	79.56
358.215	72.56
358.441	72.56
358.668	68.56
358.895	73.56
359.122	82.56
359.349	80.56
359.576	92.56
359.802	73.56
360.029	75.56
360.256	58.56
360.483	68.56
360.709	70.56
360.936	64.56
361.163	92.56
361.39	88.56
361.616	83.56
361.843	74.56
362.07	68.56
362.296	74.56
362.523	60.56
362.749	82.56
362.976	70.56
363.203	77.56
363.429	74.56
363.656	79.56
363.882	68.56
364.109	75.56
364.335	85.56
364.562	79.56
364.788	68.56
365.015	77.56
365.241	87.56
365.468	95.56
365.694	72.56
365.92	72.56
366.147	86.56
366.373	90.56
366.599	71.56
366.826	85.56
367.052	87.56
367.278	81.56
367.505	85.56
367.731	70.56
367.957	70.56
368.184	77.56
368.41	81.56
368.636	85.56
368.862	73.56
369.089	73.56
369.315	68.56
369.541	82.56
369.767	82.56
369.993	85.56
370.219	73.56
370.445	82.56
370.672	74.56
370.898	64.56
371.124	80.56
371.35	66.56
371.576	81.56
371.802	82.56
372.028	80.56
372.254	73.56
372.48	89.56
372.706	88.56
372.932	85.56
373.158	97.56
373.384	96.56
373.61	81.56
373.835	78.56
374.061	78.56
374.287	89.56
374.513	88.56
374.739	88.56
374.965	76.56
375.191	80.56
375.416	68.56
375.642	101.56
375.868	88.56
376.094	75.56
376.319	67.56
376.545	86.56
376.771	83.56
376.997	82.56
377.222	84.56
377.448	83.56
377.674	87.56
377.899	90.56
378.125	77.56
378.35	94.56
378.576	76.56
378.802	84.56
379.027	76.56
379.253	79.56
379.478	70.56
379.704	74.56
379.929	79.56
380.155	85.56
380.38	89.56
380.606	93.56
380.831	104.56
381.057	103.56
381.282	84.56
381.507	93.56
381.733	90.56
381.958	76.56
382.184	95.56
382.409	81.56
382.634	86.56
382.86	85.56
383.085	74.56
383.31	84.56
383.535	80.56
383.761	94.56
383.986	91.56
384.211	100.56
384.436	81.56
384.662	78.56
384.887	94.56
385.112	91.56
385.337	90.56
385.562	92.56
385.787	99.56
386.013	111.56
386.238	97.56
386.463	89.56
386.688	87.56
386.913	99.56
387.138	86.56
387.363	94.56
387.588	88.56
387.813	94.56
388.038	84.56
388.263	91.56
388.488	106.56
388.713	96.56
388.938	89.56
389.163	102.56
389.387	107.56
389.612	97.56
389.837	103.56
390.062	88.56
390.287	82.56
390.512	98.56
390.736	100.56
390.961	87.56
391.186	100.56
391.411	115.56
391.636	103.56
391.86	113.56
392.085	105.56
392.31	96.56
392.534	104.56
392.759	89.56
392.984	99.56
393.208	99.56
393.433	105.56
393.658	92.56
393.882	100.56
394.107	98.56
394.331	105.56
394.556	101.56
394.78	97.56
395.005	101.56
395.229	112.56
395.454	112.56
395.678	116.56
395.903	104.56
396.127	101.56
396.352	102.56
396.576	95.56
396.801	110.56
397.025	96.56
397.249	90.56
397.474	91.56
397.698	118.56
397.922	108.56
398.147	103.56
398.371	93.56
398.595	86.56
398.82	81.56
399.044	94.56
399.268	96.56
399.492	103.56
399.717	103.56
399.941	105.56
400.165	97.56
400.389	99.56
400.613	105.56
400.837	112.56
401.062	100.56
401.286	94.56
401.51	105.56
401.734	101.56
401.958	123.56
402.182	114.56
402.406	114.56
402.63	96.56
402.854	104.56
403.078	95.56
403.302	104.56
403.526	115.56
403.75	108.56
403.974	100.56
404.198	110.56
404.422	110.56
404.645	126.56
404.869	122.56
405.093	106.56
405.317	114.56
405.541	115.56
405.765	124.56
405.988	108.56
406.212	100.56
406.436	104.56
406.66	100.56
406.883	122.56
407.107	108.56
407.331	103.56
407.555	91.56
407.778	112.56
408.002	116.56
408.226	118.56
408.449	114.56
408.673	105.56
408.896	100.56
409.12	109.56
409.344	103.56
409.567	112.56
409.791	118.56
410.014	128.56
410.238	124.56
410.461	121.56
410.685	110.56
410.908	124.56
411.132	128.56
411.355	112.56
411.578	113.56
411.802	124.56
412.025	112.56
412.249	126.56
412.472	108.56
412.695	113.56
412.919	117.56
413.142	125.56
413.365	97.56
413.589	114.56
413.812	113.56
414.035	118.56
414.258	105.56
414.482	122.56
414.705	122.56
414.928	128.56
415.151	115.56
415.374	110.56
415.597	116.56
415.821	136.56
416.044	123.56
416.267	133.56
416.49	134.56
416.713	104.56
416.936	120.56
417.159	109.56
417.382	124.56
417.605	104.56
417.828	118.56
418.051	126.56
418.274	115.56
418.497	135.56
418.72	130.56
418.943	137.56
419.166	126.56
419.389	131.56
419.611	119.56
419.834	123.56
420.057	132.56
420.28	128.56
420.503	121.56
420.726	126.56
420.948	118.56
421.171	124.56
421.394	136.56
421.617	130.56
421.839	133.56
422.062	139.56
422.285	134.56
422.507	126.56
422.73	111.56
422.953	116.56
423.175	108.56
423.398	120.56
423.621	121.56
423.843	121.56
424.066	137.56
424.288	101.56
424.511	140.56
424.733	140.56
424.956	137.56
425.178	136.56
425.401	132.56
425.623	120.56
425.846	124.56
426.068	144.56
426.291	126.56
426.513	144.56
426.735	117.56
426.958	124.56
427.18	127.56
427.402	133.56
427.625	118.56
427.847	109.56
428.069	118.56
428.292	117.56
428.514	125.56
428.736	127.56
428.958	126.56
429.181	123.56
429.403	117.56
429.625	122.56
429.847	120.56
430.069	120.56
430.292	126.56
430.514	128.56
430.736	114.56
430.958	122.56
431.18	116.56
431.402	120.56
431.624	120.56
431.846	107.56
432.068	90.56
432.29	87.56
432.512	112.56
432.734	126.56
432.956	125.56
433.178	128.56
433.4	140.56
433.622	138.56
433.844	132.56
434.066	127.56
434.287	97.56
434.509	89.56
434.731	107.56
434.953	108.56
435.175	116.56
435.397	112.56
435.618	123.56
435.84	116.56
436.062	113.56
436.284	125.56
436.505	123.56
436.727	129.56
436.949	125.56
437.17	116.56
437.392	116.56
437.614	127.56
437.835	95.56
438.057	100.56
438.278	105.56
438.5	121.56
438.721	143.56
438.943	134.56
439.165	135.56
439.386	128.56
439.608	116.56
439.829	138.56
440.05	135.56
440.272	138.56
440.493	132.56
440.715	133.56
440.936	142.56
441.158	152.56
441.379	134.56
441.6	153.56
441.822	139.56
442.043	129.56
442.264	134.56
442.486	129.56
442.707	129.56
442.928	127.56
443.149	137.56
443.371	142.56
443.592	131.56
443.813	137.56
444.034	136.56
444.255	128.56
444.476	124.56
444.698	120.56
444.919	125.56
445.14	265.56
445.361	199.56
445.582	146.56
445.803	144.56
446.024	145.56
446.245	141.56
446.466	156.56
446.687	157.56
446.908	158.56
447.129	158.56
447.35	142.56
447.571	145.56
447.792	136.56
448.013	128.56
448.234	134.56
448.455	136.56
448.675	116.56
448.896	147.56
449.117	137.56
449.338	138.56
449.559	138.56
449.779	139.56
450	128.56
450.221	128.56
450.442	125.56
450.662	144.56
450.883	134.56
451.104	122.56
451.324	121.56
451.545	113.56
451.766	128.56
451.986	124.56
452.207	126.56
452.428	113.56
452.648	115.56
452.869	106.56
453.089	110.56
453.31	110.56
453.53	91.56
453.751	97.56
453.971	106.56
454.192	109.56
454.412	94.56
454.633	126.56
454.853	114.56
455.073	125.56
455.294	120.56
455.514	122.56
455.734	122.56
455.955	111.56
456.175	111.56
456.395	105.56
456.616	112.56
456.836	112.56
457.056	104.56
457.276	90.56
457.497	103.56
457.717	120.56
457.937	105.56
458.157	93.56
458.377	96.56
458.598	90.56
458.818	99.56
459.038	81.56
459.258	78.56
459.478	90.56
459.698	89.56
459.918	98.56
460.138	106.56
460.358	86.56
460.578	105.56
460.798	118.56
461.018	97.56
461.238	105.56
461.458	107.56
461.678	103.56
461.898	99.56
462.118	120.56
462.338	111.56
462.558	100.56
462.777	108.56
462.997	113.56
463.217	112.56
463.437	96.56
463.657	88.56
463.876	98.56
464.096	105.56
464.316	96.56
464.536	105.56
464.755	108.56
464.975	94.56
465.195	116.56
465.414	104.56
465.634	90.56
465.854	101.56
466.073	108.56
466.293	110.56
466.512	112.56
466.732	129.56
466.951	126.56
467.171	120.56
467.391	124.56
467.61	118.56
467.829	125.56
468.049	130.56
468.268	142.56
468.488	134.56
468.707	148.56
468.927	132.56
469.146	131.56
469.365	129.56
469.585	134.56
469.804	132.56
470.023	128.56
470.243	134.56
470.462	116.56
470.681	126.56
470.901	126.56
471.12	138.56
471.339	138.56
471.558	128.56
471.777	135.56
471.997	137.56
472.216	129.56
472.435	116.56
472.654	112.56
472.873	113.56
473.092	102.56
473.311	115.56
473.53	115.56
473.749	143.56
473.968	124.56
474.187	105.56
474.406	119.56
474.625	119.56
474.844	127.56
475.063	121.56
475.282	134.56
475.501	114.56
475.72	118.56
475.939	126.56
476.158	116.56
476.377	121.56
476.596	124.56
476.814	119.56
477.033	102.56
477.252	97.56
477.471	119.56
477.69	123.56
477.908	116.56
478.127	147.56
478.346	140.56
478.564	124.56
478.783	111.56
479.002	130.56
479.22	132.56
479.439	108.56
479.658	120.56
479.876	114.56
480.095	112.56
480.313	104.56
480.532	109.56
480.751	112.56
480.969	89.56
481.188	98.56
481.406	72.56
481.624	77.56
481.843	83.56
482.061	89.56
482.28	99.56
482.498	108.56
482.717	94.56
482.935	126.56
483.153	142.56
483.372	158.56
483.59	158.56
483.808	129.56
484.027	136.56
484.245	128.56
484.463	153.56
484.681	148.56
484.9	146.56
485.118	134.56
485.336	126.56
485.554	113.56
485.772	81.56
485.99	107.56
486.209	103.56
486.427	96.56
486.645	117.56
486.863	132.56
487.081	133.56
487.299	128.56
487.517	121.56
487.735	152.56
487.953	164.56
488.171	175.56
488.389	150.56
488.607	144.56
488.825	129.56
489.043	130.56
489.261	123.56
489.479	130.56
489.696	138.56
489.914	131.56
490.132	142.56
490.35	154.56
490.568	147.56
490.786	162.56
491.003	158.56
491.221	164.56
491.439	187.56
491.657	169.56
491.874	202.56
492.092	228.56
492.31	229.56
492.527	223.56
492.745	186.56
492.963	193.56
493.18	168.56
493.398	175.56
493.615	176.56
493.833	144.56
494.05	147.56
494.268	149.56
494.485	154.56
494.703	148.56
494.92	158.56
495.138	150.56
495.355	156.56
495.573	154.56
495.79	146.56
496.008	168.56
496.225	161.56
496.442	172.56
496.66	152.56
496.877	163.56
497.094	163.56
497.312	145.56
497.529	149.56
497.746	149.56
497.963	128.56
498.181	128.56
498.398	131.56
498.615	115.56
498.832	107.56
499.049	97.56
499.267	108.56
499.484	117.56
499.701	137.56
499.918	132.56
500.135	112.56
500.352	121.56
500.569	136.56
500.786	126.56
501.003	137.56
501.22	126.56
501.437	137.56
501.654	122.56
501.871	130.56
502.088	117.56
502.305	120.56
502.522	134.56
502.739	118.56
502.956	114.56
503.172	126.56
503.389	112.56
503.606	117.56
503.823	115.56
504.04	101.56
504.256	116.56
504.473	94.56
504.69	115.56
504.907	116.56
505.123	114.56
505.34	115.56
505.557	110.56
505.773	119.56
505.99	116.56
506.207	106.56
506.423	103.56
506.64	113.56
506.856	108.56
507.073	120.56
507.289	105.56
507.506	117.56
507.722	112.56
507.939	115.56
508.155	122.56
508.372	101.56
508.588	118.56
508.805	110.56
509.021	104.56
509.238	95.56
509.454	96.56
509.67	93.56
509.887	94.56
510.103	89.56
510.319	99.56
510.536	84.56
510.752	86.56
510.968	82.56
511.184	80.56
511.401	84.56
511.617	85.56
511.833	90.56
512.049	94.56
512.265	82.56
512.481	81.56
