Data from Location1.07152019.Energy5.Lamp.07192019.3%Agarose_HRD10591_14-33-03-016.txt Node
Date: Fri Jul 19 14:33:03 EDT 2019
User: cochatt
Spectrometer: HR+D1059
Trigger mode: 1
Integration Time (sec): 1.000000E-1
Scans to average: 1
Electric dark correction enabled: true
Nonlinearity correction enabled: false
Boxcar width: 0
XAxis mode: Wavelengths
Number of Pixels in Spectrum: 2048
>>>>>Begin Spectral Data<<<<<
223.165	-6.19
223.4	-6.19
223.635	-6.19
223.869	-20.19
224.104	-6.19
224.338	-13.19
224.573	-9.19
224.808	-15.19
225.042	-11.19
225.277	-10.19
225.511	-6.19
225.746	8.81
225.98	1.81
226.215	4.81
226.449	7.81
226.683	24.81
226.918	17.81
227.152	31.81
227.387	28.81
227.621	41.81
227.856	44.81
228.09	44.81
228.324	40.81
228.559	55.81
228.793	58.81
229.027	64.81
229.262	60.81
229.496	69.81
229.73	57.81
229.964	75.81
230.199	82.81
230.433	79.81
230.667	83.81
230.901	69.81
231.136	74.81
231.37	79.81
231.604	87.81
231.838	70.81
232.072	78.81
232.306	64.81
232.541	77.81
232.775	82.81
233.009	73.81
233.243	76.81
233.477	69.81
233.711	79.81
233.945	79.81
234.179	83.81
234.413	78.81
234.647	92.81
234.881	79.81
235.115	79.81
235.349	73.81
235.583	77.81
235.817	81.81
236.051	66.81
236.285	76.81
236.519	77.81
236.753	81.81
236.987	75.81
237.221	75.81
237.455	75.81
237.689	86.81
237.922	69.81
238.156	62.81
238.39	72.81
238.624	79.81
238.858	75.81
239.091	68.81
239.325	69.81
239.559	75.81
239.793	80.81
240.027	77.81
240.26	79.81
240.494	73.81
240.728	69.81
240.961	77.81
241.195	67.81
241.429	72.81
241.662	67.81
241.896	61.81
242.13	61.81
242.363	74.81
242.597	69.81
242.83	79.81
243.064	75.81
243.298	77.81
243.531	68.81
243.765	76.81
243.998	67.81
244.232	87.81
244.465	86.81
244.699	82.81
244.932	76.81
245.166	70.81
245.399	85.81
245.633	72.81
245.866	85.81
246.099	70.81
246.333	81.81
246.566	83.81
246.8	68.81
247.033	65.81
247.266	85.81
247.5	77.81
247.733	70.81
247.966	76.81
248.2	77.81
248.433	69.81
248.666	88.81
248.899	76.81
249.133	84.81
249.366	71.81
249.599	69.81
249.832	88.81
250.066	80.81
250.299	73.81
250.532	88.81
250.765	73.81
250.998	61.81
251.231	83.81
251.465	95.81
251.698	70.81
251.931	80.81
252.164	66.81
252.397	82.81
252.63	69.81
252.863	77.81
253.096	75.81
253.329	87.81
253.562	76.81
253.795	82.81
254.028	88.81
254.261	85.81
254.494	75.81
254.727	90.81
254.96	74.81
255.193	74.81
255.426	76.81
255.659	64.81
255.892	64.81
256.124	72.81
256.357	60.81
256.59	76.81
256.823	89.81
257.056	86.81
257.289	72.81
257.521	76.81
257.754	73.81
257.987	86.81
258.22	81.81
258.452	72.81
258.685	66.81
258.918	62.81
259.151	82.81
259.383	82.81
259.616	87.81
259.849	85.81
260.081	75.81
260.314	79.81
260.547	78.81
260.779	72.81
261.012	78.81
261.244	71.81
261.477	77.81
261.71	84.81
261.942	84.81
262.175	79.81
262.407	78.81
262.64	75.81
262.872	85.81
263.105	96.81
263.337	84.81
263.57	79.81
263.802	87.81
264.035	86.81
264.267	88.81
264.499	83.81
264.732	70.81
264.964	76.81
265.197	87.81
265.429	83.81
265.661	84.81
265.894	97.81
266.126	73.81
266.358	86.81
266.591	80.81
266.823	87.81
267.055	89.81
267.287	82.81
267.52	68.81
267.752	90.81
267.984	76.81
268.216	70.81
268.448	82.81
268.681	86.81
268.913	82.81
269.145	93.81
269.377	75.81
269.609	88.81
269.841	77.81
270.073	88.81
270.306	88.81
270.538	83.81
270.77	78.81
271.002	70.81
271.234	67.81
271.466	90.81
271.698	86.81
271.93	87.81
272.162	74.81
272.394	68.81
272.626	67.81
272.858	82.81
273.09	82.81
273.322	87.81
273.553	70.81
273.785	92.81
274.017	82.81
274.249	92.81
274.481	67.81
274.713	75.81
274.945	82.81
275.176	75.81
275.408	65.81
275.64	73.81
275.872	82.81
276.104	74.81
276.335	82.81
276.567	84.81
276.799	75.81
277.031	82.81
277.262	72.81
277.494	84.81
277.726	77.81
277.957	76.81
278.189	84.81
278.421	77.81
278.652	86.81
278.884	78.81
279.115	70.81
279.347	71.81
279.579	85.81
279.81	77.81
280.042	86.81
280.273	83.81
280.505	75.81
280.736	72.81
280.968	77.81
281.199	74.81
281.431	90.81
281.662	82.81
281.894	101.81
282.125	82.81
282.356	67.81
282.588	75.81
282.819	82.81
283.051	79.81
283.282	77.81
283.513	73.81
283.745	75.81
283.976	81.81
284.207	91.81
284.439	86.81
284.67	77.81
284.901	86.81
285.132	86.81
285.364	76.81
285.595	91.81
285.826	77.81
286.057	103.81
286.288	76.81
286.52	62.81
286.751	78.81
286.982	77.81
287.213	80.81
287.444	87.81
287.675	76.81
287.906	92.81
288.138	76.81
288.369	71.81
288.6	92.81
288.831	86.81
289.062	72.81
289.293	76.81
289.524	85.81
289.755	75.81
289.986	78.81
290.217	85.81
290.448	90.81
290.679	90.81
290.91	80.81
291.141	69.81
291.371	88.81
291.602	77.81
291.833	82.81
292.064	87.81
292.295	80.81
292.526	78.81
292.757	82.81
292.987	76.81
293.218	83.81
293.449	90.81
293.68	81.81
293.91	77.81
294.141	91.81
294.372	82.81
294.603	78.81
294.833	91.81
295.064	91.81
295.295	86.81
295.525	87.81
295.756	82.81
295.987	93.81
296.217	86.81
296.448	92.81
296.679	91.81
296.909	80.81
297.14	97.81
297.37	83.81
297.601	77.81
297.831	80.81
298.062	87.81
298.292	71.81
298.523	88.81
298.753	83.81
298.984	75.81
299.214	69.81
299.445	74.81
299.675	81.81
299.905	93.81
300.136	88.81
300.366	97.81
300.597	85.81
300.827	91.81
301.057	83.81
301.288	84.81
301.518	74.81
301.748	98.81
301.979	101.81
302.209	86.81
302.439	82.81
302.669	83.81
302.9	89.81
303.13	100.81
303.36	84.81
303.59	88.81
303.82	84.81
304.051	97.81
304.281	86.81
304.511	85.81
304.741	84.81
304.971	81.81
305.201	83.81
305.431	76.81
305.661	80.81
305.891	88.81
306.121	83.81
306.352	91.81
306.582	79.81
306.812	93.81
307.042	90.81
307.272	76.81
307.502	101.81
307.731	74.81
307.961	86.81
308.191	81.81
308.421	74.81
308.651	77.81
308.881	88.81
309.111	78.81
309.341	79.81
309.571	82.81
309.8	84.81
310.03	98.81
310.26	95.81
310.49	78.81
310.72	81.81
310.949	71.81
311.179	75.81
311.409	88.81
311.639	86.81
311.868	89.81
312.098	79.81
312.328	78.81
312.557	78.81
312.787	75.81
313.017	91.81
313.246	82.81
313.476	88.81
313.706	77.81
313.935	85.81
314.165	83.81
314.394	81.81
314.624	77.81
314.853	85.81
315.083	92.81
315.312	103.81
315.542	76.81
315.771	84.81
316.001	88.81
316.23	85.81
316.46	76.81
316.689	97.81
316.919	59.81
317.148	84.81
317.377	89.81
317.607	81.81
317.836	78.81
318.065	77.81
318.295	81.81
318.524	100.81
318.753	97.81
318.983	74.81
319.212	85.81
319.441	88.81
319.67	72.81
319.9	83.81
320.129	67.81
320.358	92.81
320.587	84.81
320.816	82.81
321.046	74.81
321.275	76.81
321.504	94.81
321.733	73.81
321.962	85.81
322.191	80.81
322.42	79.81
322.649	84.81
322.878	84.81
323.108	97.81
323.337	85.81
323.566	91.81
323.795	78.81
324.024	84.81
324.253	79.81
324.482	83.81
324.71	81.81
324.939	79.81
325.168	90.81
325.397	88.81
325.626	81.81
325.855	82.81
326.084	91.81
326.313	82.81
326.542	81.81
326.77	80.81
326.999	82.81
327.228	75.81
327.457	89.81
327.686	95.81
327.914	75.81
328.143	79.81
328.372	91.81
328.6	79.81
328.829	76.81
329.058	91.81
329.287	87.81
329.515	82.81
329.744	78.81
329.972	81.81
330.201	87.81
330.43	93.81
330.658	86.81
330.887	68.81
331.115	77.81
331.344	76.81
331.572	83.81
331.801	98.81
332.03	84.81
332.258	77.81
332.486	97.81
332.715	76.81
332.943	93.81
333.172	74.81
333.4	89.81
333.629	76.81
333.857	81.81
334.085	77.81
334.314	70.81
334.542	86.81
334.771	103.81
334.999	89.81
335.227	66.81
335.455	81.81
335.684	88.81
335.912	74.81
336.14	81.81
336.369	81.81
336.597	95.81
336.825	85.81
337.053	76.81
337.281	83.81
337.51	87.81
337.738	87.81
337.966	82.81
338.194	78.81
338.422	91.81
338.65	84.81
338.878	78.81
339.106	69.81
339.334	82.81
339.562	83.81
339.79	74.81
340.018	84.81
340.246	88.81
340.474	80.81
340.702	86.81
340.93	73.81
341.158	72.81
341.386	83.81
341.614	85.81
341.842	84.81
342.07	77.81
342.298	80.81
342.526	80.81
342.754	89.81
342.981	84.81
343.209	79.81
343.437	82.81
343.665	82.81
343.893	100.81
344.12	75.81
344.348	77.81
344.576	89.81
344.804	76.81
345.031	94.81
345.259	83.81
345.487	89.81
345.714	84.81
345.942	78.81
346.17	84.81
346.397	79.81
346.625	82.81
346.853	90.81
347.08	74.81
347.308	90.81
347.535	71.81
347.763	70.81
347.99	83.81
348.218	75.81
348.445	80.81
348.673	85.81
348.9	72.81
349.128	96.81
349.355	84.81
349.583	86.81
349.81	86.81
350.037	86.81
350.265	80.81
350.492	83.81
350.72	84.81
350.947	90.81
351.174	86.81
351.402	82.81
351.629	87.81
351.856	86.81
352.083	93.81
352.311	81.81
352.538	84.81
352.765	88.81
352.992	85.81
353.22	72.81
353.447	83.81
353.674	86.81
353.901	85.81
354.128	76.81
354.355	84.81
354.583	81.81
354.81	90.81
355.037	69.81
355.264	90.81
355.491	84.81
355.718	78.81
355.945	103.81
356.172	74.81
356.399	71.81
356.626	74.81
356.853	80.81
357.08	66.81
357.307	86.81
357.534	82.81
357.761	82.81
357.988	84.81
358.215	82.81
358.441	85.81
358.668	74.81
358.895	77.81
359.122	82.81
359.349	96.81
359.576	78.81
359.802	81.81
360.029	78.81
360.256	98.81
360.483	81.81
360.709	76.81
360.936	87.81
361.163	88.81
361.39	77.81
361.616	82.81
361.843	93.81
362.07	89.81
362.296	89.81
362.523	102.81
362.749	77.81
362.976	84.81
363.203	66.81
363.429	75.81
363.656	88.81
363.882	91.81
364.109	81.81
364.335	76.81
364.562	75.81
364.788	90.81
365.015	78.81
365.241	74.81
365.468	86.81
365.694	94.81
365.92	77.81
366.147	92.81
366.373	84.81
366.599	74.81
366.826	107.81
367.052	86.81
367.278	82.81
367.505	91.81
367.731	93.81
367.957	89.81
368.184	95.81
368.41	93.81
368.636	96.81
368.862	82.81
369.089	81.81
369.315	83.81
369.541	75.81
369.767	89.81
369.993	81.81
370.219	97.81
370.445	85.81
370.672	83.81
370.898	84.81
371.124	85.81
371.35	73.81
371.576	89.81
371.802	73.81
372.028	91.81
372.254	72.81
372.48	93.81
372.706	85.81
372.932	95.81
373.158	81.81
373.384	91.81
373.61	73.81
373.835	90.81
374.061	91.81
374.287	97.81
374.513	95.81
374.739	81.81
374.965	81.81
375.191	105.81
375.416	86.81
375.642	79.81
375.868	85.81
376.094	91.81
376.319	85.81
376.545	108.81
376.771	93.81
376.997	92.81
377.222	83.81
377.448	91.81
377.674	87.81
377.899	92.81
378.125	95.81
378.35	106.81
378.576	83.81
378.802	94.81
379.027	105.81
379.253	105.81
379.478	102.81
379.704	85.81
379.929	89.81
380.155	100.81
380.38	114.81
380.606	96.81
380.831	90.81
381.057	122.81
381.282	102.81
381.507	99.81
381.733	91.81
381.958	103.81
382.184	89.81
382.409	98.81
382.634	93.81
382.86	87.81
383.085	100.81
383.31	98.81
383.535	101.81
383.761	103.81
383.986	100.81
384.211	86.81
384.436	101.81
384.662	96.81
384.887	101.81
385.112	84.81
385.337	97.81
385.562	91.81
385.787	88.81
386.013	108.81
386.238	115.81
386.463	89.81
386.688	98.81
386.913	90.81
387.138	91.81
387.363	104.81
387.588	102.81
387.813	94.81
388.038	90.81
388.263	101.81
388.488	92.81
388.713	83.81
388.938	100.81
389.163	103.81
389.387	106.81
389.612	95.81
389.837	99.81
390.062	108.81
390.287	102.81
390.512	87.81
390.736	92.81
390.961	108.81
391.186	89.81
391.411	94.81
391.636	100.81
391.86	104.81
392.085	87.81
392.31	90.81
392.534	107.81
392.759	100.81
392.984	107.81
393.208	103.81
393.433	102.81
393.658	104.81
393.882	115.81
394.107	91.81
394.331	99.81
394.556	101.81
394.78	97.81
395.005	101.81
395.229	94.81
395.454	100.81
395.678	115.81
395.903	112.81
396.127	100.81
396.352	109.81
396.576	97.81
396.801	84.81
397.025	123.81
397.249	114.81
397.474	105.81
397.698	106.81
397.922	102.81
398.147	91.81
398.371	106.81
398.595	108.81
398.82	103.81
399.044	118.81
399.268	108.81
399.492	104.81
399.717	103.81
399.941	108.81
400.165	108.81
400.389	102.81
400.613	101.81
400.837	107.81
401.062	102.81
401.286	112.81
401.51	106.81
401.734	101.81
401.958	101.81
402.182	115.81
402.406	105.81
402.63	100.81
402.854	114.81
403.078	106.81
403.302	119.81
403.526	104.81
403.75	120.81
403.974	106.81
404.198	120.81
404.422	113.81
404.645	89.81
404.869	109.81
405.093	108.81
405.317	107.81
405.541	98.81
405.765	118.81
405.988	119.81
406.212	119.81
406.436	122.81
406.66	109.81
406.883	99.81
407.107	120.81
407.331	101.81
407.555	112.81
407.778	118.81
408.002	107.81
408.226	112.81
408.449	112.81
408.673	100.81
408.896	125.81
409.12	132.81
409.344	127.81
409.567	115.81
409.791	126.81
410.014	123.81
410.238	124.81
410.461	116.81
410.685	124.81
410.908	123.81
411.132	109.81
411.355	122.81
411.578	119.81
411.802	116.81
412.025	106.81
412.249	112.81
412.472	132.81
412.695	110.81
412.919	119.81
413.142	114.81
413.365	115.81
413.589	109.81
413.812	123.81
414.035	122.81
414.258	120.81
414.482	122.81
414.705	121.81
414.928	124.81
415.151	118.81
415.374	109.81
415.597	109.81
415.821	120.81
416.044	128.81
416.267	130.81
416.49	126.81
416.713	130.81
416.936	121.81
417.159	125.81
417.382	126.81
417.605	122.81
417.828	119.81
418.051	109.81
418.274	144.81
418.497	134.81
418.72	133.81
418.943	140.81
419.166	132.81
419.389	126.81
419.611	139.81
419.834	126.81
420.057	135.81
420.28	128.81
420.503	135.81
420.726	125.81
420.948	128.81
421.171	129.81
421.394	126.81
421.617	142.81
421.839	128.81
422.062	143.81
422.285	113.81
422.507	137.81
422.73	112.81
422.953	137.81
423.175	124.81
423.398	130.81
423.621	124.81
423.843	128.81
424.066	119.81
424.288	140.81
424.511	130.81
424.733	148.81
424.956	130.81
425.178	142.81
425.401	132.81
425.623	126.81
425.846	139.81
426.068	133.81
426.291	136.81
426.513	115.81
426.735	124.81
426.958	140.81
427.18	144.81
427.402	128.81
427.625	148.81
427.847	128.81
428.069	121.81
428.292	124.81
428.514	136.81
428.736	132.81
428.958	108.81
429.181	117.81
429.403	132.81
429.625	132.81
429.847	123.81
430.069	121.81
430.292	132.81
430.514	132.81
430.736	133.81
430.958	116.81
431.18	121.81
431.402	115.81
431.624	116.81
431.846	115.81
432.068	105.81
432.29	91.81
432.512	121.81
432.734	128.81
432.956	124.81
433.178	131.81
433.4	136.81
433.622	144.81
433.844	128.81
434.066	114.81
434.287	114.81
434.509	107.81
434.731	89.81
434.953	117.81
435.175	127.81
435.397	131.81
435.618	116.81
435.84	104.81
436.062	120.81
436.284	130.81
436.505	132.81
436.727	130.81
436.949	133.81
437.17	124.81
437.392	118.81
437.614	108.81
437.835	103.81
438.057	117.81
438.278	122.81
438.5	120.81
438.721	128.81
438.943	141.81
439.165	146.81
439.386	146.81
439.608	141.81
439.829	145.81
440.05	148.81
440.272	127.81
440.493	135.81
440.715	135.81
440.936	126.81
441.158	126.81
441.379	151.81
441.6	147.81
441.822	145.81
442.043	142.81
442.264	132.81
442.486	122.81
442.707	136.81
442.928	144.81
443.149	140.81
443.371	149.81
443.592	138.81
443.813	143.81
444.034	152.81
444.255	134.81
444.476	133.81
444.698	158.81
444.919	120.81
445.14	237.81
445.361	186.81
445.582	146.81
445.803	147.81
446.024	148.81
446.245	147.81
446.466	141.81
446.687	152.81
446.908	164.81
447.129	156.81
447.35	147.81
447.571	148.81
447.792	138.81
448.013	156.81
448.234	133.81
448.455	122.81
448.675	145.81
448.896	141.81
449.117	131.81
449.338	137.81
449.559	128.81
449.779	115.81
450	121.81
450.221	142.81
450.442	142.81
450.662	137.81
450.883	136.81
451.104	130.81
451.324	126.81
451.545	130.81
451.766	130.81
451.986	129.81
452.207	121.81
452.428	122.81
452.648	126.81
452.869	129.81
453.089	106.81
453.31	107.81
453.53	104.81
453.751	92.81
453.971	114.81
454.192	111.81
454.412	118.81
454.633	124.81
454.853	129.81
455.073	110.81
455.294	130.81
455.514	120.81
455.734	121.81
455.955	105.81
456.175	107.81
456.395	111.81
456.616	103.81
456.836	102.81
457.056	99.81
457.276	116.81
457.497	110.81
457.717	104.81
457.937	105.81
458.157	114.81
458.377	108.81
458.598	103.81
458.818	108.81
459.038	78.81
459.258	91.81
459.478	92.81
459.698	79.81
459.918	107.81
460.138	115.81
460.358	123.81
460.578	119.81
460.798	123.81
461.018	118.81
461.238	113.81
461.458	108.81
461.678	105.81
461.898	100.81
462.118	103.81
462.338	101.81
462.558	108.81
462.777	110.81
462.997	109.81
463.217	106.81
463.437	95.81
463.657	109.81
463.876	107.81
464.096	106.81
464.316	100.81
464.536	107.81
464.755	114.81
464.975	110.81
465.195	106.81
465.414	128.81
465.634	117.81
465.854	117.81
466.073	115.81
466.293	112.81
466.512	132.81
466.732	113.81
466.951	134.81
467.171	133.81
467.391	138.81
467.61	121.81
467.829	132.81
468.049	130.81
468.268	118.81
468.488	130.81
468.707	120.81
468.927	130.81
469.146	132.81
469.365	142.81
469.585	142.81
469.804	133.81
470.023	129.81
470.243	125.81
470.462	142.81
470.681	126.81
470.901	125.81
471.12	125.81
471.339	142.81
471.558	130.81
471.777	134.81
471.997	115.81
472.216	121.81
472.435	120.81
472.654	126.81
472.873	100.81
473.092	122.81
473.311	103.81
473.53	125.81
473.749	124.81
473.968	139.81
474.187	134.81
474.406	124.81
474.625	107.81
474.844	124.81
475.063	134.81
475.282	132.81
475.501	115.81
475.72	118.81
475.939	121.81
476.158	116.81
476.377	128.81
476.596	124.81
476.814	107.81
477.033	101.81
477.252	99.81
477.471	121.81
477.69	136.81
477.908	136.81
478.127	146.81
478.346	130.81
478.564	140.81
478.783	134.81
479.002	125.81
479.22	119.81
479.439	119.81
479.658	110.81
479.876	116.81
480.095	114.81
480.313	104.81
480.532	132.81
480.751	118.81
480.969	92.81
481.188	86.81
481.406	91.81
481.624	94.81
481.843	81.81
482.061	87.81
482.28	109.81
482.498	105.81
482.717	99.81
482.935	125.81
483.153	138.81
483.372	139.81
483.59	154.81
483.808	145.81
484.027	131.81
484.245	132.81
484.463	156.81
484.681	158.81
484.9	150.81
485.118	125.81
485.336	127.81
485.554	120.81
485.772	109.81
485.99	102.81
486.209	112.81
486.427	109.81
486.645	109.81
486.863	130.81
487.081	130.81
487.299	124.81
487.517	137.81
487.735	152.81
487.953	184.81
488.171	164.81
488.389	184.81
488.607	148.81
488.825	126.81
489.043	134.81
489.261	132.81
489.479	141.81
489.696	126.81
489.914	129.81
490.132	140.81
490.35	146.81
490.568	157.81
490.786	174.81
491.003	170.81
491.221	160.81
491.439	175.81
491.657	200.81
491.874	179.81
492.092	190.81
492.31	239.81
492.527	232.81
492.745	208.81
492.963	185.81
493.18	180.81
493.398	198.81
493.615	162.81
493.833	199.81
494.05	162.81
494.268	158.81
494.485	168.81
494.703	183.81
494.92	186.81
495.138	165.81
495.355	159.81
495.573	158.81
495.79	169.81
496.008	165.81
496.225	155.81
496.442	167.81
496.66	164.81
496.877	154.81
497.094	152.81
497.312	156.81
497.529	155.81
497.746	153.81
497.963	132.81
498.181	119.81
498.398	129.81
498.615	114.81
498.832	117.81
499.049	116.81
499.267	119.81
499.484	112.81
499.701	117.81
499.918	130.81
500.135	126.81
500.352	147.81
500.569	146.81
500.786	138.81
501.003	146.81
501.22	141.81
501.437	138.81
501.654	134.81
501.871	131.81
502.088	130.81
502.305	122.81
502.522	132.81
502.739	123.81
502.956	116.81
503.172	112.81
503.389	108.81
503.606	113.81
503.823	126.81
504.04	115.81
504.256	113.81
504.473	113.81
504.69	101.81
504.907	114.81
505.123	102.81
505.34	124.81
505.557	119.81
505.773	130.81
505.99	132.81
506.207	120.81
506.423	114.81
506.64	114.81
506.856	124.81
507.073	109.81
507.289	129.81
507.506	119.81
507.722	105.81
507.939	142.81
508.155	123.81
508.372	107.81
508.588	99.81
508.805	105.81
509.021	112.81
509.238	108.81
509.454	109.81
509.67	116.81
509.887	109.81
510.103	82.81
510.319	87.81
510.536	89.81
510.752	81.81
510.968	79.81
511.184	76.81
511.401	77.81
511.617	66.81
