Data from Location1.07152019.Energy5.Lamp.07192019.3%Agarose_HRD10591_14-30-21-016.txt Node
Date: Fri Jul 19 14:30:21 EDT 2019
User: cochatt
Spectrometer: HR+D1059
Trigger mode: 1
Integration Time (sec): 1.000000E-1
Scans to average: 1
Electric dark correction enabled: true
Nonlinearity correction enabled: false
Boxcar width: 0
XAxis mode: Wavelengths
Number of Pixels in Spectrum: 2048
>>>>>Begin Spectral Data<<<<<
223.165	-33.38
223.4	-33.38
223.635	-33.38
223.869	-20.38
224.104	-2.38
224.338	-8.38
224.573	-19.38
224.808	-13.38
225.042	-11.38
225.277	-7.38
225.511	-2.38
225.746	0.62
225.98	7.62
226.215	4.62
226.449	17.62
226.683	29.62
226.918	28.62
227.152	29.62
227.387	37.62
227.621	44.62
227.856	28.62
228.09	41.62
228.324	46.62
228.559	68.62
228.793	53.62
229.027	52.62
229.262	71.62
229.496	69.62
229.73	69.62
229.964	84.62
230.199	75.62
230.433	62.62
230.667	72.62
230.901	71.62
231.136	75.62
231.37	83.62
231.604	85.62
231.838	80.62
232.072	90.62
232.306	88.62
232.541	92.62
232.775	76.62
233.009	78.62
233.243	72.62
233.477	86.62
233.711	86.62
233.945	76.62
234.179	93.62
234.413	73.62
234.647	77.62
234.881	85.62
235.115	91.62
235.349	72.62
235.583	90.62
235.817	61.62
236.051	74.62
236.285	92.62
236.519	83.62
236.753	67.62
236.987	74.62
237.221	70.62
237.455	73.62
237.689	76.62
237.922	87.62
238.156	77.62
238.39	84.62
238.624	89.62
238.858	76.62
239.091	72.62
239.325	75.62
239.559	68.62
239.793	73.62
240.027	80.62
240.26	65.62
240.494	78.62
240.728	71.62
240.961	79.62
241.195	76.62
241.429	70.62
241.662	90.62
241.896	76.62
242.13	71.62
242.363	77.62
242.597	67.62
242.83	70.62
243.064	81.62
243.298	85.62
243.531	83.62
243.765	82.62
243.998	72.62
244.232	91.62
244.465	90.62
244.699	90.62
244.932	75.62
245.166	85.62
245.399	70.62
245.633	77.62
245.866	76.62
246.099	84.62
246.333	67.62
246.566	64.62
246.8	80.62
247.033	94.62
247.266	74.62
247.5	102.62
247.733	79.62
247.966	82.62
248.2	82.62
248.433	77.62
248.666	83.62
248.899	72.62
249.133	69.62
249.366	84.62
249.599	93.62
249.832	87.62
250.066	77.62
250.299	86.62
250.532	80.62
250.765	91.62
250.998	74.62
251.231	87.62
251.465	74.62
251.698	71.62
251.931	70.62
252.164	79.62
252.397	80.62
252.63	75.62
252.863	86.62
253.096	75.62
253.329	78.62
253.562	79.62
253.795	69.62
254.028	83.62
254.261	79.62
254.494	77.62
254.727	86.62
254.96	91.62
255.193	82.62
255.426	82.62
255.659	87.62
255.892	75.62
256.124	80.62
256.357	84.62
256.59	82.62
256.823	73.62
257.056	99.62
257.289	85.62
257.521	84.62
257.754	84.62
257.987	88.62
258.22	91.62
258.452	78.62
258.685	67.62
258.918	63.62
259.151	75.62
259.383	88.62
259.616	84.62
259.849	86.62
260.081	80.62
260.314	84.62
260.547	76.62
260.779	82.62
261.012	87.62
261.244	68.62
261.477	95.62
261.71	84.62
261.942	82.62
262.175	91.62
262.407	80.62
262.64	82.62
262.872	84.62
263.105	90.62
263.337	71.62
263.57	72.62
263.802	87.62
264.035	84.62
264.267	94.62
264.499	90.62
264.732	96.62
264.964	87.62
265.197	68.62
265.429	67.62
265.661	71.62
265.894	85.62
266.126	76.62
266.358	91.62
266.591	83.62
266.823	79.62
267.055	77.62
267.287	82.62
267.52	78.62
267.752	84.62
267.984	79.62
268.216	82.62
268.448	88.62
268.681	91.62
268.913	82.62
269.145	101.62
269.377	85.62
269.609	91.62
269.841	74.62
270.073	97.62
270.306	77.62
270.538	73.62
270.77	86.62
271.002	95.62
271.234	90.62
271.466	87.62
271.698	76.62
271.93	72.62
272.162	91.62
272.394	79.62
272.626	83.62
272.858	94.62
273.09	87.62
273.322	83.62
273.553	82.62
273.785	76.62
274.017	89.62
274.249	80.62
274.481	72.62
274.713	76.62
274.945	73.62
275.176	86.62
275.408	83.62
275.64	76.62
275.872	98.62
276.104	78.62
276.335	70.62
276.567	90.62
276.799	70.62
277.031	76.62
277.262	84.62
277.494	103.62
277.726	81.62
277.957	93.62
278.189	84.62
278.421	85.62
278.652	84.62
278.884	82.62
279.115	90.62
279.347	87.62
279.579	99.62
279.81	84.62
280.042	76.62
280.273	98.62
280.505	80.62
280.736	89.62
280.968	68.62
281.199	79.62
281.431	80.62
281.662	75.62
281.894	95.62
282.125	74.62
282.356	85.62
282.588	81.62
282.819	98.62
283.051	85.62
283.282	100.62
283.513	90.62
283.745	80.62
283.976	68.62
284.207	82.62
284.439	82.62
284.67	80.62
284.901	83.62
285.132	85.62
285.364	85.62
285.595	85.62
285.826	86.62
286.057	87.62
286.288	86.62
286.52	84.62
286.751	82.62
286.982	88.62
287.213	80.62
287.444	67.62
287.675	83.62
287.906	88.62
288.138	81.62
288.369	76.62
288.6	87.62
288.831	91.62
289.062	86.62
289.293	90.62
289.524	97.62
289.755	85.62
289.986	98.62
290.217	91.62
290.448	72.62
290.679	81.62
290.91	79.62
291.141	78.62
291.371	84.62
291.602	77.62
291.833	78.62
292.064	86.62
292.295	93.62
292.526	80.62
292.757	88.62
292.987	75.62
293.218	88.62
293.449	77.62
293.68	96.62
293.91	88.62
294.141	88.62
294.372	84.62
294.603	82.62
294.833	84.62
295.064	80.62
295.295	76.62
295.525	94.62
295.756	90.62
295.987	78.62
296.217	86.62
296.448	84.62
296.679	88.62
296.909	88.62
297.14	89.62
297.37	84.62
297.601	91.62
297.831	83.62
298.062	101.62
298.292	75.62
298.523	88.62
298.753	91.62
298.984	94.62
299.214	74.62
299.445	96.62
299.675	74.62
299.905	80.62
300.136	87.62
300.366	76.62
300.597	79.62
300.827	83.62
301.057	78.62
301.288	85.62
301.518	95.62
301.748	78.62
301.979	87.62
302.209	85.62
302.439	87.62
302.669	90.62
302.9	94.62
303.13	95.62
303.36	81.62
303.59	82.62
303.82	91.62
304.051	90.62
304.281	89.62
304.511	80.62
304.741	93.62
304.971	69.62
305.201	77.62
305.431	76.62
305.661	108.62
305.891	83.62
306.121	83.62
306.352	78.62
306.582	79.62
306.812	75.62
307.042	83.62
307.272	92.62
307.502	96.62
307.731	80.62
307.961	82.62
308.191	85.62
308.421	72.62
308.651	89.62
308.881	76.62
309.111	92.62
309.341	80.62
309.571	97.62
309.8	79.62
310.03	76.62
310.26	88.62
310.49	78.62
310.72	96.62
310.949	82.62
311.179	74.62
311.409	82.62
311.639	89.62
311.868	87.62
312.098	85.62
312.328	84.62
312.557	84.62
312.787	93.62
313.017	74.62
313.246	81.62
313.476	83.62
313.706	86.62
313.935	75.62
314.165	88.62
314.394	89.62
314.624	82.62
314.853	84.62
315.083	72.62
315.312	89.62
315.542	80.62
315.771	88.62
316.001	82.62
316.23	89.62
316.46	72.62
316.689	87.62
316.919	83.62
317.148	96.62
317.377	99.62
317.607	98.62
317.836	78.62
318.065	81.62
318.295	91.62
318.524	91.62
318.753	76.62
318.983	77.62
319.212	85.62
319.441	88.62
319.67	97.62
319.9	82.62
320.129	74.62
320.358	80.62
320.587	84.62
320.816	90.62
321.046	74.62
321.275	71.62
321.504	100.62
321.733	92.62
321.962	83.62
322.191	89.62
322.42	86.62
322.649	83.62
322.878	91.62
323.108	81.62
323.337	86.62
323.566	79.62
323.795	86.62
324.024	87.62
324.253	84.62
324.482	72.62
324.71	92.62
324.939	79.62
325.168	86.62
325.397	80.62
325.626	95.62
325.855	89.62
326.084	83.62
326.313	63.62
326.542	77.62
326.77	80.62
326.999	79.62
327.228	92.62
327.457	86.62
327.686	91.62
327.914	80.62
328.143	86.62
328.372	91.62
328.6	87.62
328.829	90.62
329.058	91.62
329.287	79.62
329.515	89.62
329.744	78.62
329.972	85.62
330.201	73.62
330.43	79.62
330.658	89.62
330.887	94.62
331.115	80.62
331.344	81.62
331.572	95.62
331.801	72.62
332.03	110.62
332.258	94.62
332.486	94.62
332.715	92.62
332.943	101.62
333.172	82.62
333.4	82.62
333.629	91.62
333.857	85.62
334.085	90.62
334.314	87.62
334.542	90.62
334.771	85.62
334.999	88.62
335.227	90.62
335.455	82.62
335.684	69.62
335.912	82.62
336.14	80.62
336.369	75.62
336.597	77.62
336.825	79.62
337.053	90.62
337.281	82.62
337.51	79.62
337.738	93.62
337.966	82.62
338.194	91.62
338.422	91.62
338.65	71.62
338.878	92.62
339.106	93.62
339.334	88.62
339.562	86.62
339.79	87.62
340.018	82.62
340.246	88.62
340.474	79.62
340.702	101.62
340.93	88.62
341.158	95.62
341.386	77.62
341.614	80.62
341.842	86.62
342.07	91.62
342.298	99.62
342.526	90.62
342.754	92.62
342.981	79.62
343.209	72.62
343.437	85.62
343.665	78.62
343.893	101.62
344.12	103.62
344.348	84.62
344.576	73.62
344.804	85.62
345.031	80.62
345.259	85.62
345.487	95.62
345.714	94.62
345.942	71.62
346.17	100.62
346.397	88.62
346.625	74.62
346.853	86.62
347.08	80.62
347.308	91.62
347.535	79.62
347.763	97.62
347.99	91.62
348.218	95.62
348.445	88.62
348.673	87.62
348.9	87.62
349.128	99.62
349.355	101.62
349.583	80.62
349.81	82.62
350.037	76.62
350.265	86.62
350.492	92.62
350.72	85.62
350.947	87.62
351.174	84.62
351.402	85.62
351.629	86.62
351.856	84.62
352.083	79.62
352.311	95.62
352.538	87.62
352.765	86.62
352.992	96.62
353.22	83.62
353.447	77.62
353.674	87.62
353.901	84.62
354.128	91.62
354.355	77.62
354.583	72.62
354.81	82.62
355.037	84.62
355.264	70.62
355.491	90.62
355.718	96.62
355.945	89.62
356.172	83.62
356.399	77.62
356.626	79.62
356.853	70.62
357.08	101.62
357.307	86.62
357.534	91.62
357.761	74.62
357.988	94.62
358.215	88.62
358.441	92.62
358.668	93.62
358.895	86.62
359.122	78.62
359.349	85.62
359.576	79.62
359.802	79.62
360.029	85.62
360.256	93.62
360.483	84.62
360.709	89.62
360.936	91.62
361.163	82.62
361.39	68.62
361.616	101.62
361.843	85.62
362.07	75.62
362.296	91.62
362.523	88.62
362.749	79.62
362.976	79.62
363.203	85.62
363.429	88.62
363.656	82.62
363.882	88.62
364.109	82.62
364.335	86.62
364.562	79.62
364.788	87.62
365.015	98.62
365.241	72.62
365.468	96.62
365.694	82.62
365.92	94.62
366.147	83.62
366.373	98.62
366.599	83.62
366.826	96.62
367.052	88.62
367.278	97.62
367.505	90.62
367.731	107.62
367.957	90.62
368.184	74.62
368.41	93.62
368.636	79.62
368.862	104.62
369.089	99.62
369.315	85.62
369.541	93.62
369.767	92.62
369.993	94.62
370.219	88.62
370.445	79.62
370.672	87.62
370.898	83.62
371.124	99.62
371.35	98.62
371.576	85.62
371.802	84.62
372.028	99.62
372.254	114.62
372.48	92.62
372.706	87.62
372.932	90.62
373.158	93.62
373.384	105.62
373.61	95.62
373.835	88.62
374.061	95.62
374.287	76.62
374.513	74.62
374.739	85.62
374.965	95.62
375.191	107.62
375.416	89.62
375.642	118.62
375.868	108.62
376.094	94.62
376.319	82.62
376.545	96.62
376.771	79.62
376.997	104.62
377.222	89.62
377.448	97.62
377.674	95.62
377.899	105.62
378.125	84.62
378.35	92.62
378.576	96.62
378.802	95.62
379.027	107.62
379.253	96.62
379.478	98.62
379.704	95.62
379.929	95.62
380.155	77.62
380.38	91.62
380.606	90.62
380.831	91.62
381.057	87.62
381.282	95.62
381.507	103.62
381.733	101.62
381.958	102.62
382.184	106.62
382.409	86.62
382.634	96.62
382.86	100.62
383.085	91.62
383.31	104.62
383.535	102.62
383.761	94.62
383.986	111.62
384.211	93.62
384.436	97.62
384.662	106.62
384.887	78.62
385.112	108.62
385.337	93.62
385.562	79.62
385.787	100.62
386.013	107.62
386.238	98.62
386.463	106.62
386.688	103.62
386.913	109.62
387.138	116.62
387.363	105.62
387.588	102.62
387.813	101.62
388.038	112.62
388.263	116.62
388.488	106.62
388.713	97.62
388.938	107.62
389.163	85.62
389.387	103.62
389.612	111.62
389.837	89.62
390.062	98.62
390.287	105.62
390.512	103.62
390.736	89.62
390.961	94.62
391.186	100.62
391.411	99.62
391.636	92.62
391.86	95.62
392.085	90.62
392.31	104.62
392.534	97.62
392.759	102.62
392.984	98.62
393.208	111.62
393.433	94.62
393.658	103.62
393.882	103.62
394.107	101.62
394.331	111.62
394.556	106.62
394.78	113.62
395.005	97.62
395.229	114.62
395.454	108.62
395.678	105.62
395.903	107.62
396.127	108.62
396.352	105.62
396.576	98.62
396.801	92.62
397.025	106.62
397.249	119.62
397.474	110.62
397.698	117.62
397.922	114.62
398.147	103.62
398.371	110.62
398.595	117.62
398.82	112.62
399.044	104.62
399.268	115.62
399.492	111.62
399.717	118.62
399.941	122.62
400.165	104.62
400.389	111.62
400.613	107.62
400.837	102.62
401.062	110.62
401.286	108.62
401.51	122.62
401.734	98.62
401.958	103.62
402.182	105.62
402.406	118.62
402.63	108.62
402.854	115.62
403.078	100.62
403.302	105.62
403.526	109.62
403.75	103.62
403.974	103.62
404.198	115.62
404.422	126.62
404.645	116.62
404.869	120.62
405.093	126.62
405.317	101.62
405.541	116.62
405.765	113.62
405.988	110.62
406.212	114.62
406.436	104.62
406.66	106.62
406.883	122.62
407.107	108.62
407.331	118.62
407.555	122.62
407.778	119.62
408.002	124.62
408.226	129.62
408.449	118.62
408.673	114.62
408.896	101.62
409.12	111.62
409.344	118.62
409.567	132.62
409.791	117.62
410.014	126.62
410.238	112.62
410.461	125.62
410.685	118.62
410.908	120.62
411.132	126.62
411.355	132.62
411.578	128.62
411.802	128.62
412.025	131.62
412.249	119.62
412.472	107.62
412.695	110.62
412.919	127.62
413.142	108.62
413.365	117.62
413.589	122.62
413.812	118.62
414.035	117.62
414.258	130.62
414.482	142.62
414.705	124.62
414.928	116.62
415.151	120.62
415.374	123.62
415.597	108.62
415.821	126.62
416.044	122.62
416.267	121.62
416.49	132.62
416.713	139.62
416.936	127.62
417.159	127.62
417.382	118.62
417.605	139.62
417.828	132.62
418.051	113.62
418.274	129.62
418.497	142.62
418.72	126.62
418.943	145.62
419.166	123.62
419.389	145.62
419.611	135.62
419.834	142.62
420.057	123.62
420.28	128.62
420.503	130.62
420.726	114.62
420.948	126.62
421.171	129.62
421.394	145.62
421.617	130.62
421.839	139.62
422.062	138.62
422.285	117.62
422.507	114.62
422.73	127.62
422.953	130.62
423.175	120.62
423.398	135.62
423.621	131.62
423.843	147.62
424.066	141.62
424.288	143.62
424.511	138.62
424.733	148.62
424.956	135.62
425.178	138.62
425.401	155.62
425.623	132.62
425.846	134.62
426.068	134.62
426.291	133.62
426.513	127.62
426.735	136.62
426.958	120.62
427.18	123.62
427.402	139.62
427.625	141.62
427.847	127.62
428.069	123.62
428.292	128.62
428.514	100.62
428.736	132.62
428.958	136.62
429.181	130.62
429.403	124.62
429.625	112.62
429.847	127.62
430.069	128.62
430.292	127.62
430.514	128.62
430.736	126.62
430.958	137.62
431.18	131.62
431.402	129.62
431.624	127.62
431.846	104.62
432.068	98.62
432.29	101.62
432.512	116.62
432.734	116.62
432.956	136.62
433.178	135.62
433.4	133.62
433.622	143.62
433.844	124.62
434.066	113.62
434.287	102.62
434.509	95.62
434.731	105.62
434.953	100.62
435.175	112.62
435.397	130.62
435.618	123.62
435.84	122.62
436.062	112.62
436.284	125.62
436.505	112.62
436.727	128.62
436.949	126.62
437.17	131.62
437.392	130.62
437.614	108.62
437.835	107.62
438.057	106.62
438.278	118.62
438.5	124.62
438.721	126.62
438.943	122.62
439.165	133.62
439.386	138.62
439.608	151.62
439.829	145.62
440.05	152.62
440.272	128.62
440.493	129.62
440.715	139.62
440.936	142.62
441.158	144.62
441.379	147.62
441.6	156.62
441.822	143.62
442.043	128.62
442.264	136.62
442.486	125.62
442.707	132.62
442.928	130.62
443.149	143.62
443.371	134.62
443.592	128.62
443.813	138.62
444.034	132.62
444.255	139.62
444.476	145.62
444.698	136.62
444.919	150.62
445.14	278.62
445.361	204.62
445.582	163.62
445.803	135.62
446.024	135.62
446.245	153.62
446.466	152.62
446.687	150.62
446.908	150.62
447.129	155.62
447.35	140.62
447.571	150.62
447.792	144.62
448.013	137.62
448.234	142.62
448.455	143.62
448.675	132.62
448.896	146.62
449.117	156.62
449.338	137.62
449.559	123.62
449.779	122.62
450	133.62
450.221	148.62
450.442	138.62
450.662	138.62
450.883	137.62
451.104	139.62
451.324	119.62
451.545	139.62
451.766	132.62
451.986	127.62
452.207	134.62
452.428	132.62
452.648	121.62
452.869	116.62
453.089	114.62
453.31	110.62
453.53	100.62
453.751	94.62
453.971	101.62
454.192	114.62
454.412	123.62
454.633	114.62
454.853	121.62
455.073	120.62
455.294	117.62
455.514	127.62
455.734	114.62
455.955	100.62
456.175	109.62
456.395	102.62
456.616	120.62
456.836	101.62
457.056	103.62
457.276	103.62
457.497	114.62
457.717	104.62
457.937	106.62
458.157	117.62
458.377	125.62
458.598	102.62
458.818	95.62
459.038	82.62
459.258	93.62
459.478	91.62
459.698	83.62
459.918	91.62
460.138	97.62
460.358	116.62
460.578	113.62
460.798	120.62
461.018	122.62
461.238	111.62
461.458	117.62
461.678	110.62
461.898	128.62
462.118	124.62
462.338	116.62
462.558	105.62
462.777	124.62
462.997	117.62
463.217	121.62
463.437	116.62
463.657	108.62
463.876	106.62
464.096	118.62
464.316	106.62
464.536	110.62
464.755	114.62
464.975	111.62
465.195	134.62
465.414	123.62
465.634	135.62
465.854	102.62
466.073	126.62
466.293	106.62
466.512	122.62
466.732	132.62
466.951	127.62
467.171	128.62
467.391	117.62
467.61	147.62
467.829	138.62
468.049	129.62
468.268	131.62
468.488	139.62
468.707	126.62
468.927	128.62
469.146	140.62
469.365	136.62
469.585	143.62
469.804	156.62
470.023	131.62
470.243	143.62
470.462	140.62
470.681	150.62
470.901	132.62
471.12	134.62
471.339	130.62
471.558	142.62
471.777	135.62
471.997	134.62
472.216	148.62
472.435	130.62
472.654	123.62
472.873	106.62
473.092	109.62
473.311	119.62
473.53	128.62
473.749	124.62
473.968	119.62
474.187	130.62
474.406	121.62
474.625	130.62
474.844	132.62
475.063	140.62
475.282	127.62
475.501	95.62
475.72	107.62
475.939	112.62
476.158	139.62
476.377	127.62
476.596	115.62
476.814	110.62
477.033	120.62
477.252	132.62
477.471	106.62
477.69	119.62
477.908	150.62
478.127	139.62
478.346	134.62
478.564	134.62
478.783	131.62
479.002	124.62
479.22	137.62
479.439	133.62
479.658	121.62
479.876	122.62
480.095	107.62
480.313	102.62
480.532	140.62
480.751	121.62
480.969	76.62
481.188	84.62
481.406	79.62
481.624	100.62
481.843	95.62
482.061	88.62
482.28	122.62
482.498	120.62
482.717	103.62
482.935	119.62
483.153	130.62
483.372	141.62
483.59	148.62
483.808	159.62
484.027	131.62
484.245	125.62
484.463	148.62
484.681	137.62
484.9	150.62
485.118	138.62
485.336	130.62
485.554	101.62
485.772	113.62
485.99	110.62
486.209	120.62
486.427	104.62
486.645	122.62
486.863	123.62
487.081	125.62
487.299	116.62
487.517	129.62
487.735	166.62
487.953	171.62
488.171	172.62
488.389	171.62
488.607	162.62
488.825	150.62
489.043	141.62
489.261	130.62
489.479	138.62
489.696	147.62
489.914	144.62
490.132	146.62
490.35	148.62
490.568	153.62
490.786	171.62
491.003	167.62
491.221	168.62
491.439	184.62
491.657	178.62
491.874	198.62
492.092	202.62
492.31	234.62
492.527	219.62
492.745	190.62
492.963	179.62
493.18	188.62
493.398	176.62
493.615	170.62
493.833	171.62
494.05	164.62
494.268	174.62
494.485	176.62
494.703	156.62
494.92	168.62
495.138	167.62
495.355	169.62
495.573	163.62
495.79	155.62
496.008	158.62
496.225	164.62
496.442	166.62
496.66	151.62
496.877	154.62
497.094	153.62
497.312	146.62
497.529	164.62
497.746	159.62
497.963	143.62
498.181	115.62
498.398	128.62
498.615	130.62
498.832	119.62
499.049	119.62
499.267	128.62
499.484	134.62
499.701	137.62
499.918	153.62
500.135	134.62
500.352	138.62
500.569	150.62
500.786	126.62
501.003	143.62
501.22	148.62
501.437	111.62
501.654	129.62
501.871	142.62
502.088	128.62
502.305	136.62
502.522	140.62
502.739	135.62
502.956	127.62
503.172	122.62
503.389	112.62
503.606	119.62
503.823	124.62
504.04	122.62
504.256	131.62
504.473	142.62
504.69	132.62
504.907	126.62
505.123	112.62
505.34	126.62
505.557	113.62
505.773	127.62
505.99	116.62
506.207	132.62
506.423	120.62
506.64	135.62
506.856	116.62
507.073	102.62
507.289	120.62
507.506	128.62
507.722	111.62
507.939	109.62
508.155	123.62
508.372	102.62
508.588	121.62
508.805	98.62
509.021	101.62
509.238	105.62
509.454	120.62
509.67	96.62
509.887	90.62
510.103	101.62
510.319	87.62
510.536	87.62
510.752	80.62
510.968	92.62
511.184	88.62
511.401	83.62
