Data from Location1.07152019.Energy5.Lamp.07192019.3%Agarose_HRD10591_14-30-22-015.txt Node
Date: Fri Jul 19 14:30:22 EDT 2019
User: cochatt
Spectrometer: HR+D1059
Trigger mode: 1
Integration Time (sec): 1.000000E-1
Scans to average: 1
Electric dark correction enabled: true
Nonlinearity correction enabled: false
Boxcar width: 0
XAxis mode: Wavelengths
Number of Pixels in Spectrum: 2048
>>>>>Begin Spectral Data<<<<<
223.165	-23.56
223.4	-23.56
223.635	-23.56
223.869	-12.56
224.104	-21.56
224.338	1.44
224.573	-23.56
224.808	-24.56
225.042	-2.56
225.277	-6.56
225.511	-5.56
225.746	3.44
225.98	17.44
226.215	9.44
226.449	11.44
226.683	24.44
226.918	32.44
227.152	20.44
227.387	40.44
227.621	37.44
227.856	43.44
228.09	31.44
228.324	40.44
228.559	56.44
228.793	51.44
229.027	46.44
229.262	70.44
229.496	79.44
229.73	54.44
229.964	60.44
230.199	81.44
230.433	72.44
230.667	71.44
230.901	65.44
231.136	79.44
231.37	82.44
231.604	72.44
231.838	80.44
232.072	80.44
232.306	58.44
232.541	76.44
232.775	79.44
233.009	72.44
233.243	67.44
233.477	73.44
233.711	75.44
233.945	85.44
234.179	84.44
234.413	78.44
234.647	88.44
234.881	63.44
235.115	74.44
235.349	85.44
235.583	75.44
235.817	72.44
236.051	62.44
236.285	64.44
236.519	64.44
236.753	81.44
236.987	71.44
237.221	72.44
237.455	81.44
237.689	67.44
237.922	74.44
238.156	74.44
238.39	73.44
238.624	69.44
238.858	73.44
239.091	64.44
239.325	77.44
239.559	85.44
239.793	71.44
240.027	73.44
240.26	81.44
240.494	75.44
240.728	69.44
240.961	80.44
241.195	72.44
241.429	87.44
241.662	68.44
241.896	62.44
242.13	86.44
242.363	66.44
242.597	66.44
242.83	74.44
243.064	78.44
243.298	61.44
243.531	70.44
243.765	69.44
243.998	62.44
244.232	67.44
244.465	69.44
244.699	65.44
244.932	85.44
245.166	66.44
245.399	74.44
245.633	57.44
245.866	70.44
246.099	75.44
246.333	75.44
246.566	72.44
246.8	75.44
247.033	58.44
247.266	69.44
247.5	63.44
247.733	79.44
247.966	74.44
248.2	77.44
248.433	63.44
248.666	89.44
248.899	78.44
249.133	75.44
249.366	94.44
249.599	84.44
249.832	80.44
250.066	82.44
250.299	78.44
250.532	75.44
250.765	79.44
250.998	78.44
251.231	66.44
251.465	87.44
251.698	71.44
251.931	88.44
252.164	82.44
252.397	65.44
252.63	60.44
252.863	67.44
253.096	65.44
253.329	79.44
253.562	63.44
253.795	78.44
254.028	67.44
254.261	82.44
254.494	61.44
254.727	87.44
254.96	82.44
255.193	75.44
255.426	75.44
255.659	56.44
255.892	80.44
256.124	85.44
256.357	70.44
256.59	81.44
256.823	70.44
257.056	70.44
257.289	69.44
257.521	78.44
257.754	74.44
257.987	92.44
258.22	81.44
258.452	90.44
258.685	73.44
258.918	62.44
259.151	67.44
259.383	65.44
259.616	83.44
259.849	79.44
260.081	75.44
260.314	68.44
260.547	79.44
260.779	78.44
261.012	71.44
261.244	84.44
261.477	80.44
261.71	79.44
261.942	73.44
262.175	66.44
262.407	68.44
262.64	80.44
262.872	85.44
263.105	84.44
263.337	74.44
263.57	83.44
263.802	61.44
264.035	70.44
264.267	79.44
264.499	77.44
264.732	96.44
264.964	79.44
265.197	76.44
265.429	70.44
265.661	82.44
265.894	85.44
266.126	90.44
266.358	67.44
266.591	84.44
266.823	77.44
267.055	74.44
267.287	70.44
267.52	78.44
267.752	80.44
267.984	79.44
268.216	82.44
268.448	78.44
268.681	76.44
268.913	65.44
269.145	75.44
269.377	85.44
269.609	87.44
269.841	78.44
270.073	88.44
270.306	86.44
270.538	81.44
270.77	77.44
271.002	73.44
271.234	82.44
271.466	78.44
271.698	87.44
271.93	84.44
272.162	87.44
272.394	61.44
272.626	90.44
272.858	88.44
273.09	73.44
273.322	78.44
273.553	84.44
273.785	77.44
274.017	79.44
274.249	93.44
274.481	77.44
274.713	72.44
274.945	67.44
275.176	82.44
275.408	83.44
275.64	84.44
275.872	83.44
276.104	83.44
276.335	79.44
276.567	71.44
276.799	77.44
277.031	92.44
277.262	73.44
277.494	79.44
277.726	82.44
277.957	76.44
278.189	84.44
278.421	78.44
278.652	95.44
278.884	80.44
279.115	67.44
279.347	74.44
279.579	76.44
279.81	73.44
280.042	87.44
280.273	70.44
280.505	74.44
280.736	63.44
280.968	73.44
281.199	69.44
281.431	65.44
281.662	96.44
281.894	94.44
282.125	80.44
282.356	63.44
282.588	83.44
282.819	86.44
283.051	85.44
283.282	79.44
283.513	73.44
283.745	72.44
283.976	72.44
284.207	80.44
284.439	66.44
284.67	63.44
284.901	71.44
285.132	78.44
285.364	81.44
285.595	84.44
285.826	74.44
286.057	72.44
286.288	74.44
286.52	81.44
286.751	80.44
286.982	72.44
287.213	85.44
287.444	72.44
287.675	85.44
287.906	85.44
288.138	71.44
288.369	66.44
288.6	92.44
288.831	98.44
289.062	86.44
289.293	75.44
289.524	70.44
289.755	79.44
289.986	82.44
290.217	68.44
290.448	79.44
290.679	77.44
290.91	80.44
291.141	75.44
291.371	85.44
291.602	88.44
291.833	93.44
292.064	82.44
292.295	82.44
292.526	70.44
292.757	71.44
292.987	81.44
293.218	73.44
293.449	73.44
293.68	73.44
293.91	73.44
294.141	73.44
294.372	76.44
294.603	82.44
294.833	88.44
295.064	82.44
295.295	93.44
295.525	73.44
295.756	75.44
295.987	71.44
296.217	64.44
296.448	78.44
296.679	75.44
296.909	90.44
297.14	79.44
297.37	80.44
297.601	73.44
297.831	83.44
298.062	73.44
298.292	75.44
298.523	80.44
298.753	71.44
298.984	80.44
299.214	84.44
299.445	88.44
299.675	97.44
299.905	79.44
300.136	85.44
300.366	91.44
300.597	73.44
300.827	67.44
301.057	77.44
301.288	82.44
301.518	86.44
301.748	83.44
301.979	86.44
302.209	83.44
302.439	77.44
302.669	75.44
302.9	78.44
303.13	75.44
303.36	75.44
303.59	83.44
303.82	79.44
304.051	89.44
304.281	68.44
304.511	82.44
304.741	79.44
304.971	90.44
305.201	75.44
305.431	81.44
305.661	70.44
305.891	80.44
306.121	75.44
306.352	80.44
306.582	101.44
306.812	85.44
307.042	79.44
307.272	84.44
307.502	69.44
307.731	86.44
307.961	80.44
308.191	77.44
308.421	74.44
308.651	87.44
308.881	81.44
309.111	77.44
309.341	80.44
309.571	76.44
309.8	71.44
310.03	79.44
310.26	90.44
310.49	81.44
310.72	82.44
310.949	78.44
311.179	79.44
311.409	81.44
311.639	74.44
311.868	96.44
312.098	65.44
312.328	92.44
312.557	61.44
312.787	83.44
313.017	80.44
313.246	85.44
313.476	84.44
313.706	83.44
313.935	70.44
314.165	74.44
314.394	81.44
314.624	82.44
314.853	82.44
315.083	76.44
315.312	98.44
315.542	74.44
315.771	79.44
316.001	65.44
316.23	70.44
316.46	96.44
316.689	86.44
316.919	58.44
317.148	97.44
317.377	75.44
317.607	89.44
317.836	58.44
318.065	75.44
318.295	76.44
318.524	68.44
318.753	68.44
318.983	71.44
319.212	80.44
319.441	71.44
319.67	76.44
319.9	93.44
320.129	83.44
320.358	78.44
320.587	82.44
320.816	77.44
321.046	85.44
321.275	78.44
321.504	82.44
321.733	91.44
321.962	81.44
322.191	81.44
322.42	80.44
322.649	74.44
322.878	83.44
323.108	74.44
323.337	72.44
323.566	87.44
323.795	83.44
324.024	78.44
324.253	91.44
324.482	83.44
324.71	79.44
324.939	94.44
325.168	71.44
325.397	81.44
325.626	85.44
325.855	79.44
326.084	87.44
326.313	89.44
326.542	69.44
326.77	71.44
326.999	92.44
327.228	85.44
327.457	93.44
327.686	112.44
327.914	63.44
328.143	65.44
328.372	85.44
328.6	73.44
328.829	79.44
329.058	81.44
329.287	78.44
329.515	85.44
329.744	83.44
329.972	78.44
330.201	71.44
330.43	86.44
330.658	89.44
330.887	79.44
331.115	83.44
331.344	84.44
331.572	81.44
331.801	74.44
332.03	76.44
332.258	84.44
332.486	70.44
332.715	87.44
332.943	80.44
333.172	83.44
333.4	88.44
333.629	83.44
333.857	89.44
334.085	82.44
334.314	88.44
334.542	74.44
334.771	77.44
334.999	85.44
335.227	81.44
335.455	78.44
335.684	75.44
335.912	69.44
336.14	79.44
336.369	83.44
336.597	76.44
336.825	80.44
337.053	69.44
337.281	75.44
337.51	82.44
337.738	79.44
337.966	79.44
338.194	78.44
338.422	71.44
338.65	75.44
338.878	82.44
339.106	67.44
339.334	90.44
339.562	85.44
339.79	74.44
340.018	71.44
340.246	97.44
340.474	87.44
340.702	77.44
340.93	74.44
341.158	86.44
341.386	82.44
341.614	81.44
341.842	84.44
342.07	79.44
342.298	93.44
342.526	79.44
342.754	73.44
342.981	92.44
343.209	101.44
343.437	70.44
343.665	75.44
343.893	94.44
344.12	78.44
344.348	85.44
344.576	77.44
344.804	78.44
345.031	82.44
345.259	85.44
345.487	77.44
345.714	63.44
345.942	79.44
346.17	86.44
346.397	81.44
346.625	85.44
346.853	82.44
347.08	81.44
347.308	82.44
347.535	77.44
347.763	77.44
347.99	81.44
348.218	81.44
348.445	78.44
348.673	66.44
348.9	80.44
349.128	97.44
349.355	78.44
349.583	81.44
349.81	79.44
350.037	83.44
350.265	74.44
350.492	68.44
350.72	80.44
350.947	81.44
351.174	82.44
351.402	72.44
351.629	81.44
351.856	68.44
352.083	81.44
352.311	83.44
352.538	79.44
352.765	76.44
352.992	79.44
353.22	75.44
353.447	90.44
353.674	88.44
353.901	89.44
354.128	76.44
354.355	73.44
354.583	104.44
354.81	83.44
355.037	87.44
355.264	88.44
355.491	86.44
355.718	89.44
355.945	84.44
356.172	80.44
356.399	79.44
356.626	78.44
356.853	82.44
357.08	82.44
357.307	83.44
357.534	77.44
357.761	94.44
357.988	81.44
358.215	87.44
358.441	91.44
358.668	91.44
358.895	82.44
359.122	76.44
359.349	77.44
359.576	80.44
359.802	89.44
360.029	78.44
360.256	79.44
360.483	82.44
360.709	81.44
360.936	74.44
361.163	87.44
361.39	72.44
361.616	94.44
361.843	73.44
362.07	72.44
362.296	74.44
362.523	68.44
362.749	81.44
362.976	78.44
363.203	90.44
363.429	90.44
363.656	65.44
363.882	88.44
364.109	75.44
364.335	85.44
364.562	92.44
364.788	87.44
365.015	90.44
365.241	73.44
365.468	85.44
365.694	74.44
365.92	82.44
366.147	73.44
366.373	79.44
366.599	92.44
366.826	77.44
367.052	87.44
367.278	74.44
367.505	75.44
367.731	81.44
367.957	83.44
368.184	80.44
368.41	74.44
368.636	79.44
368.862	92.44
369.089	90.44
369.315	95.44
369.541	90.44
369.767	81.44
369.993	81.44
370.219	101.44
370.445	79.44
370.672	86.44
370.898	82.44
371.124	88.44
371.35	89.44
371.576	86.44
371.802	95.44
372.028	90.44
372.254	76.44
372.48	76.44
372.706	80.44
372.932	87.44
373.158	87.44
373.384	73.44
373.61	90.44
373.835	96.44
374.061	97.44
374.287	81.44
374.513	96.44
374.739	84.44
374.965	87.44
375.191	85.44
375.416	95.44
375.642	95.44
375.868	95.44
376.094	97.44
376.319	90.44
376.545	82.44
376.771	89.44
376.997	97.44
377.222	89.44
377.448	103.44
377.674	98.44
377.899	87.44
378.125	94.44
378.35	98.44
378.576	93.44
378.802	73.44
379.027	103.44
379.253	83.44
379.478	98.44
379.704	80.44
379.929	75.44
380.155	102.44
380.38	91.44
380.606	108.44
380.831	95.44
381.057	105.44
381.282	96.44
381.507	90.44
381.733	94.44
381.958	85.44
382.184	103.44
382.409	107.44
382.634	80.44
382.86	82.44
383.085	81.44
383.31	98.44
383.535	97.44
383.761	95.44
383.986	96.44
384.211	81.44
384.436	95.44
384.662	87.44
384.887	95.44
385.112	90.44
385.337	98.44
385.562	82.44
385.787	96.44
386.013	99.44
386.238	89.44
386.463	80.44
386.688	85.44
386.913	86.44
387.138	93.44
387.363	99.44
387.588	98.44
387.813	89.44
388.038	106.44
388.263	115.44
388.488	101.44
388.713	94.44
388.938	107.44
389.163	97.44
389.387	102.44
389.612	92.44
389.837	81.44
390.062	106.44
390.287	116.44
390.512	95.44
390.736	101.44
390.961	98.44
391.186	85.44
391.411	90.44
391.636	90.44
391.86	94.44
392.085	85.44
392.31	104.44
392.534	88.44
392.759	99.44
392.984	83.44
393.208	103.44
393.433	102.44
393.658	102.44
393.882	103.44
394.107	99.44
394.331	99.44
394.556	110.44
394.78	111.44
395.005	93.44
395.229	98.44
395.454	98.44
395.678	104.44
395.903	91.44
396.127	100.44
396.352	115.44
396.576	119.44
396.801	110.44
397.025	109.44
397.249	117.44
397.474	113.44
397.698	105.44
397.922	111.44
398.147	101.44
398.371	95.44
398.595	117.44
398.82	121.44
399.044	99.44
399.268	105.44
399.492	101.44
399.717	105.44
399.941	104.44
400.165	114.44
400.389	110.44
400.613	97.44
400.837	103.44
401.062	115.44
401.286	105.44
401.51	110.44
401.734	113.44
401.958	101.44
402.182	103.44
402.406	118.44
402.63	117.44
402.854	101.44
403.078	103.44
403.302	105.44
403.526	108.44
403.75	110.44
403.974	119.44
404.198	107.44
404.422	104.44
404.645	105.44
404.869	125.44
405.093	104.44
405.317	118.44
405.541	119.44
405.765	106.44
405.988	133.44
406.212	101.44
406.436	109.44
406.66	123.44
406.883	98.44
407.107	111.44
407.331	112.44
407.555	104.44
407.778	115.44
408.002	113.44
408.226	113.44
408.449	106.44
408.673	131.44
408.896	100.44
409.12	123.44
409.344	117.44
409.567	100.44
409.791	110.44
410.014	105.44
410.238	113.44
410.461	115.44
410.685	117.44
410.908	114.44
411.132	127.44
411.355	116.44
411.578	122.44
411.802	102.44
412.025	118.44
412.249	108.44
412.472	105.44
412.695	108.44
412.919	114.44
413.142	106.44
413.365	96.44
413.589	104.44
413.812	105.44
414.035	117.44
414.258	109.44
414.482	114.44
414.705	103.44
414.928	124.44
415.151	110.44
415.374	125.44
415.597	130.44
415.821	126.44
416.044	120.44
416.267	116.44
416.49	121.44
416.713	127.44
416.936	129.44
417.159	120.44
417.382	104.44
417.605	105.44
417.828	113.44
418.051	140.44
418.274	130.44
418.497	120.44
418.72	133.44
418.943	124.44
419.166	132.44
419.389	138.44
419.611	145.44
419.834	125.44
420.057	145.44
420.28	128.44
420.503	122.44
420.726	128.44
420.948	109.44
421.171	131.44
421.394	118.44
421.617	125.44
421.839	123.44
422.062	141.44
422.285	134.44
422.507	127.44
422.73	125.44
422.953	131.44
423.175	121.44
423.398	105.44
423.621	121.44
423.843	119.44
424.066	148.44
424.288	129.44
424.511	137.44
424.733	128.44
424.956	137.44
425.178	144.44
425.401	134.44
425.623	127.44
425.846	136.44
426.068	132.44
426.291	125.44
426.513	114.44
426.735	119.44
426.958	133.44
427.18	124.44
427.402	115.44
427.625	123.44
427.847	114.44
428.069	109.44
428.292	99.44
428.514	125.44
428.736	123.44
428.958	135.44
429.181	118.44
429.403	129.44
429.625	113.44
429.847	129.44
430.069	117.44
430.292	105.44
430.514	109.44
430.736	114.44
430.958	150.44
431.18	113.44
431.402	117.44
431.624	109.44
431.846	105.44
432.068	97.44
432.29	79.44
432.512	94.44
432.734	115.44
432.956	113.44
433.178	131.44
433.4	146.44
433.622	136.44
433.844	131.44
434.066	117.44
434.287	119.44
434.509	88.44
434.731	89.44
434.953	102.44
435.175	120.44
435.397	117.44
435.618	113.44
435.84	112.44
436.062	118.44
436.284	126.44
436.505	133.44
436.727	127.44
436.949	143.44
437.17	121.44
437.392	116.44
437.614	126.44
437.835	105.44
438.057	95.44
438.278	96.44
438.5	116.44
438.721	123.44
438.943	119.44
439.165	113.44
439.386	136.44
439.608	135.44
439.829	127.44
440.05	139.44
440.272	128.44
440.493	139.44
440.715	145.44
440.936	140.44
441.158	135.44
441.379	145.44
441.6	131.44
441.822	135.44
442.043	136.44
442.264	129.44
442.486	130.44
442.707	126.44
442.928	137.44
443.149	129.44
443.371	133.44
443.592	122.44
443.813	126.44
444.034	143.44
444.255	142.44
444.476	131.44
444.698	134.44
444.919	133.44
445.14	270.44
445.361	206.44
445.582	149.44
445.803	140.44
446.024	137.44
446.245	153.44
446.466	159.44
446.687	157.44
446.908	145.44
447.129	154.44
447.35	145.44
447.571	145.44
447.792	138.44
448.013	143.44
448.234	143.44
448.455	138.44
448.675	137.44
448.896	146.44
449.117	127.44
449.338	115.44
449.559	129.44
449.779	128.44
450	138.44
450.221	131.44
450.442	129.44
450.662	120.44
450.883	122.44
451.104	124.44
451.324	109.44
451.545	125.44
451.766	122.44
451.986	119.44
452.207	119.44
452.428	134.44
452.648	121.44
452.869	115.44
453.089	105.44
453.31	112.44
453.53	106.44
453.751	95.44
453.971	99.44
454.192	89.44
454.412	90.44
454.633	107.44
454.853	117.44
455.073	125.44
455.294	100.44
455.514	111.44
455.734	106.44
455.955	111.44
456.175	108.44
456.395	109.44
456.616	106.44
456.836	102.44
457.056	102.44
457.276	84.44
457.497	95.44
457.717	115.44
457.937	106.44
458.157	95.44
458.377	101.44
458.598	92.44
458.818	106.44
459.038	86.44
459.258	79.44
459.478	94.44
459.698	80.44
459.918	91.44
460.138	95.44
460.358	102.44
460.578	106.44
460.798	114.44
461.018	114.44
461.238	102.44
461.458	109.44
461.678	111.44
461.898	114.44
462.118	113.44
462.338	115.44
462.558	110.44
462.777	116.44
462.997	111.44
463.217	106.44
463.437	105.44
463.657	91.44
463.876	100.44
464.096	98.44
464.316	105.44
464.536	83.44
464.755	120.44
464.975	111.44
465.195	116.44
465.414	111.44
465.634	110.44
465.854	120.44
466.073	111.44
466.293	121.44
466.512	136.44
466.732	117.44
466.951	119.44
467.171	125.44
467.391	133.44
467.61	124.44
467.829	137.44
468.049	145.44
468.268	131.44
468.488	127.44
468.707	127.44
468.927	134.44
469.146	133.44
469.365	125.44
469.585	155.44
469.804	147.44
470.023	135.44
470.243	130.44
470.462	137.44
470.681	130.44
470.901	140.44
471.12	132.44
471.339	122.44
471.558	142.44
471.777	136.44
471.997	121.44
472.216	131.44
472.435	118.44
472.654	103.44
472.873	102.44
473.092	107.44
473.311	116.44
473.53	130.44
473.749	121.44
473.968	130.44
474.187	114.44
474.406	108.44
474.625	118.44
474.844	118.44
475.063	118.44
475.282	130.44
475.501	110.44
475.72	100.44
475.939	123.44
476.158	115.44
476.377	107.44
476.596	115.44
476.814	96.44
477.033	101.44
477.252	118.44
477.471	111.44
477.69	132.44
477.908	121.44
478.127	131.44
478.346	121.44
478.564	134.44
478.783	125.44
479.002	129.44
479.22	126.44
479.439	123.44
479.658	111.44
479.876	125.44
480.095	102.44
480.313	104.44
480.532	105.44
480.751	110.44
480.969	88.44
481.188	87.44
481.406	89.44
481.624	90.44
481.843	82.44
482.061	85.44
482.28	102.44
482.498	112.44
482.717	104.44
482.935	119.44
483.153	138.44
483.372	137.44
483.59	152.44
483.808	152.44
484.027	127.44
484.245	121.44
484.463	136.44
484.681	161.44
484.9	131.44
485.118	139.44
485.336	116.44
485.554	102.44
485.772	118.44
485.99	94.44
486.209	104.44
486.427	96.44
486.645	109.44
486.863	131.44
487.081	130.44
487.299	129.44
487.517	128.44
487.735	162.44
487.953	195.44
488.171	181.44
488.389	165.44
488.607	153.44
488.825	138.44
489.043	121.44
489.261	120.44
489.479	125.44
489.696	144.44
489.914	139.44
490.132	128.44
490.35	139.44
490.568	153.44
490.786	156.44
491.003	168.44
491.221	174.44
491.439	189.44
491.657	185.44
491.874	210.44
492.092	215.44
492.31	228.44
492.527	217.44
492.745	213.44
492.963	184.44
493.18	174.44
493.398	178.44
493.615	166.44
493.833	168.44
494.05	176.44
494.268	174.44
494.485	151.44
494.703	169.44
494.92	164.44
495.138	180.44
495.355	167.44
495.573	153.44
495.79	154.44
496.008	177.44
496.225	152.44
496.442	153.44
496.66	175.44
496.877	156.44
497.094	169.44
497.312	165.44
497.529	147.44
497.746	153.44
497.963	138.44
498.181	115.44
498.398	119.44
498.615	121.44
498.832	107.44
499.049	117.44
499.267	117.44
499.484	120.44
499.701	116.44
499.918	134.44
500.135	133.44
500.352	131.44
500.569	136.44
500.786	143.44
501.003	137.44
501.22	136.44
501.437	140.44
501.654	123.44
501.871	131.44
502.088	129.44
502.305	131.44
502.522	121.44
502.739	126.44
502.956	137.44
503.172	100.44
503.389	121.44
503.606	118.44
503.823	107.44
504.04	104.44
504.256	120.44
504.473	115.44
504.69	116.44
504.907	133.44
505.123	110.44
505.34	117.44
505.557	119.44
505.773	105.44
505.99	113.44
506.207	122.44
506.423	129.44
506.64	115.44
506.856	93.44
507.073	125.44
507.289	115.44
507.506	112.44
507.722	105.44
507.939	119.44
508.155	103.44
508.372	109.44
508.588	109.44
508.805	95.44
509.021	98.44
509.238	90.44
509.454	95.44
509.67	82.44
509.887	88.44
510.103	83.44
510.319	84.44
510.536	87.44
510.752	88.44
510.968	85.44
511.184	81.44
511.401	75.44
511.617	80.44
511.833	79.44
512.049	91.44
512.265	88.44
