Data from Location1.07152019.Energy5.Lamp.07192019.3%Agarose_HRD10591_14-30-18-015.txt Node
Date: Fri Jul 19 14:30:18 EDT 2019
User: cochatt
Spectrometer: HR+D1059
Trigger mode: 1
Integration Time (sec): 1.000000E-1
Scans to average: 1
Electric dark correction enabled: true
Nonlinearity correction enabled: false
Boxcar width: 0
XAxis mode: Wavelengths
Number of Pixels in Spectrum: 2048
>>>>>Begin Spectral Data<<<<<
223.165	-12.12
223.4	-12.12
223.635	-12.12
223.869	-18.12
224.104	-11.12
224.338	-10.12
224.573	-18.12
224.808	-14.12
225.042	-13.12
225.277	1.88
225.511	4.88
225.746	2.88
225.98	-9.12
226.215	13.88
226.449	9.88
226.683	13.88
226.918	30.88
227.152	27.88
227.387	38.88
227.621	35.88
227.856	49.88
228.09	50.88
228.324	44.88
228.559	58.88
228.793	56.88
229.027	43.88
229.262	66.88
229.496	77.88
229.73	68.88
229.964	60.88
230.199	74.88
230.433	79.88
230.667	81.88
230.901	72.88
231.136	68.88
231.37	75.88
231.604	72.88
231.838	94.88
232.072	72.88
232.306	79.88
232.541	89.88
232.775	74.88
233.009	77.88
233.243	84.88
233.477	86.88
233.711	105.88
233.945	77.88
234.179	86.88
234.413	84.88
234.647	72.88
234.881	77.88
235.115	86.88
235.349	85.88
235.583	78.88
235.817	90.88
236.051	86.88
236.285	83.88
236.519	85.88
236.753	73.88
236.987	75.88
237.221	75.88
237.455	69.88
237.689	64.88
237.922	84.88
238.156	60.88
238.39	86.88
238.624	78.88
238.858	75.88
239.091	74.88
239.325	76.88
239.559	68.88
239.793	77.88
240.027	75.88
240.26	89.88
240.494	93.88
240.728	64.88
240.961	79.88
241.195	89.88
241.429	75.88
241.662	85.88
241.896	77.88
242.13	77.88
242.363	85.88
242.597	72.88
242.83	81.88
243.064	78.88
243.298	82.88
243.531	76.88
243.765	80.88
243.998	74.88
244.232	97.88
244.465	84.88
244.699	75.88
244.932	68.88
245.166	85.88
245.399	86.88
245.633	94.88
245.866	78.88
246.099	84.88
246.333	74.88
246.566	84.88
246.8	70.88
247.033	78.88
247.266	86.88
247.5	67.88
247.733	66.88
247.966	82.88
248.2	71.88
248.433	75.88
248.666	79.88
248.899	72.88
249.133	74.88
249.366	98.88
249.599	76.88
249.832	67.88
250.066	80.88
250.299	72.88
250.532	76.88
250.765	94.88
250.998	80.88
251.231	69.88
251.465	83.88
251.698	65.88
251.931	71.88
252.164	77.88
252.397	75.88
252.63	73.88
252.863	85.88
253.096	77.88
253.329	68.88
253.562	76.88
253.795	73.88
254.028	75.88
254.261	72.88
254.494	72.88
254.727	73.88
254.96	76.88
255.193	67.88
255.426	74.88
255.659	68.88
255.892	92.88
256.124	77.88
256.357	96.88
256.59	82.88
256.823	76.88
257.056	96.88
257.289	75.88
257.521	85.88
257.754	79.88
257.987	84.88
258.22	85.88
258.452	78.88
258.685	75.88
258.918	74.88
259.151	79.88
259.383	87.88
259.616	70.88
259.849	78.88
260.081	76.88
260.314	80.88
260.547	79.88
260.779	78.88
261.012	83.88
261.244	77.88
261.477	89.88
261.71	71.88
261.942	76.88
262.175	85.88
262.407	83.88
262.64	75.88
262.872	74.88
263.105	79.88
263.337	74.88
263.57	71.88
263.802	73.88
264.035	58.88
264.267	78.88
264.499	80.88
264.732	79.88
264.964	91.88
265.197	84.88
265.429	84.88
265.661	85.88
265.894	84.88
266.126	96.88
266.358	87.88
266.591	81.88
266.823	79.88
267.055	84.88
267.287	82.88
267.52	75.88
267.752	79.88
267.984	87.88
268.216	84.88
268.448	92.88
268.681	77.88
268.913	95.88
269.145	92.88
269.377	91.88
269.609	99.88
269.841	85.88
270.073	76.88
270.306	90.88
270.538	92.88
270.77	85.88
271.002	86.88
271.234	76.88
271.466	85.88
271.698	80.88
271.93	76.88
272.162	82.88
272.394	79.88
272.626	83.88
272.858	70.88
273.09	96.88
273.322	85.88
273.553	82.88
273.785	84.88
274.017	75.88
274.249	75.88
274.481	82.88
274.713	76.88
274.945	77.88
275.176	86.88
275.408	91.88
275.64	69.88
275.872	61.88
276.104	78.88
276.335	77.88
276.567	79.88
276.799	77.88
277.031	89.88
277.262	70.88
277.494	74.88
277.726	76.88
277.957	85.88
278.189	61.88
278.421	78.88
278.652	89.88
278.884	85.88
279.115	93.88
279.347	72.88
279.579	77.88
279.81	81.88
280.042	79.88
280.273	89.88
280.505	81.88
280.736	77.88
280.968	72.88
281.199	89.88
281.431	77.88
281.662	83.88
281.894	90.88
282.125	69.88
282.356	74.88
282.588	73.88
282.819	90.88
283.051	72.88
283.282	79.88
283.513	86.88
283.745	84.88
283.976	96.88
284.207	72.88
284.439	89.88
284.67	87.88
284.901	95.88
285.132	81.88
285.364	86.88
285.595	87.88
285.826	68.88
286.057	69.88
286.288	82.88
286.52	79.88
286.751	90.88
286.982	68.88
287.213	78.88
287.444	95.88
287.675	88.88
287.906	85.88
288.138	75.88
288.369	92.88
288.6	89.88
288.831	86.88
289.062	87.88
289.293	79.88
289.524	84.88
289.755	89.88
289.986	85.88
290.217	104.88
290.448	94.88
290.679	87.88
290.91	83.88
291.141	102.88
291.371	81.88
291.602	96.88
291.833	90.88
292.064	84.88
292.295	86.88
292.526	70.88
292.757	72.88
292.987	77.88
293.218	90.88
293.449	84.88
293.68	78.88
293.91	88.88
294.141	74.88
294.372	97.88
294.603	74.88
294.833	68.88
295.064	84.88
295.295	84.88
295.525	89.88
295.756	86.88
295.987	89.88
296.217	67.88
296.448	97.88
296.679	88.88
296.909	80.88
297.14	104.88
297.37	90.88
297.601	85.88
297.831	78.88
298.062	79.88
298.292	86.88
298.523	92.88
298.753	72.88
298.984	89.88
299.214	75.88
299.445	89.88
299.675	79.88
299.905	81.88
300.136	91.88
300.366	94.88
300.597	97.88
300.827	88.88
301.057	101.88
301.288	89.88
301.518	75.88
301.748	78.88
301.979	82.88
302.209	76.88
302.439	81.88
302.669	76.88
302.9	72.88
303.13	90.88
303.36	93.88
303.59	86.88
303.82	92.88
304.051	85.88
304.281	89.88
304.511	97.88
304.741	79.88
304.971	92.88
305.201	90.88
305.431	82.88
305.661	88.88
305.891	92.88
306.121	64.88
306.352	84.88
306.582	88.88
306.812	77.88
307.042	86.88
307.272	87.88
307.502	87.88
307.731	74.88
307.961	81.88
308.191	79.88
308.421	84.88
308.651	97.88
308.881	99.88
309.111	91.88
309.341	80.88
309.571	76.88
309.8	85.88
310.03	98.88
310.26	104.88
310.49	91.88
310.72	79.88
310.949	79.88
311.179	85.88
311.409	74.88
311.639	98.88
311.868	93.88
312.098	69.88
312.328	93.88
312.557	73.88
312.787	82.88
313.017	79.88
313.246	87.88
313.476	80.88
313.706	89.88
313.935	84.88
314.165	82.88
314.394	84.88
314.624	77.88
314.853	74.88
315.083	88.88
315.312	84.88
315.542	89.88
315.771	85.88
316.001	78.88
316.23	80.88
316.46	88.88
316.689	89.88
316.919	67.88
317.148	93.88
317.377	85.88
317.607	90.88
317.836	84.88
318.065	78.88
318.295	94.88
318.524	85.88
318.753	99.88
318.983	89.88
319.212	88.88
319.441	75.88
319.67	90.88
319.9	93.88
320.129	93.88
320.358	84.88
320.587	74.88
320.816	88.88
321.046	92.88
321.275	85.88
321.504	78.88
321.733	86.88
321.962	91.88
322.191	80.88
322.42	89.88
322.649	70.88
322.878	83.88
323.108	73.88
323.337	95.88
323.566	82.88
323.795	92.88
324.024	72.88
324.253	89.88
324.482	86.88
324.71	94.88
324.939	90.88
325.168	76.88
325.397	87.88
325.626	87.88
325.855	77.88
326.084	89.88
326.313	95.88
326.542	71.88
326.77	87.88
326.999	87.88
327.228	85.88
327.457	85.88
327.686	87.88
327.914	77.88
328.143	78.88
328.372	86.88
328.6	81.88
328.829	91.88
329.058	82.88
329.287	90.88
329.515	86.88
329.744	74.88
329.972	89.88
330.201	83.88
330.43	98.88
330.658	72.88
330.887	92.88
331.115	73.88
331.344	84.88
331.572	73.88
331.801	86.88
332.03	77.88
332.258	77.88
332.486	91.88
332.715	87.88
332.943	81.88
333.172	76.88
333.4	85.88
333.629	76.88
333.857	81.88
334.085	88.88
334.314	78.88
334.542	86.88
334.771	84.88
334.999	90.88
335.227	95.88
335.455	82.88
335.684	102.88
335.912	82.88
336.14	78.88
336.369	72.88
336.597	67.88
336.825	92.88
337.053	80.88
337.281	87.88
337.51	92.88
337.738	94.88
337.966	88.88
338.194	82.88
338.422	69.88
338.65	81.88
338.878	68.88
339.106	76.88
339.334	80.88
339.562	79.88
339.79	79.88
340.018	72.88
340.246	86.88
340.474	84.88
340.702	93.88
340.93	91.88
341.158	89.88
341.386	68.88
341.614	66.88
341.842	78.88
342.07	85.88
342.298	83.88
342.526	90.88
342.754	83.88
342.981	75.88
343.209	83.88
343.437	83.88
343.665	92.88
343.893	90.88
344.12	94.88
344.348	84.88
344.576	108.88
344.804	92.88
345.031	85.88
345.259	84.88
345.487	91.88
345.714	71.88
345.942	80.88
346.17	74.88
346.397	74.88
346.625	72.88
346.853	82.88
347.08	90.88
347.308	94.88
347.535	87.88
347.763	98.88
347.99	69.88
348.218	89.88
348.445	103.88
348.673	85.88
348.9	84.88
349.128	85.88
349.355	87.88
349.583	84.88
349.81	65.88
350.037	77.88
350.265	81.88
350.492	86.88
350.72	85.88
350.947	92.88
351.174	76.88
351.402	91.88
351.629	85.88
351.856	79.88
352.083	87.88
352.311	81.88
352.538	79.88
352.765	89.88
352.992	91.88
353.22	89.88
353.447	70.88
353.674	93.88
353.901	93.88
354.128	84.88
354.355	72.88
354.583	79.88
354.81	77.88
355.037	85.88
355.264	85.88
355.491	85.88
355.718	78.88
355.945	78.88
356.172	81.88
356.399	77.88
356.626	77.88
356.853	72.88
357.08	97.88
357.307	83.88
357.534	84.88
357.761	78.88
357.988	78.88
358.215	75.88
358.441	78.88
358.668	87.88
358.895	74.88
359.122	78.88
359.349	88.88
359.576	96.88
359.802	79.88
360.029	75.88
360.256	80.88
360.483	82.88
360.709	79.88
360.936	99.88
361.163	95.88
361.39	82.88
361.616	94.88
361.843	85.88
362.07	85.88
362.296	85.88
362.523	81.88
362.749	68.88
362.976	86.88
363.203	87.88
363.429	64.88
363.656	81.88
363.882	85.88
364.109	90.88
364.335	88.88
364.562	77.88
364.788	76.88
365.015	89.88
365.241	94.88
365.468	97.88
365.694	75.88
365.92	82.88
366.147	85.88
366.373	78.88
366.599	83.88
366.826	87.88
367.052	87.88
367.278	89.88
367.505	81.88
367.731	82.88
367.957	87.88
368.184	78.88
368.41	81.88
368.636	92.88
368.862	88.88
369.089	90.88
369.315	74.88
369.541	89.88
369.767	90.88
369.993	85.88
370.219	89.88
370.445	76.88
370.672	97.88
370.898	79.88
371.124	85.88
371.35	89.88
371.576	73.88
371.802	96.88
372.028	90.88
372.254	78.88
372.48	82.88
372.706	77.88
372.932	87.88
373.158	82.88
373.384	85.88
373.61	85.88
373.835	86.88
374.061	86.88
374.287	93.88
374.513	83.88
374.739	78.88
374.965	93.88
375.191	103.88
375.416	88.88
375.642	94.88
375.868	92.88
376.094	103.88
376.319	103.88
376.545	71.88
376.771	82.88
376.997	86.88
377.222	96.88
377.448	100.88
377.674	91.88
377.899	97.88
378.125	81.88
378.35	108.88
378.576	89.88
378.802	86.88
379.027	90.88
379.253	92.88
379.478	93.88
379.704	70.88
379.929	87.88
380.155	90.88
380.38	94.88
380.606	87.88
380.831	86.88
381.057	98.88
381.282	89.88
381.507	93.88
381.733	99.88
381.958	81.88
382.184	92.88
382.409	88.88
382.634	108.88
382.86	97.88
383.085	90.88
383.31	98.88
383.535	95.88
383.761	85.88
383.986	96.88
384.211	93.88
384.436	115.88
384.662	96.88
384.887	106.88
385.112	93.88
385.337	103.88
385.562	93.88
385.787	94.88
386.013	106.88
386.238	93.88
386.463	88.88
386.688	101.88
386.913	108.88
387.138	85.88
387.363	106.88
387.588	103.88
387.813	110.88
388.038	105.88
388.263	104.88
388.488	83.88
388.713	95.88
388.938	100.88
389.163	86.88
389.387	89.88
389.612	98.88
389.837	109.88
390.062	107.88
390.287	99.88
390.512	103.88
390.736	110.88
390.961	91.88
391.186	109.88
391.411	96.88
391.636	108.88
391.86	100.88
392.085	96.88
392.31	106.88
392.534	94.88
392.759	95.88
392.984	106.88
393.208	107.88
393.433	87.88
393.658	88.88
393.882	113.88
394.107	96.88
394.331	111.88
394.556	106.88
394.78	93.88
395.005	105.88
395.229	96.88
395.454	95.88
395.678	101.88
395.903	93.88
396.127	113.88
396.352	99.88
396.576	105.88
396.801	105.88
397.025	106.88
397.249	92.88
397.474	107.88
397.698	102.88
397.922	95.88
398.147	119.88
398.371	100.88
398.595	105.88
398.82	96.88
399.044	107.88
399.268	104.88
399.492	120.88
399.717	114.88
399.941	90.88
400.165	109.88
400.389	94.88
400.613	105.88
400.837	113.88
401.062	109.88
401.286	108.88
401.51	106.88
401.734	110.88
401.958	103.88
402.182	110.88
402.406	109.88
402.63	108.88
402.854	106.88
403.078	100.88
403.302	108.88
403.526	102.88
403.75	114.88
403.974	120.88
404.198	106.88
404.422	107.88
404.645	108.88
404.869	109.88
405.093	106.88
405.317	121.88
405.541	116.88
405.765	110.88
405.988	114.88
406.212	115.88
406.436	106.88
406.66	119.88
406.883	109.88
407.107	120.88
407.331	106.88
407.555	112.88
407.778	117.88
408.002	122.88
408.226	108.88
408.449	133.88
408.673	121.88
408.896	123.88
409.12	118.88
409.344	115.88
409.567	115.88
409.791	117.88
410.014	108.88
410.238	110.88
410.461	103.88
410.685	122.88
410.908	116.88
411.132	111.88
411.355	121.88
411.578	121.88
411.802	117.88
412.025	107.88
412.249	106.88
412.472	121.88
412.695	108.88
412.919	119.88
413.142	122.88
413.365	119.88
413.589	121.88
413.812	111.88
414.035	125.88
414.258	141.88
414.482	118.88
414.705	123.88
414.928	121.88
415.151	126.88
415.374	119.88
415.597	125.88
415.821	121.88
416.044	118.88
416.267	130.88
416.49	110.88
416.713	120.88
416.936	111.88
417.159	125.88
417.382	121.88
417.605	124.88
417.828	109.88
418.051	113.88
418.274	131.88
418.497	138.88
418.72	136.88
418.943	129.88
419.166	121.88
419.389	144.88
419.611	138.88
419.834	132.88
420.057	121.88
420.28	114.88
420.503	131.88
420.726	148.88
420.948	125.88
421.171	129.88
421.394	140.88
421.617	135.88
421.839	156.88
422.062	137.88
422.285	125.88
422.507	120.88
422.73	116.88
422.953	108.88
423.175	121.88
423.398	123.88
423.621	126.88
423.843	133.88
424.066	127.88
424.288	143.88
424.511	143.88
424.733	129.88
424.956	144.88
425.178	143.88
425.401	140.88
425.623	131.88
425.846	126.88
426.068	121.88
426.291	141.88
426.513	126.88
426.735	123.88
426.958	121.88
427.18	133.88
427.402	135.88
427.625	141.88
427.847	128.88
428.069	117.88
428.292	116.88
428.514	132.88
428.736	122.88
428.958	121.88
429.181	127.88
429.403	141.88
429.625	130.88
429.847	120.88
430.069	134.88
430.292	126.88
430.514	115.88
430.736	121.88
430.958	118.88
431.18	124.88
431.402	130.88
431.624	132.88
431.846	109.88
432.068	103.88
432.29	101.88
432.512	110.88
432.734	124.88
432.956	130.88
433.178	127.88
433.4	141.88
433.622	149.88
433.844	131.88
434.066	132.88
434.287	97.88
434.509	94.88
434.731	94.88
434.953	110.88
435.175	129.88
435.397	123.88
435.618	113.88
435.84	113.88
436.062	105.88
436.284	120.88
436.505	120.88
436.727	133.88
436.949	120.88
437.17	129.88
437.392	123.88
437.614	109.88
437.835	117.88
438.057	92.88
438.278	107.88
438.5	120.88
438.721	123.88
438.943	143.88
439.165	134.88
439.386	135.88
439.608	163.88
439.829	142.88
440.05	125.88
440.272	149.88
440.493	148.88
440.715	157.88
440.936	140.88
441.158	127.88
441.379	127.88
441.6	154.88
441.822	147.88
442.043	149.88
442.264	125.88
442.486	138.88
442.707	144.88
442.928	140.88
443.149	140.88
443.371	132.88
443.592	133.88
443.813	154.88
444.034	133.88
444.255	143.88
444.476	140.88
444.698	147.88
444.919	142.88
445.14	275.88
445.361	193.88
445.582	141.88
445.803	140.88
446.024	140.88
446.245	143.88
446.466	139.88
446.687	146.88
446.908	163.88
447.129	144.88
447.35	151.88
447.571	149.88
447.792	150.88
448.013	145.88
448.234	139.88
448.455	129.88
448.675	150.88
448.896	139.88
449.117	139.88
449.338	148.88
449.559	126.88
449.779	142.88
450	127.88
450.221	122.88
450.442	129.88
450.662	148.88
450.883	124.88
451.104	117.88
451.324	140.88
451.545	128.88
451.766	119.88
451.986	125.88
452.207	124.88
452.428	134.88
452.648	135.88
452.869	126.88
453.089	118.88
453.31	103.88
453.53	110.88
453.751	100.88
453.971	113.88
454.192	121.88
454.412	114.88
454.633	120.88
454.853	124.88
455.073	125.88
455.294	111.88
455.514	122.88
455.734	130.88
455.955	104.88
456.175	105.88
456.395	101.88
456.616	121.88
456.836	115.88
457.056	101.88
457.276	114.88
457.497	99.88
457.717	98.88
457.937	107.88
458.157	110.88
458.377	101.88
458.598	103.88
458.818	100.88
459.038	95.88
459.258	93.88
459.478	84.88
459.698	81.88
459.918	103.88
460.138	111.88
460.358	113.88
460.578	123.88
460.798	101.88
461.018	86.88
461.238	103.88
461.458	122.88
461.678	110.88
461.898	113.88
462.118	104.88
462.338	97.88
462.558	118.88
462.777	117.88
462.997	121.88
463.217	99.88
463.437	119.88
463.657	101.88
463.876	110.88
464.096	108.88
464.316	88.88
464.536	109.88
464.755	124.88
464.975	120.88
465.195	118.88
465.414	124.88
465.634	119.88
465.854	111.88
466.073	118.88
466.293	119.88
466.512	116.88
466.732	132.88
466.951	129.88
467.171	111.88
467.391	117.88
467.61	146.88
467.829	139.88
468.049	140.88
468.268	138.88
468.488	124.88
468.707	127.88
468.927	140.88
469.146	137.88
469.365	129.88
469.585	138.88
469.804	142.88
470.023	142.88
470.243	147.88
470.462	147.88
470.681	132.88
470.901	137.88
471.12	144.88
471.339	142.88
471.558	157.88
471.777	125.88
471.997	136.88
472.216	121.88
472.435	117.88
472.654	120.88
472.873	124.88
473.092	122.88
473.311	135.88
473.53	114.88
473.749	121.88
473.968	133.88
474.187	123.88
474.406	118.88
474.625	126.88
474.844	131.88
475.063	134.88
475.282	133.88
475.501	120.88
475.72	130.88
475.939	122.88
476.158	124.88
476.377	129.88
476.596	119.88
476.814	130.88
477.033	111.88
477.252	123.88
477.471	124.88
477.69	147.88
477.908	138.88
478.127	140.88
478.346	134.88
478.564	133.88
478.783	123.88
479.002	133.88
479.22	143.88
479.439	139.88
479.658	123.88
479.876	111.88
480.095	102.88
480.313	121.88
480.532	103.88
480.751	97.88
480.969	94.88
481.188	85.88
481.406	99.88
481.624	83.88
481.843	84.88
482.061	102.88
482.28	117.88
482.498	103.88
482.717	101.88
482.935	122.88
483.153	140.88
483.372	141.88
483.59	138.88
483.808	131.88
484.027	133.88
484.245	116.88
484.463	139.88
484.681	150.88
484.9	133.88
485.118	130.88
485.336	130.88
485.554	114.88
485.772	108.88
485.99	110.88
486.209	103.88
486.427	115.88
486.645	124.88
486.863	116.88
487.081	132.88
487.299	125.88
487.517	129.88
487.735	164.88
487.953	179.88
488.171	162.88
488.389	173.88
488.607	169.88
488.825	137.88
489.043	118.88
489.261	125.88
489.479	133.88
489.696	148.88
489.914	133.88
490.132	138.88
490.35	142.88
490.568	162.88
490.786	179.88
491.003	175.88
491.221	165.88
491.439	183.88
491.657	195.88
491.874	213.88
492.092	211.88
492.31	245.88
492.527	219.88
492.745	218.88
492.963	193.88
493.18	189.88
493.398	193.88
493.615	186.88
493.833	175.88
494.05	174.88
494.268	162.88
494.485	181.88
494.703	176.88
494.92	157.88
495.138	152.88
495.355	169.88
495.573	163.88
495.79	166.88
496.008	161.88
496.225	158.88
496.442	171.88
496.66	159.88
496.877	161.88
497.094	154.88
497.312	149.88
497.529	153.88
497.746	138.88
497.963	133.88
498.181	143.88
498.398	124.88
498.615	129.88
498.832	115.88
499.049	108.88
499.267	124.88
499.484	123.88
499.701	111.88
499.918	126.88
500.135	118.88
500.352	123.88
500.569	142.88
500.786	142.88
501.003	131.88
501.22	139.88
501.437	148.88
501.654	132.88
501.871	129.88
502.088	135.88
502.305	127.88
502.522	129.88
502.739	123.88
502.956	127.88
503.172	122.88
503.389	125.88
503.606	115.88
503.823	116.88
504.04	122.88
504.256	110.88
504.473	126.88
504.69	110.88
504.907	104.88
505.123	115.88
505.34	110.88
505.557	136.88
505.773	113.88
505.99	114.88
506.207	118.88
506.423	113.88
506.64	107.88
506.856	123.88
507.073	103.88
507.289	115.88
507.506	109.88
507.722	120.88
507.939	125.88
508.155	132.88
508.372	124.88
508.588	110.88
508.805	116.88
509.021	101.88
509.238	120.88
509.454	98.88
509.67	100.88
509.887	107.88
510.103	107.88
510.319	113.88
510.536	89.88
510.752	81.88
510.968	84.88
511.184	98.88
511.401	85.88
511.617	90.88
511.833	78.88
