Data from Location1.07152019.Energy5.Lamp.07192019.3%Agarose_HRD10591_14-32-58-016.txt Node
Date: Fri Jul 19 14:32:58 EDT 2019
User: cochatt
Spectrometer: HR+D1059
Trigger mode: 1
Integration Time (sec): 1.000000E-1
Scans to average: 1
Electric dark correction enabled: true
Nonlinearity correction enabled: false
Boxcar width: 0
XAxis mode: Wavelengths
Number of Pixels in Spectrum: 2048
>>>>>Begin Spectral Data<<<<<
223.165	-13.44
223.4	-13.44
223.635	-13.44
223.869	-5.44
224.104	-12.44
224.338	-10.44
224.573	-12.44
224.808	-13.44
225.042	-2.44
225.277	0.56
225.511	2.56
225.746	-1.44
225.98	-1.44
226.215	3.56
226.449	12.56
226.683	16.56
226.918	11.56
227.152	25.56
227.387	20.56
227.621	35.56
227.856	45.56
228.09	38.56
228.324	33.56
228.559	69.56
228.793	59.56
229.027	56.56
229.262	60.56
229.496	69.56
229.73	76.56
229.964	63.56
230.199	82.56
230.433	71.56
230.667	61.56
230.901	74.56
231.136	89.56
231.37	75.56
231.604	83.56
231.838	63.56
232.072	82.56
232.306	72.56
232.541	75.56
232.775	84.56
233.009	88.56
233.243	85.56
233.477	72.56
233.711	79.56
233.945	100.56
234.179	77.56
234.413	72.56
234.647	76.56
234.881	82.56
235.115	68.56
235.349	73.56
235.583	80.56
235.817	81.56
236.051	73.56
236.285	82.56
236.519	71.56
236.753	81.56
236.987	77.56
237.221	71.56
237.455	67.56
237.689	71.56
237.922	75.56
238.156	60.56
238.39	74.56
238.624	70.56
238.858	80.56
239.091	63.56
239.325	77.56
239.559	77.56
239.793	75.56
240.027	89.56
240.26	67.56
240.494	72.56
240.728	76.56
240.961	74.56
241.195	71.56
241.429	74.56
241.662	68.56
241.896	57.56
242.13	69.56
242.363	59.56
242.597	85.56
242.83	80.56
243.064	89.56
243.298	77.56
243.531	70.56
243.765	73.56
243.998	76.56
244.232	76.56
244.465	65.56
244.699	67.56
244.932	79.56
245.166	73.56
245.399	90.56
245.633	72.56
245.866	76.56
246.099	68.56
246.333	72.56
246.566	68.56
246.8	68.56
247.033	81.56
247.266	78.56
247.5	88.56
247.733	82.56
247.966	78.56
248.2	81.56
248.433	73.56
248.666	82.56
248.899	67.56
249.133	72.56
249.366	74.56
249.599	80.56
249.832	79.56
250.066	76.56
250.299	69.56
250.532	86.56
250.765	77.56
250.998	84.56
251.231	55.56
251.465	62.56
251.698	80.56
251.931	67.56
252.164	82.56
252.397	80.56
252.63	60.56
252.863	78.56
253.096	79.56
253.329	86.56
253.562	71.56
253.795	72.56
254.028	78.56
254.261	61.56
254.494	66.56
254.727	81.56
254.96	69.56
255.193	80.56
255.426	72.56
255.659	85.56
255.892	77.56
256.124	86.56
256.357	76.56
256.59	78.56
256.823	88.56
257.056	76.56
257.289	68.56
257.521	84.56
257.754	73.56
257.987	78.56
258.22	79.56
258.452	84.56
258.685	83.56
258.918	78.56
259.151	69.56
259.383	76.56
259.616	72.56
259.849	78.56
260.081	83.56
260.314	74.56
260.547	74.56
260.779	77.56
261.012	78.56
261.244	74.56
261.477	86.56
261.71	78.56
261.942	71.56
262.175	86.56
262.407	71.56
262.64	86.56
262.872	71.56
263.105	90.56
263.337	69.56
263.57	82.56
263.802	78.56
264.035	82.56
264.267	84.56
264.499	74.56
264.732	92.56
264.964	75.56
265.197	73.56
265.429	90.56
265.661	88.56
265.894	87.56
266.126	86.56
266.358	88.56
266.591	80.56
266.823	73.56
267.055	81.56
267.287	82.56
267.52	77.56
267.752	85.56
267.984	91.56
268.216	90.56
268.448	92.56
268.681	81.56
268.913	86.56
269.145	74.56
269.377	81.56
269.609	81.56
269.841	75.56
270.073	75.56
270.306	77.56
270.538	81.56
270.77	85.56
271.002	80.56
271.234	78.56
271.466	83.56
271.698	87.56
271.93	81.56
272.162	65.56
272.394	80.56
272.626	75.56
272.858	77.56
273.09	66.56
273.322	82.56
273.553	69.56
273.785	79.56
274.017	57.56
274.249	83.56
274.481	71.56
274.713	92.56
274.945	80.56
275.176	91.56
275.408	69.56
275.64	73.56
275.872	81.56
276.104	74.56
276.335	82.56
276.567	84.56
276.799	80.56
277.031	81.56
277.262	84.56
277.494	86.56
277.726	71.56
277.957	84.56
278.189	76.56
278.421	76.56
278.652	92.56
278.884	82.56
279.115	72.56
279.347	85.56
279.579	85.56
279.81	93.56
280.042	85.56
280.273	83.56
280.505	88.56
280.736	76.56
280.968	73.56
281.199	74.56
281.431	78.56
281.662	81.56
281.894	81.56
282.125	71.56
282.356	90.56
282.588	78.56
282.819	85.56
283.051	75.56
283.282	59.56
283.513	82.56
283.745	72.56
283.976	74.56
284.207	70.56
284.439	84.56
284.67	84.56
284.901	91.56
285.132	88.56
285.364	84.56
285.595	88.56
285.826	65.56
286.057	76.56
286.288	85.56
286.52	83.56
286.751	86.56
286.982	79.56
287.213	95.56
287.444	88.56
287.675	93.56
287.906	80.56
288.138	82.56
288.369	75.56
288.6	70.56
288.831	83.56
289.062	80.56
289.293	79.56
289.524	93.56
289.755	73.56
289.986	75.56
290.217	91.56
290.448	75.56
290.679	76.56
290.91	78.56
291.141	71.56
291.371	74.56
291.602	80.56
291.833	84.56
292.064	83.56
292.295	83.56
292.526	76.56
292.757	82.56
292.987	79.56
293.218	81.56
293.449	83.56
293.68	80.56
293.91	82.56
294.141	73.56
294.372	90.56
294.603	79.56
294.833	83.56
295.064	78.56
295.295	63.56
295.525	69.56
295.756	81.56
295.987	72.56
296.217	87.56
296.448	66.56
296.679	75.56
296.909	71.56
297.14	74.56
297.37	67.56
297.601	88.56
297.831	79.56
298.062	89.56
298.292	87.56
298.523	103.56
298.753	79.56
298.984	82.56
299.214	81.56
299.445	75.56
299.675	76.56
299.905	82.56
300.136	75.56
300.366	89.56
300.597	82.56
300.827	88.56
301.057	79.56
301.288	86.56
301.518	88.56
301.748	76.56
301.979	93.56
302.209	85.56
302.439	83.56
302.669	86.56
302.9	82.56
303.13	79.56
303.36	77.56
303.59	79.56
303.82	86.56
304.051	90.56
304.281	84.56
304.511	72.56
304.741	80.56
304.971	73.56
305.201	77.56
305.431	90.56
305.661	82.56
305.891	75.56
306.121	85.56
306.352	88.56
306.582	71.56
306.812	85.56
307.042	85.56
307.272	68.56
307.502	92.56
307.731	73.56
307.961	83.56
308.191	84.56
308.421	74.56
308.651	86.56
308.881	84.56
309.111	81.56
309.341	81.56
309.571	90.56
309.8	78.56
310.03	86.56
310.26	81.56
310.49	81.56
310.72	67.56
310.949	86.56
311.179	83.56
311.409	86.56
311.639	98.56
311.868	72.56
312.098	83.56
312.328	82.56
312.557	78.56
312.787	90.56
313.017	82.56
313.246	87.56
313.476	92.56
313.706	88.56
313.935	85.56
314.165	76.56
314.394	79.56
314.624	75.56
314.853	82.56
315.083	83.56
315.312	73.56
315.542	90.56
315.771	79.56
316.001	81.56
316.23	77.56
316.46	84.56
316.689	71.56
316.919	82.56
317.148	88.56
317.377	84.56
317.607	67.56
317.836	67.56
318.065	76.56
318.295	79.56
318.524	85.56
318.753	71.56
318.983	80.56
319.212	84.56
319.441	73.56
319.67	78.56
319.9	71.56
320.129	76.56
320.358	94.56
320.587	78.56
320.816	75.56
321.046	81.56
321.275	84.56
321.504	72.56
321.733	72.56
321.962	76.56
322.191	91.56
322.42	77.56
322.649	71.56
322.878	87.56
323.108	97.56
323.337	78.56
323.566	90.56
323.795	77.56
324.024	84.56
324.253	78.56
324.482	81.56
324.71	73.56
324.939	78.56
325.168	75.56
325.397	77.56
325.626	77.56
325.855	92.56
326.084	73.56
326.313	72.56
326.542	82.56
326.77	78.56
326.999	97.56
327.228	73.56
327.457	90.56
327.686	91.56
327.914	91.56
328.143	79.56
328.372	79.56
328.6	74.56
328.829	81.56
329.058	84.56
329.287	86.56
329.515	83.56
329.744	87.56
329.972	85.56
330.201	85.56
330.43	81.56
330.658	77.56
330.887	82.56
331.115	83.56
331.344	80.56
331.572	79.56
331.801	74.56
332.03	81.56
332.258	76.56
332.486	90.56
332.715	83.56
332.943	77.56
333.172	84.56
333.4	67.56
333.629	74.56
333.857	84.56
334.085	84.56
334.314	80.56
334.542	75.56
334.771	96.56
334.999	99.56
335.227	85.56
335.455	67.56
335.684	77.56
335.912	82.56
336.14	88.56
336.369	84.56
336.597	77.56
336.825	71.56
337.053	84.56
337.281	81.56
337.51	81.56
337.738	93.56
337.966	86.56
338.194	75.56
338.422	86.56
338.65	72.56
338.878	81.56
339.106	81.56
339.334	78.56
339.562	70.56
339.79	76.56
340.018	88.56
340.246	72.56
340.474	76.56
340.702	86.56
340.93	75.56
341.158	77.56
341.386	73.56
341.614	81.56
341.842	84.56
342.07	89.56
342.298	84.56
342.526	86.56
342.754	86.56
342.981	90.56
343.209	82.56
343.437	76.56
343.665	80.56
343.893	73.56
344.12	79.56
344.348	79.56
344.576	97.56
344.804	84.56
345.031	85.56
345.259	77.56
345.487	71.56
345.714	71.56
345.942	79.56
346.17	80.56
346.397	89.56
346.625	81.56
346.853	90.56
347.08	73.56
347.308	82.56
347.535	100.56
347.763	76.56
347.99	85.56
348.218	76.56
348.445	85.56
348.673	96.56
348.9	77.56
349.128	69.56
349.355	88.56
349.583	77.56
349.81	92.56
350.037	82.56
350.265	89.56
350.492	70.56
350.72	91.56
350.947	81.56
351.174	84.56
351.402	76.56
351.629	72.56
351.856	85.56
352.083	95.56
352.311	71.56
352.538	86.56
352.765	77.56
352.992	86.56
353.22	76.56
353.447	78.56
353.674	83.56
353.901	79.56
354.128	82.56
354.355	76.56
354.583	69.56
354.81	67.56
355.037	87.56
355.264	88.56
355.491	73.56
355.718	77.56
355.945	90.56
356.172	78.56
356.399	76.56
356.626	65.56
356.853	87.56
357.08	87.56
357.307	86.56
357.534	93.56
357.761	74.56
357.988	76.56
358.215	80.56
358.441	85.56
358.668	67.56
358.895	80.56
359.122	71.56
359.349	76.56
359.576	90.56
359.802	82.56
360.029	75.56
360.256	88.56
360.483	83.56
360.709	87.56
360.936	88.56
361.163	83.56
361.39	80.56
361.616	79.56
361.843	84.56
362.07	65.56
362.296	77.56
362.523	75.56
362.749	92.56
362.976	77.56
363.203	72.56
363.429	81.56
363.656	78.56
363.882	76.56
364.109	99.56
364.335	70.56
364.562	88.56
364.788	90.56
365.015	84.56
365.241	85.56
365.468	85.56
365.694	88.56
365.92	89.56
366.147	91.56
366.373	80.56
366.599	89.56
366.826	79.56
367.052	75.56
367.278	75.56
367.505	82.56
367.731	74.56
367.957	80.56
368.184	95.56
368.41	79.56
368.636	70.56
368.862	86.56
369.089	95.56
369.315	87.56
369.541	98.56
369.767	77.56
369.993	77.56
370.219	76.56
370.445	83.56
370.672	89.56
370.898	93.56
371.124	73.56
371.35	91.56
371.576	80.56
371.802	72.56
372.028	86.56
372.254	87.56
372.48	78.56
372.706	112.56
372.932	92.56
373.158	86.56
373.384	88.56
373.61	85.56
373.835	88.56
374.061	91.56
374.287	89.56
374.513	89.56
374.739	78.56
374.965	88.56
375.191	97.56
375.416	91.56
375.642	84.56
375.868	77.56
376.094	90.56
376.319	81.56
376.545	90.56
376.771	84.56
376.997	84.56
377.222	75.56
377.448	90.56
377.674	88.56
377.899	78.56
378.125	84.56
378.35	86.56
378.576	88.56
378.802	97.56
379.027	93.56
379.253	91.56
379.478	81.56
379.704	98.56
379.929	85.56
380.155	87.56
380.38	99.56
380.606	91.56
380.831	96.56
381.057	86.56
381.282	103.56
381.507	92.56
381.733	85.56
381.958	101.56
382.184	89.56
382.409	107.56
382.634	87.56
382.86	93.56
383.085	92.56
383.31	96.56
383.535	94.56
383.761	98.56
383.986	85.56
384.211	80.56
384.436	79.56
384.662	95.56
384.887	81.56
385.112	91.56
385.337	78.56
385.562	86.56
385.787	97.56
386.013	97.56
386.238	87.56
386.463	93.56
386.688	92.56
386.913	94.56
387.138	85.56
387.363	84.56
387.588	98.56
387.813	97.56
388.038	101.56
388.263	105.56
388.488	97.56
388.713	98.56
388.938	107.56
389.163	92.56
389.387	91.56
389.612	91.56
389.837	83.56
390.062	107.56
390.287	119.56
390.512	92.56
390.736	122.56
390.961	97.56
391.186	108.56
391.411	105.56
391.636	98.56
391.86	95.56
392.085	97.56
392.31	100.56
392.534	83.56
392.759	91.56
392.984	101.56
393.208	108.56
393.433	100.56
393.658	91.56
393.882	107.56
394.107	101.56
394.331	95.56
394.556	88.56
394.78	104.56
395.005	102.56
395.229	93.56
395.454	99.56
395.678	102.56
395.903	114.56
396.127	115.56
396.352	82.56
396.576	87.56
396.801	91.56
397.025	95.56
397.249	104.56
397.474	99.56
397.698	105.56
397.922	107.56
398.147	97.56
398.371	111.56
398.595	122.56
398.82	111.56
399.044	102.56
399.268	120.56
399.492	114.56
399.717	96.56
399.941	107.56
400.165	103.56
400.389	108.56
400.613	94.56
400.837	107.56
401.062	97.56
401.286	101.56
401.51	116.56
401.734	113.56
401.958	111.56
402.182	120.56
402.406	98.56
402.63	105.56
402.854	94.56
403.078	114.56
403.302	113.56
403.526	103.56
403.75	108.56
403.974	113.56
404.198	127.56
404.422	112.56
404.645	116.56
404.869	120.56
405.093	113.56
405.317	117.56
405.541	112.56
405.765	88.56
405.988	133.56
406.212	115.56
406.436	111.56
406.66	129.56
406.883	122.56
407.107	103.56
407.331	104.56
407.555	113.56
407.778	113.56
408.002	125.56
408.226	123.56
408.449	100.56
408.673	105.56
408.896	118.56
409.12	116.56
409.344	116.56
409.567	122.56
409.791	92.56
410.014	109.56
410.238	107.56
410.461	114.56
410.685	119.56
410.908	123.56
411.132	103.56
411.355	124.56
411.578	115.56
411.802	115.56
412.025	111.56
412.249	128.56
412.472	103.56
412.695	123.56
412.919	116.56
413.142	116.56
413.365	115.56
413.589	118.56
413.812	126.56
414.035	125.56
414.258	121.56
414.482	120.56
414.705	112.56
414.928	107.56
415.151	115.56
415.374	119.56
415.597	105.56
415.821	131.56
416.044	110.56
416.267	106.56
416.49	121.56
416.713	118.56
416.936	104.56
417.159	123.56
417.382	133.56
417.605	127.56
417.828	121.56
418.051	129.56
418.274	123.56
418.497	123.56
418.72	120.56
418.943	132.56
419.166	131.56
419.389	123.56
419.611	134.56
419.834	110.56
420.057	119.56
420.28	129.56
420.503	127.56
420.726	125.56
420.948	115.56
421.171	136.56
421.394	111.56
421.617	147.56
421.839	137.56
422.062	145.56
422.285	136.56
422.507	126.56
422.73	123.56
422.953	123.56
423.175	118.56
423.398	125.56
423.621	122.56
423.843	123.56
424.066	125.56
424.288	129.56
424.511	141.56
424.733	149.56
424.956	147.56
425.178	114.56
425.401	133.56
425.623	140.56
425.846	134.56
426.068	136.56
426.291	128.56
426.513	113.56
426.735	127.56
426.958	121.56
427.18	124.56
427.402	117.56
427.625	126.56
427.847	138.56
428.069	117.56
428.292	123.56
428.514	122.56
428.736	118.56
428.958	121.56
429.181	125.56
429.403	131.56
429.625	127.56
429.847	131.56
430.069	125.56
430.292	120.56
430.514	108.56
430.736	133.56
430.958	129.56
431.18	119.56
431.402	124.56
431.624	116.56
431.846	112.56
432.068	84.56
432.29	96.56
432.512	111.56
432.734	133.56
432.956	104.56
433.178	127.56
433.4	123.56
433.622	120.56
433.844	127.56
434.066	125.56
434.287	103.56
434.509	101.56
434.731	98.56
434.953	112.56
435.175	121.56
435.397	112.56
435.618	121.56
435.84	105.56
436.062	99.56
436.284	113.56
436.505	117.56
436.727	124.56
436.949	129.56
437.17	132.56
437.392	122.56
437.614	118.56
437.835	107.56
438.057	105.56
438.278	115.56
438.5	115.56
438.721	121.56
438.943	132.56
439.165	134.56
439.386	135.56
439.608	135.56
439.829	151.56
440.05	154.56
440.272	137.56
440.493	132.56
440.715	124.56
440.936	127.56
441.158	151.56
441.379	131.56
441.6	144.56
441.822	151.56
442.043	143.56
442.264	142.56
442.486	127.56
442.707	134.56
442.928	131.56
443.149	132.56
443.371	151.56
443.592	138.56
443.813	123.56
444.034	151.56
444.255	145.56
444.476	118.56
444.698	135.56
444.919	133.56
445.14	263.56
445.361	189.56
445.582	144.56
445.803	146.56
446.024	149.56
446.245	147.56
446.466	145.56
446.687	147.56
446.908	152.56
447.129	135.56
447.35	144.56
447.571	145.56
447.792	138.56
448.013	143.56
448.234	154.56
448.455	127.56
448.675	149.56
448.896	145.56
449.117	131.56
449.338	112.56
449.559	136.56
449.779	135.56
450	132.56
450.221	137.56
450.442	135.56
450.662	128.56
450.883	123.56
451.104	122.56
451.324	139.56
451.545	127.56
451.766	119.56
451.986	117.56
452.207	132.56
452.428	133.56
452.648	121.56
452.869	120.56
453.089	103.56
453.31	115.56
453.53	106.56
453.751	97.56
453.971	89.56
454.192	104.56
454.412	111.56
454.633	105.56
454.853	108.56
455.073	114.56
455.294	125.56
455.514	116.56
455.734	112.56
455.955	131.56
456.175	107.56
456.395	113.56
456.616	108.56
456.836	99.56
457.056	109.56
457.276	112.56
457.497	109.56
457.717	121.56
457.937	98.56
458.157	103.56
458.377	99.56
458.598	100.56
458.818	93.56
459.038	92.56
459.258	88.56
459.478	83.56
459.698	96.56
459.918	90.56
460.138	107.56
460.358	113.56
460.578	115.56
460.798	110.56
461.018	116.56
461.238	105.56
461.458	113.56
461.678	113.56
461.898	107.56
462.118	123.56
462.338	111.56
462.558	109.56
462.777	105.56
462.997	113.56
463.217	99.56
463.437	98.56
463.657	100.56
463.876	111.56
464.096	107.56
464.316	111.56
464.536	111.56
464.755	113.56
464.975	119.56
465.195	108.56
465.414	133.56
465.634	104.56
465.854	111.56
466.073	121.56
466.293	115.56
466.512	136.56
466.732	124.56
466.951	125.56
467.171	120.56
467.391	131.56
467.61	131.56
467.829	131.56
468.049	116.56
468.268	129.56
468.488	146.56
468.707	130.56
468.927	128.56
469.146	133.56
469.365	139.56
469.585	138.56
469.804	141.56
470.023	134.56
470.243	135.56
470.462	132.56
470.681	142.56
470.901	138.56
471.12	137.56
471.339	127.56
471.558	149.56
471.777	153.56
471.997	137.56
472.216	114.56
472.435	111.56
472.654	113.56
472.873	117.56
473.092	112.56
473.311	107.56
473.53	119.56
473.749	111.56
473.968	129.56
474.187	129.56
474.406	117.56
474.625	134.56
474.844	137.56
475.063	123.56
475.282	122.56
475.501	113.56
475.72	125.56
475.939	114.56
476.158	106.56
476.377	129.56
476.596	113.56
476.814	109.56
477.033	104.56
477.252	117.56
477.471	121.56
477.69	122.56
477.908	142.56
478.127	128.56
478.346	136.56
478.564	148.56
478.783	130.56
479.002	143.56
479.22	129.56
479.439	129.56
479.658	131.56
479.876	93.56
480.095	111.56
480.313	119.56
480.532	119.56
480.751	96.56
480.969	83.56
481.188	86.56
481.406	89.56
481.624	83.56
481.843	104.56
482.061	78.56
482.28	102.56
482.498	106.56
482.717	112.56
482.935	115.56
483.153	145.56
483.372	152.56
483.59	148.56
483.808	121.56
484.027	137.56
484.245	147.56
484.463	141.56
484.681	154.56
484.9	147.56
485.118	140.56
485.336	141.56
485.554	130.56
485.772	89.56
485.99	95.56
486.209	111.56
486.427	105.56
486.645	131.56
486.863	131.56
487.081	130.56
487.299	126.56
487.517	143.56
487.735	169.56
487.953	180.56
488.171	170.56
488.389	139.56
488.607	149.56
488.825	128.56
489.043	129.56
489.261	111.56
489.479	142.56
489.696	140.56
489.914	139.56
490.132	143.56
490.35	147.56
490.568	139.56
490.786	144.56
491.003	161.56
491.221	171.56
491.439	170.56
491.657	169.56
491.874	217.56
492.092	215.56
492.31	243.56
492.527	225.56
492.745	183.56
492.963	191.56
493.18	177.56
493.398	183.56
493.615	170.56
493.833	169.56
494.05	152.56
494.268	163.56
494.485	155.56
494.703	163.56
494.92	171.56
495.138	164.56
495.355	168.56
495.573	157.56
495.79	153.56
496.008	150.56
496.225	158.56
496.442	142.56
496.66	175.56
496.877	151.56
497.094	153.56
497.312	169.56
497.529	157.56
497.746	136.56
497.963	137.56
498.181	150.56
498.398	136.56
498.615	113.56
498.832	121.56
499.049	108.56
499.267	119.56
499.484	103.56
499.701	129.56
499.918	123.56
500.135	129.56
500.352	135.56
500.569	137.56
500.786	119.56
501.003	142.56
501.22	134.56
501.437	141.56
501.654	121.56
501.871	135.56
502.088	133.56
502.305	139.56
502.522	139.56
502.739	125.56
502.956	116.56
503.172	116.56
503.389	121.56
503.606	108.56
503.823	108.56
504.04	116.56
504.256	125.56
504.473	122.56
504.69	121.56
504.907	131.56
505.123	112.56
505.34	119.56
505.557	128.56
505.773	98.56
505.99	114.56
506.207	111.56
506.423	116.56
506.64	133.56
506.856	119.56
507.073	110.56
507.289	120.56
507.506	117.56
507.722	117.56
507.939	117.56
508.155	111.56
508.372	113.56
508.588	114.56
508.805	111.56
509.021	107.56
509.238	115.56
509.454	89.56
509.67	106.56
509.887	100.56
510.103	88.56
510.319	97.56
510.536	91.56
510.752	77.56
510.968	80.56
511.184	63.56
511.401	80.56
511.617	92.56
511.833	92.56
512.049	93.56
512.265	86.56
