Data from Location1.07152019.Energy5.Lamp.07192019.3%Agarose_HRD10591_14-32-16-016.txt Node
Date: Fri Jul 19 14:32:16 EDT 2019
User: cochatt
Spectrometer: HR+D1059
Trigger mode: 1
Integration Time (sec): 1.000000E-1
Scans to average: 1
Electric dark correction enabled: true
Nonlinearity correction enabled: false
Boxcar width: 0
XAxis mode: Wavelengths
Number of Pixels in Spectrum: 2048
>>>>>Begin Spectral Data<<<<<
223.165	-36
223.4	-36
223.635	-36
223.869	-10
224.104	-14
224.338	3
224.573	-19
224.808	-6
225.042	0
225.277	5
225.511	6
225.746	-1
225.98	0
226.215	5
226.449	7
226.683	10
226.918	21
227.152	29
227.387	29
227.621	57
227.856	36
228.09	41
228.324	42
228.559	68
228.793	65
229.027	70
229.262	73
229.496	70
229.73	67
229.964	69
230.199	81
230.433	83
230.667	69
230.901	75
231.136	60
231.37	68
231.604	76
231.838	83
232.072	80
232.306	74
232.541	80
232.775	70
233.009	63
233.243	87
233.477	87
233.711	86
233.945	77
234.179	75
234.413	87
234.647	85
234.881	81
235.115	80
235.349	90
235.583	80
235.817	76
236.051	74
236.285	95
236.519	85
236.753	75
236.987	85
237.221	75
237.455	60
237.689	81
237.922	76
238.156	75
238.39	73
238.624	82
238.858	82
239.091	68
239.325	83
239.559	70
239.793	77
240.027	74
240.26	67
240.494	74
240.728	71
240.961	61
241.195	76
241.429	75
241.662	67
241.896	72
242.13	87
242.363	73
242.597	81
242.83	86
243.064	69
243.298	84
243.531	67
243.765	75
243.998	70
244.232	74
244.465	81
244.699	61
244.932	82
245.166	69
245.399	65
245.633	74
245.866	78
246.099	65
246.333	82
246.566	69
246.8	83
247.033	65
247.266	84
247.5	75
247.733	73
247.966	65
248.2	88
248.433	75
248.666	75
248.899	74
249.133	70
249.366	82
249.599	79
249.832	81
250.066	85
250.299	71
250.532	76
250.765	79
250.998	66
251.231	75
251.465	91
251.698	74
251.931	78
252.164	80
252.397	79
252.63	82
252.863	73
253.096	76
253.329	69
253.562	69
253.795	77
254.028	81
254.261	94
254.494	80
254.727	67
254.96	82
255.193	73
255.426	78
255.659	79
255.892	89
256.124	82
256.357	81
256.59	87
256.823	71
257.056	84
257.289	81
257.521	77
257.754	61
257.987	80
258.22	91
258.452	76
258.685	78
258.918	77
259.151	77
259.383	84
259.616	102
259.849	81
260.081	73
260.314	77
260.547	63
260.779	73
261.012	70
261.244	74
261.477	89
261.71	73
261.942	71
262.175	90
262.407	78
262.64	74
262.872	81
263.105	78
263.337	95
263.57	56
263.802	79
264.035	63
264.267	72
264.499	70
264.732	79
264.964	76
265.197	87
265.429	75
265.661	88
265.894	79
266.126	74
266.358	77
266.591	80
266.823	69
267.055	84
267.287	89
267.52	78
267.752	86
267.984	79
268.216	88
268.448	81
268.681	83
268.913	85
269.145	89
269.377	83
269.609	91
269.841	73
270.073	81
270.306	82
270.538	81
270.77	86
271.002	80
271.234	87
271.466	84
271.698	81
271.93	81
272.162	90
272.394	75
272.626	89
272.858	73
273.09	85
273.322	78
273.553	73
273.785	80
274.017	80
274.249	87
274.481	91
274.713	93
274.945	87
275.176	81
275.408	74
275.64	75
275.872	84
276.104	79
276.335	90
276.567	82
276.799	89
277.031	65
277.262	79
277.494	77
277.726	88
277.957	80
278.189	85
278.421	88
278.652	78
278.884	83
279.115	87
279.347	100
279.579	84
279.81	78
280.042	65
280.273	86
280.505	82
280.736	85
280.968	90
281.199	87
281.431	81
281.662	99
281.894	76
282.125	69
282.356	74
282.588	77
282.819	84
283.051	87
283.282	78
283.513	79
283.745	88
283.976	75
284.207	90
284.439	83
284.67	89
284.901	89
285.132	75
285.364	87
285.595	89
285.826	84
286.057	87
286.288	94
286.52	82
286.751	74
286.982	91
287.213	78
287.444	90
287.675	75
287.906	88
288.138	77
288.369	91
288.6	89
288.831	74
289.062	70
289.293	81
289.524	79
289.755	75
289.986	93
290.217	75
290.448	77
290.679	74
290.91	95
291.141	69
291.371	73
291.602	96
291.833	84
292.064	79
292.295	86
292.526	75
292.757	84
292.987	88
293.218	86
293.449	87
293.68	92
293.91	80
294.141	94
294.372	92
294.603	76
294.833	92
295.064	94
295.295	89
295.525	87
295.756	80
295.987	81
296.217	86
296.448	82
296.679	79
296.909	87
297.14	84
297.37	79
297.601	88
297.831	76
298.062	84
298.292	89
298.523	76
298.753	70
298.984	80
299.214	85
299.445	79
299.675	86
299.905	84
300.136	66
300.366	83
300.597	79
300.827	84
301.057	85
301.288	76
301.518	86
301.748	83
301.979	92
302.209	94
302.439	78
302.669	73
302.9	87
303.13	83
303.36	91
303.59	79
303.82	90
304.051	76
304.281	87
304.511	93
304.741	95
304.971	75
305.201	82
305.431	86
305.661	72
305.891	83
306.121	80
306.352	77
306.582	72
306.812	76
307.042	75
307.272	66
307.502	84
307.731	88
307.961	74
308.191	83
308.421	90
308.651	84
308.881	79
309.111	87
309.341	81
309.571	93
309.8	83
310.03	76
310.26	86
310.49	83
310.72	88
310.949	86
311.179	87
311.409	84
311.639	95
311.868	81
312.098	79
312.328	79
312.557	68
312.787	63
313.017	73
313.246	72
313.476	80
313.706	79
313.935	71
314.165	95
314.394	90
314.624	78
314.853	78
315.083	78
315.312	89
315.542	79
315.771	71
316.001	87
316.23	99
316.46	92
316.689	95
316.919	85
317.148	81
317.377	91
317.607	88
317.836	85
318.065	80
318.295	84
318.524	71
318.753	99
318.983	74
319.212	91
319.441	79
319.67	83
319.9	79
320.129	90
320.358	73
320.587	95
320.816	86
321.046	85
321.275	87
321.504	79
321.733	94
321.962	91
322.191	82
322.42	85
322.649	72
322.878	86
323.108	90
323.337	87
323.566	71
323.795	89
324.024	93
324.253	89
324.482	72
324.71	82
324.939	85
325.168	87
325.397	75
325.626	81
325.855	95
326.084	93
326.313	77
326.542	71
326.77	93
326.999	99
327.228	89
327.457	77
327.686	76
327.914	86
328.143	79
328.372	87
328.6	90
328.829	87
329.058	100
329.287	85
329.515	64
329.744	87
329.972	83
330.201	81
330.43	96
330.658	91
330.887	83
331.115	67
331.344	86
331.572	84
331.801	97
332.03	76
332.258	84
332.486	92
332.715	75
332.943	89
333.172	98
333.4	79
333.629	92
333.857	76
334.085	75
334.314	86
334.542	77
334.771	78
334.999	84
335.227	87
335.455	94
335.684	89
335.912	94
336.14	75
336.369	77
336.597	89
336.825	84
337.053	78
337.281	79
337.51	82
337.738	81
337.966	75
338.194	82
338.422	82
338.65	77
338.878	85
339.106	84
339.334	88
339.562	93
339.79	91
340.018	90
340.246	79
340.474	85
340.702	87
340.93	86
341.158	84
341.386	90
341.614	89
341.842	94
342.07	73
342.298	73
342.526	86
342.754	65
342.981	79
343.209	92
343.437	92
343.665	82
343.893	73
344.12	73
344.348	75
344.576	82
344.804	85
345.031	74
345.259	85
345.487	106
345.714	76
345.942	73
346.17	90
346.397	79
346.625	78
346.853	102
347.08	78
347.308	86
347.535	86
347.763	86
347.99	91
348.218	92
348.445	59
348.673	79
348.9	85
349.128	88
349.355	91
349.583	82
349.81	82
350.037	79
350.265	77
350.492	87
350.72	85
350.947	87
351.174	87
351.402	71
351.629	73
351.856	80
352.083	74
352.311	69
352.538	95
352.765	90
352.992	77
353.22	77
353.447	65
353.674	92
353.901	89
354.128	74
354.355	91
354.583	85
354.81	83
355.037	79
355.264	94
355.491	87
355.718	84
355.945	83
356.172	93
356.399	69
356.626	83
356.853	72
357.08	92
357.307	76
357.534	69
357.761	80
357.988	75
358.215	94
358.441	75
358.668	79
358.895	82
359.122	69
359.349	89
359.576	65
359.802	81
360.029	74
360.256	71
360.483	87
360.709	77
360.936	89
361.163	77
361.39	76
361.616	102
361.843	77
362.07	80
362.296	74
362.523	69
362.749	84
362.976	82
363.203	90
363.429	93
363.656	88
363.882	91
364.109	69
364.335	91
364.562	87
364.788	90
365.015	70
365.241	73
365.468	90
365.694	88
365.92	83
366.147	94
366.373	86
366.599	74
366.826	83
367.052	78
367.278	72
367.505	65
367.731	90
367.957	75
368.184	83
368.41	88
368.636	80
368.862	82
369.089	91
369.315	77
369.541	87
369.767	93
369.993	108
370.219	95
370.445	92
370.672	85
370.898	90
371.124	86
371.35	82
371.576	81
371.802	93
372.028	94
372.254	81
372.48	87
372.706	101
372.932	75
373.158	96
373.384	89
373.61	97
373.835	83
374.061	92
374.287	85
374.513	76
374.739	101
374.965	88
375.191	96
375.416	111
375.642	92
375.868	90
376.094	92
376.319	78
376.545	95
376.771	84
376.997	81
377.222	98
377.448	86
377.674	95
377.899	97
378.125	92
378.35	88
378.576	87
378.802	95
379.027	84
379.253	88
379.478	90
379.704	72
379.929	92
380.155	97
380.38	82
380.606	97
380.831	85
381.057	99
381.282	92
381.507	100
381.733	103
381.958	84
382.184	90
382.409	87
382.634	94
382.86	98
383.085	83
383.31	100
383.535	95
383.761	90
383.986	84
384.211	84
384.436	94
384.662	99
384.887	102
385.112	87
385.337	106
385.562	99
385.787	101
386.013	106
386.238	104
386.463	106
386.688	94
386.913	97
387.138	97
387.363	98
387.588	104
387.813	98
388.038	87
388.263	89
388.488	96
388.713	102
388.938	99
389.163	112
389.387	110
389.612	86
389.837	88
390.062	97
390.287	98
390.512	94
390.736	105
390.961	97
391.186	113
391.411	117
391.636	94
391.86	121
392.085	95
392.31	99
392.534	104
392.759	106
392.984	106
393.208	102
393.433	114
393.658	116
393.882	86
394.107	118
394.331	102
394.556	107
394.78	106
395.005	94
395.229	104
395.454	113
395.678	112
395.903	96
396.127	95
396.352	110
396.576	106
396.801	100
397.025	116
397.249	101
397.474	102
397.698	92
397.922	105
398.147	116
398.371	100
398.595	110
398.82	108
399.044	101
399.268	105
399.492	102
399.717	91
399.941	107
400.165	105
400.389	110
400.613	112
400.837	132
401.062	116
401.286	104
401.51	106
401.734	106
401.958	109
402.182	114
402.406	115
402.63	103
402.854	106
403.078	106
403.302	110
403.526	102
403.75	108
403.974	101
404.198	111
404.422	122
404.645	114
404.869	111
405.093	129
405.317	119
405.541	110
405.765	119
405.988	118
406.212	115
406.436	119
406.66	114
406.883	113
407.107	121
407.331	116
407.555	123
407.778	105
408.002	117
408.226	117
408.449	125
408.673	113
408.896	117
409.12	120
409.344	111
409.567	131
409.791	126
410.014	121
410.238	111
410.461	127
410.685	127
410.908	112
411.132	125
411.355	126
411.578	124
411.802	119
412.025	113
412.249	115
412.472	106
412.695	115
412.919	109
413.142	117
413.365	118
413.589	107
413.812	108
414.035	121
414.258	130
414.482	105
414.705	110
414.928	115
415.151	127
415.374	129
415.597	98
415.821	103
416.044	124
416.267	123
416.49	120
416.713	118
416.936	133
417.159	131
417.382	125
417.605	126
417.828	118
418.051	135
418.274	130
418.497	138
418.72	137
418.943	141
419.166	129
419.389	130
419.611	120
419.834	132
420.057	117
420.28	134
420.503	96
420.726	133
420.948	131
421.171	125
421.394	133
421.617	148
421.839	115
422.062	124
422.285	121
422.507	118
422.73	133
422.953	125
423.175	126
423.398	125
423.621	127
423.843	130
424.066	140
424.288	134
424.511	137
424.733	135
424.956	133
425.178	133
425.401	139
425.623	126
425.846	152
426.068	116
426.291	121
426.513	114
426.735	131
426.958	138
427.18	140
427.402	131
427.625	126
427.847	120
428.069	134
428.292	107
428.514	123
428.736	119
428.958	130
429.181	126
429.403	120
429.625	105
429.847	121
430.069	125
430.292	130
430.514	125
430.736	124
430.958	137
431.18	125
431.402	107
431.624	129
431.846	97
432.068	85
432.29	105
432.512	105
432.734	119
432.956	129
433.178	137
433.4	131
433.622	126
433.844	133
434.066	112
434.287	107
434.509	102
434.731	102
434.953	121
435.175	117
435.397	130
435.618	123
435.84	108
436.062	116
436.284	122
436.505	121
436.727	115
436.949	134
437.17	121
437.392	110
437.614	119
437.835	113
438.057	109
438.278	113
438.5	121
438.721	125
438.943	137
439.165	143
439.386	133
439.608	131
439.829	137
440.05	145
440.272	138
440.493	147
440.715	155
440.936	115
441.158	143
441.379	137
441.6	151
441.822	136
442.043	138
442.264	137
442.486	130
442.707	135
442.928	153
443.149	143
443.371	141
443.592	144
443.813	148
444.034	133
444.255	133
444.476	139
444.698	161
444.919	140
445.14	243
445.361	187
445.582	150
445.803	147
446.024	130
446.245	135
446.466	146
446.687	140
446.908	149
447.129	142
447.35	148
447.571	150
447.792	130
448.013	130
448.234	148
448.455	145
448.675	129
448.896	124
449.117	139
449.338	140
449.559	136
449.779	121
450	115
450.221	124
450.442	122
450.662	137
450.883	119
451.104	120
451.324	128
451.545	125
451.766	133
451.986	129
452.207	131
452.428	119
452.648	121
452.869	122
453.089	106
453.31	123
453.53	103
453.751	106
453.971	95
454.192	111
454.412	98
454.633	115
454.853	103
455.073	119
455.294	124
455.514	103
455.734	113
455.955	117
456.175	122
456.395	113
456.616	118
456.836	102
457.056	100
457.276	108
457.497	94
457.717	104
457.937	116
458.157	117
458.377	105
458.598	104
458.818	97
459.038	104
459.258	81
459.478	73
459.698	84
459.918	78
460.138	103
460.358	108
460.578	101
460.798	117
461.018	109
461.238	117
461.458	115
461.678	100
461.898	104
462.118	114
462.338	108
462.558	108
462.777	114
462.997	104
463.217	110
463.437	104
463.657	115
463.876	109
464.096	117
464.316	121
464.536	103
464.755	115
464.975	101
465.195	110
465.414	116
465.634	110
465.854	117
466.073	114
466.293	122
466.512	114
466.732	130
466.951	125
467.171	129
467.391	121
467.61	123
467.829	138
468.049	140
468.268	136
468.488	122
468.707	136
468.927	143
469.146	138
469.365	144
469.585	129
469.804	131
470.023	142
470.243	129
470.462	133
470.681	120
470.901	143
471.12	157
471.339	133
471.558	128
471.777	136
471.997	137
472.216	129
472.435	128
472.654	102
472.873	97
473.092	115
473.311	130
473.53	131
473.749	121
473.968	134
474.187	120
474.406	113
474.625	135
474.844	120
475.063	129
475.282	109
475.501	115
475.72	109
475.939	126
476.158	136
476.377	121
476.596	124
476.814	117
477.033	102
477.252	99
477.471	113
477.69	133
477.908	125
478.127	130
478.346	119
478.564	131
478.783	131
479.002	131
479.22	132
479.439	122
479.658	113
479.876	120
480.095	104
480.313	93
480.532	118
480.751	119
480.969	90
481.188	92
481.406	89
481.624	79
481.843	87
482.061	83
482.28	124
482.498	102
482.717	105
482.935	121
483.153	131
483.372	135
483.59	140
483.808	143
484.027	125
484.245	120
484.463	157
484.681	158
484.9	140
485.118	153
485.336	126
485.554	103
485.772	108
485.99	103
486.209	108
486.427	108
486.645	117
486.863	140
487.081	146
487.299	137
487.517	142
487.735	161
487.953	179
488.171	177
488.389	174
488.607	156
488.825	137
489.043	129
489.261	123
489.479	142
489.696	152
489.914	145
490.132	160
490.35	155
490.568	160
490.786	150
491.003	165
491.221	175
491.439	179
491.657	183
491.874	213
492.092	222
492.31	235
492.527	220
492.745	193
492.963	189
493.18	176
493.398	189
493.615	183
493.833	178
494.05	153
494.268	171
494.485	167
494.703	164
494.92	174
495.138	167
495.355	142
495.573	169
495.79	168
496.008	171
496.225	165
496.442	165
496.66	162
496.877	163
497.094	160
497.312	162
497.529	165
497.746	144
497.963	138
498.181	131
498.398	110
498.615	125
498.832	108
499.049	110
499.267	103
499.484	123
499.701	135
499.918	120
500.135	121
500.352	144
500.569	147
500.786	147
501.003	134
501.22	121
501.437	134
501.654	119
501.871	131
502.088	126
502.305	137
502.522	122
502.739	146
502.956	127
503.172	113
503.389	103
503.606	117
503.823	123
504.04	137
504.256	114
504.473	118
504.69	99
504.907	121
505.123	128
505.34	122
505.557	117
505.773	113
505.99	118
506.207	117
506.423	110
506.64	108
506.856	108
507.073	123
507.289	113
507.506	113
507.722	125
507.939	115
508.155	109
508.372	110
508.588	114
508.805	99
509.021	106
509.238	111
509.454	99
509.67	101
509.887	89
510.103	96
510.319	89
510.536	85
510.752	95
510.968	79
511.184	73
511.401	86
511.617	72
511.833	87
512.049	86
512.265	93
512.481	98
512.698	93
512.914	91
513.13	99
513.346	95
513.562	93
513.778	91
513.994	85
514.21	77
514.426	94
514.642	90
514.858	91
515.074	84
515.29	96
515.506	89
515.721	83
515.937	90
516.153	85
516.369	94
516.585	81
516.801	88
517.016	92
517.232	97
517.448	99
517.664	93
517.879	79
518.095	99
518.311	92
518.527	85
518.742	97
518.958	100
519.173	99
519.389	106
519.605	106
519.82	108
520.036	111
520.251	105
520.467	104
520.682	114
520.898	90
521.113	83
521.329	86
521.544	83
521.76	86
521.975	87
522.19	86
522.406	89
522.621	90
522.836	89
523.052	104
523.267	111
523.482	117
523.698	105
523.913	123
524.128	102
524.343	101
524.559	100
524.774	106
524.989	125
525.204	120
525.419	104
525.634	125
525.849	107
526.064	106
526.28	95
526.495	90
526.71	88
526.925	89
527.14	77
527.355	79
527.57	99
527.785	78
527.999	85
528.214	103
528.429	112
528.644	119
528.859	125
529.074	137
529.289	177
529.503	162
529.718	134
529.933	119
530.148	101
530.363	103
530.577	94
530.792	83
531.007	69
531.221	84
531.436	76
531.651	80
531.865	100
532.08	71
532.295	72
532.509	78
532.724	79
532.938	76
533.153	115
533.367	107
533.582	119
533.796	120
534.011	115
534.225	93
534.44	105
534.654	88
534.868	95
535.083	93
535.297	105
535.511	107
535.726	106
535.94	104
536.154	97
536.369	84
536.583	91
536.797	92
537.011	89
537.225	101
537.44	82
537.654	95
537.868	98
538.082	103
538.296	101
538.51	97
538.724	101
538.938	114
539.153	115
539.367	118
539.581	101
539.795	96
540.009	102
540.222	102
540.436	109
540.65	104
540.864	110
541.078	121
541.292	146
541.506	158
541.72	167
541.934	182
542.147	183
542.361	173
542.575	143
542.789	142
543.002	133
543.216	131
543.43	137
543.644	119
543.857	133
544.071	150
544.285	136
544.498	163
544.712	150
544.925	166
545.139	160
545.352	137
545.566	147
545.779	157
545.993	149
546.206	164
546.42	163
546.633	165
546.847	155
547.06	155
547.274	155
547.487	175
547.7	166
547.914	169
548.127	173
548.34	157
548.554	137
548.767	154
548.98	138
549.193	150
549.407	149
549.62	161
549.833	140
550.046	142
550.259	143
550.473	156
550.686	142
550.899	138
551.112	144
551.325	153
551.538	142
551.751	122
551.964	119
552.177	115
552.39	138
552.603	140
552.816	138
553.029	146
553.242	146
553.455	137
553.667	152
553.88	169
554.093	146
554.306	153
554.519	133
554.732	144
554.944	139
555.157	137
555.37	147
555.583	138
555.795	123
556.008	140
556.221	143
556.433	104
556.646	143
556.859	139
557.071	135
557.284	144
557.496	137
557.709	139
557.921	137
558.134	124
558.346	118
558.559	134
558.771	132
558.984	123
559.196	122
559.409	117
559.621	125
559.833	121
560.046	115
560.258	140
560.47	130
560.683	133
560.895	122
561.107	117
561.32	117
561.532	132
561.744	112
561.956	126
562.168	130
562.381	117
562.593	124
562.805	129
563.017	136
563.229	123
563.441	108
563.653	117
563.865	123
564.077	117
564.289	127
564.501	134
564.713	120
564.925	116
565.137	117
565.349	129
565.561	116
565.773	123
565.985	134
566.197	121
566.408	133
566.62	111
566.832	118
567.044	113
567.255	102
567.467	109
567.679	107
567.891	108
568.102	96
568.314	100
568.526	83
568.737	79
568.949	94
569.161	81
569.372	79
569.584	93
569.795	85
570.007	94
570.218	97
570.43	95
570.641	91
570.853	89
571.064	103
571.276	105
571.487	109
571.698	94
571.91	110
572.121	121
572.333	119
572.544	94
572.755	102
572.966	82
573.178	94
573.389	90
573.6	82
573.811	98
574.023	90
574.234	88
574.445	94
574.656	90
574.867	97
575.078	87
575.289	93
575.501	105
575.712	114
575.923	106
576.134	97
576.345	90
576.556	113
576.767	109
576.978	93
577.188	98
577.399	99
