Data from Location1.07152019.Energy5.Lamp.07192019.3%Agarose_HRD10591_14-31-16-015.txt Node
Date: Fri Jul 19 14:31:16 EDT 2019
User: cochatt
Spectrometer: HR+D1059
Trigger mode: 1
Integration Time (sec): 1.000000E-1
Scans to average: 1
Electric dark correction enabled: true
Nonlinearity correction enabled: false
Boxcar width: 0
XAxis mode: Wavelengths
Number of Pixels in Spectrum: 2048
>>>>>Begin Spectral Data<<<<<
223.165	-15.06
223.4	-15.06
223.635	-15.06
223.869	-15.06
224.104	-33.06
224.338	-5.06
224.573	-18.06
224.808	-5.06
225.042	-5.06
225.277	-7.06
225.511	5.94
225.746	8.94
225.98	4.94
226.215	12.94
226.449	3.94
226.683	23.94
226.918	19.94
227.152	22.94
227.387	34.94
227.621	45.94
227.856	40.94
228.09	53.94
228.324	50.94
228.559	52.94
228.793	66.94
229.027	68.94
229.262	64.94
229.496	59.94
229.73	76.94
229.964	76.94
230.199	81.94
230.433	65.94
230.667	74.94
230.901	73.94
231.136	86.94
231.37	70.94
231.604	81.94
231.838	72.94
232.072	88.94
232.306	76.94
232.541	79.94
232.775	89.94
233.009	75.94
233.243	89.94
233.477	82.94
233.711	76.94
233.945	78.94
234.179	73.94
234.413	82.94
234.647	79.94
234.881	98.94
235.115	72.94
235.349	73.94
235.583	86.94
235.817	73.94
236.051	79.94
236.285	74.94
236.519	74.94
236.753	97.94
236.987	77.94
237.221	87.94
237.455	86.94
237.689	71.94
237.922	75.94
238.156	67.94
238.39	63.94
238.624	78.94
238.858	67.94
239.091	70.94
239.325	76.94
239.559	76.94
239.793	84.94
240.027	70.94
240.26	85.94
240.494	71.94
240.728	77.94
240.961	76.94
241.195	73.94
241.429	80.94
241.662	84.94
241.896	67.94
242.13	71.94
242.363	64.94
242.597	71.94
242.83	74.94
243.064	71.94
243.298	84.94
243.531	73.94
243.765	87.94
243.998	78.94
244.232	73.94
244.465	70.94
244.699	68.94
244.932	81.94
245.166	66.94
245.399	84.94
245.633	84.94
245.866	69.94
246.099	77.94
246.333	75.94
246.566	67.94
246.8	80.94
247.033	76.94
247.266	69.94
247.5	87.94
247.733	65.94
247.966	81.94
248.2	60.94
248.433	81.94
248.666	77.94
248.899	72.94
249.133	85.94
249.366	87.94
249.599	81.94
249.832	82.94
250.066	83.94
250.299	70.94
250.532	72.94
250.765	80.94
250.998	84.94
251.231	85.94
251.465	84.94
251.698	72.94
251.931	77.94
252.164	75.94
252.397	77.94
252.63	75.94
252.863	76.94
253.096	66.94
253.329	69.94
253.562	69.94
253.795	86.94
254.028	72.94
254.261	96.94
254.494	87.94
254.727	84.94
254.96	80.94
255.193	83.94
255.426	95.94
255.659	90.94
255.892	84.94
256.124	68.94
256.357	68.94
256.59	73.94
256.823	90.94
257.056	80.94
257.289	80.94
257.521	93.94
257.754	90.94
257.987	80.94
258.22	80.94
258.452	78.94
258.685	73.94
258.918	72.94
259.151	53.94
259.383	85.94
259.616	90.94
259.849	82.94
260.081	73.94
260.314	73.94
260.547	76.94
260.779	72.94
261.012	79.94
261.244	74.94
261.477	89.94
261.71	79.94
261.942	91.94
262.175	73.94
262.407	88.94
262.64	75.94
262.872	76.94
263.105	85.94
263.337	86.94
263.57	94.94
263.802	84.94
264.035	81.94
264.267	85.94
264.499	81.94
264.732	80.94
264.964	76.94
265.197	84.94
265.429	72.94
265.661	75.94
265.894	86.94
266.126	74.94
266.358	88.94
266.591	83.94
266.823	84.94
267.055	81.94
267.287	73.94
267.52	82.94
267.752	91.94
267.984	85.94
268.216	75.94
268.448	81.94
268.681	91.94
268.913	90.94
269.145	80.94
269.377	79.94
269.609	82.94
269.841	93.94
270.073	81.94
270.306	99.94
270.538	77.94
270.77	86.94
271.002	92.94
271.234	89.94
271.466	86.94
271.698	78.94
271.93	82.94
272.162	62.94
272.394	72.94
272.626	70.94
272.858	86.94
273.09	69.94
273.322	90.94
273.553	67.94
273.785	80.94
274.017	93.94
274.249	77.94
274.481	82.94
274.713	76.94
274.945	76.94
275.176	84.94
275.408	84.94
275.64	78.94
275.872	82.94
276.104	84.94
276.335	92.94
276.567	89.94
276.799	81.94
277.031	97.94
277.262	88.94
277.494	78.94
277.726	74.94
277.957	81.94
278.189	78.94
278.421	64.94
278.652	74.94
278.884	83.94
279.115	88.94
279.347	82.94
279.579	91.94
279.81	71.94
280.042	78.94
280.273	95.94
280.505	86.94
280.736	90.94
280.968	83.94
281.199	83.94
281.431	75.94
281.662	86.94
281.894	69.94
282.125	74.94
282.356	82.94
282.588	90.94
282.819	88.94
283.051	88.94
283.282	75.94
283.513	96.94
283.745	93.94
283.976	74.94
284.207	79.94
284.439	82.94
284.67	74.94
284.901	82.94
285.132	79.94
285.364	82.94
285.595	87.94
285.826	84.94
286.057	81.94
286.288	90.94
286.52	70.94
286.751	78.94
286.982	87.94
287.213	82.94
287.444	79.94
287.675	94.94
287.906	78.94
288.138	85.94
288.369	74.94
288.6	88.94
288.831	85.94
289.062	79.94
289.293	88.94
289.524	75.94
289.755	76.94
289.986	77.94
290.217	81.94
290.448	79.94
290.679	81.94
290.91	81.94
291.141	74.94
291.371	89.94
291.602	89.94
291.833	75.94
292.064	82.94
292.295	76.94
292.526	74.94
292.757	64.94
292.987	82.94
293.218	78.94
293.449	90.94
293.68	82.94
293.91	87.94
294.141	84.94
294.372	79.94
294.603	77.94
294.833	77.94
295.064	74.94
295.295	88.94
295.525	85.94
295.756	92.94
295.987	82.94
296.217	70.94
296.448	89.94
296.679	75.94
296.909	80.94
297.14	80.94
297.37	83.94
297.601	86.94
297.831	78.94
298.062	76.94
298.292	70.94
298.523	82.94
298.753	77.94
298.984	101.94
299.214	88.94
299.445	82.94
299.675	88.94
299.905	88.94
300.136	89.94
300.366	67.94
300.597	89.94
300.827	86.94
301.057	93.94
301.288	85.94
301.518	89.94
301.748	84.94
301.979	68.94
302.209	97.94
302.439	90.94
302.669	79.94
302.9	76.94
303.13	86.94
303.36	88.94
303.59	80.94
303.82	88.94
304.051	82.94
304.281	83.94
304.511	71.94
304.741	84.94
304.971	80.94
305.201	87.94
305.431	91.94
305.661	92.94
305.891	80.94
306.121	77.94
306.352	80.94
306.582	80.94
306.812	88.94
307.042	78.94
307.272	82.94
307.502	80.94
307.731	74.94
307.961	84.94
308.191	85.94
308.421	86.94
308.651	80.94
308.881	93.94
309.111	80.94
309.341	85.94
309.571	85.94
309.8	83.94
310.03	79.94
310.26	94.94
310.49	93.94
310.72	82.94
310.949	81.94
311.179	77.94
311.409	79.94
311.639	68.94
311.868	79.94
312.098	77.94
312.328	78.94
312.557	85.94
312.787	83.94
313.017	82.94
313.246	73.94
313.476	77.94
313.706	88.94
313.935	83.94
314.165	81.94
314.394	81.94
314.624	86.94
314.853	90.94
315.083	86.94
315.312	73.94
315.542	73.94
315.771	87.94
316.001	72.94
316.23	73.94
316.46	88.94
316.689	77.94
316.919	84.94
317.148	80.94
317.377	80.94
317.607	86.94
317.836	82.94
318.065	76.94
318.295	78.94
318.524	80.94
318.753	81.94
318.983	75.94
319.212	87.94
319.441	96.94
319.67	67.94
319.9	85.94
320.129	87.94
320.358	65.94
320.587	81.94
320.816	77.94
321.046	93.94
321.275	75.94
321.504	79.94
321.733	88.94
321.962	78.94
322.191	77.94
322.42	86.94
322.649	79.94
322.878	87.94
323.108	77.94
323.337	78.94
323.566	84.94
323.795	75.94
324.024	78.94
324.253	95.94
324.482	93.94
324.71	89.94
324.939	79.94
325.168	88.94
325.397	86.94
325.626	69.94
325.855	84.94
326.084	86.94
326.313	74.94
326.542	86.94
326.77	92.94
326.999	84.94
327.228	78.94
327.457	83.94
327.686	77.94
327.914	88.94
328.143	88.94
328.372	94.94
328.6	77.94
328.829	76.94
329.058	89.94
329.287	96.94
329.515	71.94
329.744	84.94
329.972	85.94
330.201	82.94
330.43	88.94
330.658	72.94
330.887	91.94
331.115	81.94
331.344	72.94
331.572	78.94
331.801	74.94
332.03	90.94
332.258	73.94
332.486	83.94
332.715	80.94
332.943	91.94
333.172	83.94
333.4	77.94
333.629	66.94
333.857	77.94
334.085	80.94
334.314	80.94
334.542	86.94
334.771	84.94
334.999	82.94
335.227	95.94
335.455	88.94
335.684	91.94
335.912	78.94
336.14	72.94
336.369	95.94
336.597	79.94
336.825	93.94
337.053	79.94
337.281	77.94
337.51	80.94
337.738	75.94
337.966	75.94
338.194	90.94
338.422	85.94
338.65	72.94
338.878	73.94
339.106	72.94
339.334	98.94
339.562	87.94
339.79	88.94
340.018	86.94
340.246	81.94
340.474	87.94
340.702	91.94
340.93	94.94
341.158	89.94
341.386	86.94
341.614	72.94
341.842	87.94
342.07	78.94
342.298	100.94
342.526	78.94
342.754	80.94
342.981	82.94
343.209	85.94
343.437	89.94
343.665	88.94
343.893	73.94
344.12	102.94
344.348	86.94
344.576	76.94
344.804	90.94
345.031	79.94
345.259	88.94
345.487	82.94
345.714	93.94
345.942	92.94
346.17	69.94
346.397	90.94
346.625	83.94
346.853	86.94
347.08	67.94
347.308	72.94
347.535	79.94
347.763	66.94
347.99	77.94
348.218	93.94
348.445	76.94
348.673	74.94
348.9	80.94
349.128	84.94
349.355	99.94
349.583	91.94
349.81	92.94
350.037	88.94
350.265	92.94
350.492	85.94
350.72	85.94
350.947	87.94
351.174	70.94
351.402	92.94
351.629	79.94
351.856	90.94
352.083	77.94
352.311	90.94
352.538	86.94
352.765	84.94
352.992	76.94
353.22	83.94
353.447	85.94
353.674	84.94
353.901	86.94
354.128	89.94
354.355	82.94
354.583	73.94
354.81	88.94
355.037	77.94
355.264	73.94
355.491	85.94
355.718	82.94
355.945	93.94
356.172	86.94
356.399	89.94
356.626	77.94
356.853	87.94
357.08	96.94
357.307	84.94
357.534	82.94
357.761	83.94
357.988	98.94
358.215	88.94
358.441	88.94
358.668	91.94
358.895	81.94
359.122	76.94
359.349	82.94
359.576	84.94
359.802	92.94
360.029	68.94
360.256	70.94
360.483	94.94
360.709	75.94
360.936	84.94
361.163	86.94
361.39	75.94
361.616	74.94
361.843	91.94
362.07	78.94
362.296	92.94
362.523	81.94
362.749	80.94
362.976	76.94
363.203	83.94
363.429	80.94
363.656	83.94
363.882	83.94
364.109	83.94
364.335	86.94
364.562	93.94
364.788	78.94
365.015	93.94
365.241	72.94
365.468	79.94
365.694	68.94
365.92	89.94
366.147	68.94
366.373	96.94
366.599	95.94
366.826	91.94
367.052	74.94
367.278	96.94
367.505	87.94
367.731	86.94
367.957	74.94
368.184	72.94
368.41	85.94
368.636	89.94
368.862	100.94
369.089	89.94
369.315	80.94
369.541	95.94
369.767	89.94
369.993	82.94
370.219	86.94
370.445	95.94
370.672	86.94
370.898	90.94
371.124	82.94
371.35	73.94
371.576	89.94
371.802	88.94
372.028	103.94
372.254	93.94
372.48	83.94
372.706	95.94
372.932	90.94
373.158	98.94
373.384	109.94
373.61	91.94
373.835	98.94
374.061	91.94
374.287	75.94
374.513	98.94
374.739	91.94
374.965	84.94
375.191	93.94
375.416	85.94
375.642	90.94
375.868	90.94
376.094	90.94
376.319	81.94
376.545	84.94
376.771	77.94
376.997	82.94
377.222	93.94
377.448	86.94
377.674	96.94
377.899	97.94
378.125	101.94
378.35	91.94
378.576	89.94
378.802	99.94
379.027	90.94
379.253	94.94
379.478	97.94
379.704	79.94
379.929	73.94
380.155	92.94
380.38	83.94
380.606	92.94
380.831	88.94
381.057	104.94
381.282	92.94
381.507	97.94
381.733	93.94
381.958	90.94
382.184	93.94
382.409	90.94
382.634	92.94
382.86	96.94
383.085	91.94
383.31	86.94
383.535	97.94
383.761	99.94
383.986	99.94
384.211	93.94
384.436	95.94
384.662	97.94
384.887	93.94
385.112	88.94
385.337	101.94
385.562	88.94
385.787	91.94
386.013	92.94
386.238	94.94
386.463	100.94
386.688	91.94
386.913	79.94
387.138	85.94
387.363	96.94
387.588	102.94
387.813	97.94
388.038	104.94
388.263	103.94
388.488	97.94
388.713	105.94
388.938	95.94
389.163	112.94
389.387	99.94
389.612	105.94
389.837	103.94
390.062	100.94
390.287	103.94
390.512	96.94
390.736	110.94
390.961	109.94
391.186	122.94
391.411	89.94
391.636	121.94
391.86	107.94
392.085	85.94
392.31	96.94
392.534	92.94
392.759	109.94
392.984	108.94
393.208	95.94
393.433	104.94
393.658	102.94
393.882	88.94
394.107	95.94
394.331	103.94
394.556	91.94
394.78	94.94
395.005	112.94
395.229	108.94
395.454	104.94
395.678	110.94
395.903	115.94
396.127	115.94
396.352	106.94
396.576	106.94
396.801	110.94
397.025	105.94
397.249	107.94
397.474	116.94
397.698	122.94
397.922	107.94
398.147	107.94
398.371	117.94
398.595	99.94
398.82	99.94
399.044	102.94
399.268	111.94
399.492	116.94
399.717	114.94
399.941	100.94
400.165	104.94
400.389	106.94
400.613	108.94
400.837	120.94
401.062	110.94
401.286	104.94
401.51	86.94
401.734	109.94
401.958	116.94
402.182	113.94
402.406	110.94
402.63	120.94
402.854	118.94
403.078	106.94
403.302	108.94
403.526	98.94
403.75	117.94
403.974	112.94
404.198	124.94
404.422	108.94
404.645	121.94
404.869	114.94
405.093	128.94
405.317	97.94
405.541	115.94
405.765	106.94
405.988	112.94
406.212	132.94
406.436	108.94
406.66	111.94
406.883	104.94
407.107	108.94
407.331	130.94
407.555	120.94
407.778	117.94
408.002	98.94
408.226	123.94
408.449	117.94
408.673	121.94
408.896	110.94
409.12	114.94
409.344	112.94
409.567	122.94
409.791	113.94
410.014	119.94
410.238	110.94
410.461	113.94
410.685	112.94
410.908	105.94
411.132	104.94
411.355	122.94
411.578	131.94
411.802	123.94
412.025	112.94
412.249	135.94
412.472	116.94
412.695	125.94
412.919	119.94
413.142	121.94
413.365	104.94
413.589	110.94
413.812	114.94
414.035	132.94
414.258	121.94
414.482	116.94
414.705	110.94
414.928	119.94
415.151	118.94
415.374	122.94
415.597	114.94
415.821	114.94
416.044	129.94
416.267	124.94
416.49	123.94
416.713	126.94
416.936	130.94
417.159	123.94
417.382	124.94
417.605	120.94
417.828	126.94
418.051	106.94
418.274	114.94
418.497	124.94
418.72	126.94
418.943	113.94
419.166	132.94
419.389	116.94
419.611	118.94
419.834	126.94
420.057	122.94
420.28	132.94
420.503	120.94
420.726	133.94
420.948	124.94
421.171	133.94
421.394	135.94
421.617	134.94
421.839	138.94
422.062	123.94
422.285	134.94
422.507	129.94
422.73	109.94
422.953	128.94
423.175	128.94
423.398	123.94
423.621	121.94
423.843	132.94
424.066	138.94
424.288	139.94
424.511	134.94
424.733	124.94
424.956	130.94
425.178	130.94
425.401	137.94
425.623	140.94
425.846	125.94
426.068	125.94
426.291	122.94
426.513	120.94
426.735	120.94
426.958	117.94
427.18	122.94
427.402	129.94
427.625	121.94
427.847	121.94
428.069	132.94
428.292	121.94
428.514	122.94
428.736	123.94
428.958	123.94
429.181	112.94
429.403	126.94
429.625	125.94
429.847	125.94
430.069	120.94
430.292	133.94
430.514	134.94
430.736	130.94
430.958	127.94
431.18	127.94
431.402	121.94
431.624	116.94
431.846	115.94
432.068	102.94
432.29	88.94
432.512	113.94
432.734	118.94
432.956	141.94
433.178	135.94
433.4	137.94
433.622	140.94
433.844	123.94
434.066	125.94
434.287	97.94
434.509	98.94
434.731	82.94
434.953	105.94
435.175	132.94
435.397	126.94
435.618	114.94
435.84	92.94
436.062	113.94
436.284	122.94
436.505	140.94
436.727	125.94
436.949	137.94
437.17	129.94
437.392	119.94
437.614	125.94
437.835	116.94
438.057	100.94
438.278	112.94
438.5	114.94
438.721	143.94
438.943	149.94
439.165	134.94
439.386	142.94
439.608	144.94
439.829	134.94
440.05	143.94
440.272	142.94
440.493	144.94
440.715	128.94
440.936	125.94
441.158	138.94
441.379	130.94
441.6	146.94
441.822	149.94
442.043	127.94
442.264	129.94
442.486	132.94
442.707	131.94
442.928	145.94
443.149	140.94
443.371	126.94
443.592	138.94
443.813	142.94
444.034	117.94
444.255	118.94
444.476	145.94
444.698	130.94
444.919	130.94
445.14	246.94
445.361	195.94
445.582	139.94
445.803	147.94
446.024	154.94
446.245	155.94
446.466	162.94
446.687	148.94
446.908	151.94
447.129	142.94
447.35	152.94
447.571	153.94
447.792	155.94
448.013	157.94
448.234	124.94
448.455	146.94
448.675	137.94
448.896	136.94
449.117	153.94
449.338	150.94
449.559	137.94
449.779	145.94
450	136.94
450.221	122.94
450.442	124.94
450.662	125.94
450.883	132.94
451.104	136.94
451.324	132.94
451.545	137.94
451.766	123.94
451.986	125.94
452.207	135.94
452.428	132.94
452.648	127.94
452.869	119.94
453.089	117.94
453.31	117.94
453.53	108.94
453.751	97.94
453.971	98.94
454.192	94.94
454.412	108.94
454.633	109.94
454.853	126.94
455.073	111.94
455.294	113.94
455.514	105.94
455.734	133.94
455.955	100.94
456.175	107.94
456.395	110.94
456.616	107.94
456.836	109.94
457.056	101.94
457.276	100.94
457.497	96.94
457.717	93.94
457.937	113.94
458.157	104.94
458.377	105.94
458.598	93.94
458.818	77.94
459.038	102.94
459.258	84.94
459.478	76.94
459.698	75.94
459.918	86.94
460.138	90.94
460.358	108.94
460.578	110.94
460.798	126.94
461.018	109.94
461.238	116.94
461.458	121.94
461.678	121.94
461.898	123.94
462.118	118.94
462.338	110.94
462.558	124.94
462.777	113.94
462.997	117.94
463.217	101.94
463.437	102.94
463.657	118.94
463.876	117.94
464.096	97.94
464.316	106.94
464.536	101.94
464.755	123.94
464.975	98.94
465.195	109.94
465.414	112.94
465.634	119.94
465.854	127.94
466.073	131.94
466.293	116.94
466.512	111.94
466.732	133.94
466.951	123.94
467.171	136.94
467.391	125.94
467.61	127.94
467.829	141.94
468.049	133.94
468.268	123.94
468.488	136.94
468.707	134.94
468.927	121.94
469.146	133.94
469.365	131.94
469.585	129.94
469.804	146.94
470.023	128.94
470.243	138.94
470.462	147.94
470.681	138.94
470.901	128.94
471.12	143.94
471.339	141.94
471.558	128.94
471.777	138.94
471.997	139.94
472.216	118.94
472.435	105.94
472.654	90.94
472.873	94.94
473.092	121.94
473.311	125.94
473.53	126.94
473.749	129.94
473.968	117.94
474.187	121.94
474.406	110.94
474.625	112.94
474.844	138.94
475.063	135.94
475.282	122.94
475.501	114.94
475.72	121.94
475.939	121.94
476.158	117.94
476.377	130.94
476.596	131.94
476.814	114.94
477.033	115.94
477.252	107.94
477.471	106.94
477.69	123.94
477.908	136.94
478.127	150.94
478.346	130.94
478.564	131.94
478.783	132.94
479.002	137.94
479.22	136.94
479.439	134.94
479.658	127.94
479.876	122.94
480.095	114.94
480.313	98.94
480.532	113.94
480.751	114.94
480.969	85.94
481.188	88.94
481.406	85.94
481.624	101.94
481.843	95.94
482.061	108.94
482.28	101.94
482.498	120.94
482.717	96.94
482.935	98.94
483.153	127.94
483.372	151.94
483.59	157.94
483.808	142.94
484.027	129.94
484.245	119.94
484.463	149.94
484.681	160.94
484.9	141.94
485.118	130.94
485.336	121.94
485.554	128.94
485.772	104.94
485.99	107.94
486.209	104.94
486.427	97.94
486.645	119.94
486.863	141.94
487.081	133.94
487.299	135.94
487.517	149.94
487.735	154.94
487.953	171.94
488.171	196.94
488.389	165.94
488.607	146.94
488.825	134.94
489.043	116.94
489.261	140.94
489.479	138.94
489.696	130.94
489.914	156.94
490.132	142.94
490.35	149.94
490.568	148.94
490.786	152.94
491.003	161.94
491.221	172.94
491.439	176.94
491.657	173.94
491.874	188.94
492.092	214.94
492.31	252.94
492.527	225.94
492.745	190.94
492.963	186.94
493.18	191.94
493.398	180.94
493.615	171.94
493.833	176.94
494.05	162.94
494.268	173.94
494.485	165.94
494.703	178.94
494.92	174.94
495.138	163.94
495.355	167.94
495.573	167.94
495.79	169.94
496.008	166.94
496.225	147.94
496.442	155.94
496.66	160.94
496.877	162.94
497.094	158.94
497.312	162.94
497.529	164.94
497.746	127.94
497.963	138.94
498.181	136.94
498.398	123.94
498.615	128.94
498.832	101.94
499.049	120.94
499.267	120.94
499.484	126.94
499.701	140.94
499.918	129.94
500.135	124.94
500.352	146.94
500.569	136.94
500.786	141.94
501.003	135.94
501.22	140.94
501.437	138.94
501.654	136.94
501.871	132.94
502.088	122.94
502.305	132.94
502.522	135.94
502.739	123.94
502.956	119.94
503.172	119.94
503.389	119.94
503.606	121.94
503.823	131.94
504.04	115.94
504.256	112.94
504.473	114.94
504.69	125.94
504.907	128.94
505.123	124.94
505.34	119.94
505.557	122.94
505.773	114.94
505.99	107.94
506.207	118.94
506.423	128.94
506.64	120.94
506.856	119.94
507.073	128.94
507.289	113.94
507.506	117.94
507.722	121.94
507.939	125.94
508.155	128.94
508.372	108.94
508.588	120.94
508.805	110.94
509.021	114.94
509.238	104.94
509.454	98.94
509.67	100.94
509.887	91.94
510.103	92.94
510.319	95.94
510.536	92.94
510.752	86.94
510.968	73.94
511.184	82.94
511.401	92.94
511.617	81.94
511.833	94.94
512.049	95.94
