Data from Location1.07152019.Energy5.Lamp.07192019.3%Agarose_HRD10591_14-31-15-015.txt Node
Date: Fri Jul 19 14:31:15 EDT 2019
User: cochatt
Spectrometer: HR+D1059
Trigger mode: 1
Integration Time (sec): 1.000000E-1
Scans to average: 1
Electric dark correction enabled: true
Nonlinearity correction enabled: false
Boxcar width: 0
XAxis mode: Wavelengths
Number of Pixels in Spectrum: 2048
>>>>>Begin Spectral Data<<<<<
223.165	-20.56
223.4	-20.56
223.635	-20.56
223.869	-26.56
224.104	-10.56
224.338	-9.56
224.573	-7.56
224.808	0.44
225.042	-9.56
225.277	-18.56
225.511	6.44
225.746	-2.56
225.98	4.44
226.215	1.44
226.449	14.44
226.683	15.44
226.918	21.44
227.152	41.44
227.387	40.44
227.621	29.44
227.856	52.44
228.09	45.44
228.324	52.44
228.559	61.44
228.793	52.44
229.027	63.44
229.262	60.44
229.496	73.44
229.73	90.44
229.964	83.44
230.199	79.44
230.433	59.44
230.667	71.44
230.901	90.44
231.136	77.44
231.37	81.44
231.604	70.44
231.838	67.44
232.072	84.44
232.306	75.44
232.541	75.44
232.775	87.44
233.009	80.44
233.243	84.44
233.477	84.44
233.711	80.44
233.945	70.44
234.179	79.44
234.413	84.44
234.647	86.44
234.881	85.44
235.115	82.44
235.349	74.44
235.583	85.44
235.817	90.44
236.051	71.44
236.285	78.44
236.519	79.44
236.753	76.44
236.987	79.44
237.221	76.44
237.455	73.44
237.689	79.44
237.922	90.44
238.156	81.44
238.39	79.44
238.624	76.44
238.858	83.44
239.091	73.44
239.325	66.44
239.559	72.44
239.793	76.44
240.027	75.44
240.26	73.44
240.494	104.44
240.728	83.44
240.961	67.44
241.195	85.44
241.429	69.44
241.662	69.44
241.896	83.44
242.13	67.44
242.363	85.44
242.597	74.44
242.83	62.44
243.064	71.44
243.298	80.44
243.531	81.44
243.765	85.44
243.998	86.44
244.232	70.44
244.465	76.44
244.699	70.44
244.932	88.44
245.166	71.44
245.399	70.44
245.633	73.44
245.866	76.44
246.099	72.44
246.333	70.44
246.566	89.44
246.8	85.44
247.033	75.44
247.266	90.44
247.5	71.44
247.733	70.44
247.966	87.44
248.2	60.44
248.433	88.44
248.666	81.44
248.899	76.44
249.133	78.44
249.366	99.44
249.599	72.44
249.832	91.44
250.066	84.44
250.299	91.44
250.532	84.44
250.765	67.44
250.998	84.44
251.231	70.44
251.465	79.44
251.698	87.44
251.931	90.44
252.164	76.44
252.397	105.44
252.63	94.44
252.863	90.44
253.096	75.44
253.329	80.44
253.562	85.44
253.795	77.44
254.028	100.44
254.261	76.44
254.494	82.44
254.727	72.44
254.96	75.44
255.193	81.44
255.426	70.44
255.659	83.44
255.892	81.44
256.124	77.44
256.357	90.44
256.59	88.44
256.823	77.44
257.056	68.44
257.289	84.44
257.521	69.44
257.754	80.44
257.987	81.44
258.22	83.44
258.452	63.44
258.685	76.44
258.918	77.44
259.151	83.44
259.383	94.44
259.616	82.44
259.849	87.44
260.081	83.44
260.314	88.44
260.547	75.44
260.779	89.44
261.012	87.44
261.244	85.44
261.477	69.44
261.71	81.44
261.942	82.44
262.175	81.44
262.407	60.44
262.64	83.44
262.872	76.44
263.105	71.44
263.337	95.44
263.57	89.44
263.802	91.44
264.035	86.44
264.267	71.44
264.499	76.44
264.732	84.44
264.964	82.44
265.197	74.44
265.429	82.44
265.661	85.44
265.894	87.44
266.126	82.44
266.358	90.44
266.591	96.44
266.823	84.44
267.055	86.44
267.287	87.44
267.52	76.44
267.752	88.44
267.984	77.44
268.216	82.44
268.448	91.44
268.681	82.44
268.913	73.44
269.145	87.44
269.377	87.44
269.609	80.44
269.841	92.44
270.073	80.44
270.306	89.44
270.538	83.44
270.77	78.44
271.002	83.44
271.234	85.44
271.466	92.44
271.698	75.44
271.93	93.44
272.162	82.44
272.394	71.44
272.626	77.44
272.858	86.44
273.09	83.44
273.322	87.44
273.553	92.44
273.785	82.44
274.017	87.44
274.249	77.44
274.481	77.44
274.713	91.44
274.945	80.44
275.176	104.44
275.408	95.44
275.64	79.44
275.872	87.44
276.104	93.44
276.335	86.44
276.567	84.44
276.799	85.44
277.031	81.44
277.262	85.44
277.494	90.44
277.726	82.44
277.957	91.44
278.189	69.44
278.421	84.44
278.652	76.44
278.884	93.44
279.115	79.44
279.347	80.44
279.579	83.44
279.81	91.44
280.042	92.44
280.273	90.44
280.505	89.44
280.736	81.44
280.968	84.44
281.199	84.44
281.431	90.44
281.662	81.44
281.894	71.44
282.125	81.44
282.356	92.44
282.588	87.44
282.819	78.44
283.051	66.44
283.282	99.44
283.513	96.44
283.745	75.44
283.976	83.44
284.207	76.44
284.439	80.44
284.67	80.44
284.901	84.44
285.132	82.44
285.364	92.44
285.595	92.44
285.826	60.44
286.057	76.44
286.288	81.44
286.52	69.44
286.751	90.44
286.982	78.44
287.213	73.44
287.444	69.44
287.675	75.44
287.906	80.44
288.138	83.44
288.369	80.44
288.6	87.44
288.831	77.44
289.062	95.44
289.293	92.44
289.524	71.44
289.755	76.44
289.986	97.44
290.217	87.44
290.448	88.44
290.679	100.44
290.91	78.44
291.141	75.44
291.371	88.44
291.602	63.44
291.833	91.44
292.064	87.44
292.295	92.44
292.526	79.44
292.757	82.44
292.987	82.44
293.218	72.44
293.449	74.44
293.68	76.44
293.91	84.44
294.141	79.44
294.372	77.44
294.603	83.44
294.833	93.44
295.064	75.44
295.295	88.44
295.525	92.44
295.756	91.44
295.987	77.44
296.217	83.44
296.448	91.44
296.679	92.44
296.909	96.44
297.14	94.44
297.37	98.44
297.601	80.44
297.831	74.44
298.062	72.44
298.292	94.44
298.523	90.44
298.753	72.44
298.984	89.44
299.214	80.44
299.445	94.44
299.675	84.44
299.905	88.44
300.136	103.44
300.366	86.44
300.597	78.44
300.827	78.44
301.057	79.44
301.288	84.44
301.518	86.44
301.748	85.44
301.979	73.44
302.209	83.44
302.439	87.44
302.669	77.44
302.9	79.44
303.13	78.44
303.36	97.44
303.59	89.44
303.82	95.44
304.051	80.44
304.281	83.44
304.511	90.44
304.741	74.44
304.971	88.44
305.201	74.44
305.431	74.44
305.661	101.44
305.891	94.44
306.121	73.44
306.352	80.44
306.582	75.44
306.812	90.44
307.042	66.44
307.272	76.44
307.502	81.44
307.731	87.44
307.961	81.44
308.191	95.44
308.421	98.44
308.651	86.44
308.881	90.44
309.111	80.44
309.341	70.44
309.571	72.44
309.8	75.44
310.03	87.44
310.26	98.44
310.49	86.44
310.72	77.44
310.949	91.44
311.179	84.44
311.409	90.44
311.639	90.44
311.868	88.44
312.098	85.44
312.328	92.44
312.557	88.44
312.787	73.44
313.017	76.44
313.246	80.44
313.476	77.44
313.706	91.44
313.935	86.44
314.165	85.44
314.394	87.44
314.624	79.44
314.853	87.44
315.083	80.44
315.312	76.44
315.542	93.44
315.771	98.44
316.001	94.44
316.23	92.44
316.46	73.44
316.689	86.44
316.919	85.44
317.148	81.44
317.377	85.44
317.607	84.44
317.836	95.44
318.065	104.44
318.295	68.44
318.524	62.44
318.753	76.44
318.983	93.44
319.212	85.44
319.441	87.44
319.67	72.44
319.9	91.44
320.129	102.44
320.358	85.44
320.587	88.44
320.816	83.44
321.046	88.44
321.275	89.44
321.504	75.44
321.733	76.44
321.962	74.44
322.191	89.44
322.42	91.44
322.649	82.44
322.878	75.44
323.108	95.44
323.337	100.44
323.566	88.44
323.795	89.44
324.024	98.44
324.253	104.44
324.482	86.44
324.71	93.44
324.939	92.44
325.168	93.44
325.397	90.44
325.626	57.44
325.855	78.44
326.084	93.44
326.313	83.44
326.542	96.44
326.77	81.44
326.999	90.44
327.228	85.44
327.457	85.44
327.686	84.44
327.914	96.44
328.143	90.44
328.372	91.44
328.6	90.44
328.829	95.44
329.058	94.44
329.287	83.44
329.515	79.44
329.744	97.44
329.972	83.44
330.201	72.44
330.43	86.44
330.658	84.44
330.887	74.44
331.115	92.44
331.344	87.44
331.572	83.44
331.801	77.44
332.03	88.44
332.258	90.44
332.486	72.44
332.715	99.44
332.943	87.44
333.172	85.44
333.4	75.44
333.629	86.44
333.857	91.44
334.085	95.44
334.314	97.44
334.542	102.44
334.771	97.44
334.999	86.44
335.227	79.44
335.455	87.44
335.684	86.44
335.912	84.44
336.14	100.44
336.369	93.44
336.597	99.44
336.825	90.44
337.053	83.44
337.281	86.44
337.51	78.44
337.738	88.44
337.966	99.44
338.194	93.44
338.422	90.44
338.65	95.44
338.878	85.44
339.106	96.44
339.334	82.44
339.562	72.44
339.79	87.44
340.018	87.44
340.246	88.44
340.474	94.44
340.702	86.44
340.93	92.44
341.158	80.44
341.386	75.44
341.614	89.44
341.842	75.44
342.07	73.44
342.298	90.44
342.526	94.44
342.754	81.44
342.981	79.44
343.209	79.44
343.437	80.44
343.665	80.44
343.893	92.44
344.12	90.44
344.348	97.44
344.576	87.44
344.804	83.44
345.031	97.44
345.259	70.44
345.487	90.44
345.714	86.44
345.942	82.44
346.17	89.44
346.397	87.44
346.625	85.44
346.853	91.44
347.08	80.44
347.308	75.44
347.535	91.44
347.763	91.44
347.99	85.44
348.218	80.44
348.445	84.44
348.673	70.44
348.9	83.44
349.128	91.44
349.355	99.44
349.583	98.44
349.81	83.44
350.037	88.44
350.265	89.44
350.492	88.44
350.72	86.44
350.947	91.44
351.174	79.44
351.402	92.44
351.629	77.44
351.856	92.44
352.083	83.44
352.311	74.44
352.538	81.44
352.765	88.44
352.992	79.44
353.22	79.44
353.447	81.44
353.674	90.44
353.901	84.44
354.128	74.44
354.355	80.44
354.583	81.44
354.81	94.44
355.037	82.44
355.264	78.44
355.491	89.44
355.718	77.44
355.945	89.44
356.172	79.44
356.399	88.44
356.626	76.44
356.853	80.44
357.08	90.44
357.307	91.44
357.534	86.44
357.761	74.44
357.988	84.44
358.215	94.44
358.441	80.44
358.668	96.44
358.895	95.44
359.122	95.44
359.349	82.44
359.576	94.44
359.802	84.44
360.029	86.44
360.256	95.44
360.483	100.44
360.709	87.44
360.936	91.44
361.163	92.44
361.39	76.44
361.616	70.44
361.843	86.44
362.07	81.44
362.296	93.44
362.523	81.44
362.749	87.44
362.976	74.44
363.203	84.44
363.429	98.44
363.656	79.44
363.882	81.44
364.109	85.44
364.335	86.44
364.562	77.44
364.788	95.44
365.015	87.44
365.241	91.44
365.468	87.44
365.694	84.44
365.92	81.44
366.147	88.44
366.373	79.44
366.599	91.44
366.826	78.44
367.052	94.44
367.278	99.44
367.505	101.44
367.731	89.44
367.957	89.44
368.184	72.44
368.41	79.44
368.636	85.44
368.862	95.44
369.089	85.44
369.315	98.44
369.541	87.44
369.767	94.44
369.993	98.44
370.219	76.44
370.445	83.44
370.672	84.44
370.898	98.44
371.124	95.44
371.35	101.44
371.576	94.44
371.802	79.44
372.028	94.44
372.254	90.44
372.48	85.44
372.706	99.44
372.932	96.44
373.158	86.44
373.384	106.44
373.61	92.44
373.835	95.44
374.061	98.44
374.287	96.44
374.513	95.44
374.739	91.44
374.965	102.44
375.191	78.44
375.416	74.44
375.642	90.44
375.868	103.44
376.094	92.44
376.319	85.44
376.545	89.44
376.771	100.44
376.997	84.44
377.222	84.44
377.448	101.44
377.674	102.44
377.899	90.44
378.125	96.44
378.35	103.44
378.576	94.44
378.802	107.44
379.027	96.44
379.253	93.44
379.478	87.44
379.704	90.44
379.929	98.44
380.155	107.44
380.38	84.44
380.606	92.44
380.831	106.44
381.057	106.44
381.282	101.44
381.507	88.44
381.733	104.44
381.958	103.44
382.184	98.44
382.409	81.44
382.634	96.44
382.86	99.44
383.085	89.44
383.31	97.44
383.535	101.44
383.761	86.44
383.986	104.44
384.211	107.44
384.436	93.44
384.662	104.44
384.887	96.44
385.112	93.44
385.337	95.44
385.562	107.44
385.787	99.44
386.013	95.44
386.238	91.44
386.463	88.44
386.688	85.44
386.913	91.44
387.138	105.44
387.363	105.44
387.588	108.44
387.813	107.44
388.038	104.44
388.263	93.44
388.488	115.44
388.713	111.44
388.938	86.44
389.163	100.44
389.387	107.44
389.612	119.44
389.837	110.44
390.062	100.44
390.287	94.44
390.512	104.44
390.736	103.44
390.961	111.44
391.186	114.44
391.411	101.44
391.636	101.44
391.86	115.44
392.085	102.44
392.31	104.44
392.534	102.44
392.759	105.44
392.984	106.44
393.208	102.44
393.433	114.44
393.658	95.44
393.882	98.44
394.107	106.44
394.331	114.44
394.556	103.44
394.78	100.44
395.005	98.44
395.229	109.44
395.454	91.44
395.678	105.44
395.903	118.44
396.127	119.44
396.352	116.44
396.576	102.44
396.801	103.44
397.025	100.44
397.249	110.44
397.474	108.44
397.698	91.44
397.922	109.44
398.147	94.44
398.371	119.44
398.595	100.44
398.82	106.44
399.044	118.44
399.268	104.44
399.492	112.44
399.717	106.44
399.941	99.44
400.165	106.44
400.389	111.44
400.613	116.44
400.837	101.44
401.062	107.44
401.286	106.44
401.51	110.44
401.734	108.44
401.958	93.44
402.182	116.44
402.406	115.44
402.63	112.44
402.854	126.44
403.078	116.44
403.302	113.44
403.526	100.44
403.75	119.44
403.974	117.44
404.198	112.44
404.422	109.44
404.645	110.44
404.869	101.44
405.093	98.44
405.317	117.44
405.541	106.44
405.765	118.44
405.988	114.44
406.212	125.44
406.436	118.44
406.66	117.44
406.883	106.44
407.107	102.44
407.331	110.44
407.555	130.44
407.778	121.44
408.002	106.44
408.226	113.44
408.449	116.44
408.673	107.44
408.896	122.44
409.12	123.44
409.344	117.44
409.567	120.44
409.791	115.44
410.014	116.44
410.238	120.44
410.461	120.44
410.685	106.44
410.908	121.44
411.132	132.44
411.355	126.44
411.578	111.44
411.802	130.44
412.025	114.44
412.249	120.44
412.472	114.44
412.695	119.44
412.919	128.44
413.142	116.44
413.365	128.44
413.589	116.44
413.812	126.44
414.035	134.44
414.258	120.44
414.482	129.44
414.705	120.44
414.928	125.44
415.151	144.44
415.374	117.44
415.597	125.44
415.821	124.44
416.044	123.44
416.267	132.44
416.49	127.44
416.713	122.44
416.936	135.44
417.159	127.44
417.382	130.44
417.605	124.44
417.828	124.44
418.051	130.44
418.274	121.44
418.497	137.44
418.72	145.44
418.943	135.44
419.166	146.44
419.389	134.44
419.611	140.44
419.834	141.44
420.057	133.44
420.28	141.44
420.503	131.44
420.726	134.44
420.948	130.44
421.171	131.44
421.394	150.44
421.617	147.44
421.839	131.44
422.062	137.44
422.285	120.44
422.507	134.44
422.73	124.44
422.953	114.44
423.175	122.44
423.398	126.44
423.621	140.44
423.843	130.44
424.066	134.44
424.288	137.44
424.511	149.44
424.733	150.44
424.956	150.44
425.178	135.44
425.401	150.44
425.623	140.44
425.846	135.44
426.068	136.44
426.291	145.44
426.513	123.44
426.735	131.44
426.958	121.44
427.18	133.44
427.402	125.44
427.625	122.44
427.847	125.44
428.069	123.44
428.292	128.44
428.514	134.44
428.736	128.44
428.958	134.44
429.181	123.44
429.403	121.44
429.625	123.44
429.847	111.44
430.069	132.44
430.292	137.44
430.514	120.44
430.736	126.44
430.958	124.44
431.18	118.44
431.402	121.44
431.624	129.44
431.846	107.44
432.068	114.44
432.29	86.44
432.512	107.44
432.734	116.44
432.956	124.44
433.178	125.44
433.4	143.44
433.622	128.44
433.844	134.44
434.066	127.44
434.287	106.44
434.509	103.44
434.731	104.44
434.953	101.44
435.175	130.44
435.397	131.44
435.618	114.44
435.84	108.44
436.062	103.44
436.284	142.44
436.505	126.44
436.727	134.44
436.949	136.44
437.17	127.44
437.392	136.44
437.614	113.44
437.835	103.44
438.057	102.44
438.278	119.44
438.5	127.44
438.721	126.44
438.943	130.44
439.165	127.44
439.386	146.44
439.608	140.44
439.829	142.44
440.05	137.44
440.272	139.44
440.493	136.44
440.715	136.44
440.936	134.44
441.158	152.44
441.379	138.44
441.6	150.44
441.822	143.44
442.043	133.44
442.264	141.44
442.486	149.44
442.707	145.44
442.928	131.44
443.149	133.44
443.371	126.44
443.592	138.44
443.813	141.44
444.034	138.44
444.255	135.44
444.476	136.44
444.698	133.44
444.919	138.44
445.14	259.44
445.361	196.44
445.582	151.44
445.803	132.44
446.024	157.44
446.245	144.44
446.466	151.44
446.687	150.44
446.908	141.44
447.129	140.44
447.35	151.44
447.571	156.44
447.792	137.44
448.013	125.44
448.234	153.44
448.455	145.44
448.675	142.44
448.896	134.44
449.117	133.44
449.338	127.44
449.559	130.44
449.779	135.44
450	142.44
450.221	140.44
450.442	141.44
450.662	130.44
450.883	124.44
451.104	134.44
451.324	130.44
451.545	130.44
451.766	118.44
451.986	131.44
452.207	134.44
452.428	137.44
452.648	133.44
452.869	132.44
453.089	131.44
453.31	115.44
453.53	103.44
453.751	114.44
453.971	101.44
454.192	93.44
454.412	112.44
454.633	111.44
454.853	107.44
455.073	110.44
455.294	126.44
455.514	110.44
455.734	105.44
455.955	101.44
456.175	113.44
456.395	107.44
456.616	101.44
456.836	99.44
457.056	121.44
457.276	109.44
457.497	108.44
457.717	97.44
457.937	110.44
458.157	116.44
458.377	107.44
458.598	86.44
458.818	98.44
459.038	100.44
459.258	90.44
459.478	95.44
459.698	87.44
459.918	95.44
460.138	100.44
460.358	105.44
460.578	110.44
460.798	118.44
461.018	106.44
461.238	117.44
461.458	116.44
461.678	98.44
461.898	106.44
462.118	120.44
462.338	117.44
462.558	111.44
462.777	124.44
462.997	119.44
463.217	107.44
463.437	109.44
463.657	105.44
463.876	114.44
464.096	100.44
464.316	101.44
464.536	100.44
464.755	125.44
464.975	116.44
465.195	122.44
465.414	107.44
465.634	114.44
465.854	109.44
466.073	120.44
466.293	130.44
466.512	115.44
466.732	127.44
466.951	136.44
467.171	126.44
467.391	124.44
467.61	129.44
467.829	125.44
468.049	130.44
468.268	148.44
468.488	115.44
468.707	129.44
468.927	153.44
469.146	124.44
469.365	124.44
469.585	135.44
469.804	140.44
470.023	124.44
470.243	151.44
470.462	126.44
470.681	133.44
470.901	135.44
471.12	143.44
471.339	149.44
471.558	139.44
471.777	132.44
471.997	138.44
472.216	123.44
472.435	122.44
472.654	96.44
472.873	110.44
473.092	121.44
473.311	119.44
473.53	111.44
473.749	137.44
473.968	136.44
474.187	121.44
474.406	111.44
474.625	118.44
474.844	130.44
475.063	131.44
475.282	118.44
475.501	120.44
475.72	112.44
475.939	120.44
476.158	132.44
476.377	136.44
476.596	139.44
476.814	130.44
477.033	116.44
477.252	102.44
477.471	129.44
477.69	130.44
477.908	131.44
478.127	151.44
478.346	142.44
478.564	132.44
478.783	130.44
479.002	137.44
479.22	119.44
479.439	121.44
479.658	115.44
479.876	114.44
480.095	114.44
480.313	117.44
480.532	108.44
480.751	117.44
480.969	107.44
481.188	89.44
481.406	102.44
481.624	89.44
481.843	86.44
482.061	87.44
482.28	104.44
482.498	110.44
482.717	106.44
482.935	112.44
483.153	141.44
483.372	158.44
483.59	143.44
483.808	139.44
484.027	136.44
484.245	138.44
484.463	148.44
484.681	162.44
484.9	143.44
485.118	134.44
485.336	132.44
485.554	113.44
485.772	97.44
485.99	99.44
486.209	112.44
486.427	108.44
486.645	118.44
486.863	136.44
487.081	152.44
487.299	139.44
487.517	134.44
487.735	158.44
487.953	166.44
488.171	173.44
488.389	178.44
488.607	164.44
488.825	144.44
489.043	134.44
489.261	123.44
489.479	149.44
489.696	137.44
489.914	145.44
490.132	147.44
490.35	156.44
490.568	160.44
490.786	194.44
491.003	164.44
491.221	178.44
491.439	200.44
491.657	185.44
491.874	199.44
492.092	226.44
492.31	229.44
492.527	215.44
492.745	210.44
492.963	198.44
493.18	179.44
493.398	173.44
493.615	184.44
493.833	180.44
494.05	163.44
494.268	164.44
494.485	167.44
494.703	163.44
494.92	183.44
495.138	168.44
495.355	173.44
495.573	157.44
495.79	164.44
496.008	174.44
496.225	162.44
496.442	162.44
496.66	148.44
496.877	158.44
497.094	162.44
497.312	163.44
497.529	159.44
497.746	145.44
497.963	149.44
498.181	117.44
498.398	129.44
498.615	123.44
498.832	120.44
499.049	116.44
499.267	115.44
499.484	118.44
499.701	122.44
499.918	149.44
500.135	147.44
500.352	139.44
500.569	137.44
500.786	141.44
501.003	143.44
501.22	151.44
501.437	136.44
501.654	134.44
501.871	135.44
502.088	136.44
502.305	131.44
502.522	126.44
502.739	132.44
502.956	112.44
503.172	130.44
503.389	125.44
503.606	114.44
503.823	123.44
504.04	115.44
504.256	108.44
504.473	108.44
504.69	124.44
504.907	120.44
505.123	129.44
505.34	124.44
505.557	130.44
505.773	127.44
505.99	136.44
506.207	122.44
506.423	116.44
506.64	115.44
506.856	132.44
507.073	103.44
507.289	112.44
507.506	116.44
507.722	100.44
507.939	100.44
508.155	111.44
508.372	100.44
508.588	107.44
508.805	122.44
509.021	100.44
509.238	121.44
509.454	101.44
509.67	99.44
509.887	87.44
510.103	95.44
510.319	110.44
510.536	95.44
510.752	111.44
510.968	95.44
511.184	77.44
511.401	89.44
