Data from Location1.07152019.Energy5.Lamp.07192019.3%Agarose_HRD10591_14-32-33-018.txt Node
Date: Fri Jul 19 14:32:33 EDT 2019
User: cochatt
Spectrometer: HR+D1059
Trigger mode: 1
Integration Time (sec): 1.000000E-1
Scans to average: 1
Electric dark correction enabled: true
Nonlinearity correction enabled: false
Boxcar width: 0
XAxis mode: Wavelengths
Number of Pixels in Spectrum: 2048
>>>>>Begin Spectral Data<<<<<
223.165	-10.56
223.4	-10.56
223.635	-10.56
223.869	-28.56
224.104	-21.56
224.338	2.44
224.573	-19.56
224.808	-11.56
225.042	-6.56
225.277	-14.56
225.511	3.44
225.746	0.44
225.98	-1.56
226.215	13.44
226.449	24.44
226.683	20.44
226.918	22.44
227.152	27.44
227.387	14.44
227.621	32.44
227.856	36.44
228.09	36.44
228.324	49.44
228.559	58.44
228.793	55.44
229.027	52.44
229.262	60.44
229.496	65.44
229.73	66.44
229.964	65.44
230.199	72.44
230.433	70.44
230.667	67.44
230.901	66.44
231.136	77.44
231.37	74.44
231.604	68.44
231.838	68.44
232.072	79.44
232.306	74.44
232.541	91.44
232.775	80.44
233.009	86.44
233.243	81.44
233.477	79.44
233.711	75.44
233.945	74.44
234.179	88.44
234.413	90.44
234.647	85.44
234.881	84.44
235.115	72.44
235.349	71.44
235.583	75.44
235.817	91.44
236.051	81.44
236.285	91.44
236.519	69.44
236.753	70.44
236.987	88.44
237.221	81.44
237.455	80.44
237.689	89.44
237.922	68.44
238.156	69.44
238.39	72.44
238.624	71.44
238.858	91.44
239.091	72.44
239.325	68.44
239.559	72.44
239.793	66.44
240.027	88.44
240.26	74.44
240.494	77.44
240.728	71.44
240.961	71.44
241.195	71.44
241.429	90.44
241.662	77.44
241.896	78.44
242.13	81.44
242.363	88.44
242.597	73.44
242.83	67.44
243.064	79.44
243.298	74.44
243.531	58.44
243.765	83.44
243.998	64.44
244.232	75.44
244.465	86.44
244.699	70.44
244.932	78.44
245.166	78.44
245.399	83.44
245.633	80.44
245.866	83.44
246.099	68.44
246.333	82.44
246.566	69.44
246.8	71.44
247.033	78.44
247.266	74.44
247.5	69.44
247.733	64.44
247.966	77.44
248.2	81.44
248.433	71.44
248.666	74.44
248.899	75.44
249.133	73.44
249.366	88.44
249.599	67.44
249.832	76.44
250.066	81.44
250.299	70.44
250.532	67.44
250.765	79.44
250.998	70.44
251.231	71.44
251.465	80.44
251.698	71.44
251.931	91.44
252.164	91.44
252.397	71.44
252.63	77.44
252.863	81.44
253.096	72.44
253.329	68.44
253.562	72.44
253.795	81.44
254.028	98.44
254.261	89.44
254.494	71.44
254.727	83.44
254.96	78.44
255.193	73.44
255.426	68.44
255.659	81.44
255.892	73.44
256.124	65.44
256.357	66.44
256.59	84.44
256.823	84.44
257.056	63.44
257.289	76.44
257.521	76.44
257.754	81.44
257.987	76.44
258.22	81.44
258.452	71.44
258.685	70.44
258.918	76.44
259.151	80.44
259.383	72.44
259.616	90.44
259.849	82.44
260.081	85.44
260.314	88.44
260.547	90.44
260.779	72.44
261.012	78.44
261.244	70.44
261.477	70.44
261.71	74.44
261.942	86.44
262.175	76.44
262.407	68.44
262.64	75.44
262.872	76.44
263.105	83.44
263.337	77.44
263.57	86.44
263.802	87.44
264.035	80.44
264.267	77.44
264.499	73.44
264.732	82.44
264.964	77.44
265.197	84.44
265.429	68.44
265.661	79.44
265.894	62.44
266.126	78.44
266.358	93.44
266.591	81.44
266.823	89.44
267.055	94.44
267.287	88.44
267.52	84.44
267.752	83.44
267.984	73.44
268.216	76.44
268.448	75.44
268.681	89.44
268.913	90.44
269.145	82.44
269.377	76.44
269.609	84.44
269.841	87.44
270.073	72.44
270.306	75.44
270.538	84.44
270.77	88.44
271.002	93.44
271.234	71.44
271.466	70.44
271.698	88.44
271.93	81.44
272.162	93.44
272.394	100.44
272.626	72.44
272.858	92.44
273.09	87.44
273.322	87.44
273.553	77.44
273.785	86.44
274.017	72.44
274.249	72.44
274.481	81.44
274.713	93.44
274.945	80.44
275.176	84.44
275.408	85.44
275.64	96.44
275.872	67.44
276.104	85.44
276.335	85.44
276.567	83.44
276.799	82.44
277.031	85.44
277.262	90.44
277.494	84.44
277.726	76.44
277.957	64.44
278.189	66.44
278.421	74.44
278.652	86.44
278.884	82.44
279.115	85.44
279.347	76.44
279.579	66.44
279.81	84.44
280.042	71.44
280.273	80.44
280.505	43.44
280.736	82.44
280.968	74.44
281.199	78.44
281.431	88.44
281.662	86.44
281.894	87.44
282.125	68.44
282.356	88.44
282.588	76.44
282.819	72.44
283.051	81.44
283.282	82.44
283.513	77.44
283.745	82.44
283.976	82.44
284.207	83.44
284.439	95.44
284.67	75.44
284.901	60.44
285.132	78.44
285.364	73.44
285.595	88.44
285.826	88.44
286.057	78.44
286.288	73.44
286.52	88.44
286.751	85.44
286.982	85.44
287.213	79.44
287.444	77.44
287.675	75.44
287.906	73.44
288.138	77.44
288.369	94.44
288.6	77.44
288.831	82.44
289.062	90.44
289.293	93.44
289.524	79.44
289.755	82.44
289.986	94.44
290.217	76.44
290.448	80.44
290.679	82.44
290.91	94.44
291.141	90.44
291.371	66.44
291.602	69.44
291.833	76.44
292.064	70.44
292.295	78.44
292.526	86.44
292.757	81.44
292.987	77.44
293.218	73.44
293.449	73.44
293.68	96.44
293.91	77.44
294.141	81.44
294.372	74.44
294.603	80.44
294.833	94.44
295.064	78.44
295.295	93.44
295.525	86.44
295.756	91.44
295.987	110.44
296.217	74.44
296.448	69.44
296.679	73.44
296.909	89.44
297.14	82.44
297.37	79.44
297.601	77.44
297.831	69.44
298.062	79.44
298.292	74.44
298.523	79.44
298.753	91.44
298.984	90.44
299.214	98.44
299.445	76.44
299.675	86.44
299.905	88.44
300.136	89.44
300.366	81.44
300.597	87.44
300.827	82.44
301.057	84.44
301.288	84.44
301.518	90.44
301.748	73.44
301.979	69.44
302.209	72.44
302.439	83.44
302.669	89.44
302.9	91.44
303.13	74.44
303.36	82.44
303.59	82.44
303.82	98.44
304.051	85.44
304.281	91.44
304.511	83.44
304.741	101.44
304.971	86.44
305.201	79.44
305.431	88.44
305.661	70.44
305.891	101.44
306.121	80.44
306.352	74.44
306.582	84.44
306.812	91.44
307.042	78.44
307.272	78.44
307.502	82.44
307.731	83.44
307.961	92.44
308.191	77.44
308.421	85.44
308.651	83.44
308.881	82.44
309.111	95.44
309.341	93.44
309.571	78.44
309.8	76.44
310.03	83.44
310.26	76.44
310.49	89.44
310.72	82.44
310.949	93.44
311.179	82.44
311.409	78.44
311.639	76.44
311.868	87.44
312.098	73.44
312.328	71.44
312.557	89.44
312.787	87.44
313.017	88.44
313.246	73.44
313.476	83.44
313.706	88.44
313.935	85.44
314.165	70.44
314.394	87.44
314.624	88.44
314.853	80.44
315.083	86.44
315.312	87.44
315.542	86.44
315.771	75.44
316.001	88.44
316.23	83.44
316.46	96.44
316.689	88.44
316.919	72.44
317.148	75.44
317.377	78.44
317.607	80.44
317.836	94.44
318.065	85.44
318.295	90.44
318.524	91.44
318.753	91.44
318.983	86.44
319.212	88.44
319.441	75.44
319.67	98.44
319.9	82.44
320.129	87.44
320.358	89.44
320.587	91.44
320.816	90.44
321.046	83.44
321.275	94.44
321.504	79.44
321.733	68.44
321.962	88.44
322.191	69.44
322.42	77.44
322.649	84.44
322.878	82.44
323.108	74.44
323.337	75.44
323.566	67.44
323.795	84.44
324.024	89.44
324.253	83.44
324.482	70.44
324.71	87.44
324.939	85.44
325.168	89.44
325.397	96.44
325.626	82.44
325.855	84.44
326.084	76.44
326.313	87.44
326.542	82.44
326.77	71.44
326.999	86.44
327.228	87.44
327.457	84.44
327.686	85.44
327.914	80.44
328.143	87.44
328.372	88.44
328.6	72.44
328.829	77.44
329.058	97.44
329.287	95.44
329.515	89.44
329.744	87.44
329.972	98.44
330.201	83.44
330.43	81.44
330.658	81.44
330.887	77.44
331.115	82.44
331.344	92.44
331.572	89.44
331.801	81.44
332.03	75.44
332.258	87.44
332.486	82.44
332.715	82.44
332.943	88.44
333.172	84.44
333.4	81.44
333.629	88.44
333.857	81.44
334.085	80.44
334.314	87.44
334.542	86.44
334.771	88.44
334.999	88.44
335.227	80.44
335.455	78.44
335.684	90.44
335.912	86.44
336.14	70.44
336.369	85.44
336.597	75.44
336.825	92.44
337.053	91.44
337.281	80.44
337.51	89.44
337.738	92.44
337.966	89.44
338.194	73.44
338.422	69.44
338.65	67.44
338.878	69.44
339.106	81.44
339.334	76.44
339.562	78.44
339.79	80.44
340.018	76.44
340.246	92.44
340.474	78.44
340.702	92.44
340.93	85.44
341.158	73.44
341.386	84.44
341.614	85.44
341.842	69.44
342.07	88.44
342.298	66.44
342.526	77.44
342.754	72.44
342.981	71.44
343.209	81.44
343.437	98.44
343.665	70.44
343.893	89.44
344.12	98.44
344.348	71.44
344.576	85.44
344.804	73.44
345.031	78.44
345.259	78.44
345.487	86.44
345.714	96.44
345.942	84.44
346.17	72.44
346.397	97.44
346.625	72.44
346.853	76.44
347.08	89.44
347.308	68.44
347.535	77.44
347.763	76.44
347.99	83.44
348.218	89.44
348.445	86.44
348.673	85.44
348.9	92.44
349.128	88.44
349.355	77.44
349.583	98.44
349.81	95.44
350.037	73.44
350.265	84.44
350.492	91.44
350.72	98.44
350.947	85.44
351.174	80.44
351.402	74.44
351.629	85.44
351.856	83.44
352.083	74.44
352.311	89.44
352.538	88.44
352.765	68.44
352.992	87.44
353.22	91.44
353.447	87.44
353.674	84.44
353.901	74.44
354.128	76.44
354.355	79.44
354.583	86.44
354.81	86.44
355.037	98.44
355.264	91.44
355.491	92.44
355.718	91.44
355.945	84.44
356.172	83.44
356.399	78.44
356.626	96.44
356.853	87.44
357.08	78.44
357.307	81.44
357.534	87.44
357.761	86.44
357.988	80.44
358.215	76.44
358.441	82.44
358.668	83.44
358.895	100.44
359.122	74.44
359.349	76.44
359.576	75.44
359.802	85.44
360.029	62.44
360.256	78.44
360.483	75.44
360.709	79.44
360.936	99.44
361.163	85.44
361.39	90.44
361.616	82.44
361.843	83.44
362.07	75.44
362.296	82.44
362.523	67.44
362.749	89.44
362.976	89.44
363.203	75.44
363.429	79.44
363.656	81.44
363.882	75.44
364.109	87.44
364.335	83.44
364.562	80.44
364.788	78.44
365.015	73.44
365.241	71.44
365.468	81.44
365.694	89.44
365.92	103.44
366.147	89.44
366.373	73.44
366.599	88.44
366.826	82.44
367.052	86.44
367.278	70.44
367.505	70.44
367.731	75.44
367.957	85.44
368.184	80.44
368.41	90.44
368.636	85.44
368.862	100.44
369.089	90.44
369.315	82.44
369.541	78.44
369.767	97.44
369.993	100.44
370.219	100.44
370.445	85.44
370.672	91.44
370.898	95.44
371.124	98.44
371.35	91.44
371.576	89.44
371.802	92.44
372.028	107.44
372.254	81.44
372.48	97.44
372.706	102.44
372.932	107.44
373.158	87.44
373.384	101.44
373.61	95.44
373.835	93.44
374.061	73.44
374.287	92.44
374.513	102.44
374.739	91.44
374.965	87.44
375.191	96.44
375.416	101.44
375.642	88.44
375.868	92.44
376.094	81.44
376.319	96.44
376.545	94.44
376.771	94.44
376.997	82.44
377.222	97.44
377.448	91.44
377.674	91.44
377.899	82.44
378.125	84.44
378.35	85.44
378.576	89.44
378.802	93.44
379.027	100.44
379.253	105.44
379.478	92.44
379.704	96.44
379.929	89.44
380.155	90.44
380.38	97.44
380.606	95.44
380.831	88.44
381.057	93.44
381.282	93.44
381.507	76.44
381.733	103.44
381.958	96.44
382.184	92.44
382.409	98.44
382.634	84.44
382.86	83.44
383.085	103.44
383.31	100.44
383.535	91.44
383.761	96.44
383.986	89.44
384.211	91.44
384.436	101.44
384.662	104.44
384.887	102.44
385.112	97.44
385.337	99.44
385.562	104.44
385.787	89.44
386.013	104.44
386.238	99.44
386.463	103.44
386.688	92.44
386.913	91.44
387.138	101.44
387.363	99.44
387.588	90.44
387.813	100.44
388.038	84.44
388.263	111.44
388.488	102.44
388.713	88.44
388.938	98.44
389.163	91.44
389.387	104.44
389.612	99.44
389.837	97.44
390.062	86.44
390.287	110.44
390.512	107.44
390.736	99.44
390.961	104.44
391.186	102.44
391.411	109.44
391.636	96.44
391.86	100.44
392.085	97.44
392.31	108.44
392.534	97.44
392.759	108.44
392.984	99.44
393.208	104.44
393.433	108.44
393.658	102.44
393.882	104.44
394.107	127.44
394.331	105.44
394.556	93.44
394.78	103.44
395.005	103.44
395.229	109.44
395.454	116.44
395.678	101.44
395.903	110.44
396.127	106.44
396.352	103.44
396.576	104.44
396.801	113.44
397.025	90.44
397.249	112.44
397.474	112.44
397.698	109.44
397.922	100.44
398.147	116.44
398.371	98.44
398.595	115.44
398.82	119.44
399.044	103.44
399.268	97.44
399.492	106.44
399.717	110.44
399.941	107.44
400.165	107.44
400.389	123.44
400.613	112.44
400.837	84.44
401.062	116.44
401.286	100.44
401.51	119.44
401.734	103.44
401.958	105.44
402.182	110.44
402.406	117.44
402.63	107.44
402.854	112.44
403.078	128.44
403.302	113.44
403.526	107.44
403.75	107.44
403.974	127.44
404.198	125.44
404.422	126.44
404.645	105.44
404.869	105.44
405.093	102.44
405.317	121.44
405.541	124.44
405.765	117.44
405.988	118.44
406.212	114.44
406.436	118.44
406.66	116.44
406.883	104.44
407.107	104.44
407.331	113.44
407.555	124.44
407.778	124.44
408.002	112.44
408.226	105.44
408.449	106.44
408.673	117.44
408.896	114.44
409.12	126.44
409.344	121.44
409.567	101.44
409.791	122.44
410.014	116.44
410.238	124.44
410.461	112.44
410.685	125.44
410.908	117.44
411.132	124.44
411.355	125.44
411.578	121.44
411.802	125.44
412.025	121.44
412.249	105.44
412.472	97.44
412.695	130.44
412.919	118.44
413.142	122.44
413.365	118.44
413.589	102.44
413.812	116.44
414.035	133.44
414.258	119.44
414.482	115.44
414.705	127.44
414.928	128.44
415.151	116.44
415.374	107.44
415.597	118.44
415.821	124.44
416.044	122.44
416.267	109.44
416.49	116.44
416.713	126.44
416.936	143.44
417.159	130.44
417.382	123.44
417.605	116.44
417.828	125.44
418.051	119.44
418.274	124.44
418.497	141.44
418.72	121.44
418.943	121.44
419.166	122.44
419.389	131.44
419.611	124.44
419.834	140.44
420.057	130.44
420.28	140.44
420.503	125.44
420.726	118.44
420.948	118.44
421.171	121.44
421.394	127.44
421.617	130.44
421.839	141.44
422.062	130.44
422.285	113.44
422.507	132.44
422.73	118.44
422.953	126.44
423.175	126.44
423.398	130.44
423.621	132.44
423.843	138.44
424.066	132.44
424.288	138.44
424.511	142.44
424.733	128.44
424.956	141.44
425.178	130.44
425.401	150.44
425.623	147.44
425.846	128.44
426.068	122.44
426.291	109.44
426.513	126.44
426.735	136.44
426.958	117.44
427.18	122.44
427.402	132.44
427.625	118.44
427.847	132.44
428.069	114.44
428.292	126.44
428.514	136.44
428.736	110.44
428.958	93.44
429.181	134.44
429.403	123.44
429.625	124.44
429.847	126.44
430.069	122.44
430.292	134.44
430.514	112.44
430.736	129.44
430.958	149.44
431.18	133.44
431.402	132.44
431.624	121.44
431.846	106.44
432.068	102.44
432.29	104.44
432.512	117.44
432.734	126.44
432.956	130.44
433.178	135.44
433.4	131.44
433.622	122.44
433.844	128.44
434.066	123.44
434.287	108.44
434.509	101.44
434.731	92.44
434.953	109.44
435.175	113.44
435.397	126.44
435.618	113.44
435.84	126.44
436.062	97.44
436.284	118.44
436.505	126.44
436.727	105.44
436.949	124.44
437.17	128.44
437.392	124.44
437.614	118.44
437.835	90.44
438.057	97.44
438.278	122.44
438.5	134.44
438.721	137.44
438.943	149.44
439.165	124.44
439.386	132.44
439.608	143.44
439.829	127.44
440.05	145.44
440.272	140.44
440.493	142.44
440.715	133.44
440.936	140.44
441.158	137.44
441.379	121.44
441.6	154.44
441.822	150.44
442.043	135.44
442.264	132.44
442.486	125.44
442.707	144.44
442.928	138.44
443.149	131.44
443.371	128.44
443.592	143.44
443.813	138.44
444.034	141.44
444.255	142.44
444.476	144.44
444.698	136.44
444.919	131.44
445.14	265.44
445.361	184.44
445.582	154.44
445.803	142.44
446.024	142.44
446.245	152.44
446.466	155.44
446.687	148.44
446.908	165.44
447.129	154.44
447.35	148.44
447.571	141.44
447.792	154.44
448.013	141.44
448.234	137.44
448.455	133.44
448.675	142.44
448.896	146.44
449.117	138.44
449.338	139.44
449.559	131.44
449.779	135.44
450	128.44
450.221	120.44
450.442	132.44
450.662	138.44
450.883	154.44
451.104	143.44
451.324	142.44
451.545	134.44
451.766	129.44
451.986	122.44
452.207	132.44
452.428	114.44
452.648	128.44
452.869	119.44
453.089	116.44
453.31	113.44
453.53	94.44
453.751	101.44
453.971	94.44
454.192	106.44
454.412	116.44
454.633	108.44
454.853	114.44
455.073	123.44
455.294	113.44
455.514	129.44
455.734	94.44
455.955	115.44
456.175	120.44
456.395	111.44
456.616	100.44
456.836	101.44
457.056	100.44
457.276	97.44
457.497	106.44
457.717	91.44
457.937	100.44
458.157	109.44
458.377	113.44
458.598	97.44
458.818	85.44
459.038	93.44
459.258	81.44
459.478	100.44
459.698	82.44
459.918	90.44
460.138	110.44
460.358	105.44
460.578	97.44
460.798	106.44
461.018	119.44
461.238	115.44
461.458	124.44
461.678	118.44
461.898	111.44
462.118	117.44
462.338	112.44
462.558	112.44
462.777	106.44
462.997	106.44
463.217	119.44
463.437	102.44
463.657	108.44
463.876	112.44
464.096	114.44
464.316	102.44
464.536	119.44
464.755	116.44
464.975	121.44
465.195	115.44
465.414	112.44
465.634	116.44
465.854	123.44
466.073	127.44
466.293	129.44
466.512	129.44
466.732	125.44
466.951	138.44
467.171	120.44
467.391	120.44
467.61	131.44
467.829	128.44
468.049	121.44
468.268	128.44
468.488	124.44
468.707	140.44
468.927	124.44
469.146	134.44
469.365	131.44
469.585	141.44
469.804	152.44
470.023	122.44
470.243	137.44
470.462	133.44
470.681	134.44
470.901	135.44
471.12	132.44
471.339	138.44
471.558	138.44
471.777	136.44
471.997	123.44
472.216	121.44
472.435	107.44
472.654	101.44
472.873	116.44
473.092	116.44
473.311	116.44
473.53	125.44
473.749	122.44
473.968	127.44
474.187	117.44
474.406	121.44
474.625	130.44
474.844	133.44
475.063	134.44
475.282	130.44
475.501	112.44
475.72	131.44
475.939	102.44
476.158	132.44
476.377	122.44
476.596	124.44
476.814	115.44
477.033	107.44
477.252	112.44
477.471	120.44
477.69	122.44
477.908	138.44
478.127	133.44
478.346	129.44
478.564	132.44
478.783	143.44
479.002	129.44
479.22	132.44
479.439	152.44
479.658	105.44
479.876	113.44
480.095	108.44
480.313	114.44
480.532	101.44
480.751	104.44
480.969	102.44
481.188	97.44
481.406	93.44
481.624	93.44
481.843	88.44
482.061	93.44
482.28	126.44
482.498	113.44
482.717	122.44
482.935	123.44
483.153	132.44
483.372	148.44
483.59	142.44
483.808	138.44
484.027	149.44
484.245	150.44
484.463	139.44
484.681	154.44
484.9	150.44
485.118	132.44
485.336	119.44
485.554	97.44
485.772	94.44
485.99	104.44
486.209	122.44
486.427	111.44
486.645	116.44
486.863	128.44
487.081	130.44
487.299	146.44
487.517	135.44
487.735	142.44
487.953	176.44
488.171	173.44
488.389	164.44
488.607	154.44
488.825	138.44
489.043	130.44
489.261	120.44
489.479	148.44
489.696	144.44
489.914	133.44
490.132	141.44
490.35	148.44
490.568	146.44
490.786	161.44
491.003	178.44
491.221	171.44
491.439	176.44
491.657	206.44
491.874	205.44
492.092	235.44
492.31	236.44
492.527	231.44
492.745	196.44
492.963	202.44
493.18	185.44
493.398	179.44
493.615	176.44
493.833	187.44
494.05	163.44
494.268	163.44
494.485	174.44
494.703	149.44
494.92	140.44
495.138	165.44
495.355	152.44
495.573	176.44
495.79	160.44
496.008	177.44
496.225	152.44
496.442	174.44
496.66	172.44
496.877	161.44
497.094	158.44
497.312	154.44
497.529	157.44
497.746	163.44
497.963	131.44
498.181	125.44
498.398	126.44
498.615	113.44
498.832	122.44
499.049	127.44
499.267	107.44
499.484	130.44
499.701	132.44
499.918	124.44
500.135	136.44
500.352	134.44
500.569	157.44
500.786	131.44
501.003	128.44
501.22	133.44
501.437	134.44
501.654	117.44
501.871	132.44
502.088	132.44
502.305	132.44
502.522	129.44
502.739	123.44
502.956	114.44
503.172	119.44
503.389	128.44
503.606	128.44
503.823	117.44
504.04	120.44
504.256	101.44
504.473	112.44
504.69	117.44
504.907	120.44
505.123	126.44
505.34	115.44
505.557	127.44
505.773	120.44
505.99	109.44
506.207	119.44
506.423	117.44
506.64	120.44
506.856	110.44
507.073	125.44
507.289	114.44
507.506	119.44
507.722	104.44
507.939	111.44
508.155	112.44
508.372	106.44
508.588	111.44
508.805	109.44
509.021	103.44
509.238	104.44
509.454	114.44
509.67	107.44
509.887	93.44
510.103	91.44
510.319	107.44
510.536	94.44
510.752	86.44
510.968	83.44
511.184	67.44
511.401	81.44
511.617	90.44
511.833	83.44
