Data from Location1.07152019.Energy5.Lamp.07192019.3%Agarose_HRD10591_14-33-12-016.txt Node
Date: Fri Jul 19 14:33:12 EDT 2019
User: cochatt
Spectrometer: HR+D1059
Trigger mode: 1
Integration Time (sec): 1.000000E-1
Scans to average: 1
Electric dark correction enabled: true
Nonlinearity correction enabled: false
Boxcar width: 0
XAxis mode: Wavelengths
Number of Pixels in Spectrum: 2048
>>>>>Begin Spectral Data<<<<<
223.165	-5.88
223.4	-5.88
223.635	-5.88
223.869	-22.88
224.104	-29.88
224.338	-5.88
224.573	-12.88
224.808	-14.88
225.042	-13.88
225.277	-9.88
225.511	-8.88
225.746	-0.88
225.98	5.12
226.215	15.12
226.449	18.12
226.683	28.12
226.918	16.12
227.152	43.12
227.387	32.12
227.621	23.12
227.856	59.12
228.09	44.12
228.324	52.12
228.559	47.12
228.793	67.12
229.027	65.12
229.262	59.12
229.496	61.12
229.73	84.12
229.964	53.12
230.199	68.12
230.433	72.12
230.667	87.12
230.901	77.12
231.136	74.12
231.37	92.12
231.604	82.12
231.838	89.12
232.072	80.12
232.306	83.12
232.541	87.12
232.775	86.12
233.009	81.12
233.243	78.12
233.477	65.12
233.711	81.12
233.945	74.12
234.179	78.12
234.413	87.12
234.647	87.12
234.881	75.12
235.115	83.12
235.349	81.12
235.583	78.12
235.817	81.12
236.051	73.12
236.285	87.12
236.519	85.12
236.753	89.12
236.987	85.12
237.221	75.12
237.455	76.12
237.689	90.12
237.922	76.12
238.156	78.12
238.39	69.12
238.624	74.12
238.858	79.12
239.091	60.12
239.325	79.12
239.559	85.12
239.793	87.12
240.027	84.12
240.26	82.12
240.494	85.12
240.728	74.12
240.961	79.12
241.195	95.12
241.429	83.12
241.662	69.12
241.896	68.12
242.13	67.12
242.363	77.12
242.597	82.12
242.83	85.12
243.064	77.12
243.298	75.12
243.531	91.12
243.765	76.12
243.998	81.12
244.232	70.12
244.465	77.12
244.699	75.12
244.932	69.12
245.166	87.12
245.399	79.12
245.633	77.12
245.866	78.12
246.099	64.12
246.333	68.12
246.566	75.12
246.8	89.12
247.033	62.12
247.266	70.12
247.5	82.12
247.733	84.12
247.966	87.12
248.2	76.12
248.433	87.12
248.666	61.12
248.899	74.12
249.133	88.12
249.366	98.12
249.599	87.12
249.832	83.12
250.066	79.12
250.299	76.12
250.532	64.12
250.765	86.12
250.998	61.12
251.231	76.12
251.465	67.12
251.698	82.12
251.931	65.12
252.164	72.12
252.397	71.12
252.63	70.12
252.863	92.12
253.096	87.12
253.329	69.12
253.562	63.12
253.795	87.12
254.028	91.12
254.261	95.12
254.494	76.12
254.727	97.12
254.96	87.12
255.193	89.12
255.426	72.12
255.659	81.12
255.892	86.12
256.124	75.12
256.357	86.12
256.59	87.12
256.823	74.12
257.056	81.12
257.289	68.12
257.521	89.12
257.754	82.12
257.987	82.12
258.22	89.12
258.452	79.12
258.685	71.12
258.918	79.12
259.151	89.12
259.383	102.12
259.616	69.12
259.849	84.12
260.081	84.12
260.314	93.12
260.547	80.12
260.779	95.12
261.012	94.12
261.244	59.12
261.477	88.12
261.71	82.12
261.942	75.12
262.175	76.12
262.407	73.12
262.64	80.12
262.872	89.12
263.105	94.12
263.337	90.12
263.57	80.12
263.802	79.12
264.035	83.12
264.267	74.12
264.499	74.12
264.732	87.12
264.964	78.12
265.197	102.12
265.429	82.12
265.661	77.12
265.894	69.12
266.126	92.12
266.358	70.12
266.591	87.12
266.823	82.12
267.055	84.12
267.287	85.12
267.52	83.12
267.752	77.12
267.984	78.12
268.216	81.12
268.448	79.12
268.681	96.12
268.913	84.12
269.145	78.12
269.377	82.12
269.609	73.12
269.841	75.12
270.073	91.12
270.306	93.12
270.538	75.12
270.77	93.12
271.002	75.12
271.234	81.12
271.466	76.12
271.698	90.12
271.93	82.12
272.162	89.12
272.394	83.12
272.626	78.12
272.858	95.12
273.09	79.12
273.322	75.12
273.553	82.12
273.785	80.12
274.017	74.12
274.249	79.12
274.481	93.12
274.713	74.12
274.945	79.12
275.176	82.12
275.408	91.12
275.64	94.12
275.872	90.12
276.104	88.12
276.335	81.12
276.567	82.12
276.799	80.12
277.031	78.12
277.262	78.12
277.494	85.12
277.726	94.12
277.957	86.12
278.189	86.12
278.421	88.12
278.652	82.12
278.884	92.12
279.115	78.12
279.347	72.12
279.579	75.12
279.81	91.12
280.042	83.12
280.273	66.12
280.505	71.12
280.736	85.12
280.968	92.12
281.199	81.12
281.431	94.12
281.662	76.12
281.894	77.12
282.125	94.12
282.356	90.12
282.588	98.12
282.819	89.12
283.051	70.12
283.282	79.12
283.513	88.12
283.745	88.12
283.976	89.12
284.207	85.12
284.439	84.12
284.67	92.12
284.901	82.12
285.132	88.12
285.364	76.12
285.595	82.12
285.826	82.12
286.057	77.12
286.288	74.12
286.52	82.12
286.751	89.12
286.982	74.12
287.213	94.12
287.444	82.12
287.675	79.12
287.906	81.12
288.138	91.12
288.369	71.12
288.6	85.12
288.831	92.12
289.062	71.12
289.293	83.12
289.524	75.12
289.755	89.12
289.986	83.12
290.217	86.12
290.448	87.12
290.679	86.12
290.91	75.12
291.141	84.12
291.371	89.12
291.602	72.12
291.833	94.12
292.064	92.12
292.295	64.12
292.526	88.12
292.757	82.12
292.987	86.12
293.218	86.12
293.449	79.12
293.68	89.12
293.91	87.12
294.141	73.12
294.372	87.12
294.603	86.12
294.833	77.12
295.064	76.12
295.295	97.12
295.525	83.12
295.756	98.12
295.987	81.12
296.217	82.12
296.448	78.12
296.679	81.12
296.909	88.12
297.14	72.12
297.37	87.12
297.601	83.12
297.831	72.12
298.062	85.12
298.292	80.12
298.523	84.12
298.753	85.12
298.984	61.12
299.214	89.12
299.445	78.12
299.675	90.12
299.905	75.12
300.136	78.12
300.366	83.12
300.597	83.12
300.827	74.12
301.057	83.12
301.288	78.12
301.518	71.12
301.748	70.12
301.979	84.12
302.209	84.12
302.439	86.12
302.669	84.12
302.9	92.12
303.13	75.12
303.36	83.12
303.59	85.12
303.82	91.12
304.051	81.12
304.281	85.12
304.511	100.12
304.741	89.12
304.971	83.12
305.201	86.12
305.431	90.12
305.661	91.12
305.891	79.12
306.121	93.12
306.352	90.12
306.582	65.12
306.812	89.12
307.042	82.12
307.272	79.12
307.502	87.12
307.731	90.12
307.961	83.12
308.191	71.12
308.421	86.12
308.651	79.12
308.881	88.12
309.111	83.12
309.341	90.12
309.571	75.12
309.8	74.12
310.03	75.12
310.26	76.12
310.49	100.12
310.72	86.12
310.949	83.12
311.179	73.12
311.409	81.12
311.639	82.12
311.868	103.12
312.098	86.12
312.328	79.12
312.557	101.12
312.787	88.12
313.017	76.12
313.246	77.12
313.476	88.12
313.706	102.12
313.935	77.12
314.165	78.12
314.394	96.12
314.624	97.12
314.853	61.12
315.083	80.12
315.312	99.12
315.542	74.12
315.771	85.12
316.001	83.12
316.23	86.12
316.46	88.12
316.689	98.12
316.919	90.12
317.148	104.12
317.377	74.12
317.607	87.12
317.836	86.12
318.065	89.12
318.295	79.12
318.524	77.12
318.753	78.12
318.983	91.12
319.212	89.12
319.441	83.12
319.67	80.12
319.9	92.12
320.129	75.12
320.358	76.12
320.587	84.12
320.816	101.12
321.046	89.12
321.275	85.12
321.504	82.12
321.733	75.12
321.962	97.12
322.191	75.12
322.42	91.12
322.649	89.12
322.878	95.12
323.108	83.12
323.337	93.12
323.566	87.12
323.795	79.12
324.024	89.12
324.253	75.12
324.482	93.12
324.71	72.12
324.939	85.12
325.168	83.12
325.397	79.12
325.626	81.12
325.855	83.12
326.084	89.12
326.313	98.12
326.542	86.12
326.77	83.12
326.999	88.12
327.228	98.12
327.457	92.12
327.686	88.12
327.914	75.12
328.143	93.12
328.372	74.12
328.6	65.12
328.829	85.12
329.058	76.12
329.287	80.12
329.515	90.12
329.744	85.12
329.972	75.12
330.201	77.12
330.43	82.12
330.658	87.12
330.887	85.12
331.115	69.12
331.344	92.12
331.572	69.12
331.801	78.12
332.03	91.12
332.258	85.12
332.486	88.12
332.715	92.12
332.943	79.12
333.172	90.12
333.4	84.12
333.629	82.12
333.857	82.12
334.085	72.12
334.314	79.12
334.542	80.12
334.771	87.12
334.999	76.12
335.227	73.12
335.455	91.12
335.684	84.12
335.912	83.12
336.14	86.12
336.369	74.12
336.597	84.12
336.825	74.12
337.053	73.12
337.281	86.12
337.51	70.12
337.738	77.12
337.966	102.12
338.194	78.12
338.422	76.12
338.65	87.12
338.878	89.12
339.106	99.12
339.334	94.12
339.562	87.12
339.79	71.12
340.018	82.12
340.246	82.12
340.474	80.12
340.702	82.12
340.93	84.12
341.158	71.12
341.386	89.12
341.614	80.12
341.842	76.12
342.07	78.12
342.298	89.12
342.526	78.12
342.754	79.12
342.981	95.12
343.209	79.12
343.437	87.12
343.665	86.12
343.893	86.12
344.12	94.12
344.348	78.12
344.576	87.12
344.804	82.12
345.031	86.12
345.259	96.12
345.487	88.12
345.714	84.12
345.942	94.12
346.17	85.12
346.397	89.12
346.625	82.12
346.853	74.12
347.08	80.12
347.308	78.12
347.535	81.12
347.763	75.12
347.99	93.12
348.218	100.12
348.445	87.12
348.673	79.12
348.9	99.12
349.128	89.12
349.355	82.12
349.583	76.12
349.81	83.12
350.037	87.12
350.265	79.12
350.492	83.12
350.72	96.12
350.947	89.12
351.174	81.12
351.402	80.12
351.629	86.12
351.856	82.12
352.083	68.12
352.311	98.12
352.538	88.12
352.765	85.12
352.992	86.12
353.22	86.12
353.447	70.12
353.674	95.12
353.901	93.12
354.128	79.12
354.355	65.12
354.583	85.12
354.81	88.12
355.037	89.12
355.264	74.12
355.491	106.12
355.718	93.12
355.945	84.12
356.172	84.12
356.399	89.12
356.626	63.12
356.853	80.12
357.08	91.12
357.307	73.12
357.534	86.12
357.761	79.12
357.988	86.12
358.215	103.12
358.441	86.12
358.668	82.12
358.895	78.12
359.122	81.12
359.349	84.12
359.576	88.12
359.802	103.12
360.029	75.12
360.256	107.12
360.483	81.12
360.709	77.12
360.936	81.12
361.163	75.12
361.39	97.12
361.616	83.12
361.843	71.12
362.07	89.12
362.296	90.12
362.523	67.12
362.749	84.12
362.976	90.12
363.203	103.12
363.429	81.12
363.656	76.12
363.882	79.12
364.109	82.12
364.335	88.12
364.562	87.12
364.788	73.12
365.015	86.12
365.241	93.12
365.468	90.12
365.694	93.12
365.92	85.12
366.147	86.12
366.373	82.12
366.599	85.12
366.826	78.12
367.052	87.12
367.278	97.12
367.505	77.12
367.731	94.12
367.957	100.12
368.184	85.12
368.41	89.12
368.636	87.12
368.862	100.12
369.089	91.12
369.315	85.12
369.541	90.12
369.767	96.12
369.993	93.12
370.219	83.12
370.445	97.12
370.672	83.12
370.898	84.12
371.124	85.12
371.35	94.12
371.576	86.12
371.802	99.12
372.028	92.12
372.254	94.12
372.48	90.12
372.706	99.12
372.932	102.12
373.158	92.12
373.384	90.12
373.61	89.12
373.835	89.12
374.061	101.12
374.287	74.12
374.513	105.12
374.739	84.12
374.965	86.12
375.191	85.12
375.416	93.12
375.642	78.12
375.868	89.12
376.094	88.12
376.319	95.12
376.545	113.12
376.771	85.12
376.997	83.12
377.222	95.12
377.448	93.12
377.674	96.12
377.899	99.12
378.125	90.12
378.35	88.12
378.576	97.12
378.802	94.12
379.027	86.12
379.253	98.12
379.478	93.12
379.704	105.12
379.929	95.12
380.155	87.12
380.38	102.12
380.606	75.12
380.831	109.12
381.057	110.12
381.282	87.12
381.507	93.12
381.733	89.12
381.958	93.12
382.184	102.12
382.409	93.12
382.634	92.12
382.86	97.12
383.085	98.12
383.31	94.12
383.535	83.12
383.761	106.12
383.986	92.12
384.211	105.12
384.436	90.12
384.662	97.12
384.887	85.12
385.112	89.12
385.337	92.12
385.562	95.12
385.787	91.12
386.013	98.12
386.238	96.12
386.463	104.12
386.688	97.12
386.913	121.12
387.138	99.12
387.363	101.12
387.588	85.12
387.813	102.12
388.038	103.12
388.263	86.12
388.488	95.12
388.713	92.12
388.938	109.12
389.163	97.12
389.387	94.12
389.612	104.12
389.837	85.12
390.062	90.12
390.287	86.12
390.512	116.12
390.736	93.12
390.961	107.12
391.186	109.12
391.411	86.12
391.636	109.12
391.86	107.12
392.085	99.12
392.31	105.12
392.534	99.12
392.759	111.12
392.984	106.12
393.208	113.12
393.433	105.12
393.658	104.12
393.882	106.12
394.107	116.12
394.331	97.12
394.556	100.12
394.78	107.12
395.005	109.12
395.229	98.12
395.454	102.12
395.678	111.12
395.903	89.12
396.127	108.12
396.352	105.12
396.576	106.12
396.801	114.12
397.025	112.12
397.249	99.12
397.474	100.12
397.698	104.12
397.922	107.12
398.147	100.12
398.371	113.12
398.595	111.12
398.82	111.12
399.044	104.12
399.268	114.12
399.492	117.12
399.717	102.12
399.941	109.12
400.165	100.12
400.389	95.12
400.613	95.12
400.837	117.12
401.062	123.12
401.286	127.12
401.51	120.12
401.734	125.12
401.958	102.12
402.182	112.12
402.406	118.12
402.63	118.12
402.854	102.12
403.078	101.12
403.302	121.12
403.526	113.12
403.75	109.12
403.974	121.12
404.198	110.12
404.422	104.12
404.645	104.12
404.869	127.12
405.093	124.12
405.317	122.12
405.541	106.12
405.765	122.12
405.988	116.12
406.212	117.12
406.436	116.12
406.66	123.12
406.883	105.12
407.107	105.12
407.331	93.12
407.555	103.12
407.778	120.12
408.002	123.12
408.226	123.12
408.449	118.12
408.673	124.12
408.896	115.12
409.12	118.12
409.344	126.12
409.567	120.12
409.791	123.12
410.014	108.12
410.238	109.12
410.461	114.12
410.685	110.12
410.908	108.12
411.132	121.12
411.355	123.12
411.578	118.12
411.802	103.12
412.025	135.12
412.249	117.12
412.472	124.12
412.695	120.12
412.919	106.12
413.142	129.12
413.365	119.12
413.589	129.12
413.812	110.12
414.035	110.12
414.258	117.12
414.482	105.12
414.705	113.12
414.928	131.12
415.151	125.12
415.374	126.12
415.597	116.12
415.821	118.12
416.044	110.12
416.267	125.12
416.49	115.12
416.713	126.12
416.936	120.12
417.159	126.12
417.382	116.12
417.605	115.12
417.828	142.12
418.051	126.12
418.274	117.12
418.497	139.12
418.72	119.12
418.943	116.12
419.166	132.12
419.389	135.12
419.611	116.12
419.834	117.12
420.057	117.12
420.28	127.12
420.503	131.12
420.726	118.12
420.948	122.12
421.171	117.12
421.394	144.12
421.617	153.12
421.839	137.12
422.062	127.12
422.285	121.12
422.507	129.12
422.73	137.12
422.953	122.12
423.175	115.12
423.398	119.12
423.621	125.12
423.843	121.12
424.066	133.12
424.288	127.12
424.511	153.12
424.733	134.12
424.956	125.12
425.178	126.12
425.401	133.12
425.623	144.12
425.846	134.12
426.068	128.12
426.291	119.12
426.513	131.12
426.735	126.12
426.958	136.12
427.18	124.12
427.402	129.12
427.625	130.12
427.847	134.12
428.069	128.12
428.292	122.12
428.514	126.12
428.736	124.12
428.958	136.12
429.181	121.12
429.403	109.12
429.625	125.12
429.847	131.12
430.069	125.12
430.292	135.12
430.514	119.12
430.736	123.12
430.958	122.12
431.18	109.12
431.402	117.12
431.624	111.12
431.846	108.12
432.068	85.12
432.29	99.12
432.512	112.12
432.734	137.12
432.956	122.12
433.178	127.12
433.4	141.12
433.622	156.12
433.844	129.12
434.066	118.12
434.287	115.12
434.509	108.12
434.731	99.12
434.953	121.12
435.175	105.12
435.397	119.12
435.618	104.12
435.84	111.12
436.062	131.12
436.284	131.12
436.505	137.12
436.727	120.12
436.949	127.12
437.17	119.12
437.392	124.12
437.614	115.12
437.835	105.12
438.057	110.12
438.278	121.12
438.5	116.12
438.721	134.12
438.943	134.12
439.165	138.12
439.386	140.12
439.608	135.12
439.829	139.12
440.05	154.12
440.272	137.12
440.493	137.12
440.715	135.12
440.936	148.12
441.158	145.12
441.379	148.12
441.6	151.12
441.822	153.12
442.043	150.12
442.264	141.12
442.486	137.12
442.707	143.12
442.928	135.12
443.149	138.12
443.371	120.12
443.592	146.12
443.813	139.12
444.034	130.12
444.255	144.12
444.476	142.12
444.698	144.12
444.919	148.12
445.14	236.12
445.361	199.12
445.582	152.12
445.803	140.12
446.024	145.12
446.245	138.12
446.466	149.12
446.687	143.12
446.908	160.12
447.129	155.12
447.35	145.12
447.571	163.12
447.792	131.12
448.013	129.12
448.234	137.12
448.455	143.12
448.675	147.12
448.896	140.12
449.117	125.12
449.338	137.12
449.559	143.12
449.779	145.12
450	135.12
450.221	135.12
450.442	135.12
450.662	127.12
450.883	141.12
451.104	140.12
451.324	108.12
451.545	133.12
451.766	131.12
451.986	134.12
452.207	121.12
452.428	127.12
452.648	131.12
452.869	118.12
453.089	114.12
453.31	126.12
453.53	108.12
453.751	117.12
453.971	101.12
454.192	107.12
454.412	108.12
454.633	115.12
454.853	132.12
455.073	123.12
455.294	121.12
455.514	133.12
455.734	107.12
455.955	115.12
456.175	115.12
456.395	99.12
456.616	108.12
456.836	99.12
457.056	98.12
457.276	116.12
457.497	115.12
457.717	110.12
457.937	107.12
458.157	114.12
458.377	110.12
458.598	96.12
458.818	98.12
459.038	82.12
459.258	76.12
459.478	79.12
459.698	97.12
459.918	86.12
460.138	98.12
460.358	122.12
460.578	113.12
460.798	122.12
461.018	116.12
461.238	103.12
461.458	127.12
461.678	127.12
461.898	99.12
462.118	116.12
462.338	113.12
462.558	115.12
462.777	115.12
462.997	111.12
463.217	106.12
463.437	119.12
463.657	104.12
463.876	111.12
464.096	89.12
464.316	101.12
464.536	109.12
464.755	102.12
464.975	133.12
465.195	114.12
465.414	127.12
465.634	110.12
465.854	127.12
466.073	127.12
466.293	132.12
466.512	126.12
466.732	128.12
466.951	133.12
467.171	133.12
467.391	127.12
467.61	124.12
467.829	124.12
468.049	143.12
468.268	145.12
468.488	143.12
468.707	129.12
468.927	129.12
469.146	129.12
469.365	136.12
469.585	131.12
469.804	129.12
470.023	143.12
470.243	157.12
470.462	159.12
470.681	134.12
470.901	151.12
471.12	149.12
471.339	141.12
471.558	142.12
471.777	135.12
471.997	136.12
472.216	129.12
472.435	119.12
472.654	110.12
472.873	119.12
473.092	97.12
473.311	120.12
473.53	124.12
473.749	124.12
473.968	130.12
474.187	129.12
474.406	120.12
474.625	114.12
474.844	125.12
475.063	125.12
475.282	118.12
475.501	125.12
475.72	123.12
475.939	117.12
476.158	133.12
476.377	134.12
476.596	114.12
476.814	117.12
477.033	109.12
477.252	121.12
477.471	125.12
477.69	129.12
477.908	135.12
478.127	133.12
478.346	130.12
478.564	133.12
478.783	136.12
479.002	142.12
479.22	146.12
479.439	126.12
479.658	124.12
479.876	116.12
480.095	114.12
480.313	113.12
480.532	117.12
480.751	116.12
480.969	104.12
481.188	81.12
481.406	80.12
481.624	107.12
481.843	83.12
482.061	84.12
482.28	100.12
482.498	121.12
482.717	107.12
482.935	108.12
483.153	134.12
483.372	146.12
483.59	142.12
483.808	123.12
484.027	149.12
484.245	133.12
484.463	137.12
484.681	161.12
484.9	134.12
485.118	135.12
485.336	124.12
485.554	106.12
485.772	101.12
485.99	109.12
486.209	98.12
486.427	108.12
486.645	135.12
486.863	135.12
487.081	139.12
487.299	126.12
487.517	132.12
487.735	157.12
487.953	173.12
488.171	175.12
488.389	165.12
488.607	153.12
488.825	145.12
489.043	134.12
489.261	127.12
489.479	135.12
489.696	153.12
489.914	139.12
490.132	133.12
490.35	139.12
490.568	142.12
490.786	167.12
491.003	165.12
491.221	184.12
491.439	168.12
491.657	191.12
491.874	211.12
492.092	197.12
492.31	239.12
492.527	227.12
492.745	220.12
492.963	199.12
493.18	189.12
493.398	181.12
493.615	181.12
493.833	170.12
494.05	173.12
494.268	186.12
494.485	158.12
494.703	185.12
494.92	181.12
495.138	177.12
495.355	183.12
495.573	172.12
495.79	159.12
496.008	174.12
496.225	171.12
496.442	164.12
496.66	167.12
496.877	151.12
497.094	156.12
497.312	160.12
497.529	154.12
497.746	149.12
497.963	132.12
498.181	130.12
498.398	130.12
498.615	136.12
498.832	119.12
499.049	112.12
499.267	126.12
499.484	123.12
499.701	125.12
499.918	122.12
500.135	153.12
500.352	143.12
500.569	141.12
500.786	130.12
501.003	141.12
501.22	126.12
501.437	137.12
501.654	136.12
501.871	125.12
502.088	125.12
502.305	143.12
502.522	121.12
502.739	138.12
502.956	133.12
503.172	118.12
503.389	124.12
503.606	127.12
503.823	124.12
504.04	113.12
504.256	129.12
504.473	115.12
504.69	118.12
504.907	124.12
505.123	111.12
505.34	114.12
505.557	107.12
505.773	128.12
505.99	115.12
506.207	107.12
506.423	86.12
506.64	135.12
506.856	119.12
507.073	117.12
507.289	121.12
507.506	131.12
507.722	123.12
507.939	113.12
508.155	111.12
508.372	117.12
508.588	115.12
508.805	113.12
509.021	106.12
509.238	113.12
509.454	115.12
509.67	98.12
509.887	109.12
510.103	98.12
510.319	89.12
510.536	86.12
510.752	88.12
510.968	77.12
511.184	81.12
511.401	91.12
511.617	84.12
