Data from Location1.07152019.Energy5.Lamp.07192019.3%Agarose_HRD10591_14-30-36-018.txt Node
Date: Fri Jul 19 14:30:36 EDT 2019
User: cochatt
Spectrometer: HR+D1059
Trigger mode: 1
Integration Time (sec): 1.000000E-1
Scans to average: 1
Electric dark correction enabled: true
Nonlinearity correction enabled: false
Boxcar width: 0
XAxis mode: Wavelengths
Number of Pixels in Spectrum: 2048
>>>>>Begin Spectral Data<<<<<
223.165	-9.19
223.4	-9.19
223.635	-9.19
223.869	-21.19
224.104	-26.19
224.338	0.81
224.573	-7.19
224.808	-19.19
225.042	-5.19
225.277	2.81
225.511	6.81
225.746	-2.19
225.98	-0.19
226.215	6.81
226.449	16.81
226.683	11.81
226.918	22.81
227.152	21.81
227.387	40.81
227.621	43.81
227.856	59.81
228.09	38.81
228.324	50.81
228.559	67.81
228.793	60.81
229.027	69.81
229.262	73.81
229.496	67.81
229.73	71.81
229.964	77.81
230.199	71.81
230.433	78.81
230.667	71.81
230.901	75.81
231.136	82.81
231.37	75.81
231.604	68.81
231.838	81.81
232.072	89.81
232.306	83.81
232.541	75.81
232.775	81.81
233.009	79.81
233.243	84.81
233.477	82.81
233.711	80.81
233.945	63.81
234.179	99.81
234.413	85.81
234.647	77.81
234.881	78.81
235.115	93.81
235.349	90.81
235.583	72.81
235.817	79.81
236.051	80.81
236.285	69.81
236.519	74.81
236.753	87.81
236.987	78.81
237.221	92.81
237.455	80.81
237.689	81.81
237.922	75.81
238.156	85.81
238.39	76.81
238.624	80.81
238.858	73.81
239.091	74.81
239.325	68.81
239.559	74.81
239.793	72.81
240.027	85.81
240.26	84.81
240.494	83.81
240.728	56.81
240.961	83.81
241.195	78.81
241.429	68.81
241.662	77.81
241.896	76.81
242.13	81.81
242.363	76.81
242.597	75.81
242.83	78.81
243.064	75.81
243.298	76.81
243.531	85.81
243.765	78.81
243.998	73.81
244.232	75.81
244.465	79.81
244.699	72.81
244.932	77.81
245.166	76.81
245.399	80.81
245.633	83.81
245.866	70.81
246.099	73.81
246.333	78.81
246.566	79.81
246.8	77.81
247.033	71.81
247.266	83.81
247.5	68.81
247.733	83.81
247.966	92.81
248.2	76.81
248.433	77.81
248.666	79.81
248.899	70.81
249.133	72.81
249.366	75.81
249.599	88.81
249.832	81.81
250.066	82.81
250.299	86.81
250.532	78.81
250.765	69.81
250.998	86.81
251.231	83.81
251.465	87.81
251.698	85.81
251.931	64.81
252.164	68.81
252.397	75.81
252.63	77.81
252.863	82.81
253.096	80.81
253.329	81.81
253.562	81.81
253.795	88.81
254.028	78.81
254.261	73.81
254.494	85.81
254.727	93.81
254.96	63.81
255.193	81.81
255.426	82.81
255.659	77.81
255.892	81.81
256.124	82.81
256.357	85.81
256.59	86.81
256.823	69.81
257.056	78.81
257.289	86.81
257.521	85.81
257.754	80.81
257.987	78.81
258.22	84.81
258.452	82.81
258.685	95.81
258.918	74.81
259.151	62.81
259.383	88.81
259.616	72.81
259.849	72.81
260.081	93.81
260.314	84.81
260.547	77.81
260.779	83.81
261.012	80.81
261.244	77.81
261.477	87.81
261.71	62.81
261.942	83.81
262.175	95.81
262.407	84.81
262.64	70.81
262.872	78.81
263.105	76.81
263.337	89.81
263.57	75.81
263.802	77.81
264.035	90.81
264.267	100.81
264.499	77.81
264.732	89.81
264.964	84.81
265.197	68.81
265.429	85.81
265.661	63.81
265.894	87.81
266.126	96.81
266.358	84.81
266.591	79.81
266.823	70.81
267.055	83.81
267.287	77.81
267.52	93.81
267.752	76.81
267.984	89.81
268.216	80.81
268.448	93.81
268.681	90.81
268.913	72.81
269.145	89.81
269.377	101.81
269.609	72.81
269.841	79.81
270.073	86.81
270.306	86.81
270.538	84.81
270.77	93.81
271.002	72.81
271.234	90.81
271.466	88.81
271.698	85.81
271.93	87.81
272.162	79.81
272.394	104.81
272.626	89.81
272.858	82.81
273.09	71.81
273.322	74.81
273.553	80.81
273.785	79.81
274.017	78.81
274.249	83.81
274.481	73.81
274.713	97.81
274.945	76.81
275.176	89.81
275.408	83.81
275.64	76.81
275.872	87.81
276.104	76.81
276.335	80.81
276.567	76.81
276.799	81.81
277.031	79.81
277.262	75.81
277.494	92.81
277.726	80.81
277.957	91.81
278.189	94.81
278.421	92.81
278.652	82.81
278.884	77.81
279.115	78.81
279.347	99.81
279.579	81.81
279.81	78.81
280.042	79.81
280.273	80.81
280.505	80.81
280.736	91.81
280.968	86.81
281.199	90.81
281.431	87.81
281.662	90.81
281.894	86.81
282.125	87.81
282.356	75.81
282.588	88.81
282.819	82.81
283.051	96.81
283.282	76.81
283.513	82.81
283.745	90.81
283.976	87.81
284.207	91.81
284.439	87.81
284.67	58.81
284.901	71.81
285.132	94.81
285.364	83.81
285.595	91.81
285.826	77.81
286.057	95.81
286.288	75.81
286.52	78.81
286.751	85.81
286.982	90.81
287.213	79.81
287.444	74.81
287.675	91.81
287.906	75.81
288.138	88.81
288.369	78.81
288.6	77.81
288.831	81.81
289.062	81.81
289.293	82.81
289.524	82.81
289.755	60.81
289.986	93.81
290.217	82.81
290.448	76.81
290.679	84.81
290.91	86.81
291.141	83.81
291.371	84.81
291.602	71.81
291.833	87.81
292.064	76.81
292.295	92.81
292.526	82.81
292.757	88.81
292.987	89.81
293.218	94.81
293.449	86.81
293.68	87.81
293.91	79.81
294.141	82.81
294.372	92.81
294.603	92.81
294.833	92.81
295.064	88.81
295.295	84.81
295.525	87.81
295.756	75.81
295.987	83.81
296.217	71.81
296.448	79.81
296.679	86.81
296.909	86.81
297.14	75.81
297.37	89.81
297.601	66.81
297.831	82.81
298.062	78.81
298.292	74.81
298.523	83.81
298.753	69.81
298.984	83.81
299.214	72.81
299.445	82.81
299.675	93.81
299.905	95.81
300.136	90.81
300.366	75.81
300.597	94.81
300.827	79.81
301.057	75.81
301.288	95.81
301.518	68.81
301.748	78.81
301.979	78.81
302.209	89.81
302.439	78.81
302.669	88.81
302.9	82.81
303.13	87.81
303.36	94.81
303.59	79.81
303.82	95.81
304.051	79.81
304.281	80.81
304.511	85.81
304.741	80.81
304.971	79.81
305.201	75.81
305.431	77.81
305.661	77.81
305.891	92.81
306.121	99.81
306.352	76.81
306.582	92.81
306.812	86.81
307.042	84.81
307.272	84.81
307.502	85.81
307.731	73.81
307.961	86.81
308.191	94.81
308.421	84.81
308.651	86.81
308.881	88.81
309.111	88.81
309.341	74.81
309.571	82.81
309.8	85.81
310.03	71.81
310.26	88.81
310.49	80.81
310.72	90.81
310.949	93.81
311.179	90.81
311.409	77.81
311.639	89.81
311.868	71.81
312.098	84.81
312.328	78.81
312.557	76.81
312.787	80.81
313.017	83.81
313.246	87.81
313.476	72.81
313.706	77.81
313.935	94.81
314.165	104.81
314.394	77.81
314.624	80.81
314.853	93.81
315.083	82.81
315.312	87.81
315.542	79.81
315.771	103.81
316.001	92.81
316.23	85.81
316.46	85.81
316.689	80.81
316.919	102.81
317.148	83.81
317.377	100.81
317.607	88.81
317.836	80.81
318.065	92.81
318.295	96.81
318.524	95.81
318.753	82.81
318.983	89.81
319.212	82.81
319.441	91.81
319.67	84.81
319.9	84.81
320.129	70.81
320.358	83.81
320.587	87.81
320.816	79.81
321.046	86.81
321.275	78.81
321.504	84.81
321.733	93.81
321.962	96.81
322.191	90.81
322.42	80.81
322.649	77.81
322.878	88.81
323.108	92.81
323.337	88.81
323.566	84.81
323.795	89.81
324.024	98.81
324.253	74.81
324.482	93.81
324.71	78.81
324.939	93.81
325.168	76.81
325.397	88.81
325.626	78.81
325.855	80.81
326.084	81.81
326.313	86.81
326.542	75.81
326.77	71.81
326.999	93.81
327.228	85.81
327.457	97.81
327.686	81.81
327.914	96.81
328.143	94.81
328.372	86.81
328.6	70.81
328.829	76.81
329.058	86.81
329.287	81.81
329.515	83.81
329.744	94.81
329.972	86.81
330.201	83.81
330.43	75.81
330.658	84.81
330.887	71.81
331.115	97.81
331.344	77.81
331.572	91.81
331.801	79.81
332.03	79.81
332.258	73.81
332.486	88.81
332.715	85.81
332.943	87.81
333.172	89.81
333.4	99.81
333.629	95.81
333.857	82.81
334.085	80.81
334.314	88.81
334.542	87.81
334.771	74.81
334.999	86.81
335.227	78.81
335.455	88.81
335.684	96.81
335.912	75.81
336.14	91.81
336.369	76.81
336.597	76.81
336.825	78.81
337.053	74.81
337.281	94.81
337.51	88.81
337.738	88.81
337.966	102.81
338.194	86.81
338.422	78.81
338.65	90.81
338.878	98.81
339.106	80.81
339.334	91.81
339.562	74.81
339.79	92.81
340.018	84.81
340.246	83.81
340.474	82.81
340.702	80.81
340.93	78.81
341.158	85.81
341.386	91.81
341.614	72.81
341.842	72.81
342.07	90.81
342.298	93.81
342.526	81.81
342.754	88.81
342.981	79.81
343.209	93.81
343.437	85.81
343.665	92.81
343.893	91.81
344.12	88.81
344.348	86.81
344.576	87.81
344.804	93.81
345.031	80.81
345.259	89.81
345.487	66.81
345.714	95.81
345.942	100.81
346.17	79.81
346.397	72.81
346.625	80.81
346.853	84.81
347.08	79.81
347.308	86.81
347.535	78.81
347.763	85.81
347.99	84.81
348.218	80.81
348.445	84.81
348.673	89.81
348.9	73.81
349.128	86.81
349.355	75.81
349.583	87.81
349.81	91.81
350.037	76.81
350.265	90.81
350.492	85.81
350.72	74.81
350.947	83.81
351.174	79.81
351.402	83.81
351.629	90.81
351.856	81.81
352.083	75.81
352.311	75.81
352.538	88.81
352.765	94.81
352.992	95.81
353.22	93.81
353.447	95.81
353.674	94.81
353.901	90.81
354.128	75.81
354.355	73.81
354.583	74.81
354.81	87.81
355.037	84.81
355.264	93.81
355.491	84.81
355.718	88.81
355.945	73.81
356.172	78.81
356.399	93.81
356.626	77.81
356.853	87.81
357.08	89.81
357.307	87.81
357.534	83.81
357.761	75.81
357.988	86.81
358.215	89.81
358.441	78.81
358.668	75.81
358.895	90.81
359.122	84.81
359.349	87.81
359.576	90.81
359.802	70.81
360.029	74.81
360.256	82.81
360.483	91.81
360.709	92.81
360.936	84.81
361.163	84.81
361.39	90.81
361.616	83.81
361.843	73.81
362.07	82.81
362.296	93.81
362.523	76.81
362.749	83.81
362.976	77.81
363.203	83.81
363.429	87.81
363.656	92.81
363.882	98.81
364.109	77.81
364.335	78.81
364.562	86.81
364.788	71.81
365.015	73.81
365.241	97.81
365.468	98.81
365.694	78.81
365.92	86.81
366.147	75.81
366.373	84.81
366.599	86.81
366.826	90.81
367.052	87.81
367.278	92.81
367.505	89.81
367.731	101.81
367.957	88.81
368.184	85.81
368.41	88.81
368.636	93.81
368.862	102.81
369.089	102.81
369.315	83.81
369.541	83.81
369.767	94.81
369.993	98.81
370.219	90.81
370.445	88.81
370.672	70.81
370.898	95.81
371.124	91.81
371.35	91.81
371.576	95.81
371.802	93.81
372.028	100.81
372.254	88.81
372.48	84.81
372.706	85.81
372.932	99.81
373.158	105.81
373.384	97.81
373.61	103.81
373.835	101.81
374.061	94.81
374.287	97.81
374.513	90.81
374.739	74.81
374.965	83.81
375.191	93.81
375.416	88.81
375.642	83.81
375.868	93.81
376.094	89.81
376.319	85.81
376.545	102.81
376.771	76.81
376.997	94.81
377.222	89.81
377.448	99.81
377.674	91.81
377.899	82.81
378.125	88.81
378.35	100.81
378.576	88.81
378.802	92.81
379.027	104.81
379.253	92.81
379.478	85.81
379.704	96.81
379.929	95.81
380.155	95.81
380.38	97.81
380.606	88.81
380.831	102.81
381.057	99.81
381.282	80.81
381.507	97.81
381.733	90.81
381.958	94.81
382.184	93.81
382.409	94.81
382.634	96.81
382.86	96.81
383.085	99.81
383.31	106.81
383.535	101.81
383.761	94.81
383.986	106.81
384.211	101.81
384.436	98.81
384.662	90.81
384.887	96.81
385.112	89.81
385.337	103.81
385.562	98.81
385.787	106.81
386.013	106.81
386.238	102.81
386.463	105.81
386.688	110.81
386.913	94.81
387.138	85.81
387.363	107.81
387.588	97.81
387.813	104.81
388.038	93.81
388.263	98.81
388.488	106.81
388.713	94.81
388.938	95.81
389.163	107.81
389.387	98.81
389.612	101.81
389.837	94.81
390.062	106.81
390.287	93.81
390.512	104.81
390.736	98.81
390.961	104.81
391.186	102.81
391.411	109.81
391.636	124.81
391.86	106.81
392.085	115.81
392.31	98.81
392.534	98.81
392.759	106.81
392.984	91.81
393.208	93.81
393.433	107.81
393.658	118.81
393.882	99.81
394.107	116.81
394.331	100.81
394.556	106.81
394.78	114.81
395.005	102.81
395.229	105.81
395.454	104.81
395.678	90.81
395.903	120.81
396.127	92.81
396.352	108.81
396.576	110.81
396.801	110.81
397.025	120.81
397.249	115.81
397.474	107.81
397.698	114.81
397.922	109.81
398.147	109.81
398.371	115.81
398.595	112.81
398.82	104.81
399.044	125.81
399.268	101.81
399.492	107.81
399.717	103.81
399.941	120.81
400.165	100.81
400.389	110.81
400.613	122.81
400.837	108.81
401.062	124.81
401.286	108.81
401.51	124.81
401.734	103.81
401.958	96.81
402.182	127.81
402.406	130.81
402.63	124.81
402.854	112.81
403.078	124.81
403.302	120.81
403.526	116.81
403.75	108.81
403.974	110.81
404.198	116.81
404.422	116.81
404.645	118.81
404.869	114.81
405.093	118.81
405.317	123.81
405.541	121.81
405.765	129.81
405.988	120.81
406.212	124.81
406.436	109.81
406.66	106.81
406.883	123.81
407.107	104.81
407.331	116.81
407.555	118.81
407.778	110.81
408.002	106.81
408.226	117.81
408.449	111.81
408.673	110.81
408.896	116.81
409.12	123.81
409.344	120.81
409.567	130.81
409.791	120.81
410.014	134.81
410.238	122.81
410.461	113.81
410.685	125.81
410.908	114.81
411.132	125.81
411.355	115.81
411.578	108.81
411.802	120.81
412.025	130.81
412.249	119.81
412.472	131.81
412.695	122.81
412.919	101.81
413.142	116.81
413.365	130.81
413.589	125.81
413.812	126.81
414.035	114.81
414.258	116.81
414.482	127.81
414.705	123.81
414.928	123.81
415.151	120.81
415.374	121.81
415.597	127.81
415.821	122.81
416.044	127.81
416.267	120.81
416.49	125.81
416.713	122.81
416.936	132.81
417.159	124.81
417.382	124.81
417.605	126.81
417.828	128.81
418.051	122.81
418.274	154.81
418.497	122.81
418.72	129.81
418.943	134.81
419.166	134.81
419.389	122.81
419.611	142.81
419.834	159.81
420.057	131.81
420.28	118.81
420.503	142.81
420.726	136.81
420.948	140.81
421.171	138.81
421.394	132.81
421.617	127.81
421.839	150.81
422.062	142.81
422.285	139.81
422.507	136.81
422.73	136.81
422.953	129.81
423.175	140.81
423.398	158.81
423.621	139.81
423.843	130.81
424.066	137.81
424.288	124.81
424.511	138.81
424.733	128.81
424.956	152.81
425.178	143.81
425.401	126.81
425.623	130.81
425.846	125.81
426.068	125.81
426.291	124.81
426.513	131.81
426.735	129.81
426.958	135.81
427.18	132.81
427.402	143.81
427.625	120.81
427.847	129.81
428.069	128.81
428.292	124.81
428.514	133.81
428.736	125.81
428.958	122.81
429.181	136.81
429.403	133.81
429.625	114.81
429.847	130.81
430.069	149.81
430.292	127.81
430.514	119.81
430.736	127.81
430.958	118.81
431.18	132.81
431.402	114.81
431.624	122.81
431.846	110.81
432.068	104.81
432.29	96.81
432.512	120.81
432.734	126.81
432.956	133.81
433.178	137.81
433.4	132.81
433.622	143.81
433.844	134.81
434.066	102.81
434.287	124.81
434.509	99.81
434.731	103.81
434.953	101.81
435.175	124.81
435.397	126.81
435.618	118.81
435.84	109.81
436.062	115.81
436.284	126.81
436.505	127.81
436.727	122.81
436.949	119.81
437.17	131.81
437.392	125.81
437.614	119.81
437.835	107.81
438.057	109.81
438.278	110.81
438.5	113.81
438.721	126.81
438.943	129.81
439.165	147.81
439.386	136.81
439.608	138.81
439.829	142.81
440.05	128.81
440.272	143.81
440.493	147.81
440.715	133.81
440.936	142.81
441.158	137.81
441.379	141.81
441.6	143.81
441.822	145.81
442.043	131.81
442.264	144.81
442.486	127.81
442.707	126.81
442.928	132.81
443.149	142.81
443.371	139.81
443.592	134.81
443.813	142.81
444.034	127.81
444.255	122.81
444.476	143.81
444.698	144.81
444.919	139.81
445.14	261.81
445.361	194.81
445.582	145.81
445.803	142.81
446.024	128.81
446.245	149.81
446.466	152.81
446.687	158.81
446.908	156.81
447.129	152.81
447.35	156.81
447.571	153.81
447.792	148.81
448.013	150.81
448.234	157.81
448.455	136.81
448.675	147.81
448.896	132.81
449.117	136.81
449.338	139.81
449.559	128.81
449.779	130.81
450	130.81
450.221	116.81
450.442	123.81
450.662	131.81
450.883	134.81
451.104	138.81
451.324	142.81
451.545	145.81
451.766	128.81
451.986	130.81
452.207	129.81
452.428	119.81
452.648	135.81
452.869	118.81
453.089	99.81
453.31	105.81
453.53	106.81
453.751	108.81
453.971	110.81
454.192	97.81
454.412	118.81
454.633	122.81
454.853	125.81
455.073	114.81
455.294	119.81
455.514	121.81
455.734	118.81
455.955	125.81
456.175	98.81
456.395	124.81
456.616	107.81
456.836	110.81
457.056	113.81
457.276	105.81
457.497	107.81
457.717	115.81
457.937	118.81
458.157	105.81
458.377	108.81
458.598	104.81
458.818	110.81
459.038	100.81
459.258	89.81
459.478	73.81
459.698	80.81
459.918	111.81
460.138	93.81
460.358	119.81
460.578	117.81
460.798	130.81
461.018	134.81
461.238	112.81
461.458	128.81
461.678	114.81
461.898	104.81
462.118	122.81
462.338	114.81
462.558	120.81
462.777	112.81
462.997	100.81
463.217	109.81
463.437	120.81
463.657	122.81
463.876	112.81
464.096	106.81
464.316	99.81
464.536	123.81
464.755	121.81
464.975	123.81
465.195	119.81
465.414	117.81
465.634	100.81
465.854	112.81
466.073	130.81
466.293	134.81
466.512	125.81
466.732	126.81
466.951	118.81
467.171	132.81
467.391	127.81
467.61	134.81
467.829	134.81
468.049	118.81
468.268	137.81
468.488	130.81
468.707	142.81
468.927	132.81
469.146	134.81
469.365	136.81
469.585	144.81
469.804	148.81
470.023	144.81
470.243	139.81
470.462	155.81
470.681	143.81
470.901	142.81
471.12	140.81
471.339	136.81
471.558	142.81
471.777	148.81
471.997	130.81
472.216	130.81
472.435	117.81
472.654	108.81
472.873	108.81
473.092	121.81
473.311	116.81
473.53	110.81
473.749	132.81
473.968	125.81
474.187	122.81
474.406	122.81
474.625	132.81
474.844	120.81
475.063	143.81
475.282	125.81
475.501	110.81
475.72	121.81
475.939	117.81
476.158	123.81
476.377	130.81
476.596	115.81
476.814	117.81
477.033	118.81
477.252	117.81
477.471	123.81
477.69	126.81
477.908	121.81
478.127	124.81
478.346	131.81
478.564	131.81
478.783	133.81
479.002	149.81
479.22	133.81
479.439	133.81
479.658	122.81
479.876	96.81
480.095	125.81
480.313	111.81
480.532	117.81
480.751	101.81
480.969	70.81
481.188	79.81
481.406	93.81
481.624	99.81
481.843	102.81
482.061	92.81
482.28	107.81
482.498	114.81
482.717	115.81
482.935	118.81
483.153	148.81
483.372	141.81
483.59	150.81
483.808	147.81
484.027	139.81
484.245	141.81
484.463	140.81
484.681	158.81
484.9	133.81
485.118	132.81
485.336	123.81
485.554	127.81
485.772	98.81
485.99	109.81
486.209	109.81
486.427	122.81
486.645	127.81
486.863	128.81
487.081	141.81
487.299	132.81
487.517	134.81
487.735	174.81
487.953	188.81
488.171	176.81
488.389	163.81
488.607	159.81
488.825	120.81
489.043	125.81
489.261	140.81
489.479	144.81
489.696	137.81
489.914	144.81
490.132	140.81
490.35	150.81
490.568	163.81
490.786	163.81
491.003	158.81
491.221	173.81
491.439	178.81
491.657	192.81
491.874	202.81
492.092	207.81
492.31	237.81
492.527	229.81
492.745	184.81
492.963	180.81
493.18	175.81
493.398	172.81
493.615	190.81
493.833	178.81
494.05	176.81
494.268	176.81
494.485	170.81
494.703	165.81
494.92	158.81
495.138	186.81
495.355	175.81
495.573	156.81
495.79	158.81
496.008	158.81
496.225	166.81
496.442	165.81
496.66	150.81
496.877	173.81
497.094	147.81
497.312	159.81
497.529	150.81
497.746	150.81
497.963	143.81
498.181	125.81
498.398	116.81
498.615	126.81
498.832	110.81
499.049	106.81
499.267	123.81
499.484	126.81
499.701	139.81
499.918	145.81
500.135	140.81
500.352	143.81
500.569	146.81
500.786	151.81
501.003	143.81
501.22	132.81
501.437	136.81
501.654	133.81
501.871	129.81
502.088	145.81
502.305	129.81
502.522	120.81
502.739	125.81
502.956	129.81
503.172	125.81
503.389	118.81
503.606	124.81
503.823	111.81
504.04	121.81
504.256	114.81
504.473	115.81
504.69	117.81
504.907	110.81
505.123	123.81
505.34	108.81
505.557	125.81
505.773	118.81
505.99	134.81
506.207	118.81
506.423	112.81
506.64	110.81
506.856	110.81
507.073	124.81
507.289	110.81
507.506	125.81
507.722	126.81
507.939	110.81
508.155	103.81
508.372	122.81
508.588	100.81
508.805	118.81
509.021	94.81
509.238	108.81
509.454	104.81
509.67	115.81
509.887	106.81
510.103	95.81
510.319	95.81
510.536	95.81
510.752	90.81
510.968	91.81
511.184	83.81
511.401	87.81
511.617	93.81
