Data from Location1.07152019.Energy5.Lamp.07192019.3%Agarose_HRD10591_14-32-00-015.txt Node
Date: Fri Jul 19 14:32:00 EDT 2019
User: cochatt
Spectrometer: HR+D1059
Trigger mode: 1
Integration Time (sec): 1.000000E-1
Scans to average: 1
Electric dark correction enabled: true
Nonlinearity correction enabled: false
Boxcar width: 0
XAxis mode: Wavelengths
Number of Pixels in Spectrum: 2048
>>>>>Begin Spectral Data<<<<<
223.165	-11.88
223.4	-11.88
223.635	-11.88
223.869	-26.88
224.104	-20.88
224.338	-10.88
224.573	-11.88
224.808	-18.88
225.042	-8.88
225.277	-7.88
225.511	0.12
225.746	13.12
225.98	13.12
226.215	11.12
226.449	15.12
226.683	16.12
226.918	13.12
227.152	36.12
227.387	38.12
227.621	40.12
227.856	47.12
228.09	40.12
228.324	29.12
228.559	69.12
228.793	57.12
229.027	56.12
229.262	58.12
229.496	70.12
229.73	57.12
229.964	82.12
230.199	75.12
230.433	76.12
230.667	73.12
230.901	69.12
231.136	66.12
231.37	73.12
231.604	87.12
231.838	77.12
232.072	71.12
232.306	82.12
232.541	88.12
232.775	78.12
233.009	78.12
233.243	77.12
233.477	80.12
233.711	87.12
233.945	85.12
234.179	78.12
234.413	84.12
234.647	70.12
234.881	80.12
235.115	78.12
235.349	76.12
235.583	69.12
235.817	80.12
236.051	68.12
236.285	68.12
236.519	89.12
236.753	95.12
236.987	70.12
237.221	76.12
237.455	74.12
237.689	83.12
237.922	84.12
238.156	71.12
238.39	73.12
238.624	66.12
238.858	75.12
239.091	64.12
239.325	75.12
239.559	75.12
239.793	49.12
240.027	74.12
240.26	69.12
240.494	82.12
240.728	82.12
240.961	75.12
241.195	76.12
241.429	83.12
241.662	84.12
241.896	84.12
242.13	74.12
242.363	79.12
242.597	76.12
242.83	79.12
243.064	71.12
243.298	71.12
243.531	70.12
243.765	76.12
243.998	82.12
244.232	61.12
244.465	82.12
244.699	92.12
244.932	77.12
245.166	61.12
245.399	75.12
245.633	76.12
245.866	82.12
246.099	76.12
246.333	79.12
246.566	61.12
246.8	88.12
247.033	79.12
247.266	68.12
247.5	68.12
247.733	81.12
247.966	76.12
248.2	85.12
248.433	69.12
248.666	77.12
248.899	87.12
249.133	82.12
249.366	93.12
249.599	81.12
249.832	78.12
250.066	82.12
250.299	84.12
250.532	83.12
250.765	66.12
250.998	69.12
251.231	75.12
251.465	88.12
251.698	74.12
251.931	75.12
252.164	79.12
252.397	75.12
252.63	72.12
252.863	80.12
253.096	77.12
253.329	73.12
253.562	79.12
253.795	84.12
254.028	77.12
254.261	97.12
254.494	86.12
254.727	74.12
254.96	81.12
255.193	73.12
255.426	85.12
255.659	84.12
255.892	89.12
256.124	77.12
256.357	73.12
256.59	84.12
256.823	76.12
257.056	76.12
257.289	75.12
257.521	85.12
257.754	90.12
257.987	84.12
258.22	89.12
258.452	81.12
258.685	95.12
258.918	77.12
259.151	73.12
259.383	90.12
259.616	82.12
259.849	76.12
260.081	79.12
260.314	81.12
260.547	92.12
260.779	86.12
261.012	86.12
261.244	71.12
261.477	89.12
261.71	85.12
261.942	75.12
262.175	84.12
262.407	72.12
262.64	73.12
262.872	91.12
263.105	94.12
263.337	84.12
263.57	84.12
263.802	86.12
264.035	78.12
264.267	77.12
264.499	72.12
264.732	73.12
264.964	78.12
265.197	66.12
265.429	73.12
265.661	80.12
265.894	90.12
266.126	80.12
266.358	82.12
266.591	80.12
266.823	82.12
267.055	84.12
267.287	77.12
267.52	92.12
267.752	91.12
267.984	87.12
268.216	85.12
268.448	84.12
268.681	77.12
268.913	93.12
269.145	95.12
269.377	83.12
269.609	88.12
269.841	90.12
270.073	101.12
270.306	82.12
270.538	70.12
270.77	71.12
271.002	78.12
271.234	76.12
271.466	95.12
271.698	96.12
271.93	82.12
272.162	77.12
272.394	79.12
272.626	87.12
272.858	88.12
273.09	100.12
273.322	86.12
273.553	80.12
273.785	76.12
274.017	78.12
274.249	97.12
274.481	68.12
274.713	78.12
274.945	88.12
275.176	77.12
275.408	78.12
275.64	91.12
275.872	72.12
276.104	92.12
276.335	72.12
276.567	74.12
276.799	89.12
277.031	85.12
277.262	78.12
277.494	75.12
277.726	72.12
277.957	77.12
278.189	85.12
278.421	90.12
278.652	80.12
278.884	78.12
279.115	92.12
279.347	79.12
279.579	84.12
279.81	66.12
280.042	86.12
280.273	89.12
280.505	84.12
280.736	76.12
280.968	94.12
281.199	82.12
281.431	97.12
281.662	87.12
281.894	89.12
282.125	92.12
282.356	84.12
282.588	74.12
282.819	82.12
283.051	92.12
283.282	83.12
283.513	87.12
283.745	92.12
283.976	84.12
284.207	71.12
284.439	81.12
284.67	87.12
284.901	87.12
285.132	84.12
285.364	86.12
285.595	78.12
285.826	81.12
286.057	92.12
286.288	91.12
286.52	92.12
286.751	78.12
286.982	78.12
287.213	78.12
287.444	84.12
287.675	80.12
287.906	81.12
288.138	82.12
288.369	77.12
288.6	81.12
288.831	89.12
289.062	86.12
289.293	74.12
289.524	65.12
289.755	77.12
289.986	89.12
290.217	88.12
290.448	88.12
290.679	99.12
290.91	80.12
291.141	80.12
291.371	88.12
291.602	85.12
291.833	77.12
292.064	92.12
292.295	80.12
292.526	91.12
292.757	84.12
292.987	90.12
293.218	67.12
293.449	101.12
293.68	83.12
293.91	91.12
294.141	94.12
294.372	77.12
294.603	86.12
294.833	86.12
295.064	86.12
295.295	83.12
295.525	87.12
295.756	64.12
295.987	90.12
296.217	85.12
296.448	86.12
296.679	72.12
296.909	79.12
297.14	86.12
297.37	83.12
297.601	84.12
297.831	73.12
298.062	80.12
298.292	77.12
298.523	74.12
298.753	69.12
298.984	87.12
299.214	75.12
299.445	88.12
299.675	94.12
299.905	79.12
300.136	90.12
300.366	81.12
300.597	93.12
300.827	77.12
301.057	95.12
301.288	82.12
301.518	94.12
301.748	89.12
301.979	81.12
302.209	85.12
302.439	81.12
302.669	78.12
302.9	80.12
303.13	78.12
303.36	88.12
303.59	83.12
303.82	82.12
304.051	79.12
304.281	84.12
304.511	80.12
304.741	86.12
304.971	84.12
305.201	84.12
305.431	84.12
305.661	76.12
305.891	79.12
306.121	72.12
306.352	86.12
306.582	77.12
306.812	77.12
307.042	77.12
307.272	82.12
307.502	91.12
307.731	73.12
307.961	77.12
308.191	90.12
308.421	77.12
308.651	77.12
308.881	86.12
309.111	78.12
309.341	90.12
309.571	85.12
309.8	86.12
310.03	91.12
310.26	85.12
310.49	77.12
310.72	87.12
310.949	84.12
311.179	92.12
311.409	91.12
311.639	78.12
311.868	79.12
312.098	59.12
312.328	94.12
312.557	77.12
312.787	83.12
313.017	80.12
313.246	82.12
313.476	82.12
313.706	81.12
313.935	75.12
314.165	70.12
314.394	80.12
314.624	83.12
314.853	74.12
315.083	76.12
315.312	85.12
315.542	96.12
315.771	97.12
316.001	90.12
316.23	74.12
316.46	77.12
316.689	79.12
316.919	80.12
317.148	85.12
317.377	90.12
317.607	82.12
317.836	84.12
318.065	86.12
318.295	73.12
318.524	75.12
318.753	85.12
318.983	87.12
319.212	85.12
319.441	84.12
319.67	81.12
319.9	86.12
320.129	69.12
320.358	74.12
320.587	97.12
320.816	68.12
321.046	85.12
321.275	80.12
321.504	82.12
321.733	96.12
321.962	84.12
322.191	83.12
322.42	86.12
322.649	81.12
322.878	75.12
323.108	69.12
323.337	73.12
323.566	76.12
323.795	90.12
324.024	90.12
324.253	90.12
324.482	91.12
324.71	89.12
324.939	76.12
325.168	91.12
325.397	85.12
325.626	80.12
325.855	96.12
326.084	78.12
326.313	91.12
326.542	82.12
326.77	78.12
326.999	89.12
327.228	79.12
327.457	91.12
327.686	92.12
327.914	96.12
328.143	82.12
328.372	80.12
328.6	78.12
328.829	95.12
329.058	78.12
329.287	84.12
329.515	91.12
329.744	87.12
329.972	75.12
330.201	82.12
330.43	77.12
330.658	88.12
330.887	92.12
331.115	83.12
331.344	84.12
331.572	88.12
331.801	78.12
332.03	87.12
332.258	90.12
332.486	73.12
332.715	77.12
332.943	93.12
333.172	88.12
333.4	85.12
333.629	97.12
333.857	81.12
334.085	77.12
334.314	77.12
334.542	95.12
334.771	85.12
334.999	93.12
335.227	84.12
335.455	85.12
335.684	82.12
335.912	76.12
336.14	80.12
336.369	85.12
336.597	77.12
336.825	69.12
337.053	76.12
337.281	85.12
337.51	82.12
337.738	86.12
337.966	94.12
338.194	72.12
338.422	83.12
338.65	80.12
338.878	75.12
339.106	65.12
339.334	82.12
339.562	80.12
339.79	82.12
340.018	68.12
340.246	87.12
340.474	81.12
340.702	89.12
340.93	82.12
341.158	81.12
341.386	86.12
341.614	79.12
341.842	83.12
342.07	90.12
342.298	83.12
342.526	93.12
342.754	85.12
342.981	76.12
343.209	91.12
343.437	74.12
343.665	75.12
343.893	81.12
344.12	79.12
344.348	82.12
344.576	90.12
344.804	78.12
345.031	90.12
345.259	76.12
345.487	80.12
345.714	64.12
345.942	85.12
346.17	80.12
346.397	82.12
346.625	85.12
346.853	79.12
347.08	69.12
347.308	79.12
347.535	82.12
347.763	76.12
347.99	85.12
348.218	77.12
348.445	85.12
348.673	86.12
348.9	83.12
349.128	84.12
349.355	87.12
349.583	81.12
349.81	78.12
350.037	76.12
350.265	76.12
350.492	86.12
350.72	81.12
350.947	82.12
351.174	84.12
351.402	74.12
351.629	76.12
351.856	81.12
352.083	73.12
352.311	76.12
352.538	83.12
352.765	84.12
352.992	69.12
353.22	81.12
353.447	70.12
353.674	77.12
353.901	82.12
354.128	79.12
354.355	76.12
354.583	76.12
354.81	76.12
355.037	98.12
355.264	86.12
355.491	84.12
355.718	98.12
355.945	82.12
356.172	77.12
356.399	76.12
356.626	81.12
356.853	77.12
357.08	78.12
357.307	89.12
357.534	78.12
357.761	85.12
357.988	76.12
358.215	82.12
358.441	77.12
358.668	86.12
358.895	73.12
359.122	82.12
359.349	80.12
359.576	67.12
359.802	80.12
360.029	82.12
360.256	82.12
360.483	76.12
360.709	69.12
360.936	96.12
361.163	75.12
361.39	75.12
361.616	76.12
361.843	87.12
362.07	74.12
362.296	72.12
362.523	83.12
362.749	83.12
362.976	91.12
363.203	91.12
363.429	77.12
363.656	96.12
363.882	91.12
364.109	71.12
364.335	73.12
364.562	71.12
364.788	92.12
365.015	88.12
365.241	85.12
365.468	79.12
365.694	68.12
365.92	84.12
366.147	89.12
366.373	87.12
366.599	94.12
366.826	62.12
367.052	100.12
367.278	88.12
367.505	76.12
367.731	86.12
367.957	96.12
368.184	72.12
368.41	83.12
368.636	89.12
368.862	95.12
369.089	91.12
369.315	96.12
369.541	87.12
369.767	88.12
369.993	90.12
370.219	103.12
370.445	80.12
370.672	91.12
370.898	94.12
371.124	91.12
371.35	85.12
371.576	82.12
371.802	81.12
372.028	90.12
372.254	90.12
372.48	82.12
372.706	79.12
372.932	87.12
373.158	83.12
373.384	79.12
373.61	80.12
373.835	86.12
374.061	88.12
374.287	74.12
374.513	90.12
374.739	87.12
374.965	81.12
375.191	97.12
375.416	91.12
375.642	94.12
375.868	103.12
376.094	92.12
376.319	98.12
376.545	90.12
376.771	85.12
376.997	76.12
377.222	82.12
377.448	74.12
377.674	81.12
377.899	88.12
378.125	109.12
378.35	84.12
378.576	79.12
378.802	98.12
379.027	94.12
379.253	88.12
379.478	97.12
379.704	84.12
379.929	89.12
380.155	92.12
380.38	100.12
380.606	95.12
380.831	83.12
381.057	95.12
381.282	110.12
381.507	96.12
381.733	93.12
381.958	108.12
382.184	97.12
382.409	110.12
382.634	87.12
382.86	92.12
383.085	105.12
383.31	88.12
383.535	87.12
383.761	100.12
383.986	93.12
384.211	96.12
384.436	101.12
384.662	106.12
384.887	86.12
385.112	92.12
385.337	88.12
385.562	98.12
385.787	86.12
386.013	88.12
386.238	99.12
386.463	101.12
386.688	107.12
386.913	99.12
387.138	94.12
387.363	93.12
387.588	108.12
387.813	98.12
388.038	103.12
388.263	98.12
388.488	98.12
388.713	89.12
388.938	101.12
389.163	94.12
389.387	78.12
389.612	93.12
389.837	102.12
390.062	89.12
390.287	92.12
390.512	93.12
390.736	86.12
390.961	90.12
391.186	102.12
391.411	98.12
391.636	91.12
391.86	101.12
392.085	100.12
392.31	103.12
392.534	79.12
392.759	112.12
392.984	99.12
393.208	112.12
393.433	92.12
393.658	109.12
393.882	112.12
394.107	105.12
394.331	102.12
394.556	99.12
394.78	102.12
395.005	109.12
395.229	109.12
395.454	105.12
395.678	99.12
395.903	106.12
396.127	90.12
396.352	107.12
396.576	105.12
396.801	109.12
397.025	105.12
397.249	97.12
397.474	105.12
397.698	105.12
397.922	103.12
398.147	93.12
398.371	111.12
398.595	117.12
398.82	110.12
399.044	112.12
399.268	107.12
399.492	106.12
399.717	98.12
399.941	104.12
400.165	111.12
400.389	114.12
400.613	122.12
400.837	116.12
401.062	100.12
401.286	123.12
401.51	106.12
401.734	95.12
401.958	117.12
402.182	109.12
402.406	107.12
402.63	115.12
402.854	109.12
403.078	118.12
403.302	114.12
403.526	129.12
403.75	122.12
403.974	108.12
404.198	101.12
404.422	108.12
404.645	99.12
404.869	116.12
405.093	110.12
405.317	116.12
405.541	121.12
405.765	114.12
405.988	125.12
406.212	126.12
406.436	123.12
406.66	116.12
406.883	132.12
407.107	109.12
407.331	130.12
407.555	135.12
407.778	104.12
408.002	125.12
408.226	111.12
408.449	116.12
408.673	129.12
408.896	109.12
409.12	114.12
409.344	110.12
409.567	119.12
409.791	112.12
410.014	116.12
410.238	102.12
410.461	108.12
410.685	126.12
410.908	107.12
411.132	134.12
411.355	113.12
411.578	113.12
411.802	116.12
412.025	123.12
412.249	125.12
412.472	116.12
412.695	111.12
412.919	113.12
413.142	110.12
413.365	117.12
413.589	123.12
413.812	107.12
414.035	124.12
414.258	129.12
414.482	109.12
414.705	116.12
414.928	130.12
415.151	116.12
415.374	118.12
415.597	123.12
415.821	129.12
416.044	125.12
416.267	118.12
416.49	125.12
416.713	118.12
416.936	127.12
417.159	120.12
417.382	120.12
417.605	129.12
417.828	138.12
418.051	128.12
418.274	127.12
418.497	134.12
418.72	131.12
418.943	129.12
419.166	115.12
419.389	113.12
419.611	126.12
419.834	139.12
420.057	129.12
420.28	128.12
420.503	134.12
420.726	124.12
420.948	120.12
421.171	121.12
421.394	123.12
421.617	132.12
421.839	128.12
422.062	122.12
422.285	125.12
422.507	116.12
422.73	121.12
422.953	128.12
423.175	110.12
423.398	120.12
423.621	121.12
423.843	129.12
424.066	142.12
424.288	138.12
424.511	141.12
424.733	140.12
424.956	135.12
425.178	126.12
425.401	132.12
425.623	137.12
425.846	126.12
426.068	143.12
426.291	136.12
426.513	113.12
426.735	142.12
426.958	127.12
427.18	134.12
427.402	124.12
427.625	122.12
427.847	116.12
428.069	122.12
428.292	130.12
428.514	134.12
428.736	116.12
428.958	130.12
429.181	125.12
429.403	130.12
429.625	129.12
429.847	117.12
430.069	125.12
430.292	122.12
430.514	133.12
430.736	130.12
430.958	125.12
431.18	124.12
431.402	130.12
431.624	101.12
431.846	107.12
432.068	88.12
432.29	96.12
432.512	107.12
432.734	130.12
432.956	137.12
433.178	130.12
433.4	133.12
433.622	136.12
433.844	131.12
434.066	130.12
434.287	105.12
434.509	99.12
434.731	113.12
434.953	113.12
435.175	119.12
435.397	128.12
435.618	106.12
435.84	102.12
436.062	103.12
436.284	123.12
436.505	128.12
436.727	130.12
436.949	135.12
437.17	118.12
437.392	124.12
437.614	109.12
437.835	117.12
438.057	120.12
438.278	102.12
438.5	126.12
438.721	141.12
438.943	123.12
439.165	128.12
439.386	135.12
439.608	159.12
439.829	125.12
440.05	150.12
440.272	150.12
440.493	146.12
440.715	148.12
440.936	152.12
441.158	154.12
441.379	136.12
441.6	128.12
441.822	160.12
442.043	138.12
442.264	130.12
442.486	130.12
442.707	136.12
442.928	128.12
443.149	141.12
443.371	149.12
443.592	137.12
443.813	136.12
444.034	128.12
444.255	129.12
444.476	125.12
444.698	147.12
444.919	132.12
445.14	271.12
445.361	182.12
445.582	154.12
445.803	152.12
446.024	141.12
446.245	164.12
446.466	142.12
446.687	158.12
446.908	167.12
447.129	170.12
447.35	145.12
447.571	172.12
447.792	136.12
448.013	137.12
448.234	155.12
448.455	144.12
448.675	128.12
448.896	137.12
449.117	142.12
449.338	142.12
449.559	118.12
449.779	141.12
450	139.12
450.221	144.12
450.442	128.12
450.662	136.12
450.883	129.12
451.104	137.12
451.324	130.12
451.545	96.12
451.766	138.12
451.986	112.12
452.207	147.12
452.428	137.12
452.648	117.12
452.869	112.12
453.089	114.12
453.31	104.12
453.53	119.12
453.751	106.12
453.971	107.12
454.192	105.12
454.412	103.12
454.633	126.12
454.853	119.12
455.073	116.12
455.294	123.12
455.514	106.12
455.734	124.12
455.955	132.12
456.175	105.12
456.395	109.12
456.616	108.12
456.836	117.12
457.056	109.12
457.276	105.12
457.497	103.12
457.717	96.12
457.937	104.12
458.157	107.12
458.377	101.12
458.598	98.12
458.818	98.12
459.038	96.12
459.258	86.12
459.478	97.12
459.698	85.12
459.918	94.12
460.138	103.12
460.358	105.12
460.578	124.12
460.798	120.12
461.018	107.12
461.238	114.12
461.458	98.12
461.678	104.12
461.898	109.12
462.118	108.12
462.338	109.12
462.558	115.12
462.777	116.12
462.997	118.12
463.217	119.12
463.437	115.12
463.657	104.12
463.876	119.12
464.096	115.12
464.316	101.12
464.536	105.12
464.755	106.12
464.975	99.12
465.195	116.12
465.414	115.12
465.634	97.12
465.854	117.12
466.073	110.12
466.293	120.12
466.512	134.12
466.732	132.12
466.951	135.12
467.171	146.12
467.391	120.12
467.61	132.12
467.829	130.12
468.049	140.12
468.268	137.12
468.488	135.12
468.707	133.12
468.927	128.12
469.146	134.12
469.365	132.12
469.585	140.12
469.804	132.12
470.023	128.12
470.243	146.12
470.462	133.12
470.681	135.12
470.901	141.12
471.12	154.12
471.339	129.12
471.558	116.12
471.777	129.12
471.997	125.12
472.216	126.12
472.435	123.12
472.654	100.12
472.873	109.12
473.092	107.12
473.311	105.12
473.53	132.12
473.749	134.12
473.968	126.12
474.187	104.12
474.406	118.12
474.625	140.12
474.844	130.12
475.063	132.12
475.282	124.12
475.501	99.12
475.72	128.12
475.939	121.12
476.158	125.12
476.377	125.12
476.596	126.12
476.814	120.12
477.033	102.12
477.252	101.12
477.471	122.12
477.69	140.12
477.908	130.12
478.127	149.12
478.346	119.12
478.564	122.12
478.783	130.12
479.002	138.12
479.22	129.12
479.439	148.12
479.658	135.12
479.876	109.12
480.095	111.12
480.313	109.12
480.532	125.12
480.751	115.12
480.969	103.12
481.188	91.12
481.406	95.12
481.624	83.12
481.843	81.12
482.061	92.12
482.28	112.12
482.498	108.12
482.717	90.12
482.935	136.12
483.153	136.12
483.372	139.12
483.59	154.12
483.808	138.12
484.027	132.12
484.245	123.12
484.463	145.12
484.681	146.12
484.9	154.12
485.118	134.12
485.336	124.12
485.554	120.12
485.772	102.12
485.99	109.12
486.209	109.12
486.427	108.12
486.645	101.12
486.863	131.12
487.081	132.12
487.299	124.12
487.517	132.12
487.735	167.12
487.953	184.12
488.171	173.12
488.389	169.12
488.607	162.12
488.825	143.12
489.043	134.12
489.261	135.12
489.479	135.12
489.696	145.12
489.914	146.12
490.132	142.12
490.35	152.12
490.568	161.12
490.786	161.12
491.003	172.12
491.221	172.12
491.439	174.12
491.657	173.12
491.874	173.12
492.092	235.12
492.31	236.12
492.527	221.12
492.745	208.12
492.963	183.12
493.18	195.12
493.398	166.12
493.615	189.12
493.833	178.12
494.05	172.12
494.268	170.12
494.485	172.12
494.703	158.12
494.92	179.12
495.138	157.12
495.355	179.12
495.573	164.12
495.79	151.12
496.008	166.12
496.225	156.12
496.442	157.12
496.66	158.12
496.877	152.12
497.094	158.12
497.312	155.12
497.529	157.12
497.746	134.12
497.963	132.12
498.181	123.12
498.398	124.12
498.615	125.12
498.832	124.12
499.049	119.12
499.267	127.12
499.484	112.12
499.701	138.12
499.918	134.12
500.135	124.12
500.352	137.12
500.569	130.12
500.786	143.12
501.003	136.12
501.22	139.12
501.437	126.12
501.654	127.12
501.871	126.12
502.088	128.12
502.305	124.12
502.522	134.12
502.739	125.12
502.956	125.12
503.172	121.12
503.389	120.12
503.606	122.12
503.823	124.12
504.04	117.12
504.256	117.12
504.473	113.12
504.69	119.12
504.907	113.12
505.123	109.12
505.34	121.12
505.557	117.12
505.773	129.12
505.99	117.12
506.207	114.12
506.423	133.12
506.64	121.12
506.856	122.12
507.073	116.12
507.289	100.12
507.506	108.12
507.722	122.12
507.939	129.12
508.155	122.12
508.372	102.12
508.588	110.12
508.805	105.12
509.021	104.12
509.238	109.12
509.454	90.12
509.67	99.12
509.887	100.12
510.103	94.12
510.319	104.12
510.536	112.12
510.752	89.12
510.968	91.12
511.184	89.12
511.401	90.12
511.617	85.12
511.833	100.12
