Data from Location1.07152019.Energy5.Lamp.07192019.3%Agarose_HRD10591_14-31-01-015.txt Node
Date: Fri Jul 19 14:31:01 EDT 2019
User: cochatt
Spectrometer: HR+D1059
Trigger mode: 1
Integration Time (sec): 1.000000E-1
Scans to average: 1
Electric dark correction enabled: true
Nonlinearity correction enabled: false
Boxcar width: 0
XAxis mode: Wavelengths
Number of Pixels in Spectrum: 2048
>>>>>Begin Spectral Data<<<<<
223.165	-4.5
223.4	-4.5
223.635	-4.5
223.869	-18.5
224.104	-10.5
224.338	-12.5
224.573	-14.5
224.808	-27.5
225.042	-6.5
225.277	-10.5
225.511	-20.5
225.746	-2.5
225.98	12.5
226.215	15.5
226.449	25.5
226.683	18.5
226.918	29.5
227.152	26.5
227.387	37.5
227.621	36.5
227.856	39.5
228.09	55.5
228.324	52.5
228.559	64.5
228.793	61.5
229.027	71.5
229.262	61.5
229.496	67.5
229.73	79.5
229.964	77.5
230.199	81.5
230.433	75.5
230.667	72.5
230.901	80.5
231.136	74.5
231.37	84.5
231.604	77.5
231.838	76.5
232.072	92.5
232.306	88.5
232.541	80.5
232.775	85.5
233.009	82.5
233.243	90.5
233.477	72.5
233.711	91.5
233.945	88.5
234.179	91.5
234.413	91.5
234.647	91.5
234.881	88.5
235.115	95.5
235.349	84.5
235.583	95.5
235.817	95.5
236.051	87.5
236.285	85.5
236.519	94.5
236.753	78.5
236.987	93.5
237.221	71.5
237.455	89.5
237.689	79.5
237.922	88.5
238.156	83.5
238.39	80.5
238.624	71.5
238.858	82.5
239.091	76.5
239.325	87.5
239.559	83.5
239.793	68.5
240.027	74.5
240.26	83.5
240.494	92.5
240.728	80.5
240.961	91.5
241.195	92.5
241.429	82.5
241.662	77.5
241.896	65.5
242.13	72.5
242.363	92.5
242.597	93.5
242.83	95.5
243.064	89.5
243.298	104.5
243.531	82.5
243.765	77.5
243.998	69.5
244.232	77.5
244.465	84.5
244.699	79.5
244.932	93.5
245.166	74.5
245.399	89.5
245.633	75.5
245.866	97.5
246.099	80.5
246.333	85.5
246.566	91.5
246.8	81.5
247.033	76.5
247.266	73.5
247.5	66.5
247.733	71.5
247.966	75.5
248.2	90.5
248.433	88.5
248.666	86.5
248.899	78.5
249.133	98.5
249.366	81.5
249.599	75.5
249.832	98.5
250.066	84.5
250.299	83.5
250.532	88.5
250.765	79.5
250.998	87.5
251.231	85.5
251.465	89.5
251.698	81.5
251.931	82.5
252.164	89.5
252.397	86.5
252.63	86.5
252.863	79.5
253.096	82.5
253.329	93.5
253.562	74.5
253.795	88.5
254.028	99.5
254.261	77.5
254.494	67.5
254.727	91.5
254.96	79.5
255.193	95.5
255.426	90.5
255.659	84.5
255.892	77.5
256.124	101.5
256.357	83.5
256.59	94.5
256.823	88.5
257.056	88.5
257.289	93.5
257.521	85.5
257.754	85.5
257.987	89.5
258.22	82.5
258.452	78.5
258.685	84.5
258.918	83.5
259.151	90.5
259.383	96.5
259.616	85.5
259.849	104.5
260.081	76.5
260.314	96.5
260.547	75.5
260.779	82.5
261.012	103.5
261.244	93.5
261.477	90.5
261.71	82.5
261.942	84.5
262.175	85.5
262.407	83.5
262.64	92.5
262.872	100.5
263.105	88.5
263.337	92.5
263.57	95.5
263.802	79.5
264.035	86.5
264.267	68.5
264.499	103.5
264.732	94.5
264.964	80.5
265.197	79.5
265.429	91.5
265.661	90.5
265.894	96.5
266.126	85.5
266.358	101.5
266.591	90.5
266.823	91.5
267.055	94.5
267.287	86.5
267.52	80.5
267.752	100.5
267.984	81.5
268.216	79.5
268.448	94.5
268.681	98.5
268.913	80.5
269.145	102.5
269.377	82.5
269.609	82.5
269.841	91.5
270.073	83.5
270.306	83.5
270.538	90.5
270.77	104.5
271.002	84.5
271.234	87.5
271.466	92.5
271.698	79.5
271.93	84.5
272.162	74.5
272.394	98.5
272.626	64.5
272.858	96.5
273.09	76.5
273.322	86.5
273.553	95.5
273.785	85.5
274.017	90.5
274.249	89.5
274.481	97.5
274.713	102.5
274.945	83.5
275.176	89.5
275.408	102.5
275.64	88.5
275.872	85.5
276.104	91.5
276.335	79.5
276.567	86.5
276.799	90.5
277.031	83.5
277.262	74.5
277.494	84.5
277.726	80.5
277.957	81.5
278.189	84.5
278.421	100.5
278.652	74.5
278.884	92.5
279.115	96.5
279.347	84.5
279.579	69.5
279.81	71.5
280.042	91.5
280.273	90.5
280.505	83.5
280.736	79.5
280.968	92.5
281.199	94.5
281.431	91.5
281.662	98.5
281.894	103.5
282.125	88.5
282.356	102.5
282.588	79.5
282.819	80.5
283.051	86.5
283.282	104.5
283.513	96.5
283.745	91.5
283.976	83.5
284.207	85.5
284.439	98.5
284.67	91.5
284.901	89.5
285.132	96.5
285.364	95.5
285.595	92.5
285.826	91.5
286.057	76.5
286.288	98.5
286.52	77.5
286.751	100.5
286.982	93.5
287.213	90.5
287.444	72.5
287.675	84.5
287.906	99.5
288.138	98.5
288.369	92.5
288.6	95.5
288.831	92.5
289.062	92.5
289.293	92.5
289.524	88.5
289.755	96.5
289.986	93.5
290.217	92.5
290.448	82.5
290.679	103.5
290.91	90.5
291.141	95.5
291.371	101.5
291.602	93.5
291.833	82.5
292.064	92.5
292.295	95.5
292.526	94.5
292.757	79.5
292.987	92.5
293.218	101.5
293.449	85.5
293.68	94.5
293.91	87.5
294.141	85.5
294.372	89.5
294.603	92.5
294.833	92.5
295.064	100.5
295.295	81.5
295.525	69.5
295.756	92.5
295.987	94.5
296.217	84.5
296.448	94.5
296.679	87.5
296.909	85.5
297.14	92.5
297.37	97.5
297.601	84.5
297.831	72.5
298.062	87.5
298.292	81.5
298.523	95.5
298.753	99.5
298.984	90.5
299.214	93.5
299.445	92.5
299.675	101.5
299.905	113.5
300.136	77.5
300.366	92.5
300.597	94.5
300.827	88.5
301.057	93.5
301.288	81.5
301.518	95.5
301.748	95.5
301.979	84.5
302.209	88.5
302.439	96.5
302.669	85.5
302.9	99.5
303.13	88.5
303.36	87.5
303.59	100.5
303.82	93.5
304.051	88.5
304.281	94.5
304.511	91.5
304.741	91.5
304.971	92.5
305.201	75.5
305.431	91.5
305.661	91.5
305.891	89.5
306.121	89.5
306.352	85.5
306.582	98.5
306.812	94.5
307.042	98.5
307.272	85.5
307.502	88.5
307.731	81.5
307.961	89.5
308.191	96.5
308.421	93.5
308.651	85.5
308.881	82.5
309.111	88.5
309.341	89.5
309.571	104.5
309.8	92.5
310.03	71.5
310.26	92.5
310.49	88.5
310.72	98.5
310.949	96.5
311.179	89.5
311.409	84.5
311.639	91.5
311.868	83.5
312.098	104.5
312.328	108.5
312.557	84.5
312.787	81.5
313.017	87.5
313.246	88.5
313.476	94.5
313.706	89.5
313.935	91.5
314.165	99.5
314.394	85.5
314.624	94.5
314.853	93.5
315.083	81.5
315.312	92.5
315.542	83.5
315.771	77.5
316.001	76.5
316.23	87.5
316.46	90.5
316.689	85.5
316.919	86.5
317.148	103.5
317.377	89.5
317.607	89.5
317.836	75.5
318.065	77.5
318.295	82.5
318.524	89.5
318.753	96.5
318.983	100.5
319.212	97.5
319.441	99.5
319.67	103.5
319.9	97.5
320.129	84.5
320.358	97.5
320.587	89.5
320.816	85.5
321.046	96.5
321.275	91.5
321.504	95.5
321.733	89.5
321.962	94.5
322.191	89.5
322.42	88.5
322.649	97.5
322.878	102.5
323.108	84.5
323.337	82.5
323.566	99.5
323.795	93.5
324.024	86.5
324.253	74.5
324.482	99.5
324.71	89.5
324.939	90.5
325.168	82.5
325.397	95.5
325.626	97.5
325.855	85.5
326.084	93.5
326.313	92.5
326.542	88.5
326.77	85.5
326.999	84.5
327.228	106.5
327.457	92.5
327.686	80.5
327.914	85.5
328.143	102.5
328.372	93.5
328.6	99.5
328.829	95.5
329.058	93.5
329.287	92.5
329.515	91.5
329.744	97.5
329.972	87.5
330.201	96.5
330.43	97.5
330.658	92.5
330.887	88.5
331.115	95.5
331.344	94.5
331.572	87.5
331.801	81.5
332.03	87.5
332.258	70.5
332.486	88.5
332.715	99.5
332.943	79.5
333.172	91.5
333.4	84.5
333.629	79.5
333.857	91.5
334.085	80.5
334.314	91.5
334.542	82.5
334.771	106.5
334.999	91.5
335.227	96.5
335.455	100.5
335.684	114.5
335.912	85.5
336.14	92.5
336.369	98.5
336.597	85.5
336.825	94.5
337.053	104.5
337.281	83.5
337.51	84.5
337.738	75.5
337.966	82.5
338.194	95.5
338.422	91.5
338.65	86.5
338.878	92.5
339.106	92.5
339.334	97.5
339.562	91.5
339.79	87.5
340.018	89.5
340.246	69.5
340.474	96.5
340.702	95.5
340.93	94.5
341.158	89.5
341.386	83.5
341.614	77.5
341.842	107.5
342.07	88.5
342.298	92.5
342.526	105.5
342.754	80.5
342.981	82.5
343.209	94.5
343.437	88.5
343.665	91.5
343.893	79.5
344.12	91.5
344.348	107.5
344.576	95.5
344.804	88.5
345.031	96.5
345.259	88.5
345.487	94.5
345.714	86.5
345.942	85.5
346.17	99.5
346.397	97.5
346.625	77.5
346.853	84.5
347.08	83.5
347.308	81.5
347.535	80.5
347.763	85.5
347.99	74.5
348.218	87.5
348.445	86.5
348.673	98.5
348.9	93.5
349.128	91.5
349.355	89.5
349.583	101.5
349.81	75.5
350.037	107.5
350.265	93.5
350.492	91.5
350.72	83.5
350.947	90.5
351.174	96.5
351.402	111.5
351.629	96.5
351.856	84.5
352.083	86.5
352.311	89.5
352.538	92.5
352.765	88.5
352.992	93.5
353.22	85.5
353.447	98.5
353.674	103.5
353.901	90.5
354.128	97.5
354.355	85.5
354.583	93.5
354.81	76.5
355.037	84.5
355.264	88.5
355.491	89.5
355.718	91.5
355.945	86.5
356.172	93.5
356.399	85.5
356.626	72.5
356.853	98.5
357.08	96.5
357.307	92.5
357.534	85.5
357.761	95.5
357.988	88.5
358.215	80.5
358.441	85.5
358.668	95.5
358.895	100.5
359.122	87.5
359.349	89.5
359.576	98.5
359.802	82.5
360.029	87.5
360.256	89.5
360.483	104.5
360.709	110.5
360.936	97.5
361.163	89.5
361.39	76.5
361.616	93.5
361.843	76.5
362.07	91.5
362.296	84.5
362.523	96.5
362.749	95.5
362.976	89.5
363.203	92.5
363.429	78.5
363.656	87.5
363.882	93.5
364.109	86.5
364.335	82.5
364.562	87.5
364.788	90.5
365.015	84.5
365.241	94.5
365.468	78.5
365.694	84.5
365.92	99.5
366.147	88.5
366.373	91.5
366.599	92.5
366.826	88.5
367.052	106.5
367.278	89.5
367.505	79.5
367.731	96.5
367.957	95.5
368.184	90.5
368.41	89.5
368.636	91.5
368.862	88.5
369.089	92.5
369.315	97.5
369.541	101.5
369.767	75.5
369.993	79.5
370.219	99.5
370.445	109.5
370.672	86.5
370.898	106.5
371.124	90.5
371.35	88.5
371.576	95.5
371.802	88.5
372.028	91.5
372.254	94.5
372.48	99.5
372.706	77.5
372.932	86.5
373.158	95.5
373.384	95.5
373.61	107.5
373.835	96.5
374.061	73.5
374.287	106.5
374.513	95.5
374.739	92.5
374.965	101.5
375.191	94.5
375.416	99.5
375.642	115.5
375.868	83.5
376.094	97.5
376.319	106.5
376.545	95.5
376.771	91.5
376.997	91.5
377.222	101.5
377.448	92.5
377.674	90.5
377.899	97.5
378.125	88.5
378.35	102.5
378.576	92.5
378.802	103.5
379.027	106.5
379.253	99.5
379.478	104.5
379.704	103.5
379.929	94.5
380.155	105.5
380.38	103.5
380.606	98.5
380.831	105.5
381.057	95.5
381.282	106.5
381.507	93.5
381.733	101.5
381.958	94.5
382.184	101.5
382.409	103.5
382.634	97.5
382.86	102.5
383.085	103.5
383.31	96.5
383.535	82.5
383.761	101.5
383.986	103.5
384.211	89.5
384.436	104.5
384.662	123.5
384.887	98.5
385.112	113.5
385.337	100.5
385.562	112.5
385.787	99.5
386.013	106.5
386.238	107.5
386.463	112.5
386.688	108.5
386.913	106.5
387.138	110.5
387.363	108.5
387.588	120.5
387.813	112.5
388.038	108.5
388.263	107.5
388.488	113.5
388.713	109.5
388.938	97.5
389.163	113.5
389.387	111.5
389.612	117.5
389.837	108.5
390.062	109.5
390.287	112.5
390.512	109.5
390.736	109.5
390.961	93.5
391.186	108.5
391.411	107.5
391.636	113.5
391.86	91.5
392.085	102.5
392.31	102.5
392.534	109.5
392.759	106.5
392.984	121.5
393.208	109.5
393.433	108.5
393.658	97.5
393.882	117.5
394.107	92.5
394.331	113.5
394.556	101.5
394.78	117.5
395.005	122.5
395.229	97.5
395.454	105.5
395.678	115.5
395.903	109.5
396.127	114.5
396.352	121.5
396.576	112.5
396.801	115.5
397.025	108.5
397.249	96.5
397.474	114.5
397.698	121.5
397.922	116.5
398.147	118.5
398.371	111.5
398.595	111.5
398.82	124.5
399.044	110.5
399.268	91.5
399.492	99.5
399.717	116.5
399.941	111.5
400.165	105.5
400.389	104.5
400.613	119.5
400.837	120.5
401.062	112.5
401.286	107.5
401.51	114.5
401.734	106.5
401.958	122.5
402.182	124.5
402.406	107.5
402.63	116.5
402.854	121.5
403.078	121.5
403.302	114.5
403.526	131.5
403.75	117.5
403.974	119.5
404.198	107.5
404.422	113.5
404.645	114.5
404.869	111.5
405.093	121.5
405.317	133.5
405.541	114.5
405.765	120.5
405.988	121.5
406.212	123.5
406.436	122.5
406.66	126.5
406.883	130.5
407.107	121.5
407.331	122.5
407.555	109.5
407.778	129.5
408.002	131.5
408.226	130.5
408.449	120.5
408.673	123.5
408.896	113.5
409.12	119.5
409.344	131.5
409.567	133.5
409.791	131.5
410.014	124.5
410.238	106.5
410.461	129.5
410.685	125.5
410.908	114.5
411.132	133.5
411.355	127.5
411.578	134.5
411.802	115.5
412.025	130.5
412.249	125.5
412.472	141.5
412.695	116.5
412.919	126.5
413.142	123.5
413.365	132.5
413.589	127.5
413.812	125.5
414.035	139.5
414.258	121.5
414.482	130.5
414.705	115.5
414.928	127.5
415.151	135.5
415.374	135.5
415.597	108.5
415.821	126.5
416.044	127.5
416.267	121.5
416.49	127.5
416.713	129.5
416.936	137.5
417.159	141.5
417.382	147.5
417.605	141.5
417.828	131.5
418.051	133.5
418.274	138.5
418.497	149.5
418.72	145.5
418.943	135.5
419.166	130.5
419.389	127.5
419.611	136.5
419.834	123.5
420.057	127.5
420.28	120.5
420.503	139.5
420.726	146.5
420.948	134.5
421.171	121.5
421.394	149.5
421.617	127.5
421.839	144.5
422.062	144.5
422.285	149.5
422.507	141.5
422.73	140.5
422.953	135.5
423.175	133.5
423.398	124.5
423.621	142.5
423.843	131.5
424.066	152.5
424.288	137.5
424.511	136.5
424.733	165.5
424.956	153.5
425.178	146.5
425.401	139.5
425.623	128.5
425.846	138.5
426.068	135.5
426.291	131.5
426.513	149.5
426.735	136.5
426.958	137.5
427.18	141.5
427.402	144.5
427.625	128.5
427.847	137.5
428.069	130.5
428.292	153.5
428.514	135.5
428.736	130.5
428.958	124.5
429.181	138.5
429.403	111.5
429.625	138.5
429.847	135.5
430.069	126.5
430.292	141.5
430.514	124.5
430.736	131.5
430.958	141.5
431.18	116.5
431.402	130.5
431.624	114.5
431.846	110.5
432.068	113.5
432.29	94.5
432.512	114.5
432.734	127.5
432.956	135.5
433.178	137.5
433.4	137.5
433.622	147.5
433.844	152.5
434.066	129.5
434.287	115.5
434.509	98.5
434.731	107.5
434.953	117.5
435.175	125.5
435.397	129.5
435.618	135.5
435.84	117.5
436.062	120.5
436.284	135.5
436.505	137.5
436.727	139.5
436.949	123.5
437.17	147.5
437.392	128.5
437.614	129.5
437.835	130.5
438.057	112.5
438.278	116.5
438.5	136.5
438.721	144.5
438.943	148.5
439.165	141.5
439.386	141.5
439.608	138.5
439.829	146.5
440.05	145.5
440.272	153.5
440.493	154.5
440.715	139.5
440.936	147.5
441.158	158.5
441.379	147.5
441.6	154.5
441.822	170.5
442.043	150.5
442.264	136.5
442.486	147.5
442.707	149.5
442.928	148.5
443.149	134.5
443.371	138.5
443.592	148.5
443.813	148.5
444.034	131.5
444.255	150.5
444.476	139.5
444.698	146.5
444.919	143.5
445.14	265.5
445.361	204.5
445.582	167.5
445.803	133.5
446.024	149.5
446.245	143.5
446.466	142.5
446.687	143.5
446.908	165.5
447.129	153.5
447.35	163.5
447.571	161.5
447.792	159.5
448.013	140.5
448.234	147.5
448.455	144.5
448.675	150.5
448.896	131.5
449.117	143.5
449.338	136.5
449.559	147.5
449.779	143.5
450	143.5
450.221	122.5
450.442	130.5
450.662	137.5
450.883	132.5
451.104	138.5
451.324	129.5
451.545	143.5
451.766	122.5
451.986	128.5
452.207	141.5
452.428	124.5
452.648	127.5
452.869	124.5
453.089	116.5
453.31	112.5
453.53	118.5
453.751	118.5
453.971	109.5
454.192	100.5
454.412	117.5
454.633	123.5
454.853	129.5
455.073	124.5
455.294	132.5
455.514	115.5
455.734	130.5
455.955	128.5
456.175	123.5
456.395	114.5
456.616	109.5
456.836	124.5
457.056	115.5
457.276	103.5
457.497	123.5
457.717	104.5
457.937	106.5
458.157	117.5
458.377	114.5
458.598	98.5
458.818	101.5
459.038	99.5
459.258	113.5
459.478	100.5
459.698	94.5
459.918	121.5
460.138	119.5
460.358	132.5
460.578	130.5
460.798	118.5
461.018	109.5
461.238	121.5
461.458	118.5
461.678	116.5
461.898	111.5
462.118	121.5
462.338	123.5
462.558	119.5
462.777	132.5
462.997	111.5
463.217	120.5
463.437	121.5
463.657	101.5
463.876	108.5
464.096	106.5
464.316	108.5
464.536	115.5
464.755	113.5
464.975	109.5
465.195	117.5
465.414	109.5
465.634	106.5
465.854	114.5
466.073	122.5
466.293	131.5
466.512	120.5
466.732	133.5
466.951	119.5
467.171	127.5
467.391	131.5
467.61	130.5
467.829	121.5
468.049	142.5
468.268	133.5
468.488	136.5
468.707	137.5
468.927	147.5
469.146	149.5
469.365	146.5
469.585	153.5
469.804	143.5
470.023	131.5
470.243	142.5
470.462	146.5
470.681	154.5
470.901	149.5
471.12	149.5
471.339	143.5
471.558	128.5
471.777	139.5
471.997	135.5
472.216	139.5
472.435	122.5
472.654	130.5
472.873	113.5
473.092	128.5
473.311	129.5
473.53	132.5
473.749	139.5
473.968	137.5
474.187	122.5
474.406	119.5
474.625	129.5
474.844	128.5
475.063	130.5
475.282	133.5
475.501	126.5
475.72	123.5
475.939	125.5
476.158	130.5
476.377	135.5
476.596	132.5
476.814	133.5
477.033	118.5
477.252	120.5
477.471	131.5
477.69	131.5
477.908	136.5
478.127	146.5
478.346	154.5
478.564	131.5
478.783	137.5
479.002	157.5
479.22	139.5
479.439	134.5
479.658	120.5
479.876	119.5
480.095	108.5
480.313	121.5
480.532	109.5
480.751	115.5
480.969	90.5
481.188	91.5
481.406	84.5
481.624	111.5
481.843	88.5
482.061	100.5
482.28	119.5
482.498	123.5
482.717	116.5
482.935	135.5
483.153	135.5
483.372	145.5
483.59	164.5
483.808	139.5
484.027	136.5
484.245	133.5
484.463	144.5
484.681	173.5
484.9	142.5
485.118	133.5
485.336	122.5
485.554	116.5
485.772	99.5
485.99	110.5
486.209	101.5
486.427	121.5
486.645	130.5
486.863	145.5
487.081	140.5
487.299	138.5
487.517	143.5
487.735	176.5
487.953	176.5
488.171	199.5
488.389	181.5
488.607	165.5
488.825	131.5
489.043	131.5
489.261	133.5
489.479	128.5
489.696	135.5
489.914	128.5
490.132	140.5
490.35	144.5
490.568	163.5
490.786	169.5
491.003	195.5
491.221	179.5
491.439	167.5
491.657	181.5
491.874	216.5
492.092	219.5
492.31	243.5
492.527	226.5
492.745	217.5
492.963	188.5
493.18	195.5
493.398	188.5
493.615	177.5
493.833	168.5
494.05	176.5
494.268	192.5
494.485	179.5
494.703	194.5
494.92	185.5
495.138	189.5
495.355	175.5
495.573	191.5
495.79	172.5
496.008	186.5
496.225	169.5
496.442	157.5
496.66	170.5
496.877	176.5
497.094	168.5
497.312	160.5
497.529	152.5
497.746	166.5
497.963	143.5
498.181	137.5
498.398	135.5
498.615	115.5
498.832	115.5
499.049	124.5
499.267	128.5
499.484	129.5
499.701	135.5
499.918	127.5
500.135	131.5
500.352	141.5
500.569	135.5
500.786	155.5
501.003	140.5
501.22	138.5
501.437	140.5
501.654	144.5
501.871	128.5
502.088	132.5
502.305	134.5
502.522	127.5
502.739	120.5
502.956	131.5
503.172	135.5
503.389	138.5
503.606	123.5
503.823	114.5
504.04	115.5
504.256	122.5
504.473	133.5
504.69	116.5
504.907	121.5
505.123	109.5
505.34	133.5
505.557	131.5
505.773	139.5
505.99	128.5
506.207	115.5
506.423	124.5
506.64	113.5
506.856	124.5
507.073	132.5
507.289	98.5
507.506	112.5
507.722	116.5
507.939	124.5
508.155	132.5
508.372	110.5
508.588	103.5
508.805	113.5
509.021	108.5
509.238	113.5
509.454	107.5
509.67	103.5
509.887	109.5
510.103	111.5
510.319	82.5
510.536	92.5
510.752	94.5
510.968	101.5
511.184	89.5
511.401	88.5
511.617	99.5
511.833	91.5
512.049	95.5
512.265	104.5
512.481	114.5
512.698	92.5
512.914	101.5
513.13	105.5
513.346	97.5
513.562	107.5
513.778	85.5
513.994	103.5
514.21	105.5
514.426	102.5
514.642	105.5
514.858	88.5
515.074	99.5
515.29	106.5
515.506	97.5
515.721	99.5
515.937	100.5
516.153	89.5
516.369	87.5
516.585	101.5
516.801	99.5
517.016	95.5
517.232	99.5
517.448	100.5
517.664	103.5
517.879	109.5
518.095	105.5
518.311	96.5
518.527	99.5
518.742	95.5
518.958	115.5
519.173	109.5
519.389	103.5
519.605	116.5
519.82	101.5
520.036	109.5
520.251	115.5
520.467	101.5
520.682	85.5
520.898	110.5
521.113	91.5
521.329	95.5
521.544	101.5
521.76	93.5
521.975	95.5
522.19	98.5
522.406	109.5
522.621	92.5
522.836	107.5
523.052	105.5
523.267	110.5
523.482	105.5
523.698	119.5
523.913	116.5
524.128	116.5
524.343	119.5
524.559	123.5
524.774	115.5
524.989	121.5
525.204	121.5
525.419	119.5
525.634	120.5
525.849	123.5
526.064	107.5
526.28	123.5
526.495	99.5
526.71	102.5
526.925	88.5
527.14	90.5
527.355	88.5
527.57	105.5
527.785	85.5
527.999	103.5
528.214	100.5
528.429	105.5
528.644	127.5
528.859	145.5
529.074	159.5
529.289	165.5
529.503	165.5
