Data from Location1.07152019.Energy5.Lamp.07192019.3%Agarose_HRD10591_14-32-49-015.txt Node
Date: Fri Jul 19 14:32:49 EDT 2019
User: cochatt
Spectrometer: HR+D1059
Trigger mode: 1
Integration Time (sec): 1.000000E-1
Scans to average: 1
Electric dark correction enabled: true
Nonlinearity correction enabled: false
Boxcar width: 0
XAxis mode: Wavelengths
Number of Pixels in Spectrum: 2048
>>>>>Begin Spectral Data<<<<<
223.165	-23.62
223.4	-23.62
223.635	-23.62
223.869	-17.62
224.104	-19.62
224.338	-9.62
224.573	-10.62
224.808	-21.62
225.042	-6.62
225.277	-14.62
225.511	-0.62
225.746	-3.62
225.98	11.38
226.215	11.38
226.449	10.38
226.683	22.38
226.918	35.38
227.152	37.38
227.387	33.38
227.621	20.38
227.856	43.38
228.09	41.38
228.324	43.38
228.559	62.38
228.793	52.38
229.027	48.38
229.262	61.38
229.496	44.38
229.73	65.38
229.964	59.38
230.199	71.38
230.433	73.38
230.667	66.38
230.901	69.38
231.136	80.38
231.37	83.38
231.604	68.38
231.838	75.38
232.072	84.38
232.306	90.38
232.541	93.38
232.775	93.38
233.009	84.38
233.243	98.38
233.477	79.38
233.711	74.38
233.945	83.38
234.179	78.38
234.413	78.38
234.647	65.38
234.881	78.38
235.115	76.38
235.349	77.38
235.583	77.38
235.817	78.38
236.051	77.38
236.285	62.38
236.519	79.38
236.753	92.38
236.987	74.38
237.221	83.38
237.455	80.38
237.689	83.38
237.922	71.38
238.156	64.38
238.39	81.38
238.624	71.38
238.858	85.38
239.091	69.38
239.325	81.38
239.559	64.38
239.793	77.38
240.027	66.38
240.26	65.38
240.494	73.38
240.728	71.38
240.961	59.38
241.195	69.38
241.429	76.38
241.662	73.38
241.896	95.38
242.13	78.38
242.363	71.38
242.597	79.38
242.83	92.38
243.064	85.38
243.298	77.38
243.531	81.38
243.765	81.38
243.998	78.38
244.232	82.38
244.465	77.38
244.699	78.38
244.932	82.38
245.166	68.38
245.399	80.38
245.633	72.38
245.866	77.38
246.099	90.38
246.333	82.38
246.566	64.38
246.8	80.38
247.033	69.38
247.266	76.38
247.5	71.38
247.733	80.38
247.966	83.38
248.2	68.38
248.433	77.38
248.666	79.38
248.899	73.38
249.133	73.38
249.366	81.38
249.599	74.38
249.832	70.38
250.066	80.38
250.299	68.38
250.532	81.38
250.765	66.38
250.998	81.38
251.231	72.38
251.465	89.38
251.698	69.38
251.931	85.38
252.164	80.38
252.397	66.38
252.63	78.38
252.863	73.38
253.096	69.38
253.329	80.38
253.562	85.38
253.795	89.38
254.028	77.38
254.261	67.38
254.494	70.38
254.727	83.38
254.96	73.38
255.193	82.38
255.426	75.38
255.659	68.38
255.892	78.38
256.124	80.38
256.357	88.38
256.59	76.38
256.823	90.38
257.056	70.38
257.289	74.38
257.521	82.38
257.754	72.38
257.987	93.38
258.22	84.38
258.452	60.38
258.685	84.38
258.918	79.38
259.151	91.38
259.383	89.38
259.616	78.38
259.849	76.38
260.081	79.38
260.314	78.38
260.547	81.38
260.779	81.38
261.012	77.38
261.244	78.38
261.477	81.38
261.71	90.38
261.942	76.38
262.175	81.38
262.407	87.38
262.64	92.38
262.872	74.38
263.105	74.38
263.337	74.38
263.57	67.38
263.802	90.38
264.035	83.38
264.267	65.38
264.499	69.38
264.732	77.38
264.964	82.38
265.197	82.38
265.429	74.38
265.661	86.38
265.894	67.38
266.126	73.38
266.358	59.38
266.591	75.38
266.823	85.38
267.055	73.38
267.287	99.38
267.52	75.38
267.752	80.38
267.984	86.38
268.216	89.38
268.448	84.38
268.681	84.38
268.913	94.38
269.145	73.38
269.377	88.38
269.609	77.38
269.841	84.38
270.073	89.38
270.306	73.38
270.538	83.38
270.77	69.38
271.002	77.38
271.234	79.38
271.466	80.38
271.698	87.38
271.93	90.38
272.162	90.38
272.394	85.38
272.626	93.38
272.858	85.38
273.09	86.38
273.322	77.38
273.553	84.38
273.785	66.38
274.017	70.38
274.249	77.38
274.481	87.38
274.713	81.38
274.945	89.38
275.176	77.38
275.408	85.38
275.64	78.38
275.872	95.38
276.104	76.38
276.335	68.38
276.567	81.38
276.799	84.38
277.031	70.38
277.262	80.38
277.494	82.38
277.726	84.38
277.957	73.38
278.189	78.38
278.421	75.38
278.652	74.38
278.884	78.38
279.115	71.38
279.347	78.38
279.579	94.38
279.81	76.38
280.042	81.38
280.273	78.38
280.505	77.38
280.736	84.38
280.968	89.38
281.199	75.38
281.431	88.38
281.662	77.38
281.894	88.38
282.125	82.38
282.356	90.38
282.588	86.38
282.819	87.38
283.051	80.38
283.282	82.38
283.513	85.38
283.745	69.38
283.976	99.38
284.207	78.38
284.439	82.38
284.67	77.38
284.901	84.38
285.132	82.38
285.364	75.38
285.595	78.38
285.826	90.38
286.057	74.38
286.288	60.38
286.52	73.38
286.751	77.38
286.982	83.38
287.213	87.38
287.444	77.38
287.675	92.38
287.906	88.38
288.138	96.38
288.369	97.38
288.6	97.38
288.831	83.38
289.062	84.38
289.293	86.38
289.524	71.38
289.755	74.38
289.986	89.38
290.217	83.38
290.448	79.38
290.679	84.38
290.91	88.38
291.141	73.38
291.371	82.38
291.602	86.38
291.833	90.38
292.064	88.38
292.295	81.38
292.526	76.38
292.757	64.38
292.987	74.38
293.218	86.38
293.449	80.38
293.68	77.38
293.91	86.38
294.141	80.38
294.372	80.38
294.603	85.38
294.833	66.38
295.064	70.38
295.295	71.38
295.525	71.38
295.756	86.38
295.987	84.38
296.217	83.38
296.448	78.38
296.679	74.38
296.909	71.38
297.14	96.38
297.37	94.38
297.601	80.38
297.831	77.38
298.062	80.38
298.292	74.38
298.523	68.38
298.753	97.38
298.984	91.38
299.214	84.38
299.445	84.38
299.675	78.38
299.905	86.38
300.136	89.38
300.366	85.38
300.597	85.38
300.827	67.38
301.057	98.38
301.288	83.38
301.518	79.38
301.748	78.38
301.979	86.38
302.209	85.38
302.439	85.38
302.669	88.38
302.9	86.38
303.13	75.38
303.36	88.38
303.59	81.38
303.82	92.38
304.051	73.38
304.281	77.38
304.511	97.38
304.741	73.38
304.971	74.38
305.201	88.38
305.431	71.38
305.661	90.38
305.891	79.38
306.121	86.38
306.352	68.38
306.582	77.38
306.812	82.38
307.042	76.38
307.272	85.38
307.502	56.38
307.731	79.38
307.961	84.38
308.191	88.38
308.421	77.38
308.651	83.38
308.881	86.38
309.111	83.38
309.341	78.38
309.571	83.38
309.8	85.38
310.03	78.38
310.26	87.38
310.49	68.38
310.72	78.38
310.949	82.38
311.179	84.38
311.409	74.38
311.639	88.38
311.868	85.38
312.098	99.38
312.328	62.38
312.557	90.38
312.787	84.38
313.017	86.38
313.246	85.38
313.476	73.38
313.706	76.38
313.935	72.38
314.165	86.38
314.394	85.38
314.624	82.38
314.853	87.38
315.083	85.38
315.312	76.38
315.542	70.38
315.771	65.38
316.001	88.38
316.23	92.38
316.46	78.38
316.689	71.38
316.919	67.38
317.148	85.38
317.377	81.38
317.607	77.38
317.836	82.38
318.065	75.38
318.295	82.38
318.524	94.38
318.753	74.38
318.983	86.38
319.212	82.38
319.441	95.38
319.67	88.38
319.9	86.38
320.129	78.38
320.358	81.38
320.587	76.38
320.816	92.38
321.046	70.38
321.275	91.38
321.504	86.38
321.733	96.38
321.962	77.38
322.191	63.38
322.42	86.38
322.649	82.38
322.878	86.38
323.108	85.38
323.337	82.38
323.566	82.38
323.795	69.38
324.024	81.38
324.253	94.38
324.482	91.38
324.71	74.38
324.939	95.38
325.168	76.38
325.397	86.38
325.626	80.38
325.855	75.38
326.084	82.38
326.313	88.38
326.542	95.38
326.77	79.38
326.999	76.38
327.228	86.38
327.457	86.38
327.686	99.38
327.914	82.38
328.143	93.38
328.372	76.38
328.6	85.38
328.829	106.38
329.058	82.38
329.287	89.38
329.515	82.38
329.744	89.38
329.972	80.38
330.201	77.38
330.43	76.38
330.658	85.38
330.887	80.38
331.115	75.38
331.344	84.38
331.572	96.38
331.801	83.38
332.03	72.38
332.258	88.38
332.486	74.38
332.715	84.38
332.943	85.38
333.172	71.38
333.4	76.38
333.629	79.38
333.857	90.38
334.085	86.38
334.314	84.38
334.542	81.38
334.771	87.38
334.999	80.38
335.227	90.38
335.455	78.38
335.684	88.38
335.912	82.38
336.14	81.38
336.369	75.38
336.597	74.38
336.825	74.38
337.053	69.38
337.281	94.38
337.51	86.38
337.738	105.38
337.966	91.38
338.194	72.38
338.422	84.38
338.65	88.38
338.878	94.38
339.106	78.38
339.334	80.38
339.562	81.38
339.79	78.38
340.018	89.38
340.246	77.38
340.474	73.38
340.702	92.38
340.93	76.38
341.158	80.38
341.386	85.38
341.614	76.38
341.842	82.38
342.07	83.38
342.298	93.38
342.526	81.38
342.754	87.38
342.981	81.38
343.209	86.38
343.437	79.38
343.665	94.38
343.893	81.38
344.12	102.38
344.348	78.38
344.576	75.38
344.804	73.38
345.031	88.38
345.259	86.38
345.487	98.38
345.714	86.38
345.942	78.38
346.17	80.38
346.397	80.38
346.625	79.38
346.853	81.38
347.08	82.38
347.308	82.38
347.535	90.38
347.763	74.38
347.99	77.38
348.218	88.38
348.445	85.38
348.673	88.38
348.9	76.38
349.128	75.38
349.355	98.38
349.583	86.38
349.81	74.38
350.037	87.38
350.265	92.38
350.492	93.38
350.72	79.38
350.947	75.38
351.174	94.38
351.402	73.38
351.629	81.38
351.856	79.38
352.083	71.38
352.311	75.38
352.538	82.38
352.765	87.38
352.992	82.38
353.22	75.38
353.447	70.38
353.674	77.38
353.901	84.38
354.128	77.38
354.355	86.38
354.583	82.38
354.81	80.38
355.037	84.38
355.264	73.38
355.491	76.38
355.718	68.38
355.945	83.38
356.172	78.38
356.399	82.38
356.626	78.38
356.853	77.38
357.08	78.38
357.307	96.38
357.534	92.38
357.761	91.38
357.988	95.38
358.215	78.38
358.441	72.38
358.668	78.38
358.895	91.38
359.122	90.38
359.349	87.38
359.576	76.38
359.802	81.38
360.029	93.38
360.256	75.38
360.483	85.38
360.709	85.38
360.936	88.38
361.163	69.38
361.39	87.38
361.616	92.38
361.843	80.38
362.07	87.38
362.296	80.38
362.523	72.38
362.749	78.38
362.976	79.38
363.203	87.38
363.429	80.38
363.656	83.38
363.882	76.38
364.109	79.38
364.335	77.38
364.562	73.38
364.788	82.38
365.015	76.38
365.241	73.38
365.468	80.38
365.694	82.38
365.92	77.38
366.147	89.38
366.373	69.38
366.599	85.38
366.826	84.38
367.052	81.38
367.278	82.38
367.505	97.38
367.731	84.38
367.957	84.38
368.184	81.38
368.41	80.38
368.636	90.38
368.862	99.38
369.089	77.38
369.315	84.38
369.541	96.38
369.767	93.38
369.993	85.38
370.219	100.38
370.445	69.38
370.672	82.38
370.898	84.38
371.124	75.38
371.35	90.38
371.576	82.38
371.802	91.38
372.028	94.38
372.254	105.38
372.48	89.38
372.706	91.38
372.932	71.38
373.158	89.38
373.384	86.38
373.61	93.38
373.835	83.38
374.061	86.38
374.287	105.38
374.513	95.38
374.739	68.38
374.965	98.38
375.191	88.38
375.416	87.38
375.642	92.38
375.868	100.38
376.094	84.38
376.319	89.38
376.545	106.38
376.771	89.38
376.997	80.38
377.222	91.38
377.448	92.38
377.674	86.38
377.899	92.38
378.125	74.38
378.35	86.38
378.576	87.38
378.802	99.38
379.027	90.38
379.253	98.38
379.478	82.38
379.704	76.38
379.929	95.38
380.155	100.38
380.38	82.38
380.606	97.38
380.831	97.38
381.057	99.38
381.282	90.38
381.507	84.38
381.733	92.38
381.958	92.38
382.184	101.38
382.409	92.38
382.634	90.38
382.86	86.38
383.085	101.38
383.31	93.38
383.535	114.38
383.761	102.38
383.986	87.38
384.211	92.38
384.436	94.38
384.662	101.38
384.887	90.38
385.112	91.38
385.337	93.38
385.562	85.38
385.787	105.38
386.013	105.38
386.238	99.38
386.463	91.38
386.688	85.38
386.913	98.38
387.138	94.38
387.363	101.38
387.588	92.38
387.813	111.38
388.038	88.38
388.263	96.38
388.488	95.38
388.713	107.38
388.938	99.38
389.163	89.38
389.387	103.38
389.612	96.38
389.837	102.38
390.062	107.38
390.287	90.38
390.512	89.38
390.736	98.38
390.961	101.38
391.186	106.38
391.411	104.38
391.636	105.38
391.86	97.38
392.085	105.38
392.31	101.38
392.534	116.38
392.759	106.38
392.984	90.38
393.208	105.38
393.433	98.38
393.658	105.38
393.882	104.38
394.107	118.38
394.331	106.38
394.556	106.38
394.78	103.38
395.005	97.38
395.229	92.38
395.454	100.38
395.678	96.38
395.903	105.38
396.127	101.38
396.352	91.38
396.576	93.38
396.801	104.38
397.025	110.38
397.249	110.38
397.474	109.38
397.698	110.38
397.922	113.38
398.147	104.38
398.371	89.38
398.595	107.38
398.82	107.38
399.044	96.38
399.268	114.38
399.492	102.38
399.717	107.38
399.941	101.38
400.165	96.38
400.389	117.38
400.613	107.38
400.837	95.38
401.062	107.38
401.286	104.38
401.51	107.38
401.734	91.38
401.958	98.38
402.182	95.38
402.406	101.38
402.63	111.38
402.854	124.38
403.078	114.38
403.302	98.38
403.526	119.38
403.75	107.38
403.974	101.38
404.198	120.38
404.422	128.38
404.645	114.38
404.869	122.38
405.093	110.38
405.317	116.38
405.541	113.38
405.765	108.38
405.988	123.38
406.212	125.38
406.436	112.38
406.66	115.38
406.883	118.38
407.107	105.38
407.331	109.38
407.555	123.38
407.778	124.38
408.002	116.38
408.226	102.38
408.449	112.38
408.673	117.38
408.896	109.38
409.12	112.38
409.344	121.38
409.567	116.38
409.791	117.38
410.014	125.38
410.238	119.38
410.461	115.38
410.685	126.38
410.908	122.38
411.132	124.38
411.355	103.38
411.578	125.38
411.802	122.38
412.025	114.38
412.249	110.38
412.472	100.38
412.695	117.38
412.919	122.38
413.142	123.38
413.365	102.38
413.589	124.38
413.812	120.38
414.035	128.38
414.258	121.38
414.482	122.38
414.705	121.38
414.928	114.38
415.151	121.38
415.374	115.38
415.597	120.38
415.821	114.38
416.044	119.38
416.267	122.38
416.49	141.38
416.713	123.38
416.936	124.38
417.159	124.38
417.382	123.38
417.605	130.38
417.828	125.38
418.051	120.38
418.274	119.38
418.497	122.38
418.72	128.38
418.943	117.38
419.166	131.38
419.389	121.38
419.611	138.38
419.834	134.38
420.057	124.38
420.28	129.38
420.503	132.38
420.726	132.38
420.948	135.38
421.171	117.38
421.394	128.38
421.617	138.38
421.839	129.38
422.062	134.38
422.285	118.38
422.507	128.38
422.73	121.38
422.953	116.38
423.175	134.38
423.398	136.38
423.621	130.38
423.843	125.38
424.066	140.38
424.288	132.38
424.511	138.38
424.733	128.38
424.956	132.38
425.178	134.38
425.401	124.38
425.623	133.38
425.846	134.38
426.068	134.38
426.291	118.38
426.513	117.38
426.735	126.38
426.958	120.38
427.18	142.38
427.402	126.38
427.625	129.38
427.847	114.38
428.069	125.38
428.292	126.38
428.514	121.38
428.736	126.38
428.958	137.38
429.181	117.38
429.403	124.38
429.625	123.38
429.847	123.38
430.069	126.38
430.292	113.38
430.514	117.38
430.736	126.38
430.958	128.38
431.18	123.38
431.402	118.38
431.624	133.38
431.846	101.38
432.068	90.38
432.29	91.38
432.512	109.38
432.734	112.38
432.956	125.38
433.178	136.38
433.4	140.38
433.622	135.38
433.844	136.38
434.066	125.38
434.287	94.38
434.509	96.38
434.731	101.38
434.953	120.38
435.175	112.38
435.397	134.38
435.618	115.38
435.84	104.38
436.062	98.38
436.284	133.38
436.505	126.38
436.727	132.38
436.949	135.38
437.17	124.38
437.392	125.38
437.614	116.38
437.835	97.38
438.057	107.38
438.278	108.38
438.5	122.38
438.721	124.38
438.943	131.38
439.165	141.38
439.386	128.38
439.608	135.38
439.829	131.38
440.05	122.38
440.272	128.38
440.493	136.38
440.715	154.38
440.936	139.38
441.158	151.38
441.379	139.38
441.6	164.38
441.822	143.38
442.043	132.38
442.264	150.38
442.486	134.38
442.707	139.38
442.928	139.38
443.149	127.38
443.371	123.38
443.592	138.38
443.813	134.38
444.034	136.38
444.255	138.38
444.476	130.38
444.698	148.38
444.919	145.38
445.14	260.38
445.361	202.38
445.582	140.38
445.803	146.38
446.024	150.38
446.245	149.38
446.466	154.38
446.687	147.38
446.908	138.38
447.129	150.38
447.35	147.38
447.571	151.38
447.792	136.38
448.013	146.38
448.234	148.38
448.455	141.38
448.675	140.38
448.896	136.38
449.117	130.38
449.338	129.38
449.559	132.38
449.779	127.38
450	138.38
450.221	126.38
450.442	137.38
450.662	140.38
450.883	129.38
451.104	123.38
451.324	129.38
451.545	117.38
451.766	118.38
451.986	127.38
452.207	116.38
452.428	132.38
452.648	125.38
452.869	120.38
453.089	108.38
453.31	114.38
453.53	107.38
453.751	100.38
453.971	104.38
454.192	97.38
454.412	106.38
454.633	103.38
454.853	104.38
455.073	125.38
455.294	124.38
455.514	128.38
455.734	118.38
455.955	120.38
456.175	124.38
456.395	112.38
456.616	108.38
456.836	103.38
457.056	122.38
457.276	95.38
457.497	102.38
457.717	105.38
457.937	98.38
458.157	101.38
458.377	115.38
458.598	94.38
458.818	93.38
459.038	89.38
459.258	80.38
459.478	89.38
459.698	96.38
459.918	99.38
460.138	101.38
460.358	116.38
460.578	120.38
460.798	104.38
461.018	105.38
461.238	112.38
461.458	123.38
461.678	107.38
461.898	123.38
462.118	113.38
462.338	104.38
462.558	106.38
462.777	112.38
462.997	95.38
463.217	112.38
463.437	96.38
463.657	95.38
463.876	119.38
464.096	104.38
464.316	94.38
464.536	98.38
464.755	118.38
464.975	106.38
465.195	130.38
465.414	103.38
465.634	107.38
465.854	124.38
466.073	122.38
466.293	123.38
466.512	110.38
466.732	134.38
466.951	129.38
467.171	127.38
467.391	130.38
467.61	128.38
467.829	120.38
468.049	128.38
468.268	137.38
468.488	126.38
468.707	125.38
468.927	135.38
469.146	158.38
469.365	135.38
469.585	136.38
469.804	117.38
470.023	120.38
470.243	142.38
470.462	117.38
470.681	120.38
470.901	142.38
471.12	137.38
471.339	135.38
471.558	125.38
471.777	132.38
471.997	115.38
472.216	119.38
472.435	116.38
472.654	105.38
472.873	106.38
473.092	127.38
473.311	148.38
473.53	128.38
473.749	122.38
473.968	128.38
474.187	120.38
474.406	116.38
474.625	127.38
474.844	130.38
475.063	119.38
475.282	124.38
475.501	125.38
475.72	125.38
475.939	139.38
476.158	112.38
476.377	118.38
476.596	102.38
476.814	114.38
477.033	124.38
477.252	117.38
477.471	127.38
477.69	122.38
477.908	132.38
478.127	141.38
478.346	140.38
478.564	136.38
478.783	141.38
479.002	120.38
479.22	120.38
479.439	110.38
479.658	121.38
479.876	108.38
480.095	109.38
480.313	107.38
480.532	114.38
480.751	121.38
480.969	102.38
481.188	88.38
481.406	85.38
481.624	88.38
481.843	89.38
482.061	97.38
482.28	112.38
482.498	118.38
482.717	119.38
482.935	114.38
483.153	137.38
483.372	160.38
483.59	137.38
483.808	144.38
484.027	133.38
484.245	153.38
484.463	130.38
484.681	165.38
484.9	142.38
485.118	131.38
485.336	117.38
485.554	102.38
485.772	104.38
485.99	102.38
486.209	115.38
486.427	105.38
486.645	96.38
486.863	136.38
487.081	129.38
487.299	143.38
487.517	125.38
487.735	151.38
487.953	201.38
488.171	192.38
488.389	181.38
488.607	147.38
488.825	142.38
489.043	137.38
489.261	131.38
489.479	136.38
489.696	145.38
489.914	130.38
490.132	142.38
490.35	149.38
490.568	146.38
490.786	179.38
491.003	173.38
491.221	156.38
491.439	185.38
491.657	169.38
491.874	194.38
492.092	222.38
492.31	221.38
492.527	214.38
492.745	197.38
492.963	195.38
493.18	190.38
493.398	181.38
493.615	181.38
493.833	168.38
494.05	144.38
494.268	168.38
494.485	162.38
494.703	171.38
494.92	176.38
495.138	162.38
495.355	158.38
495.573	166.38
495.79	147.38
496.008	174.38
496.225	174.38
496.442	157.38
496.66	166.38
496.877	164.38
497.094	162.38
497.312	150.38
497.529	151.38
497.746	145.38
497.963	139.38
498.181	122.38
498.398	120.38
498.615	125.38
498.832	116.38
499.049	112.38
499.267	102.38
499.484	123.38
499.701	134.38
499.918	140.38
500.135	142.38
500.352	137.38
500.569	132.38
500.786	130.38
501.003	144.38
501.22	132.38
501.437	129.38
501.654	132.38
501.871	120.38
502.088	132.38
502.305	141.38
502.522	108.38
502.739	122.38
502.956	128.38
503.172	107.38
503.389	126.38
503.606	118.38
503.823	117.38
504.04	121.38
504.256	120.38
504.473	116.38
504.69	117.38
504.907	116.38
505.123	127.38
505.34	122.38
505.557	128.38
505.773	118.38
505.99	115.38
506.207	108.38
506.423	139.38
506.64	117.38
506.856	131.38
507.073	129.38
507.289	114.38
507.506	117.38
507.722	107.38
507.939	122.38
508.155	112.38
508.372	121.38
508.588	110.38
508.805	109.38
509.021	105.38
509.238	100.38
509.454	105.38
509.67	107.38
509.887	100.38
510.103	87.38
510.319	98.38
510.536	89.38
510.752	90.38
510.968	87.38
511.184	90.38
511.401	76.38
511.617	74.38
511.833	88.38
512.049	92.38
