Data from Location1.07152019.Energy5.Lamp.07192019.3%Agarose_HRD10591_14-31-35-015.txt Node
Date: Fri Jul 19 14:31:35 EDT 2019
User: cochatt
Spectrometer: HR+D1059
Trigger mode: 1
Integration Time (sec): 1.000000E-1
Scans to average: 1
Electric dark correction enabled: true
Nonlinearity correction enabled: false
Boxcar width: 0
XAxis mode: Wavelengths
Number of Pixels in Spectrum: 2048
>>>>>Begin Spectral Data<<<<<
223.165	-18.56
223.4	-18.56
223.635	-18.56
223.869	-18.56
224.104	-26.56
224.338	-16.56
224.573	-19.56
224.808	-2.56
225.042	-1.56
225.277	3.44
225.511	-11.56
225.746	-6.56
225.98	1.44
226.215	17.44
226.449	21.44
226.683	23.44
226.918	19.44
227.152	35.44
227.387	26.44
227.621	27.44
227.856	47.44
228.09	40.44
228.324	40.44
228.559	65.44
228.793	58.44
229.027	63.44
229.262	48.44
229.496	64.44
229.73	59.44
229.964	63.44
230.199	66.44
230.433	72.44
230.667	67.44
230.901	72.44
231.136	73.44
231.37	69.44
231.604	76.44
231.838	72.44
232.072	69.44
232.306	70.44
232.541	68.44
232.775	76.44
233.009	84.44
233.243	75.44
233.477	88.44
233.711	60.44
233.945	79.44
234.179	74.44
234.413	85.44
234.647	74.44
234.881	83.44
235.115	67.44
235.349	76.44
235.583	69.44
235.817	69.44
236.051	78.44
236.285	79.44
236.519	90.44
236.753	66.44
236.987	70.44
237.221	81.44
237.455	67.44
237.689	74.44
237.922	70.44
238.156	72.44
238.39	82.44
238.624	73.44
238.858	77.44
239.091	61.44
239.325	61.44
239.559	73.44
239.793	79.44
240.027	80.44
240.26	70.44
240.494	63.44
240.728	68.44
240.961	56.44
241.195	77.44
241.429	66.44
241.662	58.44
241.896	68.44
242.13	68.44
242.363	73.44
242.597	67.44
242.83	68.44
243.064	71.44
243.298	78.44
243.531	63.44
243.765	70.44
243.998	85.44
244.232	67.44
244.465	89.44
244.699	59.44
244.932	75.44
245.166	78.44
245.399	83.44
245.633	72.44
245.866	75.44
246.099	79.44
246.333	78.44
246.566	80.44
246.8	82.44
247.033	84.44
247.266	75.44
247.5	89.44
247.733	80.44
247.966	75.44
248.2	69.44
248.433	78.44
248.666	80.44
248.899	72.44
249.133	73.44
249.366	76.44
249.599	68.44
249.832	75.44
250.066	83.44
250.299	70.44
250.532	78.44
250.765	71.44
250.998	82.44
251.231	66.44
251.465	70.44
251.698	77.44
251.931	73.44
252.164	70.44
252.397	73.44
252.63	71.44
252.863	72.44
253.096	66.44
253.329	72.44
253.562	93.44
253.795	72.44
254.028	81.44
254.261	73.44
254.494	65.44
254.727	75.44
254.96	72.44
255.193	72.44
255.426	79.44
255.659	70.44
255.892	78.44
256.124	73.44
256.357	87.44
256.59	84.44
256.823	80.44
257.056	68.44
257.289	82.44
257.521	68.44
257.754	84.44
257.987	71.44
258.22	78.44
258.452	74.44
258.685	85.44
258.918	79.44
259.151	62.44
259.383	74.44
259.616	77.44
259.849	81.44
260.081	74.44
260.314	81.44
260.547	88.44
260.779	74.44
261.012	72.44
261.244	82.44
261.477	86.44
261.71	65.44
261.942	73.44
262.175	70.44
262.407	71.44
262.64	80.44
262.872	77.44
263.105	75.44
263.337	81.44
263.57	75.44
263.802	74.44
264.035	71.44
264.267	78.44
264.499	77.44
264.732	72.44
264.964	75.44
265.197	81.44
265.429	80.44
265.661	82.44
265.894	71.44
266.126	60.44
266.358	80.44
266.591	75.44
266.823	78.44
267.055	74.44
267.287	75.44
267.52	74.44
267.752	70.44
267.984	81.44
268.216	83.44
268.448	77.44
268.681	79.44
268.913	89.44
269.145	74.44
269.377	89.44
269.609	76.44
269.841	64.44
270.073	69.44
270.306	79.44
270.538	86.44
270.77	81.44
271.002	72.44
271.234	70.44
271.466	80.44
271.698	69.44
271.93	63.44
272.162	68.44
272.394	84.44
272.626	80.44
272.858	74.44
273.09	84.44
273.322	83.44
273.553	76.44
273.785	87.44
274.017	72.44
274.249	85.44
274.481	74.44
274.713	82.44
274.945	95.44
275.176	81.44
275.408	81.44
275.64	80.44
275.872	78.44
276.104	80.44
276.335	76.44
276.567	72.44
276.799	78.44
277.031	80.44
277.262	78.44
277.494	79.44
277.726	79.44
277.957	66.44
278.189	94.44
278.421	79.44
278.652	83.44
278.884	74.44
279.115	87.44
279.347	86.44
279.579	93.44
279.81	83.44
280.042	72.44
280.273	81.44
280.505	55.44
280.736	85.44
280.968	78.44
281.199	68.44
281.431	82.44
281.662	69.44
281.894	74.44
282.125	80.44
282.356	90.44
282.588	101.44
282.819	73.44
283.051	59.44
283.282	72.44
283.513	65.44
283.745	80.44
283.976	74.44
284.207	80.44
284.439	83.44
284.67	85.44
284.901	78.44
285.132	75.44
285.364	88.44
285.595	95.44
285.826	85.44
286.057	90.44
286.288	74.44
286.52	72.44
286.751	75.44
286.982	89.44
287.213	63.44
287.444	85.44
287.675	82.44
287.906	80.44
288.138	95.44
288.369	74.44
288.6	75.44
288.831	98.44
289.062	75.44
289.293	79.44
289.524	92.44
289.755	79.44
289.986	79.44
290.217	77.44
290.448	75.44
290.679	73.44
290.91	72.44
291.141	86.44
291.371	83.44
291.602	81.44
291.833	75.44
292.064	90.44
292.295	83.44
292.526	75.44
292.757	88.44
292.987	73.44
293.218	86.44
293.449	86.44
293.68	76.44
293.91	93.44
294.141	85.44
294.372	67.44
294.603	69.44
294.833	75.44
295.064	81.44
295.295	81.44
295.525	81.44
295.756	77.44
295.987	78.44
296.217	84.44
296.448	58.44
296.679	80.44
296.909	77.44
297.14	91.44
297.37	94.44
297.601	73.44
297.831	79.44
298.062	80.44
298.292	90.44
298.523	82.44
298.753	84.44
298.984	71.44
299.214	73.44
299.445	80.44
299.675	83.44
299.905	85.44
300.136	85.44
300.366	68.44
300.597	69.44
300.827	63.44
301.057	89.44
301.288	82.44
301.518	78.44
301.748	66.44
301.979	73.44
302.209	77.44
302.439	86.44
302.669	69.44
302.9	85.44
303.13	89.44
303.36	72.44
303.59	70.44
303.82	77.44
304.051	85.44
304.281	85.44
304.511	82.44
304.741	69.44
304.971	82.44
305.201	80.44
305.431	69.44
305.661	72.44
305.891	89.44
306.121	88.44
306.352	91.44
306.582	83.44
306.812	87.44
307.042	75.44
307.272	96.44
307.502	71.44
307.731	86.44
307.961	72.44
308.191	75.44
308.421	75.44
308.651	84.44
308.881	71.44
309.111	84.44
309.341	72.44
309.571	83.44
309.8	86.44
310.03	73.44
310.26	79.44
310.49	81.44
310.72	71.44
310.949	71.44
311.179	82.44
311.409	78.44
311.639	70.44
311.868	71.44
312.098	71.44
312.328	73.44
312.557	87.44
312.787	89.44
313.017	87.44
313.246	71.44
313.476	83.44
313.706	84.44
313.935	79.44
314.165	81.44
314.394	75.44
314.624	91.44
314.853	96.44
315.083	67.44
315.312	83.44
315.542	84.44
315.771	81.44
316.001	79.44
316.23	91.44
316.46	71.44
316.689	79.44
316.919	77.44
317.148	91.44
317.377	85.44
317.607	80.44
317.836	77.44
318.065	87.44
318.295	88.44
318.524	83.44
318.753	83.44
318.983	87.44
319.212	80.44
319.441	87.44
319.67	86.44
319.9	85.44
320.129	88.44
320.358	85.44
320.587	68.44
320.816	97.44
321.046	89.44
321.275	80.44
321.504	77.44
321.733	82.44
321.962	85.44
322.191	89.44
322.42	75.44
322.649	73.44
322.878	75.44
323.108	85.44
323.337	81.44
323.566	70.44
323.795	79.44
324.024	83.44
324.253	91.44
324.482	90.44
324.71	79.44
324.939	71.44
325.168	93.44
325.397	75.44
325.626	86.44
325.855	83.44
326.084	88.44
326.313	97.44
326.542	76.44
326.77	79.44
326.999	95.44
327.228	71.44
327.457	82.44
327.686	82.44
327.914	75.44
328.143	81.44
328.372	77.44
328.6	85.44
328.829	75.44
329.058	82.44
329.287	80.44
329.515	77.44
329.744	75.44
329.972	77.44
330.201	67.44
330.43	83.44
330.658	73.44
330.887	82.44
331.115	83.44
331.344	82.44
331.572	94.44
331.801	93.44
332.03	81.44
332.258	81.44
332.486	74.44
332.715	74.44
332.943	70.44
333.172	88.44
333.4	93.44
333.629	80.44
333.857	83.44
334.085	63.44
334.314	72.44
334.542	75.44
334.771	68.44
334.999	69.44
335.227	82.44
335.455	70.44
335.684	95.44
335.912	78.44
336.14	82.44
336.369	73.44
336.597	87.44
336.825	79.44
337.053	69.44
337.281	66.44
337.51	86.44
337.738	85.44
337.966	78.44
338.194	71.44
338.422	70.44
338.65	74.44
338.878	81.44
339.106	81.44
339.334	82.44
339.562	79.44
339.79	76.44
340.018	81.44
340.246	83.44
340.474	81.44
340.702	78.44
340.93	77.44
341.158	74.44
341.386	80.44
341.614	78.44
341.842	73.44
342.07	70.44
342.298	84.44
342.526	82.44
342.754	81.44
342.981	74.44
343.209	93.44
343.437	88.44
343.665	77.44
343.893	82.44
344.12	84.44
344.348	82.44
344.576	72.44
344.804	81.44
345.031	89.44
345.259	97.44
345.487	82.44
345.714	80.44
345.942	90.44
346.17	96.44
346.397	85.44
346.625	69.44
346.853	67.44
347.08	70.44
347.308	91.44
347.535	79.44
347.763	83.44
347.99	79.44
348.218	75.44
348.445	75.44
348.673	70.44
348.9	94.44
349.128	84.44
349.355	69.44
349.583	81.44
349.81	85.44
350.037	77.44
350.265	75.44
350.492	81.44
350.72	81.44
350.947	90.44
351.174	86.44
351.402	75.44
351.629	88.44
351.856	78.44
352.083	84.44
352.311	84.44
352.538	89.44
352.765	82.44
352.992	74.44
353.22	87.44
353.447	61.44
353.674	86.44
353.901	94.44
354.128	76.44
354.355	73.44
354.583	90.44
354.81	66.44
355.037	81.44
355.264	86.44
355.491	74.44
355.718	84.44
355.945	75.44
356.172	76.44
356.399	66.44
356.626	77.44
356.853	60.44
357.08	70.44
357.307	82.44
357.534	84.44
357.761	75.44
357.988	74.44
358.215	72.44
358.441	91.44
358.668	82.44
358.895	74.44
359.122	83.44
359.349	80.44
359.576	78.44
359.802	87.44
360.029	71.44
360.256	79.44
360.483	87.44
360.709	66.44
360.936	78.44
361.163	86.44
361.39	83.44
361.616	73.44
361.843	71.44
362.07	75.44
362.296	64.44
362.523	73.44
362.749	97.44
362.976	82.44
363.203	71.44
363.429	71.44
363.656	91.44
363.882	72.44
364.109	90.44
364.335	89.44
364.562	72.44
364.788	85.44
365.015	75.44
365.241	72.44
365.468	81.44
365.694	81.44
365.92	75.44
366.147	72.44
366.373	82.44
366.599	70.44
366.826	91.44
367.052	84.44
367.278	97.44
367.505	88.44
367.731	84.44
367.957	71.44
368.184	72.44
368.41	73.44
368.636	80.44
368.862	78.44
369.089	63.44
369.315	80.44
369.541	89.44
369.767	69.44
369.993	81.44
370.219	87.44
370.445	74.44
370.672	79.44
370.898	89.44
371.124	90.44
371.35	89.44
371.576	76.44
371.802	107.44
372.028	97.44
372.254	89.44
372.48	79.44
372.706	86.44
372.932	74.44
373.158	81.44
373.384	89.44
373.61	85.44
373.835	93.44
374.061	83.44
374.287	90.44
374.513	99.44
374.739	93.44
374.965	97.44
375.191	86.44
375.416	84.44
375.642	73.44
375.868	78.44
376.094	83.44
376.319	84.44
376.545	99.44
376.771	98.44
376.997	94.44
377.222	100.44
377.448	96.44
377.674	89.44
377.899	102.44
378.125	80.44
378.35	81.44
378.576	73.44
378.802	91.44
379.027	98.44
379.253	92.44
379.478	93.44
379.704	104.44
379.929	88.44
380.155	92.44
380.38	83.44
380.606	87.44
380.831	85.44
381.057	105.44
381.282	100.44
381.507	86.44
381.733	96.44
381.958	101.44
382.184	104.44
382.409	102.44
382.634	98.44
382.86	100.44
383.085	93.44
383.31	84.44
383.535	89.44
383.761	80.44
383.986	85.44
384.211	86.44
384.436	81.44
384.662	78.44
384.887	96.44
385.112	92.44
385.337	96.44
385.562	88.44
385.787	88.44
386.013	98.44
386.238	90.44
386.463	101.44
386.688	96.44
386.913	98.44
387.138	113.44
387.363	101.44
387.588	105.44
387.813	114.44
388.038	109.44
388.263	103.44
388.488	91.44
388.713	95.44
388.938	97.44
389.163	88.44
389.387	113.44
389.612	102.44
389.837	106.44
390.062	95.44
390.287	95.44
390.512	101.44
390.736	104.44
390.961	88.44
391.186	105.44
391.411	112.44
391.636	95.44
391.86	96.44
392.085	97.44
392.31	91.44
392.534	107.44
392.759	100.44
392.984	103.44
393.208	91.44
393.433	98.44
393.658	97.44
393.882	92.44
394.107	98.44
394.331	112.44
394.556	95.44
394.78	102.44
395.005	87.44
395.229	103.44
395.454	103.44
395.678	89.44
395.903	103.44
396.127	100.44
396.352	98.44
396.576	98.44
396.801	105.44
397.025	96.44
397.249	96.44
397.474	118.44
397.698	89.44
397.922	97.44
398.147	116.44
398.371	93.44
398.595	99.44
398.82	95.44
399.044	100.44
399.268	102.44
399.492	94.44
399.717	104.44
399.941	112.44
400.165	113.44
400.389	110.44
400.613	107.44
400.837	99.44
401.062	109.44
401.286	106.44
401.51	120.44
401.734	109.44
401.958	116.44
402.182	114.44
402.406	106.44
402.63	113.44
402.854	106.44
403.078	111.44
403.302	114.44
403.526	105.44
403.75	129.44
403.974	114.44
404.198	116.44
404.422	113.44
404.645	101.44
404.869	103.44
405.093	119.44
405.317	111.44
405.541	109.44
405.765	122.44
405.988	106.44
406.212	109.44
406.436	121.44
406.66	100.44
406.883	95.44
407.107	114.44
407.331	108.44
407.555	109.44
407.778	114.44
408.002	97.44
408.226	115.44
408.449	109.44
408.673	113.44
408.896	113.44
409.12	116.44
409.344	121.44
409.567	121.44
409.791	89.44
410.014	119.44
410.238	114.44
410.461	114.44
410.685	114.44
410.908	120.44
411.132	104.44
411.355	105.44
411.578	120.44
411.802	104.44
412.025	117.44
412.249	122.44
412.472	109.44
412.695	106.44
412.919	115.44
413.142	113.44
413.365	127.44
413.589	98.44
413.812	106.44
414.035	108.44
414.258	109.44
414.482	119.44
414.705	127.44
414.928	123.44
415.151	127.44
415.374	117.44
415.597	110.44
415.821	119.44
416.044	121.44
416.267	114.44
416.49	131.44
416.713	129.44
416.936	117.44
417.159	122.44
417.382	110.44
417.605	111.44
417.828	121.44
418.051	118.44
418.274	135.44
418.497	137.44
418.72	133.44
418.943	118.44
419.166	122.44
419.389	138.44
419.611	131.44
419.834	119.44
420.057	121.44
420.28	120.44
420.503	114.44
420.726	124.44
420.948	109.44
421.171	120.44
421.394	115.44
421.617	120.44
421.839	124.44
422.062	146.44
422.285	129.44
422.507	126.44
422.73	121.44
422.953	122.44
423.175	104.44
423.398	131.44
423.621	123.44
423.843	125.44
424.066	122.44
424.288	146.44
424.511	137.44
424.733	134.44
424.956	134.44
425.178	140.44
425.401	134.44
425.623	136.44
425.846	119.44
426.068	123.44
426.291	118.44
426.513	119.44
426.735	133.44
426.958	131.44
427.18	124.44
427.402	128.44
427.625	112.44
427.847	110.44
428.069	105.44
428.292	109.44
428.514	145.44
428.736	120.44
428.958	99.44
429.181	122.44
429.403	121.44
429.625	115.44
429.847	118.44
430.069	129.44
430.292	119.44
430.514	129.44
430.736	116.44
430.958	106.44
431.18	122.44
431.402	115.44
431.624	119.44
431.846	104.44
432.068	95.44
432.29	107.44
432.512	122.44
432.734	106.44
432.956	121.44
433.178	127.44
433.4	143.44
433.622	123.44
433.844	129.44
434.066	114.44
434.287	114.44
434.509	95.44
434.731	95.44
434.953	113.44
435.175	119.44
435.397	114.44
435.618	105.44
435.84	101.44
436.062	117.44
436.284	105.44
436.505	118.44
436.727	115.44
436.949	138.44
437.17	130.44
437.392	115.44
437.614	115.44
437.835	101.44
438.057	109.44
438.278	106.44
438.5	125.44
438.721	113.44
438.943	124.44
439.165	142.44
439.386	133.44
439.608	145.44
439.829	137.44
440.05	134.44
440.272	137.44
440.493	139.44
440.715	123.44
440.936	133.44
441.158	151.44
441.379	137.44
441.6	135.44
441.822	132.44
442.043	129.44
442.264	125.44
442.486	126.44
442.707	138.44
442.928	127.44
443.149	132.44
443.371	132.44
443.592	142.44
443.813	137.44
444.034	131.44
444.255	131.44
444.476	135.44
444.698	139.44
444.919	149.44
445.14	273.44
445.361	185.44
445.582	133.44
445.803	138.44
446.024	142.44
446.245	144.44
446.466	148.44
446.687	150.44
446.908	157.44
447.129	145.44
447.35	139.44
447.571	128.44
447.792	131.44
448.013	135.44
448.234	129.44
448.455	136.44
448.675	137.44
448.896	138.44
449.117	136.44
449.338	133.44
449.559	117.44
449.779	125.44
450	119.44
450.221	126.44
450.442	123.44
450.662	128.44
450.883	119.44
451.104	127.44
451.324	130.44
451.545	119.44
451.766	123.44
451.986	124.44
452.207	128.44
452.428	123.44
452.648	128.44
452.869	124.44
453.089	101.44
453.31	120.44
453.53	110.44
453.751	107.44
453.971	102.44
454.192	94.44
454.412	107.44
454.633	110.44
454.853	130.44
455.073	114.44
455.294	125.44
455.514	123.44
455.734	101.44
455.955	106.44
456.175	114.44
456.395	109.44
456.616	110.44
456.836	97.44
457.056	91.44
457.276	90.44
457.497	98.44
457.717	96.44
457.937	97.44
458.157	103.44
458.377	103.44
458.598	99.44
458.818	79.44
459.038	83.44
459.258	86.44
459.478	59.44
459.698	87.44
459.918	95.44
460.138	98.44
460.358	117.44
460.578	111.44
460.798	106.44
461.018	99.44
461.238	113.44
461.458	105.44
461.678	109.44
461.898	109.44
462.118	99.44
462.338	102.44
462.558	119.44
462.777	109.44
462.997	100.44
463.217	102.44
463.437	104.44
463.657	102.44
463.876	109.44
464.096	107.44
464.316	104.44
464.536	122.44
464.755	108.44
464.975	113.44
465.195	107.44
465.414	111.44
465.634	103.44
465.854	97.44
466.073	115.44
466.293	123.44
466.512	127.44
466.732	125.44
466.951	118.44
467.171	125.44
467.391	127.44
467.61	135.44
467.829	138.44
468.049	134.44
468.268	122.44
468.488	126.44
468.707	141.44
468.927	128.44
469.146	119.44
469.365	127.44
469.585	130.44
469.804	137.44
470.023	131.44
470.243	134.44
470.462	123.44
470.681	142.44
470.901	118.44
471.12	122.44
471.339	142.44
471.558	128.44
471.777	129.44
471.997	122.44
472.216	116.44
472.435	107.44
472.654	90.44
472.873	101.44
473.092	118.44
473.311	120.44
473.53	134.44
473.749	121.44
473.968	127.44
474.187	113.44
474.406	91.44
474.625	118.44
474.844	125.44
475.063	123.44
475.282	115.44
475.501	114.44
475.72	126.44
475.939	112.44
476.158	119.44
476.377	140.44
476.596	113.44
476.814	121.44
477.033	99.44
477.252	117.44
477.471	110.44
477.69	115.44
477.908	131.44
478.127	122.44
478.346	123.44
478.564	129.44
478.783	125.44
479.002	116.44
479.22	113.44
479.439	134.44
479.658	115.44
479.876	98.44
480.095	125.44
480.313	110.44
480.532	115.44
480.751	109.44
480.969	102.44
481.188	85.44
481.406	84.44
481.624	80.44
481.843	94.44
482.061	114.44
482.28	99.44
482.498	125.44
482.717	114.44
482.935	114.44
483.153	138.44
483.372	134.44
483.59	132.44
483.808	128.44
484.027	115.44
484.245	135.44
484.463	153.44
484.681	157.44
484.9	145.44
485.118	131.44
485.336	117.44
485.554	103.44
485.772	75.44
485.99	101.44
486.209	104.44
486.427	86.44
486.645	106.44
486.863	122.44
487.081	119.44
487.299	129.44
487.517	148.44
487.735	141.44
487.953	177.44
488.171	184.44
488.389	161.44
488.607	149.44
488.825	127.44
489.043	136.44
489.261	123.44
489.479	145.44
489.696	123.44
489.914	127.44
490.132	130.44
490.35	140.44
490.568	166.44
490.786	152.44
491.003	177.44
491.221	166.44
491.439	187.44
491.657	183.44
491.874	187.44
492.092	209.44
492.31	223.44
492.527	231.44
492.745	208.44
492.963	189.44
493.18	175.44
493.398	155.44
493.615	185.44
493.833	166.44
494.05	161.44
494.268	165.44
494.485	163.44
494.703	154.44
494.92	161.44
495.138	163.44
495.355	155.44
495.573	169.44
495.79	162.44
496.008	154.44
496.225	164.44
496.442	160.44
496.66	165.44
496.877	161.44
497.094	157.44
497.312	154.44
497.529	153.44
497.746	127.44
497.963	136.44
498.181	135.44
498.398	123.44
498.615	120.44
498.832	102.44
499.049	109.44
499.267	119.44
499.484	114.44
499.701	124.44
499.918	137.44
500.135	138.44
500.352	136.44
500.569	126.44
500.786	126.44
501.003	130.44
501.22	134.44
501.437	135.44
501.654	127.44
501.871	123.44
502.088	112.44
502.305	125.44
502.522	117.44
502.739	121.44
502.956	127.44
503.172	117.44
503.389	118.44
503.606	118.44
503.823	107.44
504.04	116.44
504.256	116.44
504.473	113.44
504.69	103.44
504.907	123.44
505.123	120.44
505.34	117.44
505.557	128.44
505.773	121.44
505.99	119.44
506.207	131.44
506.423	117.44
506.64	121.44
506.856	97.44
507.073	106.44
507.289	129.44
507.506	105.44
507.722	114.44
507.939	101.44
508.155	116.44
508.372	118.44
508.588	110.44
508.805	123.44
509.021	103.44
509.238	89.44
509.454	96.44
509.67	93.44
509.887	82.44
510.103	93.44
510.319	93.44
510.536	94.44
510.752	72.44
510.968	83.44
511.184	73.44
511.401	86.44
511.617	88.44
511.833	86.44
512.049	97.44
512.265	84.44
