Data from Location1.07152019.Energy5.Lamp.07192019.3%Agarose_HRD10591_14-33-01-016.txt Node
Date: Fri Jul 19 14:33:01 EDT 2019
User: cochatt
Spectrometer: HR+D1059
Trigger mode: 1
Integration Time (sec): 1.000000E-1
Scans to average: 1
Electric dark correction enabled: true
Nonlinearity correction enabled: false
Boxcar width: 0
XAxis mode: Wavelengths
Number of Pixels in Spectrum: 2048
>>>>>Begin Spectral Data<<<<<
223.165	-18.81
223.4	-18.81
223.635	-18.81
223.869	-10.81
224.104	-19.81
224.338	-16.81
224.573	-9.81
224.808	-1.81
225.042	-17.81
225.277	6.19
225.511	-3.81
225.746	-2.81
225.98	13.19
226.215	4.19
226.449	18.19
226.683	9.19
226.918	22.19
227.152	29.19
227.387	17.19
227.621	37.19
227.856	37.19
228.09	56.19
228.324	59.19
228.559	65.19
228.793	62.19
229.027	69.19
229.262	74.19
229.496	72.19
229.73	55.19
229.964	65.19
230.199	72.19
230.433	84.19
230.667	83.19
230.901	84.19
231.136	77.19
231.37	80.19
231.604	82.19
231.838	81.19
232.072	82.19
232.306	78.19
232.541	82.19
232.775	94.19
233.009	80.19
233.243	68.19
233.477	81.19
233.711	80.19
233.945	67.19
234.179	85.19
234.413	86.19
234.647	87.19
234.881	72.19
235.115	80.19
235.349	77.19
235.583	75.19
235.817	72.19
236.051	69.19
236.285	87.19
236.519	86.19
236.753	69.19
236.987	71.19
237.221	88.19
237.455	85.19
237.689	69.19
237.922	68.19
238.156	82.19
238.39	89.19
238.624	74.19
238.858	84.19
239.091	96.19
239.325	66.19
239.559	73.19
239.793	84.19
240.027	93.19
240.26	70.19
240.494	70.19
240.728	65.19
240.961	81.19
241.195	82.19
241.429	91.19
241.662	82.19
241.896	84.19
242.13	86.19
242.363	88.19
242.597	76.19
242.83	93.19
243.064	63.19
243.298	62.19
243.531	70.19
243.765	71.19
243.998	72.19
244.232	67.19
244.465	90.19
244.699	59.19
244.932	89.19
245.166	74.19
245.399	101.19
245.633	77.19
245.866	90.19
246.099	56.19
246.333	63.19
246.566	71.19
246.8	76.19
247.033	78.19
247.266	76.19
247.5	80.19
247.733	78.19
247.966	71.19
248.2	76.19
248.433	82.19
248.666	77.19
248.899	87.19
249.133	81.19
249.366	86.19
249.599	82.19
249.832	89.19
250.066	79.19
250.299	70.19
250.532	76.19
250.765	74.19
250.998	64.19
251.231	90.19
251.465	90.19
251.698	77.19
251.931	63.19
252.164	71.19
252.397	83.19
252.63	83.19
252.863	77.19
253.096	86.19
253.329	72.19
253.562	77.19
253.795	80.19
254.028	81.19
254.261	72.19
254.494	85.19
254.727	81.19
254.96	81.19
255.193	86.19
255.426	68.19
255.659	95.19
255.892	94.19
256.124	87.19
256.357	80.19
256.59	79.19
256.823	86.19
257.056	90.19
257.289	82.19
257.521	86.19
257.754	76.19
257.987	78.19
258.22	95.19
258.452	79.19
258.685	83.19
258.918	82.19
259.151	92.19
259.383	88.19
259.616	79.19
259.849	90.19
260.081	85.19
260.314	78.19
260.547	82.19
260.779	79.19
261.012	72.19
261.244	90.19
261.477	98.19
261.71	77.19
261.942	82.19
262.175	80.19
262.407	82.19
262.64	71.19
262.872	82.19
263.105	79.19
263.337	79.19
263.57	99.19
263.802	74.19
264.035	72.19
264.267	83.19
264.499	90.19
264.732	87.19
264.964	91.19
265.197	85.19
265.429	64.19
265.661	71.19
265.894	79.19
266.126	82.19
266.358	74.19
266.591	86.19
266.823	82.19
267.055	87.19
267.287	87.19
267.52	84.19
267.752	84.19
267.984	93.19
268.216	91.19
268.448	84.19
268.681	79.19
268.913	79.19
269.145	86.19
269.377	91.19
269.609	88.19
269.841	86.19
270.073	80.19
270.306	75.19
270.538	81.19
270.77	83.19
271.002	87.19
271.234	78.19
271.466	55.19
271.698	82.19
271.93	77.19
272.162	91.19
272.394	81.19
272.626	87.19
272.858	84.19
273.09	86.19
273.322	92.19
273.553	86.19
273.785	76.19
274.017	64.19
274.249	95.19
274.481	83.19
274.713	84.19
274.945	92.19
275.176	95.19
275.408	88.19
275.64	86.19
275.872	76.19
276.104	95.19
276.335	80.19
276.567	101.19
276.799	82.19
277.031	94.19
277.262	84.19
277.494	92.19
277.726	78.19
277.957	87.19
278.189	69.19
278.421	83.19
278.652	85.19
278.884	88.19
279.115	93.19
279.347	86.19
279.579	72.19
279.81	97.19
280.042	81.19
280.273	77.19
280.505	84.19
280.736	93.19
280.968	86.19
281.199	82.19
281.431	78.19
281.662	86.19
281.894	80.19
282.125	81.19
282.356	97.19
282.588	86.19
282.819	74.19
283.051	84.19
283.282	89.19
283.513	78.19
283.745	88.19
283.976	85.19
284.207	97.19
284.439	86.19
284.67	92.19
284.901	84.19
285.132	89.19
285.364	96.19
285.595	88.19
285.826	89.19
286.057	92.19
286.288	87.19
286.52	92.19
286.751	95.19
286.982	85.19
287.213	78.19
287.444	79.19
287.675	74.19
287.906	98.19
288.138	79.19
288.369	86.19
288.6	75.19
288.831	89.19
289.062	86.19
289.293	96.19
289.524	79.19
289.755	90.19
289.986	84.19
290.217	83.19
290.448	82.19
290.679	94.19
290.91	103.19
291.141	91.19
291.371	66.19
291.602	86.19
291.833	82.19
292.064	80.19
292.295	80.19
292.526	93.19
292.757	83.19
292.987	92.19
293.218	91.19
293.449	78.19
293.68	91.19
293.91	70.19
294.141	87.19
294.372	94.19
294.603	91.19
294.833	73.19
295.064	97.19
295.295	88.19
295.525	78.19
295.756	98.19
295.987	89.19
296.217	76.19
296.448	83.19
296.679	73.19
296.909	86.19
297.14	85.19
297.37	85.19
297.601	75.19
297.831	89.19
298.062	90.19
298.292	93.19
298.523	82.19
298.753	88.19
298.984	83.19
299.214	92.19
299.445	78.19
299.675	79.19
299.905	97.19
300.136	92.19
300.366	86.19
300.597	84.19
300.827	78.19
301.057	79.19
301.288	78.19
301.518	84.19
301.748	92.19
301.979	87.19
302.209	83.19
302.439	87.19
302.669	81.19
302.9	93.19
303.13	87.19
303.36	79.19
303.59	85.19
303.82	91.19
304.051	71.19
304.281	94.19
304.511	84.19
304.741	82.19
304.971	95.19
305.201	77.19
305.431	82.19
305.661	87.19
305.891	82.19
306.121	90.19
306.352	98.19
306.582	86.19
306.812	83.19
307.042	101.19
307.272	90.19
307.502	86.19
307.731	84.19
307.961	95.19
308.191	87.19
308.421	87.19
308.651	83.19
308.881	113.19
309.111	94.19
309.341	81.19
309.571	86.19
309.8	101.19
310.03	94.19
310.26	71.19
310.49	93.19
310.72	84.19
310.949	83.19
311.179	97.19
311.409	75.19
311.639	94.19
311.868	84.19
312.098	82.19
312.328	79.19
312.557	74.19
312.787	80.19
313.017	75.19
313.246	93.19
313.476	85.19
313.706	86.19
313.935	98.19
314.165	100.19
314.394	82.19
314.624	78.19
314.853	94.19
315.083	85.19
315.312	85.19
315.542	74.19
315.771	82.19
316.001	90.19
316.23	89.19
316.46	89.19
316.689	93.19
316.919	82.19
317.148	89.19
317.377	102.19
317.607	86.19
317.836	87.19
318.065	99.19
318.295	94.19
318.524	77.19
318.753	75.19
318.983	85.19
319.212	96.19
319.441	79.19
319.67	90.19
319.9	90.19
320.129	90.19
320.358	90.19
320.587	88.19
320.816	72.19
321.046	77.19
321.275	93.19
321.504	96.19
321.733	80.19
321.962	92.19
322.191	83.19
322.42	81.19
322.649	83.19
322.878	95.19
323.108	88.19
323.337	80.19
323.566	96.19
323.795	84.19
324.024	83.19
324.253	87.19
324.482	79.19
324.71	88.19
324.939	86.19
325.168	86.19
325.397	83.19
325.626	97.19
325.855	89.19
326.084	86.19
326.313	94.19
326.542	91.19
326.77	87.19
326.999	83.19
327.228	84.19
327.457	89.19
327.686	92.19
327.914	76.19
328.143	73.19
328.372	77.19
328.6	91.19
328.829	86.19
329.058	78.19
329.287	72.19
329.515	85.19
329.744	79.19
329.972	84.19
330.201	97.19
330.43	89.19
330.658	79.19
330.887	72.19
331.115	77.19
331.344	84.19
331.572	91.19
331.801	94.19
332.03	99.19
332.258	79.19
332.486	85.19
332.715	75.19
332.943	91.19
333.172	85.19
333.4	85.19
333.629	78.19
333.857	80.19
334.085	83.19
334.314	92.19
334.542	91.19
334.771	89.19
334.999	87.19
335.227	85.19
335.455	82.19
335.684	79.19
335.912	73.19
336.14	95.19
336.369	81.19
336.597	89.19
336.825	87.19
337.053	84.19
337.281	90.19
337.51	87.19
337.738	81.19
337.966	82.19
338.194	70.19
338.422	84.19
338.65	92.19
338.878	71.19
339.106	90.19
339.334	98.19
339.562	77.19
339.79	89.19
340.018	85.19
340.246	84.19
340.474	84.19
340.702	83.19
340.93	89.19
341.158	86.19
341.386	81.19
341.614	72.19
341.842	82.19
342.07	86.19
342.298	90.19
342.526	80.19
342.754	81.19
342.981	84.19
343.209	87.19
343.437	94.19
343.665	86.19
343.893	90.19
344.12	99.19
344.348	106.19
344.576	92.19
344.804	77.19
345.031	80.19
345.259	72.19
345.487	85.19
345.714	90.19
345.942	76.19
346.17	100.19
346.397	89.19
346.625	88.19
346.853	75.19
347.08	88.19
347.308	90.19
347.535	83.19
347.763	86.19
347.99	91.19
348.218	86.19
348.445	83.19
348.673	80.19
348.9	77.19
349.128	99.19
349.355	92.19
349.583	83.19
349.81	91.19
350.037	90.19
350.265	75.19
350.492	83.19
350.72	77.19
350.947	76.19
351.174	84.19
351.402	83.19
351.629	75.19
351.856	88.19
352.083	82.19
352.311	86.19
352.538	75.19
352.765	89.19
352.992	83.19
353.22	80.19
353.447	84.19
353.674	90.19
353.901	78.19
354.128	85.19
354.355	82.19
354.583	82.19
354.81	85.19
355.037	80.19
355.264	90.19
355.491	79.19
355.718	92.19
355.945	97.19
356.172	88.19
356.399	88.19
356.626	89.19
356.853	94.19
357.08	80.19
357.307	98.19
357.534	87.19
357.761	76.19
357.988	84.19
358.215	91.19
358.441	79.19
358.668	82.19
358.895	89.19
359.122	91.19
359.349	86.19
359.576	87.19
359.802	88.19
360.029	90.19
360.256	81.19
360.483	88.19
360.709	86.19
360.936	80.19
361.163	94.19
361.39	71.19
361.616	82.19
361.843	97.19
362.07	91.19
362.296	98.19
362.523	80.19
362.749	68.19
362.976	73.19
363.203	89.19
363.429	79.19
363.656	80.19
363.882	93.19
364.109	72.19
364.335	87.19
364.562	86.19
364.788	86.19
365.015	71.19
365.241	88.19
365.468	78.19
365.694	94.19
365.92	90.19
366.147	77.19
366.373	92.19
366.599	88.19
366.826	79.19
367.052	98.19
367.278	91.19
367.505	90.19
367.731	89.19
367.957	99.19
368.184	83.19
368.41	94.19
368.636	95.19
368.862	98.19
369.089	92.19
369.315	91.19
369.541	89.19
369.767	97.19
369.993	103.19
370.219	82.19
370.445	91.19
370.672	100.19
370.898	106.19
371.124	93.19
371.35	87.19
371.576	91.19
371.802	96.19
372.028	94.19
372.254	98.19
372.48	98.19
372.706	81.19
372.932	88.19
373.158	79.19
373.384	94.19
373.61	108.19
373.835	91.19
374.061	79.19
374.287	80.19
374.513	93.19
374.739	83.19
374.965	97.19
375.191	106.19
375.416	93.19
375.642	110.19
375.868	92.19
376.094	91.19
376.319	86.19
376.545	99.19
376.771	106.19
376.997	99.19
377.222	85.19
377.448	103.19
377.674	105.19
377.899	92.19
378.125	99.19
378.35	103.19
378.576	99.19
378.802	78.19
379.027	88.19
379.253	102.19
379.478	95.19
379.704	101.19
379.929	113.19
380.155	99.19
380.38	101.19
380.606	88.19
380.831	93.19
381.057	91.19
381.282	100.19
381.507	93.19
381.733	86.19
381.958	106.19
382.184	91.19
382.409	103.19
382.634	110.19
382.86	97.19
383.085	93.19
383.31	89.19
383.535	96.19
383.761	86.19
383.986	103.19
384.211	96.19
384.436	100.19
384.662	82.19
384.887	88.19
385.112	106.19
385.337	102.19
385.562	88.19
385.787	102.19
386.013	101.19
386.238	111.19
386.463	106.19
386.688	91.19
386.913	87.19
387.138	100.19
387.363	104.19
387.588	103.19
387.813	102.19
388.038	95.19
388.263	89.19
388.488	113.19
388.713	91.19
388.938	90.19
389.163	91.19
389.387	89.19
389.612	98.19
389.837	99.19
390.062	100.19
390.287	107.19
390.512	107.19
390.736	90.19
390.961	106.19
391.186	122.19
391.411	109.19
391.636	107.19
391.86	93.19
392.085	96.19
392.31	101.19
392.534	100.19
392.759	100.19
392.984	96.19
393.208	105.19
393.433	112.19
393.658	111.19
393.882	107.19
394.107	101.19
394.331	106.19
394.556	110.19
394.78	104.19
395.005	108.19
395.229	101.19
395.454	102.19
395.678	103.19
395.903	82.19
396.127	114.19
396.352	116.19
396.576	102.19
396.801	106.19
397.025	119.19
397.249	110.19
397.474	128.19
397.698	105.19
397.922	116.19
398.147	111.19
398.371	92.19
398.595	110.19
398.82	94.19
399.044	119.19
399.268	96.19
399.492	110.19
399.717	109.19
399.941	107.19
400.165	105.19
400.389	107.19
400.613	116.19
400.837	103.19
401.062	109.19
401.286	115.19
401.51	105.19
401.734	107.19
401.958	124.19
402.182	105.19
402.406	112.19
402.63	107.19
402.854	111.19
403.078	114.19
403.302	111.19
403.526	119.19
403.75	116.19
403.974	114.19
404.198	109.19
404.422	132.19
404.645	128.19
404.869	115.19
405.093	120.19
405.317	126.19
405.541	107.19
405.765	126.19
405.988	114.19
406.212	111.19
406.436	124.19
406.66	108.19
406.883	104.19
407.107	124.19
407.331	118.19
407.555	126.19
407.778	122.19
408.002	131.19
408.226	117.19
408.449	128.19
408.673	121.19
408.896	109.19
409.12	125.19
409.344	111.19
409.567	126.19
409.791	124.19
410.014	123.19
410.238	128.19
410.461	125.19
410.685	126.19
410.908	120.19
411.132	116.19
411.355	113.19
411.578	124.19
411.802	114.19
412.025	120.19
412.249	123.19
412.472	100.19
412.695	107.19
412.919	118.19
413.142	114.19
413.365	110.19
413.589	110.19
413.812	115.19
414.035	124.19
414.258	118.19
414.482	120.19
414.705	110.19
414.928	115.19
415.151	109.19
415.374	126.19
415.597	131.19
415.821	129.19
416.044	127.19
416.267	106.19
416.49	126.19
416.713	121.19
416.936	137.19
417.159	128.19
417.382	119.19
417.605	120.19
417.828	120.19
418.051	116.19
418.274	129.19
418.497	137.19
418.72	128.19
418.943	132.19
419.166	132.19
419.389	140.19
419.611	121.19
419.834	139.19
420.057	140.19
420.28	131.19
420.503	138.19
420.726	130.19
420.948	131.19
421.171	136.19
421.394	126.19
421.617	140.19
421.839	150.19
422.062	136.19
422.285	124.19
422.507	135.19
422.73	127.19
422.953	119.19
423.175	133.19
423.398	124.19
423.621	130.19
423.843	127.19
424.066	126.19
424.288	126.19
424.511	147.19
424.733	158.19
424.956	125.19
425.178	133.19
425.401	138.19
425.623	143.19
425.846	128.19
426.068	139.19
426.291	136.19
426.513	129.19
426.735	133.19
426.958	139.19
427.18	132.19
427.402	135.19
427.625	150.19
427.847	130.19
428.069	127.19
428.292	132.19
428.514	139.19
428.736	144.19
428.958	130.19
429.181	125.19
429.403	127.19
429.625	142.19
429.847	132.19
430.069	120.19
430.292	140.19
430.514	119.19
430.736	117.19
430.958	122.19
431.18	136.19
431.402	125.19
431.624	121.19
431.846	105.19
432.068	100.19
432.29	92.19
432.512	117.19
432.734	114.19
432.956	130.19
433.178	140.19
433.4	138.19
433.622	130.19
433.844	134.19
434.066	132.19
434.287	110.19
434.509	92.19
434.731	102.19
434.953	101.19
435.175	110.19
435.397	126.19
435.618	111.19
435.84	110.19
436.062	106.19
436.284	124.19
436.505	136.19
436.727	133.19
436.949	116.19
437.17	121.19
437.392	127.19
437.614	129.19
437.835	110.19
438.057	103.19
438.278	110.19
438.5	128.19
438.721	124.19
438.943	142.19
439.165	139.19
439.386	132.19
439.608	149.19
439.829	143.19
440.05	130.19
440.272	123.19
440.493	148.19
440.715	147.19
440.936	160.19
441.158	155.19
441.379	160.19
441.6	153.19
441.822	155.19
442.043	136.19
442.264	136.19
442.486	135.19
442.707	138.19
442.928	134.19
443.149	124.19
443.371	142.19
443.592	147.19
443.813	133.19
444.034	142.19
444.255	144.19
444.476	136.19
444.698	156.19
444.919	146.19
445.14	220.19
445.361	178.19
445.582	160.19
445.803	157.19
446.024	157.19
446.245	157.19
446.466	153.19
446.687	154.19
446.908	154.19
447.129	142.19
447.35	152.19
447.571	143.19
447.792	144.19
448.013	142.19
448.234	127.19
448.455	124.19
448.675	139.19
448.896	143.19
449.117	124.19
449.338	140.19
449.559	138.19
449.779	142.19
450	133.19
450.221	127.19
450.442	153.19
450.662	133.19
450.883	140.19
451.104	130.19
451.324	117.19
451.545	122.19
451.766	142.19
451.986	122.19
452.207	139.19
452.428	127.19
452.648	142.19
452.869	132.19
453.089	116.19
453.31	90.19
453.53	116.19
453.751	101.19
453.971	120.19
454.192	116.19
454.412	111.19
454.633	116.19
454.853	111.19
455.073	112.19
455.294	119.19
455.514	130.19
455.734	123.19
455.955	103.19
456.175	125.19
456.395	122.19
456.616	118.19
456.836	105.19
457.056	121.19
457.276	117.19
457.497	98.19
457.717	99.19
457.937	94.19
458.157	110.19
458.377	106.19
458.598	96.19
458.818	94.19
459.038	83.19
459.258	100.19
459.478	80.19
459.698	88.19
459.918	87.19
460.138	105.19
460.358	118.19
460.578	110.19
460.798	99.19
461.018	116.19
461.238	126.19
461.458	103.19
461.678	128.19
461.898	109.19
462.118	107.19
462.338	106.19
462.558	103.19
462.777	107.19
462.997	103.19
463.217	110.19
463.437	110.19
463.657	116.19
463.876	129.19
464.096	115.19
464.316	103.19
464.536	120.19
464.755	109.19
464.975	120.19
465.195	118.19
465.414	109.19
465.634	126.19
465.854	107.19
466.073	107.19
466.293	116.19
466.512	123.19
466.732	132.19
466.951	120.19
467.171	142.19
467.391	126.19
467.61	134.19
467.829	137.19
468.049	144.19
468.268	120.19
468.488	109.19
468.707	141.19
468.927	129.19
469.146	151.19
469.365	128.19
469.585	125.19
469.804	126.19
470.023	131.19
470.243	148.19
470.462	166.19
470.681	136.19
470.901	137.19
471.12	133.19
471.339	139.19
471.558	136.19
471.777	143.19
471.997	130.19
472.216	134.19
472.435	118.19
472.654	111.19
472.873	107.19
473.092	120.19
473.311	126.19
473.53	123.19
473.749	118.19
473.968	131.19
474.187	127.19
474.406	116.19
474.625	130.19
474.844	121.19
475.063	122.19
475.282	114.19
475.501	121.19
475.72	115.19
475.939	118.19
476.158	129.19
476.377	126.19
476.596	128.19
476.814	117.19
477.033	100.19
477.252	95.19
477.471	124.19
477.69	134.19
477.908	134.19
478.127	137.19
478.346	140.19
478.564	124.19
478.783	127.19
479.002	133.19
479.22	134.19
479.439	140.19
479.658	123.19
479.876	122.19
480.095	124.19
480.313	113.19
480.532	129.19
480.751	112.19
480.969	108.19
481.188	95.19
481.406	100.19
481.624	76.19
481.843	98.19
482.061	92.19
482.28	114.19
482.498	120.19
482.717	123.19
482.935	132.19
483.153	157.19
483.372	145.19
483.59	144.19
483.808	138.19
484.027	138.19
484.245	142.19
484.463	142.19
484.681	166.19
484.9	152.19
485.118	142.19
485.336	132.19
485.554	110.19
485.772	108.19
485.99	113.19
486.209	112.19
486.427	116.19
486.645	120.19
486.863	127.19
487.081	132.19
487.299	124.19
487.517	136.19
487.735	166.19
487.953	206.19
488.171	196.19
488.389	162.19
488.607	154.19
488.825	155.19
489.043	127.19
489.261	136.19
489.479	143.19
489.696	145.19
489.914	143.19
490.132	150.19
490.35	153.19
490.568	164.19
490.786	178.19
491.003	163.19
491.221	176.19
491.439	175.19
491.657	193.19
491.874	196.19
492.092	221.19
492.31	232.19
492.527	211.19
492.745	205.19
492.963	200.19
493.18	190.19
493.398	184.19
493.615	180.19
493.833	179.19
494.05	186.19
494.268	189.19
494.485	184.19
494.703	160.19
494.92	173.19
495.138	187.19
495.355	167.19
495.573	159.19
495.79	174.19
496.008	168.19
496.225	151.19
496.442	162.19
496.66	173.19
496.877	167.19
497.094	158.19
497.312	170.19
497.529	156.19
497.746	143.19
497.963	148.19
498.181	135.19
498.398	116.19
498.615	111.19
498.832	106.19
499.049	130.19
499.267	120.19
499.484	133.19
499.701	116.19
499.918	138.19
500.135	141.19
500.352	142.19
500.569	133.19
500.786	144.19
501.003	127.19
501.22	143.19
501.437	126.19
501.654	141.19
501.871	148.19
502.088	130.19
502.305	117.19
502.522	115.19
502.739	137.19
502.956	130.19
503.172	123.19
503.389	138.19
503.606	108.19
503.823	116.19
504.04	114.19
504.256	115.19
504.473	124.19
504.69	122.19
504.907	125.19
505.123	115.19
505.34	126.19
505.557	110.19
505.773	138.19
505.99	132.19
506.207	114.19
506.423	122.19
506.64	126.19
506.856	108.19
507.073	138.19
507.289	130.19
507.506	121.19
507.722	125.19
507.939	134.19
508.155	127.19
508.372	100.19
508.588	114.19
508.805	126.19
509.021	102.19
509.238	120.19
509.454	104.19
509.67	112.19
509.887	104.19
510.103	86.19
510.319	99.19
510.536	103.19
510.752	91.19
510.968	91.19
511.184	92.19
511.401	97.19
