Data from Location1.07152019.Energy5.Lamp.07192019.3%Agarose_HRD10591_14-30-17-015.txt Node
Date: Fri Jul 19 14:30:17 EDT 2019
User: cochatt
Spectrometer: HR+D1059
Trigger mode: 1
Integration Time (sec): 1.000000E-1
Scans to average: 1
Electric dark correction enabled: true
Nonlinearity correction enabled: false
Boxcar width: 0
XAxis mode: Wavelengths
Number of Pixels in Spectrum: 2048
>>>>>Begin Spectral Data<<<<<
223.165	-17.5
223.4	-17.5
223.635	-17.5
223.869	-20.5
224.104	-8.5
224.338	-18.5
224.573	-9.5
224.808	-9.5
225.042	-16.5
225.277	-8.5
225.511	-0.5
225.746	8.5
225.98	0.5
226.215	13.5
226.449	17.5
226.683	10.5
226.918	29.5
227.152	29.5
227.387	39.5
227.621	35.5
227.856	46.5
228.09	37.5
228.324	41.5
228.559	61.5
228.793	55.5
229.027	70.5
229.262	55.5
229.496	56.5
229.73	69.5
229.964	76.5
230.199	62.5
230.433	76.5
230.667	85.5
230.901	79.5
231.136	80.5
231.37	86.5
231.604	85.5
231.838	75.5
232.072	75.5
232.306	87.5
232.541	87.5
232.775	81.5
233.009	66.5
233.243	87.5
233.477	87.5
233.711	84.5
233.945	75.5
234.179	79.5
234.413	95.5
234.647	73.5
234.881	63.5
235.115	85.5
235.349	75.5
235.583	79.5
235.817	70.5
236.051	72.5
236.285	81.5
236.519	78.5
236.753	89.5
236.987	72.5
237.221	77.5
237.455	93.5
237.689	86.5
237.922	67.5
238.156	83.5
238.39	88.5
238.624	78.5
238.858	78.5
239.091	78.5
239.325	69.5
239.559	92.5
239.793	85.5
240.027	93.5
240.26	76.5
240.494	85.5
240.728	78.5
240.961	86.5
241.195	78.5
241.429	83.5
241.662	73.5
241.896	80.5
242.13	79.5
242.363	78.5
242.597	65.5
242.83	77.5
243.064	71.5
243.298	70.5
243.531	82.5
243.765	71.5
243.998	69.5
244.232	78.5
244.465	71.5
244.699	84.5
244.932	80.5
245.166	83.5
245.399	82.5
245.633	84.5
245.866	84.5
246.099	78.5
246.333	77.5
246.566	81.5
246.8	94.5
247.033	83.5
247.266	78.5
247.5	89.5
247.733	73.5
247.966	91.5
248.2	65.5
248.433	73.5
248.666	76.5
248.899	86.5
249.133	83.5
249.366	84.5
249.599	84.5
249.832	79.5
250.066	87.5
250.299	85.5
250.532	77.5
250.765	90.5
250.998	85.5
251.231	86.5
251.465	81.5
251.698	77.5
251.931	95.5
252.164	89.5
252.397	75.5
252.63	80.5
252.863	88.5
253.096	85.5
253.329	85.5
253.562	72.5
253.795	87.5
254.028	87.5
254.261	85.5
254.494	79.5
254.727	92.5
254.96	104.5
255.193	84.5
255.426	80.5
255.659	89.5
255.892	85.5
256.124	82.5
256.357	87.5
256.59	84.5
256.823	88.5
257.056	77.5
257.289	67.5
257.521	69.5
257.754	94.5
257.987	79.5
258.22	78.5
258.452	80.5
258.685	84.5
258.918	84.5
259.151	69.5
259.383	90.5
259.616	87.5
259.849	89.5
260.081	80.5
260.314	76.5
260.547	84.5
260.779	75.5
261.012	99.5
261.244	76.5
261.477	95.5
261.71	84.5
261.942	70.5
262.175	91.5
262.407	80.5
262.64	87.5
262.872	85.5
263.105	75.5
263.337	71.5
263.57	81.5
263.802	74.5
264.035	91.5
264.267	92.5
264.499	85.5
264.732	91.5
264.964	82.5
265.197	77.5
265.429	91.5
265.661	98.5
265.894	75.5
266.126	92.5
266.358	93.5
266.591	84.5
266.823	78.5
267.055	77.5
267.287	74.5
267.52	80.5
267.752	89.5
267.984	75.5
268.216	76.5
268.448	89.5
268.681	77.5
268.913	91.5
269.145	85.5
269.377	88.5
269.609	95.5
269.841	95.5
270.073	95.5
270.306	88.5
270.538	83.5
270.77	81.5
271.002	85.5
271.234	82.5
271.466	88.5
271.698	71.5
271.93	87.5
272.162	76.5
272.394	94.5
272.626	89.5
272.858	77.5
273.09	84.5
273.322	86.5
273.553	92.5
273.785	91.5
274.017	84.5
274.249	92.5
274.481	89.5
274.713	83.5
274.945	75.5
275.176	71.5
275.408	81.5
275.64	95.5
275.872	84.5
276.104	85.5
276.335	84.5
276.567	87.5
276.799	89.5
277.031	78.5
277.262	80.5
277.494	82.5
277.726	89.5
277.957	100.5
278.189	91.5
278.421	84.5
278.652	78.5
278.884	94.5
279.115	87.5
279.347	74.5
279.579	87.5
279.81	89.5
280.042	77.5
280.273	89.5
280.505	93.5
280.736	78.5
280.968	84.5
281.199	85.5
281.431	92.5
281.662	102.5
281.894	86.5
282.125	87.5
282.356	76.5
282.588	90.5
282.819	88.5
283.051	72.5
283.282	92.5
283.513	94.5
283.745	83.5
283.976	78.5
284.207	81.5
284.439	85.5
284.67	89.5
284.901	92.5
285.132	94.5
285.364	94.5
285.595	79.5
285.826	92.5
286.057	82.5
286.288	104.5
286.52	92.5
286.751	77.5
286.982	90.5
287.213	83.5
287.444	78.5
287.675	87.5
287.906	87.5
288.138	78.5
288.369	86.5
288.6	87.5
288.831	90.5
289.062	82.5
289.293	86.5
289.524	67.5
289.755	80.5
289.986	85.5
290.217	83.5
290.448	83.5
290.679	93.5
290.91	90.5
291.141	72.5
291.371	89.5
291.602	91.5
291.833	76.5
292.064	79.5
292.295	88.5
292.526	75.5
292.757	69.5
292.987	84.5
293.218	85.5
293.449	75.5
293.68	97.5
293.91	104.5
294.141	86.5
294.372	85.5
294.603	85.5
294.833	89.5
295.064	85.5
295.295	83.5
295.525	92.5
295.756	95.5
295.987	99.5
296.217	83.5
296.448	90.5
296.679	89.5
296.909	84.5
297.14	87.5
297.37	90.5
297.601	81.5
297.831	88.5
298.062	84.5
298.292	88.5
298.523	92.5
298.753	96.5
298.984	93.5
299.214	90.5
299.445	89.5
299.675	79.5
299.905	93.5
300.136	86.5
300.366	84.5
300.597	88.5
300.827	86.5
301.057	85.5
301.288	88.5
301.518	88.5
301.748	84.5
301.979	87.5
302.209	89.5
302.439	99.5
302.669	98.5
302.9	94.5
303.13	92.5
303.36	82.5
303.59	83.5
303.82	80.5
304.051	96.5
304.281	99.5
304.511	86.5
304.741	94.5
304.971	76.5
305.201	85.5
305.431	77.5
305.661	87.5
305.891	83.5
306.121	81.5
306.352	79.5
306.582	82.5
306.812	92.5
307.042	82.5
307.272	87.5
307.502	85.5
307.731	90.5
307.961	98.5
308.191	105.5
308.421	83.5
308.651	90.5
308.881	79.5
309.111	77.5
309.341	93.5
309.571	95.5
309.8	87.5
310.03	88.5
310.26	95.5
310.49	83.5
310.72	83.5
310.949	88.5
311.179	83.5
311.409	102.5
311.639	93.5
311.868	84.5
312.098	73.5
312.328	90.5
312.557	93.5
312.787	82.5
313.017	85.5
313.246	92.5
313.476	84.5
313.706	99.5
313.935	99.5
314.165	93.5
314.394	73.5
314.624	84.5
314.853	74.5
315.083	90.5
315.312	99.5
315.542	87.5
315.771	81.5
316.001	95.5
316.23	95.5
316.46	87.5
316.689	90.5
316.919	71.5
317.148	85.5
317.377	90.5
317.607	87.5
317.836	89.5
318.065	83.5
318.295	74.5
318.524	73.5
318.753	90.5
318.983	97.5
319.212	96.5
319.441	88.5
319.67	90.5
319.9	83.5
320.129	90.5
320.358	95.5
320.587	89.5
320.816	87.5
321.046	84.5
321.275	79.5
321.504	79.5
321.733	79.5
321.962	85.5
322.191	79.5
322.42	96.5
322.649	95.5
322.878	98.5
323.108	92.5
323.337	76.5
323.566	74.5
323.795	89.5
324.024	93.5
324.253	87.5
324.482	87.5
324.71	99.5
324.939	98.5
325.168	81.5
325.397	91.5
325.626	91.5
325.855	73.5
326.084	89.5
326.313	92.5
326.542	81.5
326.77	102.5
326.999	89.5
327.228	83.5
327.457	71.5
327.686	97.5
327.914	87.5
328.143	84.5
328.372	81.5
328.6	88.5
328.829	87.5
329.058	78.5
329.287	72.5
329.515	87.5
329.744	90.5
329.972	74.5
330.201	80.5
330.43	84.5
330.658	79.5
330.887	83.5
331.115	84.5
331.344	109.5
331.572	83.5
331.801	87.5
332.03	76.5
332.258	93.5
332.486	80.5
332.715	80.5
332.943	95.5
333.172	79.5
333.4	87.5
333.629	78.5
333.857	88.5
334.085	73.5
334.314	83.5
334.542	87.5
334.771	87.5
334.999	86.5
335.227	72.5
335.455	78.5
335.684	78.5
335.912	82.5
336.14	97.5
336.369	84.5
336.597	83.5
336.825	75.5
337.053	81.5
337.281	75.5
337.51	83.5
337.738	95.5
337.966	88.5
338.194	94.5
338.422	72.5
338.65	87.5
338.878	77.5
339.106	87.5
339.334	84.5
339.562	86.5
339.79	90.5
340.018	86.5
340.246	84.5
340.474	94.5
340.702	87.5
340.93	96.5
341.158	85.5
341.386	81.5
341.614	85.5
341.842	79.5
342.07	86.5
342.298	89.5
342.526	90.5
342.754	90.5
342.981	92.5
343.209	82.5
343.437	93.5
343.665	91.5
343.893	77.5
344.12	87.5
344.348	74.5
344.576	88.5
344.804	87.5
345.031	88.5
345.259	88.5
345.487	95.5
345.714	88.5
345.942	87.5
346.17	100.5
346.397	86.5
346.625	95.5
346.853	88.5
347.08	88.5
347.308	85.5
347.535	83.5
347.763	82.5
347.99	83.5
348.218	75.5
348.445	72.5
348.673	88.5
348.9	80.5
349.128	82.5
349.355	85.5
349.583	89.5
349.81	83.5
350.037	87.5
350.265	96.5
350.492	89.5
350.72	89.5
350.947	78.5
351.174	85.5
351.402	61.5
351.629	84.5
351.856	90.5
352.083	88.5
352.311	86.5
352.538	73.5
352.765	76.5
352.992	90.5
353.22	80.5
353.447	77.5
353.674	94.5
353.901	89.5
354.128	99.5
354.355	88.5
354.583	89.5
354.81	76.5
355.037	82.5
355.264	91.5
355.491	85.5
355.718	85.5
355.945	94.5
356.172	72.5
356.399	92.5
356.626	80.5
356.853	86.5
357.08	70.5
357.307	77.5
357.534	81.5
357.761	70.5
357.988	92.5
358.215	75.5
358.441	92.5
358.668	85.5
358.895	85.5
359.122	79.5
359.349	99.5
359.576	92.5
359.802	96.5
360.029	91.5
360.256	89.5
360.483	86.5
360.709	81.5
360.936	93.5
361.163	94.5
361.39	93.5
361.616	71.5
361.843	91.5
362.07	80.5
362.296	90.5
362.523	82.5
362.749	76.5
362.976	79.5
363.203	92.5
363.429	76.5
363.656	85.5
363.882	83.5
364.109	94.5
364.335	84.5
364.562	79.5
364.788	85.5
365.015	94.5
365.241	80.5
365.468	95.5
365.694	100.5
365.92	96.5
366.147	79.5
366.373	87.5
366.599	84.5
366.826	86.5
367.052	91.5
367.278	73.5
367.505	77.5
367.731	98.5
367.957	100.5
368.184	88.5
368.41	94.5
368.636	85.5
368.862	84.5
369.089	94.5
369.315	98.5
369.541	92.5
369.767	95.5
369.993	76.5
370.219	87.5
370.445	95.5
370.672	88.5
370.898	84.5
371.124	99.5
371.35	92.5
371.576	97.5
371.802	98.5
372.028	97.5
372.254	87.5
372.48	99.5
372.706	83.5
372.932	103.5
373.158	99.5
373.384	87.5
373.61	97.5
373.835	100.5
374.061	77.5
374.287	93.5
374.513	93.5
374.739	100.5
374.965	80.5
375.191	99.5
375.416	89.5
375.642	80.5
375.868	97.5
376.094	83.5
376.319	84.5
376.545	97.5
376.771	95.5
376.997	94.5
377.222	91.5
377.448	88.5
377.674	114.5
377.899	100.5
378.125	93.5
378.35	102.5
378.576	92.5
378.802	88.5
379.027	93.5
379.253	106.5
379.478	95.5
379.704	103.5
379.929	90.5
380.155	93.5
380.38	96.5
380.606	90.5
380.831	99.5
381.057	79.5
381.282	93.5
381.507	103.5
381.733	92.5
381.958	93.5
382.184	92.5
382.409	109.5
382.634	97.5
382.86	96.5
383.085	106.5
383.31	104.5
383.535	84.5
383.761	96.5
383.986	89.5
384.211	95.5
384.436	90.5
384.662	99.5
384.887	100.5
385.112	104.5
385.337	108.5
385.562	113.5
385.787	99.5
386.013	108.5
386.238	105.5
386.463	99.5
386.688	100.5
386.913	102.5
387.138	103.5
387.363	113.5
387.588	111.5
387.813	107.5
388.038	115.5
388.263	110.5
388.488	95.5
388.713	87.5
388.938	107.5
389.163	112.5
389.387	100.5
389.612	88.5
389.837	106.5
390.062	101.5
390.287	97.5
390.512	101.5
390.736	100.5
390.961	112.5
391.186	107.5
391.411	113.5
391.636	108.5
391.86	101.5
392.085	94.5
392.31	120.5
392.534	104.5
392.759	114.5
392.984	104.5
393.208	107.5
393.433	93.5
393.658	94.5
393.882	103.5
394.107	110.5
394.331	104.5
394.556	99.5
394.78	100.5
395.005	104.5
395.229	96.5
395.454	98.5
395.678	102.5
395.903	96.5
396.127	108.5
396.352	106.5
396.576	107.5
396.801	101.5
397.025	104.5
397.249	102.5
397.474	105.5
397.698	103.5
397.922	116.5
398.147	102.5
398.371	120.5
398.595	110.5
398.82	111.5
399.044	96.5
399.268	115.5
399.492	112.5
399.717	116.5
399.941	97.5
400.165	103.5
400.389	121.5
400.613	111.5
400.837	110.5
401.062	119.5
401.286	127.5
401.51	113.5
401.734	113.5
401.958	107.5
402.182	109.5
402.406	105.5
402.63	122.5
402.854	121.5
403.078	126.5
403.302	121.5
403.526	115.5
403.75	118.5
403.974	119.5
404.198	113.5
404.422	115.5
404.645	98.5
404.869	115.5
405.093	125.5
405.317	122.5
405.541	108.5
405.765	117.5
405.988	106.5
406.212	115.5
406.436	118.5
406.66	122.5
406.883	120.5
407.107	120.5
407.331	119.5
407.555	100.5
407.778	119.5
408.002	100.5
408.226	127.5
408.449	120.5
408.673	131.5
408.896	109.5
409.12	121.5
409.344	119.5
409.567	115.5
409.791	114.5
410.014	125.5
410.238	115.5
410.461	130.5
410.685	123.5
410.908	126.5
411.132	129.5
411.355	113.5
411.578	119.5
411.802	137.5
412.025	128.5
412.249	120.5
412.472	131.5
412.695	119.5
412.919	124.5
413.142	117.5
413.365	107.5
413.589	117.5
413.812	135.5
414.035	126.5
414.258	122.5
414.482	119.5
414.705	127.5
414.928	112.5
415.151	131.5
415.374	120.5
415.597	125.5
415.821	119.5
416.044	125.5
416.267	125.5
416.49	121.5
416.713	118.5
416.936	109.5
417.159	123.5
417.382	121.5
417.605	123.5
417.828	121.5
418.051	131.5
418.274	126.5
418.497	129.5
418.72	153.5
418.943	141.5
419.166	143.5
419.389	134.5
419.611	128.5
419.834	132.5
420.057	125.5
420.28	134.5
420.503	131.5
420.726	133.5
420.948	126.5
421.171	142.5
421.394	147.5
421.617	155.5
421.839	159.5
422.062	127.5
422.285	135.5
422.507	148.5
422.73	136.5
422.953	133.5
423.175	142.5
423.398	127.5
423.621	115.5
423.843	132.5
424.066	132.5
424.288	137.5
424.511	143.5
424.733	137.5
424.956	147.5
425.178	148.5
425.401	133.5
425.623	136.5
425.846	131.5
426.068	119.5
426.291	135.5
426.513	132.5
426.735	119.5
426.958	127.5
427.18	129.5
427.402	123.5
427.625	135.5
427.847	123.5
428.069	133.5
428.292	129.5
428.514	125.5
428.736	131.5
428.958	131.5
429.181	123.5
429.403	123.5
429.625	143.5
429.847	124.5
430.069	128.5
430.292	141.5
430.514	124.5
430.736	128.5
430.958	126.5
431.18	137.5
431.402	127.5
431.624	128.5
431.846	103.5
432.068	110.5
432.29	96.5
432.512	86.5
432.734	122.5
432.956	127.5
433.178	133.5
433.4	129.5
433.622	140.5
433.844	133.5
434.066	123.5
434.287	103.5
434.509	97.5
434.731	108.5
434.953	101.5
435.175	123.5
435.397	125.5
435.618	127.5
435.84	112.5
436.062	104.5
436.284	119.5
436.505	126.5
436.727	123.5
436.949	133.5
437.17	118.5
437.392	119.5
437.614	105.5
437.835	102.5
438.057	94.5
438.278	110.5
438.5	130.5
438.721	124.5
438.943	140.5
439.165	129.5
439.386	143.5
439.608	126.5
439.829	139.5
440.05	140.5
440.272	152.5
440.493	151.5
440.715	141.5
440.936	140.5
441.158	146.5
441.379	147.5
441.6	128.5
441.822	149.5
442.043	145.5
442.264	153.5
442.486	127.5
442.707	147.5
442.928	149.5
443.149	152.5
443.371	140.5
443.592	137.5
443.813	121.5
444.034	141.5
444.255	146.5
444.476	142.5
444.698	141.5
444.919	137.5
445.14	271.5
445.361	204.5
445.582	142.5
445.803	151.5
446.024	153.5
446.245	148.5
446.466	156.5
446.687	153.5
446.908	149.5
447.129	145.5
447.35	151.5
447.571	141.5
447.792	151.5
448.013	129.5
448.234	132.5
448.455	131.5
448.675	151.5
448.896	131.5
449.117	145.5
449.338	129.5
449.559	141.5
449.779	143.5
450	136.5
450.221	123.5
450.442	137.5
450.662	139.5
450.883	129.5
451.104	133.5
451.324	130.5
451.545	128.5
451.766	129.5
451.986	125.5
452.207	124.5
452.428	130.5
452.648	135.5
452.869	110.5
453.089	121.5
453.31	116.5
453.53	117.5
453.751	101.5
453.971	99.5
454.192	108.5
454.412	115.5
454.633	117.5
454.853	120.5
455.073	105.5
455.294	135.5
455.514	110.5
455.734	113.5
455.955	122.5
456.175	101.5
456.395	104.5
456.616	109.5
456.836	109.5
457.056	118.5
457.276	100.5
457.497	99.5
457.717	99.5
457.937	119.5
458.157	100.5
458.377	120.5
458.598	100.5
458.818	98.5
459.038	86.5
459.258	90.5
459.478	90.5
459.698	100.5
459.918	92.5
460.138	94.5
460.358	114.5
460.578	104.5
460.798	115.5
461.018	110.5
461.238	117.5
461.458	120.5
461.678	103.5
461.898	121.5
462.118	104.5
462.338	108.5
462.558	127.5
462.777	121.5
462.997	116.5
463.217	123.5
463.437	128.5
463.657	111.5
463.876	124.5
464.096	113.5
464.316	104.5
464.536	115.5
464.755	117.5
464.975	128.5
465.195	115.5
465.414	122.5
465.634	117.5
465.854	107.5
466.073	148.5
466.293	119.5
466.512	122.5
466.732	135.5
466.951	141.5
467.171	119.5
467.391	135.5
467.61	116.5
467.829	121.5
468.049	124.5
468.268	125.5
468.488	130.5
468.707	130.5
468.927	140.5
469.146	128.5
469.365	143.5
469.585	135.5
469.804	130.5
470.023	139.5
470.243	143.5
470.462	148.5
470.681	146.5
470.901	141.5
471.12	144.5
471.339	129.5
471.558	128.5
471.777	141.5
471.997	141.5
472.216	120.5
472.435	118.5
472.654	108.5
472.873	108.5
473.092	115.5
473.311	111.5
473.53	127.5
473.749	115.5
473.968	128.5
474.187	125.5
474.406	93.5
474.625	125.5
474.844	112.5
475.063	126.5
475.282	123.5
475.501	115.5
475.72	124.5
475.939	131.5
476.158	123.5
476.377	117.5
476.596	109.5
476.814	103.5
477.033	115.5
477.252	111.5
477.471	129.5
477.69	131.5
477.908	122.5
478.127	127.5
478.346	140.5
478.564	155.5
478.783	143.5
479.002	127.5
479.22	145.5
479.439	135.5
479.658	123.5
479.876	123.5
480.095	94.5
480.313	112.5
480.532	129.5
480.751	109.5
480.969	93.5
481.188	86.5
481.406	95.5
481.624	90.5
481.843	85.5
482.061	112.5
482.28	113.5
482.498	98.5
482.717	120.5
482.935	124.5
483.153	144.5
483.372	154.5
483.59	171.5
483.808	144.5
484.027	141.5
484.245	137.5
484.463	138.5
484.681	148.5
484.9	139.5
485.118	149.5
485.336	127.5
485.554	109.5
485.772	101.5
485.99	103.5
486.209	92.5
486.427	112.5
486.645	121.5
486.863	134.5
487.081	137.5
487.299	139.5
487.517	144.5
487.735	159.5
487.953	163.5
488.171	181.5
488.389	171.5
488.607	172.5
488.825	148.5
489.043	148.5
489.261	133.5
489.479	133.5
489.696	137.5
489.914	143.5
490.132	142.5
490.35	145.5
490.568	156.5
490.786	161.5
491.003	176.5
491.221	180.5
491.439	179.5
491.657	175.5
491.874	196.5
492.092	210.5
492.31	251.5
492.527	250.5
492.745	193.5
492.963	187.5
493.18	180.5
493.398	187.5
493.615	173.5
493.833	168.5
494.05	164.5
494.268	176.5
494.485	157.5
494.703	167.5
494.92	162.5
495.138	171.5
495.355	164.5
495.573	177.5
495.79	180.5
496.008	162.5
496.225	176.5
496.442	166.5
496.66	147.5
496.877	166.5
497.094	167.5
497.312	152.5
497.529	165.5
497.746	148.5
497.963	128.5
498.181	124.5
498.398	118.5
498.615	116.5
498.832	117.5
499.049	124.5
499.267	137.5
499.484	121.5
499.701	125.5
499.918	126.5
500.135	145.5
500.352	126.5
500.569	143.5
500.786	137.5
501.003	151.5
501.22	127.5
501.437	134.5
501.654	121.5
501.871	117.5
502.088	136.5
502.305	135.5
502.522	123.5
502.739	130.5
502.956	136.5
503.172	126.5
503.389	124.5
503.606	126.5
503.823	121.5
504.04	137.5
504.256	114.5
504.473	119.5
504.69	129.5
504.907	113.5
505.123	128.5
505.34	126.5
505.557	122.5
505.773	133.5
505.99	133.5
506.207	127.5
506.423	126.5
506.64	122.5
506.856	108.5
507.073	119.5
507.289	131.5
507.506	133.5
507.722	125.5
507.939	113.5
508.155	113.5
508.372	116.5
508.588	124.5
508.805	101.5
509.021	108.5
509.238	117.5
509.454	111.5
509.67	101.5
509.887	104.5
510.103	93.5
510.319	92.5
510.536	93.5
510.752	100.5
510.968	81.5
511.184	65.5
511.401	91.5
511.617	80.5
511.833	91.5
512.049	88.5
512.265	87.5
512.481	97.5
512.698	97.5
512.914	94.5
513.13	93.5
513.346	90.5
513.562	101.5
513.778	93.5
513.994	84.5
514.21	95.5
514.426	101.5
514.642	81.5
514.858	100.5
515.074	97.5
515.29	92.5
515.506	96.5
515.721	85.5
515.937	96.5
516.153	83.5
516.369	107.5
516.585	87.5
516.801	80.5
517.016	93.5
517.232	99.5
517.448	103.5
517.664	90.5
517.879	99.5
518.095	99.5
518.311	93.5
518.527	91.5
518.742	113.5
518.958	107.5
519.173	109.5
519.389	120.5
519.605	110.5
519.82	116.5
520.036	101.5
520.251	103.5
520.467	112.5
520.682	111.5
520.898	102.5
521.113	90.5
521.329	78.5
521.544	98.5
521.76	103.5
521.975	79.5
522.19	103.5
522.406	97.5
522.621	86.5
522.836	96.5
523.052	111.5
523.267	113.5
523.482	118.5
523.698	125.5
523.913	123.5
524.128	116.5
524.343	122.5
524.559	125.5
524.774	110.5
524.989	123.5
525.204	113.5
525.419	118.5
525.634	103.5
525.849	110.5
526.064	108.5
526.28	115.5
526.495	104.5
526.71	96.5
526.925	89.5
527.14	82.5
527.355	84.5
527.57	86.5
527.785	87.5
527.999	87.5
528.214	105.5
528.429	115.5
528.644	137.5
528.859	129.5
529.074	131.5
529.289	153.5
529.503	161.5
529.718	129.5
529.933	111.5
530.148	109.5
530.363	107.5
530.577	87.5
