Data from Location1.07152019.Energy5.Lamp.07192019.3%Agarose_HRD10591_14-30-50-014.txt Node
Date: Fri Jul 19 14:30:50 EDT 2019
User: cochatt
Spectrometer: HR+D1059
Trigger mode: 1
Integration Time (sec): 1.000000E-1
Scans to average: 1
Electric dark correction enabled: true
Nonlinearity correction enabled: false
Boxcar width: 0
XAxis mode: Wavelengths
Number of Pixels in Spectrum: 2048
>>>>>Begin Spectral Data<<<<<
223.165	-2.44
223.4	-2.44
223.635	-2.44
223.869	-19.44
224.104	-9.44
224.338	-21.44
224.573	-8.44
224.808	-12.44
225.042	-0.44
225.277	-6.44
225.511	-16.44
225.746	-11.44
225.98	11.56
226.215	11.56
226.449	13.56
226.683	18.56
226.918	21.56
227.152	31.56
227.387	47.56
227.621	17.56
227.856	48.56
228.09	49.56
228.324	64.56
228.559	63.56
228.793	59.56
229.027	69.56
229.262	50.56
229.496	68.56
229.73	77.56
229.964	55.56
230.199	79.56
230.433	86.56
230.667	64.56
230.901	54.56
231.136	86.56
231.37	96.56
231.604	82.56
231.838	82.56
232.072	97.56
232.306	81.56
232.541	84.56
232.775	78.56
233.009	90.56
233.243	88.56
233.477	67.56
233.711	101.56
233.945	87.56
234.179	92.56
234.413	85.56
234.647	84.56
234.881	84.56
235.115	76.56
235.349	85.56
235.583	98.56
235.817	90.56
236.051	79.56
236.285	87.56
236.519	87.56
236.753	78.56
236.987	80.56
237.221	80.56
237.455	85.56
237.689	84.56
237.922	78.56
238.156	72.56
238.39	72.56
238.624	68.56
238.858	53.56
239.091	75.56
239.325	76.56
239.559	78.56
239.793	74.56
240.027	79.56
240.26	68.56
240.494	84.56
240.728	74.56
240.961	82.56
241.195	91.56
241.429	81.56
241.662	73.56
241.896	77.56
242.13	57.56
242.363	78.56
242.597	84.56
242.83	92.56
243.064	102.56
243.298	69.56
243.531	69.56
243.765	89.56
243.998	72.56
244.232	87.56
244.465	88.56
244.699	97.56
244.932	85.56
245.166	89.56
245.399	80.56
245.633	63.56
245.866	82.56
246.099	72.56
246.333	73.56
246.566	91.56
246.8	76.56
247.033	75.56
247.266	81.56
247.5	82.56
247.733	77.56
247.966	77.56
248.2	79.56
248.433	72.56
248.666	79.56
248.899	84.56
249.133	71.56
249.366	78.56
249.599	80.56
249.832	83.56
250.066	71.56
250.299	87.56
250.532	72.56
250.765	82.56
250.998	85.56
251.231	83.56
251.465	89.56
251.698	66.56
251.931	68.56
252.164	82.56
252.397	83.56
252.63	95.56
252.863	79.56
253.096	73.56
253.329	88.56
253.562	80.56
253.795	73.56
254.028	98.56
254.261	99.56
254.494	88.56
254.727	83.56
254.96	81.56
255.193	79.56
255.426	93.56
255.659	83.56
255.892	88.56
256.124	104.56
256.357	91.56
256.59	86.56
256.823	89.56
257.056	80.56
257.289	98.56
257.521	97.56
257.754	91.56
257.987	88.56
258.22	86.56
258.452	67.56
258.685	95.56
258.918	83.56
259.151	70.56
259.383	88.56
259.616	85.56
259.849	97.56
260.081	77.56
260.314	73.56
260.547	85.56
260.779	85.56
261.012	84.56
261.244	81.56
261.477	95.56
261.71	76.56
261.942	87.56
262.175	89.56
262.407	86.56
262.64	79.56
262.872	86.56
263.105	85.56
263.337	75.56
263.57	89.56
263.802	75.56
264.035	78.56
264.267	74.56
264.499	88.56
264.732	93.56
264.964	79.56
265.197	78.56
265.429	90.56
265.661	92.56
265.894	94.56
266.126	93.56
266.358	78.56
266.591	92.56
266.823	81.56
267.055	84.56
267.287	92.56
267.52	82.56
267.752	90.56
267.984	76.56
268.216	78.56
268.448	83.56
268.681	86.56
268.913	84.56
269.145	87.56
269.377	83.56
269.609	82.56
269.841	91.56
270.073	83.56
270.306	78.56
270.538	78.56
270.77	93.56
271.002	74.56
271.234	95.56
271.466	76.56
271.698	85.56
271.93	86.56
272.162	91.56
272.394	77.56
272.626	85.56
272.858	90.56
273.09	89.56
273.322	87.56
273.553	78.56
273.785	83.56
274.017	84.56
274.249	84.56
274.481	97.56
274.713	80.56
274.945	86.56
275.176	89.56
275.408	81.56
275.64	72.56
275.872	72.56
276.104	84.56
276.335	78.56
276.567	90.56
276.799	86.56
277.031	89.56
277.262	95.56
277.494	91.56
277.726	82.56
277.957	91.56
278.189	88.56
278.421	89.56
278.652	78.56
278.884	74.56
279.115	82.56
279.347	97.56
279.579	85.56
279.81	87.56
280.042	85.56
280.273	73.56
280.505	74.56
280.736	82.56
280.968	84.56
281.199	92.56
281.431	87.56
281.662	100.56
281.894	83.56
282.125	95.56
282.356	80.56
282.588	88.56
282.819	80.56
283.051	86.56
283.282	80.56
283.513	90.56
283.745	97.56
283.976	101.56
284.207	102.56
284.439	88.56
284.67	99.56
284.901	77.56
285.132	86.56
285.364	80.56
285.595	103.56
285.826	85.56
286.057	82.56
286.288	105.56
286.52	96.56
286.751	92.56
286.982	73.56
287.213	88.56
287.444	92.56
287.675	85.56
287.906	81.56
288.138	79.56
288.369	76.56
288.6	81.56
288.831	77.56
289.062	86.56
289.293	88.56
289.524	72.56
289.755	92.56
289.986	92.56
290.217	95.56
290.448	77.56
290.679	96.56
290.91	85.56
291.141	67.56
291.371	93.56
291.602	85.56
291.833	81.56
292.064	89.56
292.295	89.56
292.526	86.56
292.757	84.56
292.987	97.56
293.218	90.56
293.449	89.56
293.68	86.56
293.91	79.56
294.141	86.56
294.372	82.56
294.603	92.56
294.833	81.56
295.064	86.56
295.295	81.56
295.525	76.56
295.756	85.56
295.987	81.56
296.217	84.56
296.448	77.56
296.679	93.56
296.909	89.56
297.14	89.56
297.37	95.56
297.601	84.56
297.831	91.56
298.062	73.56
298.292	64.56
298.523	79.56
298.753	88.56
298.984	91.56
299.214	84.56
299.445	92.56
299.675	83.56
299.905	86.56
300.136	68.56
300.366	97.56
300.597	80.56
300.827	78.56
301.057	88.56
301.288	85.56
301.518	90.56
301.748	80.56
301.979	91.56
302.209	81.56
302.439	84.56
302.669	79.56
302.9	76.56
303.13	101.56
303.36	87.56
303.59	84.56
303.82	86.56
304.051	87.56
304.281	98.56
304.511	79.56
304.741	80.56
304.971	95.56
305.201	89.56
305.431	63.56
305.661	83.56
305.891	87.56
306.121	82.56
306.352	91.56
306.582	94.56
306.812	86.56
307.042	86.56
307.272	92.56
307.502	79.56
307.731	95.56
307.961	87.56
308.191	87.56
308.421	93.56
308.651	80.56
308.881	91.56
309.111	81.56
309.341	81.56
309.571	89.56
309.8	84.56
310.03	92.56
310.26	79.56
310.49	68.56
310.72	84.56
310.949	91.56
311.179	99.56
311.409	93.56
311.639	88.56
311.868	83.56
312.098	91.56
312.328	69.56
312.557	88.56
312.787	94.56
313.017	80.56
313.246	85.56
313.476	88.56
313.706	82.56
313.935	94.56
314.165	93.56
314.394	87.56
314.624	81.56
314.853	93.56
315.083	96.56
315.312	93.56
315.542	91.56
315.771	95.56
316.001	82.56
316.23	95.56
316.46	88.56
316.689	100.56
316.919	94.56
317.148	85.56
317.377	81.56
317.607	87.56
317.836	90.56
318.065	73.56
318.295	93.56
318.524	91.56
318.753	96.56
318.983	85.56
319.212	107.56
319.441	97.56
319.67	84.56
319.9	92.56
320.129	88.56
320.358	83.56
320.587	85.56
320.816	92.56
321.046	97.56
321.275	96.56
321.504	77.56
321.733	80.56
321.962	86.56
322.191	95.56
322.42	92.56
322.649	100.56
322.878	101.56
323.108	108.56
323.337	78.56
323.566	81.56
323.795	85.56
324.024	87.56
324.253	74.56
324.482	88.56
324.71	81.56
324.939	81.56
325.168	92.56
325.397	78.56
325.626	75.56
325.855	80.56
326.084	80.56
326.313	78.56
326.542	81.56
326.77	91.56
326.999	88.56
327.228	90.56
327.457	88.56
327.686	84.56
327.914	91.56
328.143	81.56
328.372	102.56
328.6	88.56
328.829	92.56
329.058	92.56
329.287	84.56
329.515	97.56
329.744	91.56
329.972	91.56
330.201	95.56
330.43	86.56
330.658	81.56
330.887	77.56
331.115	96.56
331.344	88.56
331.572	86.56
331.801	86.56
332.03	91.56
332.258	83.56
332.486	93.56
332.715	89.56
332.943	71.56
333.172	82.56
333.4	81.56
333.629	91.56
333.857	76.56
334.085	86.56
334.314	95.56
334.542	99.56
334.771	83.56
334.999	82.56
335.227	85.56
335.455	89.56
335.684	77.56
335.912	95.56
336.14	82.56
336.369	82.56
336.597	91.56
336.825	90.56
337.053	80.56
337.281	80.56
337.51	80.56
337.738	93.56
337.966	79.56
338.194	72.56
338.422	80.56
338.65	100.56
338.878	91.56
339.106	83.56
339.334	91.56
339.562	76.56
339.79	80.56
340.018	83.56
340.246	90.56
340.474	95.56
340.702	88.56
340.93	92.56
341.158	95.56
341.386	103.56
341.614	95.56
341.842	100.56
342.07	94.56
342.298	78.56
342.526	92.56
342.754	86.56
342.981	83.56
343.209	100.56
343.437	84.56
343.665	80.56
343.893	94.56
344.12	83.56
344.348	94.56
344.576	96.56
344.804	76.56
345.031	79.56
345.259	96.56
345.487	88.56
345.714	77.56
345.942	84.56
346.17	93.56
346.397	89.56
346.625	98.56
346.853	101.56
347.08	93.56
347.308	89.56
347.535	82.56
347.763	87.56
347.99	91.56
348.218	98.56
348.445	95.56
348.673	79.56
348.9	80.56
349.128	92.56
349.355	90.56
349.583	86.56
349.81	94.56
350.037	76.56
350.265	86.56
350.492	91.56
350.72	92.56
350.947	82.56
351.174	85.56
351.402	81.56
351.629	94.56
351.856	74.56
352.083	89.56
352.311	75.56
352.538	83.56
352.765	92.56
352.992	77.56
353.22	82.56
353.447	83.56
353.674	87.56
353.901	89.56
354.128	90.56
354.355	88.56
354.583	85.56
354.81	84.56
355.037	86.56
355.264	91.56
355.491	81.56
355.718	88.56
355.945	88.56
356.172	96.56
356.399	91.56
356.626	89.56
356.853	69.56
357.08	88.56
357.307	100.56
357.534	86.56
357.761	87.56
357.988	82.56
358.215	89.56
358.441	90.56
358.668	95.56
358.895	92.56
359.122	92.56
359.349	89.56
359.576	94.56
359.802	83.56
360.029	89.56
360.256	77.56
360.483	86.56
360.709	71.56
360.936	86.56
361.163	86.56
361.39	84.56
361.616	95.56
361.843	77.56
362.07	77.56
362.296	89.56
362.523	91.56
362.749	79.56
362.976	90.56
363.203	92.56
363.429	94.56
363.656	108.56
363.882	90.56
364.109	85.56
364.335	107.56
364.562	81.56
364.788	82.56
365.015	75.56
365.241	93.56
365.468	79.56
365.694	90.56
365.92	83.56
366.147	92.56
366.373	89.56
366.599	96.56
366.826	83.56
367.052	100.56
367.278	108.56
367.505	93.56
367.731	106.56
367.957	88.56
368.184	85.56
368.41	93.56
368.636	96.56
368.862	83.56
369.089	92.56
369.315	93.56
369.541	81.56
369.767	104.56
369.993	100.56
370.219	102.56
370.445	102.56
370.672	93.56
370.898	85.56
371.124	93.56
371.35	85.56
371.576	84.56
371.802	81.56
372.028	90.56
372.254	87.56
372.48	101.56
372.706	94.56
372.932	92.56
373.158	94.56
373.384	101.56
373.61	97.56
373.835	85.56
374.061	83.56
374.287	94.56
374.513	96.56
374.739	95.56
374.965	89.56
375.191	100.56
375.416	102.56
375.642	85.56
375.868	106.56
376.094	89.56
376.319	91.56
376.545	96.56
376.771	96.56
376.997	95.56
377.222	87.56
377.448	96.56
377.674	91.56
377.899	102.56
378.125	97.56
378.35	91.56
378.576	98.56
378.802	95.56
379.027	91.56
379.253	110.56
379.478	94.56
379.704	104.56
379.929	87.56
380.155	96.56
380.38	96.56
380.606	101.56
380.831	102.56
381.057	98.56
381.282	96.56
381.507	89.56
381.733	93.56
381.958	94.56
382.184	106.56
382.409	104.56
382.634	97.56
382.86	105.56
383.085	91.56
383.31	103.56
383.535	105.56
383.761	104.56
383.986	109.56
384.211	88.56
384.436	106.56
384.662	96.56
384.887	91.56
385.112	100.56
385.337	107.56
385.562	106.56
385.787	100.56
386.013	112.56
386.238	110.56
386.463	105.56
386.688	93.56
386.913	102.56
387.138	91.56
387.363	110.56
387.588	103.56
387.813	99.56
388.038	110.56
388.263	98.56
388.488	106.56
388.713	105.56
388.938	113.56
389.163	99.56
389.387	119.56
389.612	102.56
389.837	115.56
390.062	112.56
390.287	93.56
390.512	99.56
390.736	106.56
390.961	104.56
391.186	94.56
391.411	108.56
391.636	96.56
391.86	104.56
392.085	109.56
392.31	97.56
392.534	108.56
392.759	100.56
392.984	111.56
393.208	99.56
393.433	124.56
393.658	103.56
393.882	104.56
394.107	110.56
394.331	115.56
394.556	112.56
394.78	115.56
395.005	119.56
395.229	96.56
395.454	102.56
395.678	94.56
395.903	93.56
396.127	113.56
396.352	101.56
396.576	103.56
396.801	116.56
397.025	117.56
397.249	133.56
397.474	95.56
397.698	109.56
397.922	110.56
398.147	100.56
398.371	107.56
398.595	124.56
398.82	110.56
399.044	104.56
399.268	103.56
399.492	98.56
399.717	110.56
399.941	110.56
400.165	118.56
400.389	105.56
400.613	112.56
400.837	98.56
401.062	112.56
401.286	123.56
401.51	99.56
401.734	116.56
401.958	103.56
402.182	103.56
402.406	126.56
402.63	112.56
402.854	115.56
403.078	102.56
403.302	121.56
403.526	118.56
403.75	110.56
403.974	114.56
404.198	102.56
404.422	119.56
404.645	117.56
404.869	121.56
405.093	119.56
405.317	111.56
405.541	125.56
405.765	114.56
405.988	125.56
406.212	117.56
406.436	121.56
406.66	121.56
406.883	136.56
407.107	122.56
407.331	108.56
407.555	119.56
407.778	108.56
408.002	117.56
408.226	111.56
408.449	125.56
408.673	123.56
408.896	112.56
409.12	116.56
409.344	112.56
409.567	109.56
409.791	130.56
410.014	127.56
410.238	117.56
410.461	130.56
410.685	117.56
410.908	120.56
411.132	120.56
411.355	127.56
411.578	116.56
411.802	120.56
412.025	120.56
412.249	119.56
412.472	131.56
412.695	121.56
412.919	128.56
413.142	126.56
413.365	131.56
413.589	129.56
413.812	126.56
414.035	123.56
414.258	129.56
414.482	118.56
414.705	125.56
414.928	140.56
415.151	111.56
415.374	127.56
415.597	129.56
415.821	134.56
416.044	123.56
416.267	125.56
416.49	111.56
416.713	121.56
416.936	134.56
417.159	120.56
417.382	121.56
417.605	142.56
417.828	134.56
418.051	133.56
418.274	118.56
418.497	135.56
418.72	129.56
418.943	134.56
419.166	138.56
419.389	129.56
419.611	143.56
419.834	134.56
420.057	138.56
420.28	124.56
420.503	135.56
420.726	131.56
420.948	137.56
421.171	126.56
421.394	140.56
421.617	165.56
421.839	129.56
422.062	138.56
422.285	132.56
422.507	118.56
422.73	133.56
422.953	147.56
423.175	135.56
423.398	128.56
423.621	126.56
423.843	134.56
424.066	141.56
424.288	131.56
424.511	128.56
424.733	146.56
424.956	124.56
425.178	147.56
425.401	149.56
425.623	143.56
425.846	141.56
426.068	133.56
426.291	126.56
426.513	135.56
426.735	125.56
426.958	126.56
427.18	139.56
427.402	119.56
427.625	140.56
427.847	131.56
428.069	131.56
428.292	126.56
428.514	127.56
428.736	126.56
428.958	135.56
429.181	131.56
429.403	137.56
429.625	130.56
429.847	135.56
430.069	128.56
430.292	125.56
430.514	127.56
430.736	127.56
430.958	128.56
431.18	132.56
431.402	124.56
431.624	125.56
431.846	122.56
432.068	97.56
432.29	106.56
432.512	117.56
432.734	137.56
432.956	131.56
433.178	137.56
433.4	132.56
433.622	129.56
433.844	142.56
434.066	124.56
434.287	105.56
434.509	92.56
434.731	94.56
434.953	102.56
435.175	108.56
435.397	130.56
435.618	116.56
435.84	116.56
436.062	109.56
436.284	118.56
436.505	129.56
436.727	144.56
436.949	126.56
437.17	116.56
437.392	127.56
437.614	116.56
437.835	119.56
438.057	99.56
438.278	101.56
438.5	125.56
438.721	126.56
438.943	129.56
439.165	136.56
439.386	127.56
439.608	142.56
439.829	158.56
440.05	143.56
440.272	153.56
440.493	141.56
440.715	144.56
440.936	166.56
441.158	150.56
441.379	136.56
441.6	154.56
441.822	151.56
442.043	145.56
442.264	143.56
442.486	136.56
442.707	134.56
442.928	135.56
443.149	145.56
443.371	157.56
443.592	135.56
443.813	133.56
444.034	148.56
444.255	141.56
444.476	133.56
444.698	138.56
444.919	150.56
445.14	255.56
445.361	205.56
445.582	149.56
445.803	128.56
446.024	144.56
446.245	150.56
446.466	143.56
446.687	145.56
446.908	150.56
447.129	149.56
447.35	147.56
447.571	155.56
447.792	142.56
448.013	138.56
448.234	147.56
448.455	136.56
448.675	150.56
448.896	149.56
449.117	142.56
449.338	127.56
449.559	145.56
449.779	133.56
450	137.56
450.221	143.56
450.442	129.56
450.662	131.56
450.883	139.56
451.104	151.56
451.324	122.56
451.545	121.56
451.766	131.56
451.986	127.56
452.207	129.56
452.428	132.56
452.648	118.56
452.869	127.56
453.089	104.56
453.31	109.56
453.53	124.56
453.751	98.56
453.971	111.56
454.192	93.56
454.412	105.56
454.633	126.56
454.853	103.56
455.073	117.56
455.294	129.56
455.514	128.56
455.734	129.56
455.955	116.56
456.175	119.56
456.395	112.56
456.616	111.56
456.836	108.56
457.056	119.56
457.276	98.56
457.497	112.56
457.717	106.56
457.937	117.56
458.157	92.56
458.377	117.56
458.598	97.56
458.818	79.56
459.038	88.56
459.258	71.56
459.478	89.56
459.698	92.56
459.918	110.56
460.138	108.56
460.358	106.56
460.578	104.56
460.798	116.56
461.018	101.56
461.238	104.56
461.458	112.56
461.678	121.56
461.898	123.56
462.118	123.56
462.338	117.56
462.558	111.56
462.777	119.56
462.997	111.56
463.217	100.56
463.437	112.56
463.657	95.56
463.876	108.56
464.096	116.56
464.316	109.56
464.536	123.56
464.755	116.56
464.975	113.56
465.195	125.56
465.414	131.56
465.634	105.56
465.854	121.56
466.073	119.56
466.293	127.56
466.512	123.56
466.732	120.56
466.951	113.56
467.171	115.56
467.391	131.56
467.61	129.56
467.829	141.56
468.049	129.56
468.268	143.56
468.488	121.56
468.707	135.56
468.927	133.56
469.146	137.56
469.365	144.56
469.585	138.56
469.804	129.56
470.023	134.56
470.243	144.56
470.462	155.56
470.681	141.56
470.901	145.56
471.12	131.56
471.339	150.56
471.558	152.56
471.777	129.56
471.997	144.56
472.216	143.56
472.435	118.56
472.654	115.56
472.873	118.56
473.092	110.56
473.311	140.56
473.53	128.56
473.749	119.56
473.968	133.56
474.187	116.56
474.406	112.56
474.625	115.56
474.844	125.56
475.063	128.56
475.282	138.56
475.501	115.56
475.72	124.56
475.939	127.56
476.158	127.56
476.377	131.56
476.596	126.56
476.814	126.56
477.033	119.56
477.252	116.56
477.471	133.56
477.69	136.56
477.908	136.56
478.127	129.56
478.346	145.56
478.564	141.56
478.783	141.56
479.002	145.56
479.22	133.56
479.439	142.56
479.658	111.56
479.876	107.56
480.095	112.56
480.313	119.56
480.532	115.56
480.751	125.56
480.969	93.56
481.188	83.56
481.406	89.56
481.624	94.56
481.843	92.56
482.061	93.56
482.28	110.56
482.498	120.56
482.717	119.56
482.935	124.56
483.153	145.56
483.372	147.56
483.59	148.56
483.808	136.56
484.027	131.56
484.245	135.56
484.463	150.56
484.681	164.56
484.9	150.56
485.118	125.56
485.336	135.56
485.554	104.56
485.772	113.56
485.99	105.56
486.209	111.56
486.427	122.56
486.645	105.56
486.863	129.56
487.081	140.56
487.299	131.56
487.517	124.56
487.735	192.56
487.953	198.56
488.171	167.56
488.389	174.56
488.607	160.56
488.825	133.56
489.043	139.56
489.261	135.56
489.479	141.56
489.696	136.56
489.914	148.56
490.132	143.56
490.35	160.56
490.568	158.56
490.786	152.56
491.003	165.56
491.221	172.56
491.439	171.56
491.657	195.56
491.874	211.56
492.092	214.56
492.31	243.56
492.527	209.56
492.745	189.56
492.963	182.56
493.18	180.56
493.398	189.56
493.615	182.56
493.833	180.56
494.05	187.56
494.268	182.56
494.485	168.56
494.703	169.56
494.92	173.56
495.138	174.56
495.355	157.56
495.573	171.56
495.79	177.56
496.008	166.56
496.225	154.56
496.442	160.56
496.66	177.56
496.877	161.56
497.094	155.56
497.312	168.56
497.529	167.56
497.746	153.56
497.963	145.56
498.181	124.56
498.398	107.56
498.615	121.56
498.832	112.56
499.049	123.56
499.267	118.56
499.484	122.56
499.701	147.56
499.918	113.56
500.135	127.56
500.352	137.56
500.569	132.56
500.786	139.56
501.003	146.56
501.22	150.56
501.437	135.56
501.654	136.56
501.871	136.56
502.088	137.56
502.305	128.56
502.522	131.56
502.739	134.56
502.956	124.56
503.172	115.56
503.389	125.56
503.606	132.56
503.823	114.56
504.04	136.56
504.256	120.56
504.473	111.56
504.69	121.56
504.907	119.56
505.123	128.56
505.34	120.56
505.557	125.56
505.773	131.56
505.99	127.56
506.207	120.56
506.423	113.56
506.64	131.56
506.856	116.56
507.073	114.56
507.289	123.56
507.506	134.56
507.722	105.56
507.939	119.56
508.155	125.56
508.372	115.56
508.588	115.56
508.805	112.56
509.021	102.56
509.238	88.56
509.454	89.56
509.67	106.56
509.887	106.56
510.103	100.56
510.319	94.56
510.536	95.56
510.752	79.56
510.968	84.56
511.184	89.56
