Data from Location1.07152019.Energy5.Lamp.07192019.3%Agarose_HRD10591_14-32-15-015.txt Node
Date: Fri Jul 19 14:32:15 EDT 2019
User: cochatt
Spectrometer: HR+D1059
Trigger mode: 1
Integration Time (sec): 1.000000E-1
Scans to average: 1
Electric dark correction enabled: true
Nonlinearity correction enabled: false
Boxcar width: 0
XAxis mode: Wavelengths
Number of Pixels in Spectrum: 2048
>>>>>Begin Spectral Data<<<<<
223.165	-21.31
223.4	-21.31
223.635	-21.31
223.869	-24.31
224.104	-12.31
224.338	-8.31
224.573	-13.31
224.808	-14.31
225.042	-8.31
225.277	-17.31
225.511	-12.31
225.746	7.69
225.98	5.69
226.215	19.69
226.449	21.69
226.683	25.69
226.918	18.69
227.152	32.69
227.387	34.69
227.621	37.69
227.856	39.69
228.09	31.69
228.324	39.69
228.559	64.69
228.793	60.69
229.027	52.69
229.262	51.69
229.496	59.69
229.73	58.69
229.964	66.69
230.199	60.69
230.433	78.69
230.667	74.69
230.901	71.69
231.136	81.69
231.37	87.69
231.604	78.69
231.838	79.69
232.072	77.69
232.306	72.69
232.541	74.69
232.775	82.69
233.009	82.69
233.243	97.69
233.477	88.69
233.711	75.69
233.945	93.69
234.179	79.69
234.413	89.69
234.647	75.69
234.881	66.69
235.115	78.69
235.349	83.69
235.583	77.69
235.817	88.69
236.051	79.69
236.285	88.69
236.519	75.69
236.753	71.69
236.987	82.69
237.221	81.69
237.455	70.69
237.689	85.69
237.922	82.69
238.156	64.69
238.39	74.69
238.624	70.69
238.858	71.69
239.091	69.69
239.325	75.69
239.559	78.69
239.793	90.69
240.027	90.69
240.26	62.69
240.494	74.69
240.728	63.69
240.961	87.69
241.195	77.69
241.429	75.69
241.662	74.69
241.896	85.69
242.13	81.69
242.363	77.69
242.597	76.69
242.83	68.69
243.064	73.69
243.298	69.69
243.531	65.69
243.765	71.69
243.998	78.69
244.232	76.69
244.465	73.69
244.699	85.69
244.932	78.69
245.166	84.69
245.399	84.69
245.633	81.69
245.866	69.69
246.099	85.69
246.333	70.69
246.566	73.69
246.8	73.69
247.033	83.69
247.266	75.69
247.5	79.69
247.733	84.69
247.966	75.69
248.2	85.69
248.433	74.69
248.666	79.69
248.899	74.69
249.133	77.69
249.366	76.69
249.599	62.69
249.832	73.69
250.066	76.69
250.299	87.69
250.532	87.69
250.765	72.69
250.998	69.69
251.231	77.69
251.465	80.69
251.698	71.69
251.931	77.69
252.164	79.69
252.397	85.69
252.63	60.69
252.863	74.69
253.096	83.69
253.329	75.69
253.562	63.69
253.795	83.69
254.028	65.69
254.261	63.69
254.494	79.69
254.727	74.69
254.96	72.69
255.193	78.69
255.426	61.69
255.659	84.69
255.892	95.69
256.124	76.69
256.357	84.69
256.59	76.69
256.823	81.69
257.056	88.69
257.289	83.69
257.521	87.69
257.754	72.69
257.987	65.69
258.22	84.69
258.452	86.69
258.685	62.69
258.918	65.69
259.151	67.69
259.383	93.69
259.616	87.69
259.849	99.69
260.081	86.69
260.314	87.69
260.547	82.69
260.779	87.69
261.012	80.69
261.244	81.69
261.477	69.69
261.71	69.69
261.942	87.69
262.175	88.69
262.407	76.69
262.64	84.69
262.872	78.69
263.105	65.69
263.337	81.69
263.57	85.69
263.802	80.69
264.035	81.69
264.267	83.69
264.499	79.69
264.732	79.69
264.964	73.69
265.197	84.69
265.429	90.69
265.661	78.69
265.894	82.69
266.126	77.69
266.358	65.69
266.591	89.69
266.823	90.69
267.055	93.69
267.287	90.69
267.52	84.69
267.752	103.69
267.984	70.69
268.216	71.69
268.448	76.69
268.681	77.69
268.913	78.69
269.145	74.69
269.377	92.69
269.609	83.69
269.841	83.69
270.073	96.69
270.306	96.69
270.538	82.69
270.77	88.69
271.002	73.69
271.234	93.69
271.466	71.69
271.698	83.69
271.93	67.69
272.162	78.69
272.394	85.69
272.626	79.69
272.858	76.69
273.09	71.69
273.322	87.69
273.553	67.69
273.785	85.69
274.017	76.69
274.249	81.69
274.481	86.69
274.713	77.69
274.945	89.69
275.176	93.69
275.408	69.69
275.64	79.69
275.872	83.69
276.104	97.69
276.335	79.69
276.567	79.69
276.799	86.69
277.031	87.69
277.262	69.69
277.494	83.69
277.726	74.69
277.957	95.69
278.189	86.69
278.421	83.69
278.652	77.69
278.884	62.69
279.115	62.69
279.347	83.69
279.579	85.69
279.81	89.69
280.042	83.69
280.273	91.69
280.505	73.69
280.736	73.69
280.968	86.69
281.199	96.69
281.431	85.69
281.662	85.69
281.894	93.69
282.125	85.69
282.356	79.69
282.588	86.69
282.819	69.69
283.051	72.69
283.282	78.69
283.513	84.69
283.745	73.69
283.976	88.69
284.207	71.69
284.439	72.69
284.67	76.69
284.901	73.69
285.132	82.69
285.364	81.69
285.595	78.69
285.826	87.69
286.057	75.69
286.288	76.69
286.52	87.69
286.751	78.69
286.982	72.69
287.213	86.69
287.444	85.69
287.675	84.69
287.906	88.69
288.138	69.69
288.369	74.69
288.6	86.69
288.831	90.69
289.062	84.69
289.293	87.69
289.524	80.69
289.755	89.69
289.986	80.69
290.217	94.69
290.448	91.69
290.679	79.69
290.91	80.69
291.141	73.69
291.371	98.69
291.602	86.69
291.833	91.69
292.064	76.69
292.295	89.69
292.526	87.69
292.757	79.69
292.987	71.69
293.218	91.69
293.449	78.69
293.68	73.69
293.91	72.69
294.141	73.69
294.372	91.69
294.603	87.69
294.833	71.69
295.064	78.69
295.295	92.69
295.525	78.69
295.756	82.69
295.987	84.69
296.217	84.69
296.448	77.69
296.679	99.69
296.909	91.69
297.14	79.69
297.37	91.69
297.601	74.69
297.831	86.69
298.062	87.69
298.292	73.69
298.523	86.69
298.753	72.69
298.984	76.69
299.214	95.69
299.445	93.69
299.675	83.69
299.905	84.69
300.136	66.69
300.366	70.69
300.597	84.69
300.827	91.69
301.057	73.69
301.288	77.69
301.518	94.69
301.748	91.69
301.979	87.69
302.209	84.69
302.439	79.69
302.669	81.69
302.9	92.69
303.13	85.69
303.36	73.69
303.59	81.69
303.82	75.69
304.051	79.69
304.281	97.69
304.511	88.69
304.741	87.69
304.971	69.69
305.201	96.69
305.431	67.69
305.661	93.69
305.891	89.69
306.121	87.69
306.352	76.69
306.582	77.69
306.812	79.69
307.042	77.69
307.272	89.69
307.502	75.69
307.731	80.69
307.961	84.69
308.191	83.69
308.421	92.69
308.651	99.69
308.881	85.69
309.111	80.69
309.341	87.69
309.571	84.69
309.8	85.69
310.03	67.69
310.26	78.69
310.49	99.69
310.72	85.69
310.949	72.69
311.179	93.69
311.409	87.69
311.639	87.69
311.868	63.69
312.098	77.69
312.328	86.69
312.557	85.69
312.787	88.69
313.017	86.69
313.246	83.69
313.476	74.69
313.706	85.69
313.935	88.69
314.165	80.69
314.394	72.69
314.624	69.69
314.853	78.69
315.083	99.69
315.312	79.69
315.542	93.69
315.771	86.69
316.001	76.69
316.23	86.69
316.46	94.69
316.689	83.69
316.919	81.69
317.148	93.69
317.377	95.69
317.607	74.69
317.836	90.69
318.065	81.69
318.295	80.69
318.524	74.69
318.753	91.69
318.983	89.69
319.212	80.69
319.441	77.69
319.67	80.69
319.9	85.69
320.129	75.69
320.358	83.69
320.587	91.69
320.816	79.69
321.046	82.69
321.275	68.69
321.504	94.69
321.733	75.69
321.962	83.69
322.191	85.69
322.42	74.69
322.649	73.69
322.878	79.69
323.108	83.69
323.337	83.69
323.566	98.69
323.795	78.69
324.024	82.69
324.253	85.69
324.482	86.69
324.71	76.69
324.939	85.69
325.168	75.69
325.397	81.69
325.626	77.69
325.855	84.69
326.084	87.69
326.313	87.69
326.542	77.69
326.77	85.69
326.999	76.69
327.228	92.69
327.457	75.69
327.686	85.69
327.914	92.69
328.143	85.69
328.372	78.69
328.6	83.69
328.829	92.69
329.058	80.69
329.287	82.69
329.515	90.69
329.744	75.69
329.972	81.69
330.201	90.69
330.43	74.69
330.658	90.69
330.887	85.69
331.115	79.69
331.344	77.69
331.572	85.69
331.801	81.69
332.03	82.69
332.258	79.69
332.486	74.69
332.715	80.69
332.943	76.69
333.172	86.69
333.4	78.69
333.629	89.69
333.857	94.69
334.085	94.69
334.314	90.69
334.542	86.69
334.771	78.69
334.999	80.69
335.227	83.69
335.455	82.69
335.684	90.69
335.912	86.69
336.14	82.69
336.369	94.69
336.597	97.69
336.825	90.69
337.053	75.69
337.281	87.69
337.51	82.69
337.738	82.69
337.966	91.69
338.194	81.69
338.422	76.69
338.65	83.69
338.878	77.69
339.106	93.69
339.334	91.69
339.562	86.69
339.79	91.69
340.018	78.69
340.246	93.69
340.474	95.69
340.702	68.69
340.93	74.69
341.158	77.69
341.386	84.69
341.614	74.69
341.842	76.69
342.07	70.69
342.298	77.69
342.526	93.69
342.754	89.69
342.981	86.69
343.209	84.69
343.437	84.69
343.665	88.69
343.893	83.69
344.12	108.69
344.348	79.69
344.576	98.69
344.804	81.69
345.031	86.69
345.259	90.69
345.487	93.69
345.714	75.69
345.942	72.69
346.17	69.69
346.397	77.69
346.625	78.69
346.853	82.69
347.08	79.69
347.308	78.69
347.535	74.69
347.763	84.69
347.99	89.69
348.218	91.69
348.445	83.69
348.673	75.69
348.9	89.69
349.128	88.69
349.355	86.69
349.583	83.69
349.81	87.69
350.037	89.69
350.265	85.69
350.492	78.69
350.72	97.69
350.947	77.69
351.174	83.69
351.402	89.69
351.629	86.69
351.856	98.69
352.083	84.69
352.311	84.69
352.538	72.69
352.765	73.69
352.992	86.69
353.22	73.69
353.447	69.69
353.674	82.69
353.901	104.69
354.128	95.69
354.355	78.69
354.583	84.69
354.81	84.69
355.037	83.69
355.264	83.69
355.491	86.69
355.718	75.69
355.945	89.69
356.172	88.69
356.399	81.69
356.626	75.69
356.853	92.69
357.08	85.69
357.307	71.69
357.534	76.69
357.761	83.69
357.988	92.69
358.215	85.69
358.441	85.69
358.668	102.69
358.895	92.69
359.122	88.69
359.349	91.69
359.576	72.69
359.802	83.69
360.029	93.69
360.256	81.69
360.483	99.69
360.709	96.69
360.936	101.69
361.163	81.69
361.39	87.69
361.616	70.69
361.843	72.69
362.07	91.69
362.296	66.69
362.523	75.69
362.749	88.69
362.976	83.69
363.203	87.69
363.429	92.69
363.656	95.69
363.882	87.69
364.109	83.69
364.335	82.69
364.562	75.69
364.788	78.69
365.015	83.69
365.241	87.69
365.468	94.69
365.694	86.69
365.92	85.69
366.147	68.69
366.373	88.69
366.599	69.69
366.826	81.69
367.052	87.69
367.278	103.69
367.505	104.69
367.731	80.69
367.957	90.69
368.184	73.69
368.41	72.69
368.636	91.69
368.862	81.69
369.089	78.69
369.315	100.69
369.541	80.69
369.767	85.69
369.993	89.69
370.219	95.69
370.445	91.69
370.672	88.69
370.898	98.69
371.124	81.69
371.35	84.69
371.576	87.69
371.802	92.69
372.028	77.69
372.254	89.69
372.48	83.69
372.706	91.69
372.932	91.69
373.158	83.69
373.384	92.69
373.61	93.69
373.835	98.69
374.061	86.69
374.287	92.69
374.513	93.69
374.739	71.69
374.965	86.69
375.191	92.69
375.416	84.69
375.642	89.69
375.868	98.69
376.094	94.69
376.319	71.69
376.545	94.69
376.771	81.69
376.997	95.69
377.222	98.69
377.448	103.69
377.674	91.69
377.899	69.69
378.125	81.69
378.35	102.69
378.576	103.69
378.802	87.69
379.027	101.69
379.253	102.69
379.478	96.69
379.704	104.69
379.929	95.69
380.155	91.69
380.38	88.69
380.606	102.69
380.831	102.69
381.057	94.69
381.282	91.69
381.507	102.69
381.733	96.69
381.958	97.69
382.184	92.69
382.409	99.69
382.634	94.69
382.86	94.69
383.085	98.69
383.31	97.69
383.535	108.69
383.761	91.69
383.986	92.69
384.211	100.69
384.436	104.69
384.662	93.69
384.887	100.69
385.112	105.69
385.337	90.69
385.562	103.69
385.787	100.69
386.013	92.69
386.238	99.69
386.463	101.69
386.688	99.69
386.913	101.69
387.138	96.69
387.363	105.69
387.588	102.69
387.813	101.69
388.038	97.69
388.263	106.69
388.488	95.69
388.713	101.69
388.938	99.69
389.163	108.69
389.387	93.69
389.612	104.69
389.837	119.69
390.062	106.69
390.287	90.69
390.512	96.69
390.736	114.69
390.961	108.69
391.186	101.69
391.411	102.69
391.636	84.69
391.86	104.69
392.085	105.69
392.31	95.69
392.534	91.69
392.759	108.69
392.984	95.69
393.208	107.69
393.433	100.69
393.658	100.69
393.882	112.69
394.107	100.69
394.331	101.69
394.556	113.69
394.78	121.69
395.005	102.69
395.229	102.69
395.454	89.69
395.678	109.69
395.903	94.69
396.127	102.69
396.352	99.69
396.576	105.69
396.801	115.69
397.025	117.69
397.249	103.69
397.474	108.69
397.698	108.69
397.922	106.69
398.147	107.69
398.371	111.69
398.595	99.69
398.82	99.69
399.044	111.69
399.268	98.69
399.492	96.69
399.717	104.69
399.941	117.69
400.165	124.69
400.389	104.69
400.613	98.69
400.837	113.69
401.062	110.69
401.286	99.69
401.51	102.69
401.734	95.69
401.958	93.69
402.182	109.69
402.406	101.69
402.63	110.69
402.854	105.69
403.078	106.69
403.302	105.69
403.526	130.69
403.75	113.69
403.974	116.69
404.198	121.69
404.422	119.69
404.645	105.69
404.869	110.69
405.093	120.69
405.317	129.69
405.541	125.69
405.765	108.69
405.988	109.69
406.212	118.69
406.436	126.69
406.66	107.69
406.883	102.69
407.107	114.69
407.331	117.69
407.555	122.69
407.778	115.69
408.002	107.69
408.226	120.69
408.449	115.69
408.673	107.69
408.896	119.69
409.12	132.69
409.344	123.69
409.567	123.69
409.791	126.69
410.014	112.69
410.238	136.69
410.461	126.69
410.685	122.69
410.908	116.69
411.132	118.69
411.355	123.69
411.578	110.69
411.802	126.69
412.025	125.69
412.249	116.69
412.472	123.69
412.695	125.69
412.919	126.69
413.142	123.69
413.365	107.69
413.589	121.69
413.812	125.69
414.035	129.69
414.258	121.69
414.482	128.69
414.705	125.69
414.928	123.69
415.151	126.69
415.374	124.69
415.597	141.69
415.821	126.69
416.044	118.69
416.267	125.69
416.49	128.69
416.713	123.69
416.936	137.69
417.159	130.69
417.382	127.69
417.605	125.69
417.828	126.69
418.051	129.69
418.274	126.69
418.497	129.69
418.72	124.69
418.943	141.69
419.166	137.69
419.389	149.69
419.611	126.69
419.834	117.69
420.057	113.69
420.28	129.69
420.503	154.69
420.726	135.69
420.948	126.69
421.171	127.69
421.394	140.69
421.617	138.69
421.839	136.69
422.062	138.69
422.285	123.69
422.507	133.69
422.73	132.69
422.953	134.69
423.175	131.69
423.398	124.69
423.621	126.69
423.843	141.69
424.066	119.69
424.288	127.69
424.511	131.69
424.733	131.69
424.956	130.69
425.178	145.69
425.401	131.69
425.623	133.69
425.846	131.69
426.068	129.69
426.291	140.69
426.513	129.69
426.735	129.69
426.958	135.69
427.18	146.69
427.402	135.69
427.625	132.69
427.847	125.69
428.069	117.69
428.292	125.69
428.514	126.69
428.736	102.69
428.958	133.69
429.181	120.69
429.403	135.69
429.625	113.69
429.847	141.69
430.069	128.69
430.292	123.69
430.514	129.69
430.736	117.69
430.958	126.69
431.18	120.69
431.402	121.69
431.624	117.69
431.846	113.69
432.068	99.69
432.29	110.69
432.512	110.69
432.734	118.69
432.956	118.69
433.178	118.69
433.4	141.69
433.622	120.69
433.844	121.69
434.066	101.69
434.287	120.69
434.509	93.69
434.731	108.69
434.953	102.69
435.175	110.69
435.397	107.69
435.618	113.69
435.84	124.69
436.062	102.69
436.284	119.69
436.505	126.69
436.727	126.69
436.949	126.69
437.17	122.69
437.392	120.69
437.614	117.69
437.835	115.69
438.057	89.69
438.278	103.69
438.5	116.69
438.721	131.69
438.943	138.69
439.165	143.69
439.386	138.69
439.608	141.69
439.829	158.69
440.05	134.69
440.272	141.69
440.493	156.69
440.715	139.69
440.936	137.69
441.158	138.69
441.379	147.69
441.6	142.69
441.822	137.69
442.043	141.69
442.264	143.69
442.486	140.69
442.707	120.69
442.928	140.69
443.149	129.69
443.371	126.69
443.592	144.69
443.813	144.69
444.034	138.69
444.255	137.69
444.476	124.69
444.698	135.69
444.919	141.69
445.14	238.69
445.361	191.69
445.582	141.69
445.803	139.69
446.024	132.69
446.245	157.69
446.466	149.69
446.687	159.69
446.908	161.69
447.129	156.69
447.35	149.69
447.571	149.69
447.792	142.69
448.013	124.69
448.234	129.69
448.455	150.69
448.675	142.69
448.896	135.69
449.117	135.69
449.338	135.69
449.559	140.69
449.779	144.69
450	139.69
450.221	123.69
450.442	129.69
450.662	135.69
450.883	124.69
451.104	136.69
451.324	135.69
451.545	129.69
451.766	131.69
451.986	133.69
452.207	123.69
452.428	133.69
452.648	118.69
452.869	121.69
453.089	109.69
453.31	103.69
453.53	117.69
453.751	105.69
453.971	114.69
454.192	115.69
454.412	96.69
454.633	126.69
454.853	125.69
455.073	115.69
455.294	120.69
455.514	126.69
455.734	108.69
455.955	114.69
456.175	116.69
456.395	119.69
456.616	113.69
456.836	118.69
457.056	107.69
457.276	112.69
457.497	110.69
457.717	105.69
457.937	116.69
458.157	106.69
458.377	101.69
458.598	91.69
458.818	89.69
459.038	95.69
459.258	76.69
459.478	93.69
459.698	102.69
459.918	83.69
460.138	106.69
460.358	111.69
460.578	114.69
460.798	107.69
461.018	123.69
461.238	109.69
461.458	128.69
461.678	115.69
461.898	113.69
462.118	109.69
462.338	111.69
462.558	106.69
462.777	114.69
462.997	110.69
463.217	104.69
463.437	104.69
463.657	107.69
463.876	104.69
464.096	110.69
464.316	108.69
464.536	130.69
464.755	116.69
464.975	125.69
465.195	118.69
465.414	113.69
465.634	110.69
465.854	116.69
466.073	103.69
466.293	124.69
466.512	106.69
466.732	142.69
466.951	135.69
467.171	139.69
467.391	134.69
467.61	122.69
467.829	128.69
468.049	138.69
468.268	131.69
468.488	129.69
468.707	127.69
468.927	137.69
469.146	137.69
469.365	142.69
469.585	144.69
469.804	137.69
470.023	135.69
470.243	144.69
470.462	141.69
470.681	137.69
470.901	153.69
471.12	135.69
471.339	135.69
471.558	118.69
471.777	125.69
471.997	130.69
472.216	131.69
472.435	119.69
472.654	119.69
472.873	90.69
473.092	119.69
473.311	117.69
473.53	126.69
473.749	125.69
473.968	129.69
474.187	127.69
474.406	130.69
474.625	120.69
474.844	135.69
475.063	120.69
475.282	109.69
475.501	120.69
475.72	132.69
475.939	127.69
476.158	129.69
476.377	133.69
476.596	130.69
476.814	103.69
477.033	98.69
477.252	106.69
477.471	123.69
477.69	126.69
477.908	132.69
478.127	137.69
478.346	143.69
478.564	134.69
478.783	135.69
479.002	138.69
479.22	135.69
479.439	129.69
479.658	121.69
479.876	127.69
480.095	122.69
480.313	117.69
480.532	121.69
480.751	107.69
480.969	98.69
481.188	100.69
481.406	79.69
481.624	89.69
481.843	88.69
482.061	105.69
482.28	110.69
482.498	121.69
482.717	123.69
482.935	119.69
483.153	142.69
483.372	168.69
483.59	151.69
483.808	141.69
484.027	127.69
484.245	135.69
484.463	139.69
484.681	155.69
484.9	144.69
485.118	140.69
485.336	125.69
485.554	101.69
485.772	115.69
485.99	101.69
486.209	106.69
486.427	106.69
486.645	121.69
486.863	135.69
487.081	150.69
487.299	141.69
487.517	130.69
487.735	154.69
487.953	195.69
488.171	171.69
488.389	164.69
488.607	171.69
488.825	152.69
489.043	128.69
489.261	129.69
489.479	144.69
489.696	149.69
489.914	149.69
490.132	124.69
490.35	153.69
490.568	155.69
490.786	169.69
491.003	169.69
491.221	178.69
491.439	185.69
491.657	199.69
491.874	190.69
492.092	218.69
492.31	234.69
492.527	218.69
492.745	196.69
492.963	179.69
493.18	182.69
493.398	172.69
493.615	171.69
493.833	190.69
494.05	168.69
494.268	159.69
494.485	157.69
494.703	186.69
494.92	182.69
495.138	164.69
495.355	169.69
495.573	166.69
495.79	166.69
496.008	170.69
496.225	153.69
496.442	162.69
496.66	149.69
496.877	155.69
497.094	172.69
497.312	153.69
497.529	167.69
497.746	145.69
497.963	157.69
498.181	115.69
498.398	117.69
498.615	105.69
498.832	131.69
499.049	124.69
499.267	133.69
499.484	115.69
499.701	135.69
499.918	136.69
500.135	139.69
500.352	137.69
500.569	134.69
500.786	138.69
501.003	149.69
501.22	135.69
501.437	135.69
501.654	135.69
501.871	128.69
502.088	140.69
502.305	126.69
502.522	116.69
502.739	121.69
502.956	113.69
503.172	106.69
503.389	116.69
503.606	127.69
503.823	120.69
504.04	132.69
504.256	118.69
504.473	104.69
504.69	115.69
504.907	124.69
505.123	117.69
505.34	104.69
505.557	119.69
505.773	111.69
505.99	103.69
506.207	116.69
506.423	123.69
506.64	122.69
506.856	119.69
507.073	126.69
507.289	114.69
507.506	123.69
507.722	118.69
507.939	135.69
508.155	121.69
508.372	128.69
508.588	113.69
508.805	110.69
509.021	106.69
509.238	94.69
509.454	93.69
509.67	95.69
509.887	111.69
510.103	110.69
510.319	92.69
510.536	93.69
510.752	87.69
510.968	80.69
511.184	75.69
511.401	86.69
511.617	83.69
