Data from Location1.07152019.Energy5.Lamp.07192019.3%Agarose_HRD10591_14-33-28-016.txt Node
Date: Fri Jul 19 14:33:28 EDT 2019
User: cochatt
Spectrometer: HR+D1059
Trigger mode: 1
Integration Time (sec): 1.000000E-1
Scans to average: 1
Electric dark correction enabled: true
Nonlinearity correction enabled: false
Boxcar width: 0
XAxis mode: Wavelengths
Number of Pixels in Spectrum: 2048
>>>>>Begin Spectral Data<<<<<
223.165	-24.12
223.4	-24.12
223.635	-24.12
223.869	-5.12
224.104	-16.12
224.338	-9.12
224.573	-21.12
224.808	-14.12
225.042	-3.12
225.277	8.88
225.511	-3.12
225.746	-0.12
225.98	-1.12
226.215	7.88
226.449	21.88
226.683	20.88
226.918	17.88
227.152	19.88
227.387	35.88
227.621	30.88
227.856	51.88
228.09	49.88
228.324	38.88
228.559	51.88
228.793	50.88
229.027	60.88
229.262	59.88
229.496	58.88
229.73	50.88
229.964	58.88
230.199	67.88
230.433	56.88
230.667	74.88
230.901	72.88
231.136	71.88
231.37	69.88
231.604	70.88
231.838	69.88
232.072	73.88
232.306	96.88
232.541	83.88
232.775	76.88
233.009	95.88
233.243	68.88
233.477	78.88
233.711	71.88
233.945	67.88
234.179	81.88
234.413	79.88
234.647	85.88
234.881	83.88
235.115	74.88
235.349	76.88
235.583	91.88
235.817	85.88
236.051	75.88
236.285	70.88
236.519	75.88
236.753	75.88
236.987	70.88
237.221	70.88
237.455	74.88
237.689	73.88
237.922	69.88
238.156	79.88
238.39	62.88
238.624	70.88
238.858	74.88
239.091	67.88
239.325	73.88
239.559	73.88
239.793	79.88
240.027	78.88
240.26	84.88
240.494	75.88
240.728	68.88
240.961	60.88
241.195	69.88
241.429	70.88
241.662	84.88
241.896	80.88
242.13	71.88
242.363	78.88
242.597	73.88
242.83	78.88
243.064	78.88
243.298	70.88
243.531	76.88
243.765	80.88
243.998	74.88
244.232	69.88
244.465	65.88
244.699	84.88
244.932	60.88
245.166	82.88
245.399	64.88
245.633	65.88
245.866	72.88
246.099	86.88
246.333	75.88
246.566	80.88
246.8	78.88
247.033	88.88
247.266	70.88
247.5	70.88
247.733	56.88
247.966	83.88
248.2	79.88
248.433	67.88
248.666	75.88
248.899	67.88
249.133	62.88
249.366	73.88
249.599	68.88
249.832	79.88
250.066	66.88
250.299	80.88
250.532	81.88
250.765	76.88
250.998	86.88
251.231	74.88
251.465	72.88
251.698	75.88
251.931	75.88
252.164	75.88
252.397	81.88
252.63	68.88
252.863	85.88
253.096	79.88
253.329	72.88
253.562	79.88
253.795	67.88
254.028	88.88
254.261	72.88
254.494	67.88
254.727	100.88
254.96	78.88
255.193	79.88
255.426	79.88
255.659	74.88
255.892	76.88
256.124	78.88
256.357	84.88
256.59	67.88
256.823	72.88
257.056	73.88
257.289	82.88
257.521	82.88
257.754	75.88
257.987	82.88
258.22	91.88
258.452	76.88
258.685	81.88
258.918	67.88
259.151	67.88
259.383	78.88
259.616	64.88
259.849	70.88
260.081	81.88
260.314	81.88
260.547	81.88
260.779	72.88
261.012	73.88
261.244	82.88
261.477	84.88
261.71	71.88
261.942	73.88
262.175	79.88
262.407	95.88
262.64	72.88
262.872	89.88
263.105	65.88
263.337	88.88
263.57	81.88
263.802	96.88
264.035	69.88
264.267	97.88
264.499	83.88
264.732	71.88
264.964	78.88
265.197	76.88
265.429	90.88
265.661	74.88
265.894	82.88
266.126	79.88
266.358	71.88
266.591	72.88
266.823	74.88
267.055	91.88
267.287	70.88
267.52	75.88
267.752	77.88
267.984	97.88
268.216	88.88
268.448	77.88
268.681	84.88
268.913	74.88
269.145	73.88
269.377	86.88
269.609	81.88
269.841	77.88
270.073	98.88
270.306	85.88
270.538	84.88
270.77	71.88
271.002	68.88
271.234	78.88
271.466	85.88
271.698	76.88
271.93	78.88
272.162	72.88
272.394	74.88
272.626	86.88
272.858	83.88
273.09	92.88
273.322	86.88
273.553	78.88
273.785	89.88
274.017	80.88
274.249	78.88
274.481	72.88
274.713	87.88
274.945	75.88
275.176	87.88
275.408	90.88
275.64	84.88
275.872	66.88
276.104	82.88
276.335	100.88
276.567	87.88
276.799	70.88
277.031	76.88
277.262	80.88
277.494	89.88
277.726	82.88
277.957	86.88
278.189	86.88
278.421	85.88
278.652	84.88
278.884	87.88
279.115	86.88
279.347	77.88
279.579	87.88
279.81	81.88
280.042	89.88
280.273	79.88
280.505	65.88
280.736	77.88
280.968	76.88
281.199	96.88
281.431	64.88
281.662	74.88
281.894	87.88
282.125	81.88
282.356	76.88
282.588	71.88
282.819	79.88
283.051	92.88
283.282	86.88
283.513	77.88
283.745	81.88
283.976	82.88
284.207	72.88
284.439	90.88
284.67	83.88
284.901	88.88
285.132	82.88
285.364	73.88
285.595	81.88
285.826	79.88
286.057	88.88
286.288	83.88
286.52	81.88
286.751	83.88
286.982	80.88
287.213	82.88
287.444	74.88
287.675	76.88
287.906	82.88
288.138	82.88
288.369	84.88
288.6	75.88
288.831	78.88
289.062	82.88
289.293	75.88
289.524	79.88
289.755	82.88
289.986	83.88
290.217	83.88
290.448	83.88
290.679	88.88
290.91	90.88
291.141	79.88
291.371	79.88
291.602	102.88
291.833	94.88
292.064	84.88
292.295	78.88
292.526	75.88
292.757	86.88
292.987	85.88
293.218	85.88
293.449	82.88
293.68	92.88
293.91	74.88
294.141	83.88
294.372	80.88
294.603	79.88
294.833	88.88
295.064	93.88
295.295	82.88
295.525	83.88
295.756	67.88
295.987	84.88
296.217	65.88
296.448	84.88
296.679	84.88
296.909	80.88
297.14	89.88
297.37	95.88
297.601	80.88
297.831	90.88
298.062	87.88
298.292	89.88
298.523	88.88
298.753	61.88
298.984	87.88
299.214	90.88
299.445	87.88
299.675	83.88
299.905	80.88
300.136	110.88
300.366	83.88
300.597	74.88
300.827	88.88
301.057	76.88
301.288	78.88
301.518	93.88
301.748	92.88
301.979	76.88
302.209	87.88
302.439	72.88
302.669	80.88
302.9	93.88
303.13	84.88
303.36	91.88
303.59	76.88
303.82	86.88
304.051	83.88
304.281	84.88
304.511	73.88
304.741	104.88
304.971	100.88
305.201	91.88
305.431	86.88
305.661	79.88
305.891	89.88
306.121	87.88
306.352	66.88
306.582	84.88
306.812	70.88
307.042	87.88
307.272	82.88
307.502	79.88
307.731	83.88
307.961	89.88
308.191	91.88
308.421	72.88
308.651	91.88
308.881	86.88
309.111	79.88
309.341	72.88
309.571	74.88
309.8	80.88
310.03	75.88
310.26	73.88
310.49	79.88
310.72	73.88
310.949	86.88
311.179	81.88
311.409	88.88
311.639	83.88
311.868	88.88
312.098	83.88
312.328	76.88
312.557	79.88
312.787	88.88
313.017	77.88
313.246	87.88
313.476	81.88
313.706	84.88
313.935	62.88
314.165	74.88
314.394	71.88
314.624	78.88
314.853	76.88
315.083	86.88
315.312	81.88
315.542	84.88
315.771	97.88
316.001	77.88
316.23	79.88
316.46	84.88
316.689	89.88
316.919	82.88
317.148	79.88
317.377	83.88
317.607	94.88
317.836	93.88
318.065	85.88
318.295	85.88
318.524	84.88
318.753	88.88
318.983	92.88
319.212	74.88
319.441	86.88
319.67	80.88
319.9	78.88
320.129	85.88
320.358	102.88
320.587	90.88
320.816	82.88
321.046	89.88
321.275	89.88
321.504	90.88
321.733	87.88
321.962	88.88
322.191	70.88
322.42	88.88
322.649	80.88
322.878	83.88
323.108	73.88
323.337	87.88
323.566	81.88
323.795	80.88
324.024	90.88
324.253	86.88
324.482	80.88
324.71	89.88
324.939	85.88
325.168	88.88
325.397	81.88
325.626	86.88
325.855	77.88
326.084	63.88
326.313	87.88
326.542	82.88
326.77	87.88
326.999	83.88
327.228	74.88
327.457	97.88
327.686	95.88
327.914	83.88
328.143	78.88
328.372	75.88
328.6	89.88
328.829	86.88
329.058	87.88
329.287	76.88
329.515	69.88
329.744	88.88
329.972	69.88
330.201	75.88
330.43	83.88
330.658	74.88
330.887	76.88
331.115	89.88
331.344	92.88
331.572	87.88
331.801	83.88
332.03	92.88
332.258	78.88
332.486	94.88
332.715	95.88
332.943	81.88
333.172	72.88
333.4	85.88
333.629	80.88
333.857	82.88
334.085	76.88
334.314	76.88
334.542	84.88
334.771	76.88
334.999	75.88
335.227	72.88
335.455	88.88
335.684	91.88
335.912	82.88
336.14	83.88
336.369	74.88
336.597	83.88
336.825	93.88
337.053	83.88
337.281	84.88
337.51	82.88
337.738	84.88
337.966	91.88
338.194	80.88
338.422	80.88
338.65	86.88
338.878	78.88
339.106	73.88
339.334	87.88
339.562	70.88
339.79	94.88
340.018	66.88
340.246	73.88
340.474	72.88
340.702	83.88
340.93	82.88
341.158	88.88
341.386	89.88
341.614	72.88
341.842	90.88
342.07	69.88
342.298	79.88
342.526	88.88
342.754	90.88
342.981	88.88
343.209	77.88
343.437	78.88
343.665	93.88
343.893	85.88
344.12	89.88
344.348	95.88
344.576	86.88
344.804	73.88
345.031	79.88
345.259	73.88
345.487	76.88
345.714	83.88
345.942	79.88
346.17	87.88
346.397	85.88
346.625	79.88
346.853	71.88
347.08	71.88
347.308	73.88
347.535	88.88
347.763	83.88
347.99	67.88
348.218	83.88
348.445	71.88
348.673	85.88
348.9	81.88
349.128	75.88
349.355	71.88
349.583	71.88
349.81	79.88
350.037	88.88
350.265	81.88
350.492	75.88
350.72	84.88
350.947	81.88
351.174	70.88
351.402	79.88
351.629	84.88
351.856	85.88
352.083	89.88
352.311	87.88
352.538	81.88
352.765	77.88
352.992	85.88
353.22	87.88
353.447	83.88
353.674	84.88
353.901	79.88
354.128	87.88
354.355	77.88
354.583	70.88
354.81	81.88
355.037	87.88
355.264	88.88
355.491	86.88
355.718	74.88
355.945	86.88
356.172	92.88
356.399	84.88
356.626	79.88
356.853	81.88
357.08	83.88
357.307	76.88
357.534	78.88
357.761	86.88
357.988	88.88
358.215	84.88
358.441	78.88
358.668	74.88
358.895	91.88
359.122	102.88
359.349	84.88
359.576	75.88
359.802	78.88
360.029	77.88
360.256	87.88
360.483	80.88
360.709	70.88
360.936	79.88
361.163	78.88
361.39	78.88
361.616	82.88
361.843	72.88
362.07	77.88
362.296	86.88
362.523	82.88
362.749	87.88
362.976	73.88
363.203	73.88
363.429	74.88
363.656	80.88
363.882	73.88
364.109	85.88
364.335	76.88
364.562	73.88
364.788	76.88
365.015	82.88
365.241	82.88
365.468	87.88
365.694	56.88
365.92	79.88
366.147	77.88
366.373	76.88
366.599	82.88
366.826	77.88
367.052	78.88
367.278	84.88
367.505	91.88
367.731	80.88
367.957	86.88
368.184	74.88
368.41	86.88
368.636	83.88
368.862	90.88
369.089	83.88
369.315	87.88
369.541	82.88
369.767	87.88
369.993	100.88
370.219	93.88
370.445	86.88
370.672	88.88
370.898	89.88
371.124	93.88
371.35	79.88
371.576	80.88
371.802	77.88
372.028	78.88
372.254	74.88
372.48	96.88
372.706	74.88
372.932	84.88
373.158	88.88
373.384	95.88
373.61	83.88
373.835	99.88
374.061	101.88
374.287	81.88
374.513	83.88
374.739	83.88
374.965	82.88
375.191	90.88
375.416	79.88
375.642	95.88
375.868	86.88
376.094	81.88
376.319	91.88
376.545	100.88
376.771	96.88
376.997	96.88
377.222	81.88
377.448	92.88
377.674	84.88
377.899	80.88
378.125	90.88
378.35	77.88
378.576	98.88
378.802	98.88
379.027	83.88
379.253	75.88
379.478	87.88
379.704	75.88
379.929	90.88
380.155	90.88
380.38	94.88
380.606	84.88
380.831	90.88
381.057	100.88
381.282	95.88
381.507	99.88
381.733	95.88
381.958	91.88
382.184	83.88
382.409	90.88
382.634	98.88
382.86	94.88
383.085	83.88
383.31	80.88
383.535	97.88
383.761	89.88
383.986	95.88
384.211	88.88
384.436	84.88
384.662	86.88
384.887	88.88
385.112	82.88
385.337	84.88
385.562	90.88
385.787	100.88
386.013	101.88
386.238	83.88
386.463	81.88
386.688	110.88
386.913	94.88
387.138	91.88
387.363	99.88
387.588	92.88
387.813	84.88
388.038	111.88
388.263	91.88
388.488	87.88
388.713	94.88
388.938	91.88
389.163	86.88
389.387	89.88
389.612	88.88
389.837	105.88
390.062	100.88
390.287	83.88
390.512	92.88
390.736	94.88
390.961	114.88
391.186	102.88
391.411	89.88
391.636	98.88
391.86	102.88
392.085	100.88
392.31	107.88
392.534	99.88
392.759	115.88
392.984	110.88
393.208	93.88
393.433	99.88
393.658	93.88
393.882	96.88
394.107	96.88
394.331	108.88
394.556	97.88
394.78	93.88
395.005	102.88
395.229	101.88
395.454	95.88
395.678	104.88
395.903	106.88
396.127	93.88
396.352	112.88
396.576	100.88
396.801	98.88
397.025	112.88
397.249	99.88
397.474	105.88
397.698	95.88
397.922	103.88
398.147	98.88
398.371	96.88
398.595	112.88
398.82	90.88
399.044	103.88
399.268	107.88
399.492	102.88
399.717	102.88
399.941	95.88
400.165	116.88
400.389	122.88
400.613	106.88
400.837	106.88
401.062	100.88
401.286	110.88
401.51	113.88
401.734	108.88
401.958	99.88
402.182	102.88
402.406	107.88
402.63	117.88
402.854	111.88
403.078	114.88
403.302	106.88
403.526	120.88
403.75	117.88
403.974	108.88
404.198	112.88
404.422	103.88
404.645	114.88
404.869	108.88
405.093	112.88
405.317	106.88
405.541	109.88
405.765	122.88
405.988	112.88
406.212	115.88
406.436	107.88
406.66	114.88
406.883	117.88
407.107	116.88
407.331	102.88
407.555	110.88
407.778	113.88
408.002	104.88
408.226	102.88
408.449	99.88
408.673	126.88
408.896	114.88
409.12	115.88
409.344	115.88
409.567	122.88
409.791	122.88
410.014	115.88
410.238	102.88
410.461	101.88
410.685	133.88
410.908	123.88
411.132	122.88
411.355	122.88
411.578	110.88
411.802	126.88
412.025	112.88
412.249	107.88
412.472	103.88
412.695	126.88
412.919	103.88
413.142	124.88
413.365	100.88
413.589	120.88
413.812	118.88
414.035	120.88
414.258	118.88
414.482	119.88
414.705	114.88
414.928	111.88
415.151	118.88
415.374	116.88
415.597	114.88
415.821	118.88
416.044	100.88
416.267	113.88
416.49	119.88
416.713	128.88
416.936	132.88
417.159	129.88
417.382	122.88
417.605	130.88
417.828	120.88
418.051	117.88
418.274	120.88
418.497	138.88
418.72	129.88
418.943	129.88
419.166	136.88
419.389	124.88
419.611	130.88
419.834	120.88
420.057	132.88
420.28	128.88
420.503	116.88
420.726	127.88
420.948	128.88
421.171	130.88
421.394	130.88
421.617	135.88
421.839	129.88
422.062	134.88
422.285	118.88
422.507	116.88
422.73	126.88
422.953	124.88
423.175	132.88
423.398	115.88
423.621	114.88
423.843	118.88
424.066	134.88
424.288	134.88
424.511	139.88
424.733	133.88
424.956	148.88
425.178	138.88
425.401	130.88
425.623	122.88
425.846	127.88
426.068	130.88
426.291	128.88
426.513	136.88
426.735	132.88
426.958	120.88
427.18	118.88
427.402	121.88
427.625	122.88
427.847	136.88
428.069	124.88
428.292	123.88
428.514	122.88
428.736	126.88
428.958	112.88
429.181	122.88
429.403	122.88
429.625	130.88
429.847	122.88
430.069	125.88
430.292	134.88
430.514	127.88
430.736	116.88
430.958	126.88
431.18	128.88
431.402	123.88
431.624	115.88
431.846	112.88
432.068	98.88
432.29	98.88
432.512	103.88
432.734	111.88
432.956	122.88
433.178	110.88
433.4	121.88
433.622	137.88
433.844	133.88
434.066	116.88
434.287	104.88
434.509	90.88
434.731	101.88
434.953	99.88
435.175	122.88
435.397	125.88
435.618	134.88
435.84	103.88
436.062	99.88
436.284	118.88
436.505	134.88
436.727	114.88
436.949	113.88
437.17	131.88
437.392	122.88
437.614	114.88
437.835	100.88
438.057	106.88
438.278	119.88
438.5	115.88
438.721	134.88
438.943	130.88
439.165	136.88
439.386	130.88
439.608	131.88
439.829	140.88
440.05	143.88
440.272	152.88
440.493	135.88
440.715	154.88
440.936	139.88
441.158	148.88
441.379	133.88
441.6	138.88
441.822	135.88
442.043	138.88
442.264	124.88
442.486	133.88
442.707	139.88
442.928	140.88
443.149	134.88
443.371	124.88
443.592	126.88
443.813	131.88
444.034	122.88
444.255	138.88
444.476	113.88
444.698	134.88
444.919	134.88
445.14	234.88
445.361	176.88
445.582	150.88
445.803	142.88
446.024	132.88
446.245	148.88
446.466	150.88
446.687	154.88
446.908	140.88
447.129	141.88
447.35	147.88
447.571	138.88
447.792	134.88
448.013	155.88
448.234	136.88
448.455	118.88
448.675	117.88
448.896	134.88
449.117	134.88
449.338	133.88
449.559	149.88
449.779	130.88
450	138.88
450.221	120.88
450.442	120.88
450.662	108.88
450.883	120.88
451.104	126.88
451.324	118.88
451.545	134.88
451.766	127.88
451.986	132.88
452.207	128.88
452.428	131.88
452.648	116.88
452.869	122.88
453.089	122.88
453.31	120.88
453.53	106.88
453.751	102.88
453.971	106.88
454.192	109.88
454.412	94.88
454.633	115.88
454.853	120.88
455.073	106.88
455.294	129.88
455.514	128.88
455.734	115.88
455.955	104.88
456.175	106.88
456.395	107.88
456.616	121.88
456.836	104.88
457.056	117.88
457.276	101.88
457.497	99.88
457.717	95.88
457.937	94.88
458.157	100.88
458.377	110.88
458.598	103.88
458.818	88.88
459.038	78.88
459.258	86.88
459.478	97.88
459.698	87.88
459.918	94.88
460.138	109.88
460.358	113.88
460.578	112.88
460.798	114.88
461.018	91.88
461.238	97.88
461.458	108.88
461.678	100.88
461.898	112.88
462.118	107.88
462.338	91.88
462.558	114.88
462.777	119.88
462.997	97.88
463.217	99.88
463.437	108.88
463.657	115.88
463.876	90.88
464.096	98.88
464.316	98.88
464.536	107.88
464.755	113.88
464.975	106.88
465.195	108.88
465.414	104.88
465.634	121.88
465.854	91.88
466.073	91.88
466.293	114.88
466.512	116.88
466.732	137.88
466.951	138.88
467.171	135.88
467.391	111.88
467.61	132.88
467.829	138.88
468.049	130.88
468.268	132.88
468.488	119.88
468.707	128.88
468.927	119.88
469.146	120.88
469.365	133.88
469.585	131.88
469.804	141.88
470.023	130.88
470.243	134.88
470.462	126.88
470.681	126.88
470.901	128.88
471.12	131.88
471.339	134.88
471.558	126.88
471.777	128.88
471.997	137.88
472.216	125.88
472.435	130.88
472.654	105.88
472.873	106.88
473.092	108.88
473.311	120.88
473.53	126.88
473.749	119.88
473.968	134.88
474.187	122.88
474.406	115.88
474.625	118.88
474.844	130.88
475.063	128.88
475.282	118.88
475.501	111.88
475.72	105.88
475.939	110.88
476.158	114.88
476.377	112.88
476.596	126.88
476.814	107.88
477.033	99.88
477.252	111.88
477.471	111.88
477.69	123.88
477.908	135.88
478.127	118.88
478.346	134.88
478.564	124.88
478.783	141.88
479.002	123.88
479.22	119.88
479.439	127.88
479.658	122.88
479.876	109.88
480.095	110.88
480.313	118.88
480.532	119.88
480.751	106.88
480.969	90.88
481.188	74.88
481.406	82.88
481.624	71.88
481.843	87.88
482.061	100.88
482.28	100.88
482.498	106.88
482.717	117.88
482.935	118.88
483.153	129.88
483.372	153.88
483.59	143.88
483.808	138.88
484.027	130.88
484.245	121.88
484.463	145.88
484.681	141.88
484.9	137.88
485.118	129.88
485.336	117.88
485.554	112.88
485.772	110.88
485.99	90.88
486.209	104.88
486.427	107.88
486.645	116.88
486.863	132.88
487.081	136.88
487.299	131.88
487.517	117.88
487.735	146.88
487.953	168.88
488.171	180.88
488.389	164.88
488.607	153.88
488.825	133.88
489.043	121.88
489.261	130.88
489.479	123.88
489.696	131.88
489.914	111.88
490.132	138.88
490.35	137.88
490.568	140.88
490.786	155.88
491.003	164.88
491.221	166.88
491.439	169.88
491.657	180.88
491.874	198.88
492.092	199.88
492.31	236.88
492.527	213.88
492.745	192.88
492.963	211.88
493.18	180.88
493.398	167.88
493.615	167.88
493.833	161.88
494.05	155.88
494.268	170.88
494.485	178.88
494.703	155.88
494.92	167.88
495.138	146.88
495.355	163.88
495.573	166.88
495.79	154.88
496.008	176.88
496.225	174.88
496.442	164.88
496.66	178.88
496.877	146.88
497.094	154.88
497.312	149.88
497.529	151.88
497.746	145.88
497.963	127.88
498.181	118.88
498.398	120.88
498.615	119.88
498.832	128.88
499.049	102.88
499.267	118.88
499.484	134.88
499.701	128.88
499.918	131.88
500.135	142.88
500.352	135.88
500.569	128.88
500.786	134.88
501.003	137.88
501.22	128.88
501.437	134.88
501.654	121.88
501.871	115.88
502.088	132.88
502.305	122.88
502.522	111.88
502.739	134.88
502.956	128.88
503.172	134.88
503.389	120.88
503.606	120.88
503.823	121.88
504.04	130.88
504.256	109.88
504.473	112.88
504.69	111.88
504.907	121.88
505.123	126.88
505.34	104.88
505.557	114.88
505.773	123.88
505.99	121.88
506.207	107.88
506.423	125.88
506.64	110.88
506.856	120.88
507.073	125.88
507.289	112.88
507.506	120.88
507.722	124.88
507.939	114.88
508.155	122.88
508.372	122.88
508.588	103.88
508.805	104.88
509.021	88.88
509.238	92.88
509.454	112.88
509.67	90.88
509.887	92.88
510.103	87.88
510.319	98.88
510.536	95.88
510.752	96.88
510.968	76.88
511.184	84.88
511.401	84.88
511.617	88.88
511.833	78.88
512.049	99.88
512.265	96.88
