Data from Location1.07152019.Energy5.Lamp.07192019.3%Agarose_HRD10591_14-30-31-019.txt Node
Date: Fri Jul 19 14:30:31 EDT 2019
User: cochatt
Spectrometer: HR+D1059
Trigger mode: 1
Integration Time (sec): 1.000000E-1
Scans to average: 1
Electric dark correction enabled: true
Nonlinearity correction enabled: false
Boxcar width: 0
XAxis mode: Wavelengths
Number of Pixels in Spectrum: 2048
>>>>>Begin Spectral Data<<<<<
223.165	-16.12
223.4	-16.12
223.635	-16.12
223.869	-23.12
224.104	-8.12
224.338	-24.12
224.573	-27.12
224.808	-19.12
225.042	2.88
225.277	-5.12
225.511	-21.12
225.746	9.88
225.98	11.88
226.215	15.88
226.449	18.88
226.683	17.88
226.918	27.88
227.152	38.88
227.387	33.88
227.621	24.88
227.856	41.88
228.09	27.88
228.324	38.88
228.559	55.88
228.793	52.88
229.027	62.88
229.262	57.88
229.496	53.88
229.73	67.88
229.964	76.88
230.199	68.88
230.433	78.88
230.667	74.88
230.901	76.88
231.136	76.88
231.37	87.88
231.604	74.88
231.838	74.88
232.072	85.88
232.306	84.88
232.541	77.88
232.775	81.88
233.009	95.88
233.243	82.88
233.477	84.88
233.711	69.88
233.945	83.88
234.179	79.88
234.413	92.88
234.647	82.88
234.881	69.88
235.115	79.88
235.349	102.88
235.583	91.88
235.817	94.88
236.051	72.88
236.285	71.88
236.519	92.88
236.753	60.88
236.987	73.88
237.221	67.88
237.455	68.88
237.689	74.88
237.922	78.88
238.156	82.88
238.39	89.88
238.624	69.88
238.858	86.88
239.091	67.88
239.325	70.88
239.559	82.88
239.793	74.88
240.027	69.88
240.26	81.88
240.494	63.88
240.728	84.88
240.961	85.88
241.195	84.88
241.429	73.88
241.662	59.88
241.896	68.88
242.13	85.88
242.363	73.88
242.597	68.88
242.83	76.88
243.064	73.88
243.298	72.88
243.531	68.88
243.765	64.88
243.998	74.88
244.232	81.88
244.465	73.88
244.699	79.88
244.932	74.88
245.166	70.88
245.399	84.88
245.633	59.88
245.866	69.88
246.099	76.88
246.333	75.88
246.566	72.88
246.8	81.88
247.033	80.88
247.266	78.88
247.5	78.88
247.733	85.88
247.966	86.88
248.2	85.88
248.433	62.88
248.666	81.88
248.899	73.88
249.133	63.88
249.366	83.88
249.599	78.88
249.832	70.88
250.066	87.88
250.299	69.88
250.532	71.88
250.765	74.88
250.998	61.88
251.231	72.88
251.465	85.88
251.698	77.88
251.931	67.88
252.164	65.88
252.397	70.88
252.63	83.88
252.863	78.88
253.096	88.88
253.329	75.88
253.562	77.88
253.795	80.88
254.028	86.88
254.261	87.88
254.494	74.88
254.727	81.88
254.96	76.88
255.193	88.88
255.426	91.88
255.659	79.88
255.892	75.88
256.124	77.88
256.357	77.88
256.59	68.88
256.823	79.88
257.056	85.88
257.289	86.88
257.521	83.88
257.754	75.88
257.987	69.88
258.22	67.88
258.452	69.88
258.685	64.88
258.918	83.88
259.151	73.88
259.383	73.88
259.616	90.88
259.849	94.88
260.081	82.88
260.314	63.88
260.547	100.88
260.779	85.88
261.012	83.88
261.244	94.88
261.477	103.88
261.71	87.88
261.942	79.88
262.175	84.88
262.407	86.88
262.64	85.88
262.872	86.88
263.105	71.88
263.337	72.88
263.57	70.88
263.802	85.88
264.035	74.88
264.267	77.88
264.499	88.88
264.732	84.88
264.964	88.88
265.197	76.88
265.429	94.88
265.661	75.88
265.894	82.88
266.126	83.88
266.358	72.88
266.591	75.88
266.823	71.88
267.055	85.88
267.287	80.88
267.52	91.88
267.752	94.88
267.984	87.88
268.216	77.88
268.448	77.88
268.681	83.88
268.913	69.88
269.145	82.88
269.377	75.88
269.609	87.88
269.841	79.88
270.073	86.88
270.306	83.88
270.538	80.88
270.77	75.88
271.002	79.88
271.234	79.88
271.466	74.88
271.698	87.88
271.93	85.88
272.162	78.88
272.394	63.88
272.626	80.88
272.858	61.88
273.09	88.88
273.322	75.88
273.553	92.88
273.785	78.88
274.017	68.88
274.249	84.88
274.481	94.88
274.713	78.88
274.945	84.88
275.176	74.88
275.408	82.88
275.64	89.88
275.872	86.88
276.104	94.88
276.335	62.88
276.567	85.88
276.799	63.88
277.031	91.88
277.262	91.88
277.494	82.88
277.726	73.88
277.957	95.88
278.189	84.88
278.421	78.88
278.652	82.88
278.884	81.88
279.115	81.88
279.347	81.88
279.579	86.88
279.81	75.88
280.042	80.88
280.273	83.88
280.505	76.88
280.736	81.88
280.968	66.88
281.199	76.88
281.431	84.88
281.662	79.88
281.894	85.88
282.125	81.88
282.356	74.88
282.588	95.88
282.819	84.88
283.051	98.88
283.282	84.88
283.513	94.88
283.745	73.88
283.976	72.88
284.207	88.88
284.439	94.88
284.67	87.88
284.901	93.88
285.132	96.88
285.364	86.88
285.595	71.88
285.826	79.88
286.057	76.88
286.288	91.88
286.52	85.88
286.751	79.88
286.982	78.88
287.213	76.88
287.444	74.88
287.675	88.88
287.906	91.88
288.138	81.88
288.369	84.88
288.6	89.88
288.831	92.88
289.062	113.88
289.293	95.88
289.524	83.88
289.755	74.88
289.986	78.88
290.217	79.88
290.448	96.88
290.679	81.88
290.91	86.88
291.141	93.88
291.371	84.88
291.602	70.88
291.833	93.88
292.064	67.88
292.295	67.88
292.526	82.88
292.757	92.88
292.987	81.88
293.218	83.88
293.449	67.88
293.68	78.88
293.91	81.88
294.141	86.88
294.372	85.88
294.603	90.88
294.833	75.88
295.064	78.88
295.295	83.88
295.525	78.88
295.756	84.88
295.987	74.88
296.217	83.88
296.448	93.88
296.679	81.88
296.909	80.88
297.14	77.88
297.37	97.88
297.601	80.88
297.831	83.88
298.062	77.88
298.292	77.88
298.523	77.88
298.753	71.88
298.984	72.88
299.214	82.88
299.445	81.88
299.675	86.88
299.905	88.88
300.136	86.88
300.366	75.88
300.597	94.88
300.827	84.88
301.057	77.88
301.288	87.88
301.518	89.88
301.748	86.88
301.979	78.88
302.209	76.88
302.439	90.88
302.669	86.88
302.9	77.88
303.13	98.88
303.36	91.88
303.59	78.88
303.82	97.88
304.051	87.88
304.281	68.88
304.511	91.88
304.741	70.88
304.971	79.88
305.201	100.88
305.431	80.88
305.661	76.88
305.891	91.88
306.121	81.88
306.352	98.88
306.582	77.88
306.812	74.88
307.042	84.88
307.272	80.88
307.502	72.88
307.731	90.88
307.961	89.88
308.191	78.88
308.421	84.88
308.651	72.88
308.881	89.88
309.111	85.88
309.341	88.88
309.571	89.88
309.8	85.88
310.03	72.88
310.26	81.88
310.49	90.88
310.72	97.88
310.949	68.88
311.179	86.88
311.409	91.88
311.639	93.88
311.868	87.88
312.098	85.88
312.328	86.88
312.557	84.88
312.787	67.88
313.017	81.88
313.246	76.88
313.476	84.88
313.706	76.88
313.935	79.88
314.165	86.88
314.394	87.88
314.624	80.88
314.853	83.88
315.083	78.88
315.312	76.88
315.542	74.88
315.771	78.88
316.001	93.88
316.23	71.88
316.46	88.88
316.689	83.88
316.919	89.88
317.148	90.88
317.377	85.88
317.607	87.88
317.836	74.88
318.065	94.88
318.295	79.88
318.524	87.88
318.753	85.88
318.983	63.88
319.212	74.88
319.441	89.88
319.67	83.88
319.9	85.88
320.129	82.88
320.358	71.88
320.587	81.88
320.816	82.88
321.046	88.88
321.275	84.88
321.504	85.88
321.733	88.88
321.962	78.88
322.191	76.88
322.42	96.88
322.649	85.88
322.878	88.88
323.108	92.88
323.337	80.88
323.566	77.88
323.795	85.88
324.024	89.88
324.253	74.88
324.482	79.88
324.71	85.88
324.939	87.88
325.168	72.88
325.397	83.88
325.626	71.88
325.855	94.88
326.084	72.88
326.313	87.88
326.542	69.88
326.77	77.88
326.999	94.88
327.228	79.88
327.457	82.88
327.686	89.88
327.914	76.88
328.143	80.88
328.372	85.88
328.6	88.88
328.829	69.88
329.058	87.88
329.287	74.88
329.515	75.88
329.744	86.88
329.972	82.88
330.201	71.88
330.43	79.88
330.658	84.88
330.887	84.88
331.115	80.88
331.344	83.88
331.572	82.88
331.801	76.88
332.03	90.88
332.258	100.88
332.486	92.88
332.715	70.88
332.943	80.88
333.172	88.88
333.4	79.88
333.629	86.88
333.857	75.88
334.085	84.88
334.314	86.88
334.542	69.88
334.771	76.88
334.999	93.88
335.227	87.88
335.455	76.88
335.684	75.88
335.912	68.88
336.14	80.88
336.369	72.88
336.597	72.88
336.825	77.88
337.053	67.88
337.281	92.88
337.51	92.88
337.738	71.88
337.966	78.88
338.194	75.88
338.422	63.88
338.65	91.88
338.878	90.88
339.106	89.88
339.334	82.88
339.562	65.88
339.79	84.88
340.018	97.88
340.246	77.88
340.474	82.88
340.702	80.88
340.93	78.88
341.158	78.88
341.386	73.88
341.614	75.88
341.842	82.88
342.07	76.88
342.298	81.88
342.526	73.88
342.754	94.88
342.981	85.88
343.209	72.88
343.437	83.88
343.665	84.88
343.893	83.88
344.12	85.88
344.348	82.88
344.576	95.88
344.804	80.88
345.031	89.88
345.259	78.88
345.487	76.88
345.714	66.88
345.942	83.88
346.17	81.88
346.397	92.88
346.625	77.88
346.853	84.88
347.08	94.88
347.308	89.88
347.535	82.88
347.763	81.88
347.99	74.88
348.218	78.88
348.445	90.88
348.673	83.88
348.9	86.88
349.128	88.88
349.355	83.88
349.583	69.88
349.81	82.88
350.037	77.88
350.265	85.88
350.492	82.88
350.72	81.88
350.947	78.88
351.174	85.88
351.402	70.88
351.629	75.88
351.856	67.88
352.083	93.88
352.311	75.88
352.538	93.88
352.765	84.88
352.992	77.88
353.22	87.88
353.447	89.88
353.674	76.88
353.901	78.88
354.128	87.88
354.355	85.88
354.583	87.88
354.81	81.88
355.037	88.88
355.264	91.88
355.491	76.88
355.718	79.88
355.945	78.88
356.172	75.88
356.399	87.88
356.626	85.88
356.853	88.88
357.08	97.88
357.307	69.88
357.534	87.88
357.761	77.88
357.988	77.88
358.215	90.88
358.441	87.88
358.668	80.88
358.895	78.88
359.122	90.88
359.349	67.88
359.576	83.88
359.802	90.88
360.029	84.88
360.256	82.88
360.483	78.88
360.709	88.88
360.936	86.88
361.163	89.88
361.39	98.88
361.616	84.88
361.843	70.88
362.07	78.88
362.296	91.88
362.523	93.88
362.749	88.88
362.976	81.88
363.203	87.88
363.429	95.88
363.656	82.88
363.882	82.88
364.109	86.88
364.335	89.88
364.562	94.88
364.788	75.88
365.015	88.88
365.241	71.88
365.468	94.88
365.694	79.88
365.92	79.88
366.147	77.88
366.373	78.88
366.599	87.88
366.826	73.88
367.052	86.88
367.278	77.88
367.505	82.88
367.731	88.88
367.957	93.88
368.184	86.88
368.41	81.88
368.636	83.88
368.862	69.88
369.089	84.88
369.315	99.88
369.541	94.88
369.767	81.88
369.993	83.88
370.219	85.88
370.445	82.88
370.672	94.88
370.898	89.88
371.124	80.88
371.35	88.88
371.576	83.88
371.802	89.88
372.028	89.88
372.254	76.88
372.48	89.88
372.706	97.88
372.932	75.88
373.158	99.88
373.384	102.88
373.61	73.88
373.835	91.88
374.061	88.88
374.287	89.88
374.513	89.88
374.739	90.88
374.965	89.88
375.191	83.88
375.416	79.88
375.642	92.88
375.868	90.88
376.094	71.88
376.319	75.88
376.545	77.88
376.771	95.88
376.997	92.88
377.222	90.88
377.448	86.88
377.674	84.88
377.899	76.88
378.125	63.88
378.35	92.88
378.576	90.88
378.802	87.88
379.027	92.88
379.253	103.88
379.478	87.88
379.704	94.88
379.929	89.88
380.155	98.88
380.38	84.88
380.606	103.88
380.831	92.88
381.057	98.88
381.282	89.88
381.507	99.88
381.733	105.88
381.958	96.88
382.184	103.88
382.409	91.88
382.634	89.88
382.86	86.88
383.085	90.88
383.31	99.88
383.535	89.88
383.761	104.88
383.986	89.88
384.211	83.88
384.436	96.88
384.662	90.88
384.887	89.88
385.112	80.88
385.337	106.88
385.562	82.88
385.787	85.88
386.013	99.88
386.238	99.88
386.463	100.88
386.688	87.88
386.913	113.88
387.138	87.88
387.363	91.88
387.588	95.88
387.813	88.88
388.038	115.88
388.263	103.88
388.488	89.88
388.713	95.88
388.938	91.88
389.163	116.88
389.387	96.88
389.612	89.88
389.837	98.88
390.062	112.88
390.287	106.88
390.512	99.88
390.736	106.88
390.961	98.88
391.186	93.88
391.411	110.88
391.636	101.88
391.86	107.88
392.085	101.88
392.31	86.88
392.534	118.88
392.759	100.88
392.984	100.88
393.208	108.88
393.433	89.88
393.658	104.88
393.882	98.88
394.107	89.88
394.331	101.88
394.556	90.88
394.78	92.88
395.005	111.88
395.229	111.88
395.454	102.88
395.678	106.88
395.903	107.88
396.127	107.88
396.352	117.88
396.576	104.88
396.801	107.88
397.025	97.88
397.249	106.88
397.474	111.88
397.698	94.88
397.922	118.88
398.147	108.88
398.371	116.88
398.595	115.88
398.82	99.88
399.044	125.88
399.268	110.88
399.492	110.88
399.717	115.88
399.941	126.88
400.165	107.88
400.389	113.88
400.613	113.88
400.837	107.88
401.062	121.88
401.286	105.88
401.51	112.88
401.734	119.88
401.958	109.88
402.182	121.88
402.406	106.88
402.63	111.88
402.854	120.88
403.078	117.88
403.302	106.88
403.526	109.88
403.75	107.88
403.974	96.88
404.198	123.88
404.422	121.88
404.645	114.88
404.869	114.88
405.093	101.88
405.317	115.88
405.541	113.88
405.765	109.88
405.988	115.88
406.212	126.88
406.436	115.88
406.66	117.88
406.883	93.88
407.107	102.88
407.331	114.88
407.555	104.88
407.778	108.88
408.002	126.88
408.226	123.88
408.449	116.88
408.673	107.88
408.896	108.88
409.12	111.88
409.344	106.88
409.567	104.88
409.791	121.88
410.014	109.88
410.238	107.88
410.461	124.88
410.685	127.88
410.908	117.88
411.132	125.88
411.355	119.88
411.578	121.88
411.802	125.88
412.025	108.88
412.249	119.88
412.472	115.88
412.695	116.88
412.919	119.88
413.142	122.88
413.365	118.88
413.589	121.88
413.812	125.88
414.035	108.88
414.258	114.88
414.482	113.88
414.705	111.88
414.928	108.88
415.151	117.88
415.374	115.88
415.597	117.88
415.821	135.88
416.044	123.88
416.267	129.88
416.49	123.88
416.713	123.88
416.936	126.88
417.159	119.88
417.382	115.88
417.605	139.88
417.828	115.88
418.051	138.88
418.274	114.88
418.497	126.88
418.72	122.88
418.943	128.88
419.166	135.88
419.389	144.88
419.611	135.88
419.834	135.88
420.057	145.88
420.28	138.88
420.503	135.88
420.726	124.88
420.948	135.88
421.171	128.88
421.394	132.88
421.617	135.88
421.839	122.88
422.062	139.88
422.285	133.88
422.507	143.88
422.73	122.88
422.953	109.88
423.175	121.88
423.398	131.88
423.621	126.88
423.843	126.88
424.066	118.88
424.288	127.88
424.511	132.88
424.733	143.88
424.956	136.88
425.178	131.88
425.401	137.88
425.623	137.88
425.846	131.88
426.068	126.88
426.291	118.88
426.513	130.88
426.735	140.88
426.958	129.88
427.18	126.88
427.402	121.88
427.625	131.88
427.847	126.88
428.069	113.88
428.292	114.88
428.514	119.88
428.736	120.88
428.958	116.88
429.181	122.88
429.403	120.88
429.625	119.88
429.847	120.88
430.069	127.88
430.292	130.88
430.514	131.88
430.736	128.88
430.958	127.88
431.18	121.88
431.402	125.88
431.624	109.88
431.846	107.88
432.068	101.88
432.29	101.88
432.512	113.88
432.734	113.88
432.956	130.88
433.178	138.88
433.4	137.88
433.622	137.88
433.844	122.88
434.066	131.88
434.287	95.88
434.509	108.88
434.731	111.88
434.953	107.88
435.175	132.88
435.397	127.88
435.618	115.88
435.84	102.88
436.062	114.88
436.284	130.88
436.505	123.88
436.727	106.88
436.949	129.88
437.17	117.88
437.392	130.88
437.614	117.88
437.835	99.88
438.057	106.88
438.278	113.88
438.5	118.88
438.721	130.88
438.943	134.88
439.165	124.88
439.386	151.88
439.608	150.88
439.829	136.88
440.05	145.88
440.272	130.88
440.493	137.88
440.715	132.88
440.936	137.88
441.158	138.88
441.379	148.88
441.6	141.88
441.822	136.88
442.043	137.88
442.264	129.88
442.486	138.88
442.707	135.88
442.928	124.88
443.149	130.88
443.371	145.88
443.592	129.88
443.813	147.88
444.034	133.88
444.255	131.88
444.476	133.88
444.698	135.88
444.919	142.88
445.14	266.88
445.361	212.88
445.582	149.88
445.803	133.88
446.024	141.88
446.245	144.88
446.466	142.88
446.687	119.88
446.908	154.88
447.129	153.88
447.35	149.88
447.571	141.88
447.792	141.88
448.013	141.88
448.234	135.88
448.455	133.88
448.675	135.88
448.896	123.88
449.117	127.88
449.338	134.88
449.559	141.88
449.779	141.88
450	125.88
450.221	120.88
450.442	129.88
450.662	132.88
450.883	141.88
451.104	133.88
451.324	120.88
451.545	129.88
451.766	133.88
451.986	134.88
452.207	124.88
452.428	131.88
452.648	137.88
452.869	120.88
453.089	93.88
453.31	113.88
453.53	104.88
453.751	98.88
453.971	111.88
454.192	110.88
454.412	94.88
454.633	93.88
454.853	116.88
455.073	121.88
455.294	125.88
455.514	107.88
455.734	117.88
455.955	117.88
456.175	106.88
456.395	97.88
456.616	92.88
456.836	106.88
457.056	105.88
457.276	111.88
457.497	102.88
457.717	115.88
457.937	102.88
458.157	115.88
458.377	113.88
458.598	103.88
458.818	103.88
459.038	84.88
459.258	83.88
459.478	95.88
459.698	84.88
459.918	90.88
460.138	106.88
460.358	109.88
460.578	113.88
460.798	111.88
461.018	108.88
461.238	108.88
461.458	105.88
461.678	111.88
461.898	107.88
462.118	117.88
462.338	110.88
462.558	110.88
462.777	103.88
462.997	105.88
463.217	119.88
463.437	125.88
463.657	106.88
463.876	109.88
464.096	114.88
464.316	113.88
464.536	100.88
464.755	109.88
464.975	117.88
465.195	104.88
465.414	116.88
465.634	101.88
465.854	106.88
466.073	113.88
466.293	115.88
466.512	127.88
466.732	143.88
466.951	149.88
467.171	140.88
467.391	131.88
467.61	135.88
467.829	132.88
468.049	125.88
468.268	129.88
468.488	130.88
468.707	127.88
468.927	129.88
469.146	132.88
469.365	141.88
469.585	135.88
469.804	143.88
470.023	145.88
470.243	133.88
470.462	128.88
470.681	134.88
470.901	135.88
471.12	140.88
471.339	125.88
471.558	133.88
471.777	139.88
471.997	109.88
472.216	126.88
472.435	99.88
472.654	105.88
472.873	110.88
473.092	102.88
473.311	118.88
473.53	121.88
473.749	128.88
473.968	139.88
474.187	129.88
474.406	117.88
474.625	121.88
474.844	115.88
475.063	133.88
475.282	110.88
475.501	105.88
475.72	119.88
475.939	127.88
476.158	115.88
476.377	111.88
476.596	127.88
476.814	103.88
477.033	109.88
477.252	113.88
477.471	123.88
477.69	138.88
477.908	142.88
478.127	138.88
478.346	135.88
478.564	133.88
478.783	135.88
479.002	129.88
479.22	131.88
479.439	130.88
479.658	124.88
479.876	117.88
480.095	107.88
480.313	125.88
480.532	117.88
480.751	113.88
480.969	92.88
481.188	93.88
481.406	71.88
481.624	99.88
481.843	86.88
482.061	92.88
482.28	120.88
482.498	113.88
482.717	113.88
482.935	119.88
483.153	146.88
483.372	140.88
483.59	137.88
483.808	133.88
484.027	127.88
484.245	120.88
484.463	131.88
484.681	149.88
484.9	141.88
485.118	118.88
485.336	121.88
485.554	119.88
485.772	99.88
485.99	100.88
486.209	108.88
486.427	115.88
486.645	117.88
486.863	145.88
487.081	149.88
487.299	137.88
487.517	140.88
487.735	151.88
487.953	190.88
488.171	185.88
488.389	164.88
488.607	161.88
488.825	126.88
489.043	126.88
489.261	135.88
489.479	135.88
489.696	147.88
489.914	108.88
490.132	141.88
490.35	146.88
490.568	165.88
490.786	155.88
491.003	177.88
491.221	182.88
491.439	181.88
491.657	173.88
491.874	207.88
492.092	212.88
492.31	227.88
492.527	231.88
492.745	198.88
492.963	201.88
493.18	179.88
493.398	169.88
493.615	177.88
493.833	183.88
494.05	181.88
494.268	183.88
494.485	164.88
494.703	181.88
494.92	177.88
495.138	172.88
495.355	151.88
495.573	165.88
495.79	172.88
496.008	164.88
496.225	154.88
496.442	163.88
496.66	162.88
496.877	174.88
497.094	162.88
497.312	160.88
497.529	158.88
497.746	144.88
497.963	143.88
498.181	133.88
498.398	119.88
498.615	118.88
498.832	115.88
499.049	109.88
499.267	108.88
499.484	130.88
499.701	142.88
499.918	135.88
500.135	134.88
500.352	135.88
500.569	140.88
500.786	135.88
501.003	129.88
501.22	143.88
501.437	135.88
501.654	134.88
501.871	142.88
502.088	131.88
502.305	118.88
502.522	121.88
502.739	133.88
502.956	131.88
503.172	128.88
503.389	133.88
503.606	114.88
503.823	106.88
504.04	109.88
504.256	123.88
504.473	119.88
504.69	125.88
504.907	125.88
505.123	124.88
505.34	115.88
505.557	115.88
505.773	114.88
505.99	141.88
506.207	122.88
506.423	116.88
506.64	122.88
506.856	119.88
507.073	103.88
507.289	117.88
507.506	107.88
507.722	118.88
507.939	127.88
508.155	102.88
508.372	116.88
508.588	105.88
508.805	116.88
509.021	119.88
509.238	102.88
509.454	100.88
509.67	102.88
509.887	97.88
510.103	101.88
510.319	92.88
510.536	101.88
510.752	94.88
510.968	83.88
511.184	90.88
511.401	93.88
511.617	80.88
511.833	70.88
