Data from Location1.07152019.Energy5.Lamp.07192019.3%Agarose_HRD10591_14-30-59-014.txt Node
Date: Fri Jul 19 14:30:59 EDT 2019
User: cochatt
Spectrometer: HR+D1059
Trigger mode: 1
Integration Time (sec): 1.000000E-1
Scans to average: 1
Electric dark correction enabled: true
Nonlinearity correction enabled: false
Boxcar width: 0
XAxis mode: Wavelengths
Number of Pixels in Spectrum: 2048
>>>>>Begin Spectral Data<<<<<
223.165	-9.5
223.4	-9.5
223.635	-9.5
223.869	-19.5
224.104	-11.5
224.338	-4.5
224.573	-22.5
224.808	-12.5
225.042	-15.5
225.277	-11.5
225.511	7.5
225.746	-4.5
225.98	4.5
226.215	10.5
226.449	14.5
226.683	26.5
226.918	12.5
227.152	35.5
227.387	24.5
227.621	34.5
227.856	36.5
228.09	63.5
228.324	41.5
228.559	57.5
228.793	49.5
229.027	46.5
229.262	57.5
229.496	69.5
229.73	56.5
229.964	71.5
230.199	66.5
230.433	73.5
230.667	77.5
230.901	77.5
231.136	82.5
231.37	85.5
231.604	64.5
231.838	64.5
232.072	80.5
232.306	97.5
232.541	96.5
232.775	98.5
233.009	71.5
233.243	89.5
233.477	60.5
233.711	84.5
233.945	86.5
234.179	88.5
234.413	80.5
234.647	86.5
234.881	93.5
235.115	69.5
235.349	78.5
235.583	96.5
235.817	77.5
236.051	87.5
236.285	75.5
236.519	81.5
236.753	94.5
236.987	77.5
237.221	81.5
237.455	86.5
237.689	70.5
237.922	78.5
238.156	82.5
238.39	72.5
238.624	64.5
238.858	88.5
239.091	84.5
239.325	64.5
239.559	76.5
239.793	70.5
240.027	84.5
240.26	85.5
240.494	67.5
240.728	76.5
240.961	79.5
241.195	88.5
241.429	75.5
241.662	88.5
241.896	75.5
242.13	75.5
242.363	83.5
242.597	74.5
242.83	66.5
243.064	77.5
243.298	80.5
243.531	76.5
243.765	66.5
243.998	78.5
244.232	86.5
244.465	93.5
244.699	81.5
244.932	74.5
245.166	69.5
245.399	82.5
245.633	69.5
245.866	92.5
246.099	76.5
246.333	72.5
246.566	51.5
246.8	70.5
247.033	88.5
247.266	91.5
247.5	76.5
247.733	73.5
247.966	73.5
248.2	63.5
248.433	77.5
248.666	68.5
248.899	104.5
249.133	90.5
249.366	80.5
249.599	80.5
249.832	84.5
250.066	77.5
250.299	94.5
250.532	82.5
250.765	83.5
250.998	68.5
251.231	75.5
251.465	76.5
251.698	82.5
251.931	75.5
252.164	69.5
252.397	89.5
252.63	76.5
252.863	89.5
253.096	72.5
253.329	77.5
253.562	69.5
253.795	89.5
254.028	94.5
254.261	89.5
254.494	85.5
254.727	77.5
254.96	91.5
255.193	78.5
255.426	82.5
255.659	77.5
255.892	80.5
256.124	88.5
256.357	68.5
256.59	78.5
256.823	68.5
257.056	91.5
257.289	91.5
257.521	94.5
257.754	95.5
257.987	91.5
258.22	86.5
258.452	80.5
258.685	86.5
258.918	76.5
259.151	70.5
259.383	90.5
259.616	78.5
259.849	69.5
260.081	76.5
260.314	77.5
260.547	87.5
260.779	85.5
261.012	91.5
261.244	84.5
261.477	81.5
261.71	83.5
261.942	83.5
262.175	100.5
262.407	95.5
262.64	80.5
262.872	76.5
263.105	89.5
263.337	85.5
263.57	86.5
263.802	91.5
264.035	81.5
264.267	79.5
264.499	69.5
264.732	82.5
264.964	78.5
265.197	70.5
265.429	80.5
265.661	89.5
265.894	82.5
266.126	84.5
266.358	79.5
266.591	75.5
266.823	67.5
267.055	76.5
267.287	71.5
267.52	82.5
267.752	85.5
267.984	75.5
268.216	87.5
268.448	92.5
268.681	74.5
268.913	88.5
269.145	85.5
269.377	92.5
269.609	81.5
269.841	92.5
270.073	77.5
270.306	80.5
270.538	85.5
270.77	74.5
271.002	85.5
271.234	89.5
271.466	82.5
271.698	81.5
271.93	76.5
272.162	83.5
272.394	84.5
272.626	81.5
272.858	79.5
273.09	76.5
273.322	77.5
273.553	78.5
273.785	86.5
274.017	83.5
274.249	75.5
274.481	80.5
274.713	75.5
274.945	82.5
275.176	86.5
275.408	94.5
275.64	85.5
275.872	86.5
276.104	68.5
276.335	78.5
276.567	77.5
276.799	77.5
277.031	79.5
277.262	79.5
277.494	88.5
277.726	87.5
277.957	98.5
278.189	86.5
278.421	85.5
278.652	92.5
278.884	87.5
279.115	76.5
279.347	66.5
279.579	86.5
279.81	96.5
280.042	91.5
280.273	97.5
280.505	88.5
280.736	83.5
280.968	81.5
281.199	88.5
281.431	76.5
281.662	84.5
281.894	92.5
282.125	92.5
282.356	76.5
282.588	80.5
282.819	87.5
283.051	96.5
283.282	82.5
283.513	93.5
283.745	72.5
283.976	70.5
284.207	86.5
284.439	80.5
284.67	92.5
284.901	86.5
285.132	80.5
285.364	80.5
285.595	83.5
285.826	87.5
286.057	100.5
286.288	83.5
286.52	82.5
286.751	69.5
286.982	87.5
287.213	83.5
287.444	83.5
287.675	92.5
287.906	61.5
288.138	65.5
288.369	76.5
288.6	79.5
288.831	81.5
289.062	71.5
289.293	83.5
289.524	78.5
289.755	86.5
289.986	92.5
290.217	78.5
290.448	78.5
290.679	85.5
290.91	100.5
291.141	84.5
291.371	102.5
291.602	88.5
291.833	89.5
292.064	93.5
292.295	91.5
292.526	66.5
292.757	83.5
292.987	92.5
293.218	92.5
293.449	98.5
293.68	92.5
293.91	74.5
294.141	86.5
294.372	84.5
294.603	84.5
294.833	88.5
295.064	85.5
295.295	80.5
295.525	84.5
295.756	74.5
295.987	86.5
296.217	91.5
296.448	87.5
296.679	103.5
296.909	86.5
297.14	76.5
297.37	100.5
297.601	87.5
297.831	95.5
298.062	75.5
298.292	86.5
298.523	80.5
298.753	100.5
298.984	71.5
299.214	72.5
299.445	81.5
299.675	82.5
299.905	89.5
300.136	84.5
300.366	102.5
300.597	92.5
300.827	82.5
301.057	87.5
301.288	99.5
301.518	88.5
301.748	98.5
301.979	66.5
302.209	86.5
302.439	76.5
302.669	78.5
302.9	82.5
303.13	77.5
303.36	97.5
303.59	83.5
303.82	90.5
304.051	84.5
304.281	68.5
304.511	82.5
304.741	73.5
304.971	79.5
305.201	75.5
305.431	82.5
305.661	95.5
305.891	65.5
306.121	81.5
306.352	78.5
306.582	74.5
306.812	72.5
307.042	82.5
307.272	82.5
307.502	95.5
307.731	105.5
307.961	86.5
308.191	85.5
308.421	98.5
308.651	83.5
308.881	79.5
309.111	88.5
309.341	100.5
309.571	82.5
309.8	91.5
310.03	90.5
310.26	78.5
310.49	80.5
310.72	83.5
310.949	81.5
311.179	79.5
311.409	83.5
311.639	78.5
311.868	85.5
312.098	99.5
312.328	78.5
312.557	92.5
312.787	92.5
313.017	80.5
313.246	99.5
313.476	77.5
313.706	87.5
313.935	77.5
314.165	99.5
314.394	93.5
314.624	77.5
314.853	92.5
315.083	82.5
315.312	63.5
315.542	87.5
315.771	85.5
316.001	96.5
316.23	96.5
316.46	84.5
316.689	90.5
316.919	75.5
317.148	80.5
317.377	93.5
317.607	93.5
317.836	77.5
318.065	104.5
318.295	92.5
318.524	85.5
318.753	86.5
318.983	88.5
319.212	87.5
319.441	74.5
319.67	80.5
319.9	84.5
320.129	73.5
320.358	76.5
320.587	91.5
320.816	88.5
321.046	102.5
321.275	94.5
321.504	84.5
321.733	83.5
321.962	81.5
322.191	87.5
322.42	87.5
322.649	92.5
322.878	99.5
323.108	86.5
323.337	91.5
323.566	93.5
323.795	79.5
324.024	74.5
324.253	92.5
324.482	86.5
324.71	92.5
324.939	85.5
325.168	90.5
325.397	72.5
325.626	86.5
325.855	93.5
326.084	101.5
326.313	90.5
326.542	88.5
326.77	82.5
326.999	91.5
327.228	79.5
327.457	76.5
327.686	79.5
327.914	91.5
328.143	89.5
328.372	87.5
328.6	95.5
328.829	86.5
329.058	75.5
329.287	95.5
329.515	79.5
329.744	86.5
329.972	83.5
330.201	80.5
330.43	84.5
330.658	88.5
330.887	99.5
331.115	91.5
331.344	83.5
331.572	99.5
331.801	83.5
332.03	90.5
332.258	90.5
332.486	84.5
332.715	82.5
332.943	74.5
333.172	91.5
333.4	83.5
333.629	88.5
333.857	97.5
334.085	91.5
334.314	81.5
334.542	98.5
334.771	91.5
334.999	78.5
335.227	80.5
335.455	80.5
335.684	100.5
335.912	76.5
336.14	93.5
336.369	80.5
336.597	81.5
336.825	78.5
337.053	80.5
337.281	86.5
337.51	81.5
337.738	94.5
337.966	90.5
338.194	79.5
338.422	86.5
338.65	92.5
338.878	80.5
339.106	92.5
339.334	73.5
339.562	85.5
339.79	89.5
340.018	86.5
340.246	74.5
340.474	86.5
340.702	75.5
340.93	91.5
341.158	79.5
341.386	84.5
341.614	88.5
341.842	97.5
342.07	84.5
342.298	78.5
342.526	88.5
342.754	81.5
342.981	87.5
343.209	95.5
343.437	86.5
343.665	80.5
343.893	81.5
344.12	77.5
344.348	81.5
344.576	78.5
344.804	95.5
345.031	70.5
345.259	83.5
345.487	92.5
345.714	86.5
345.942	75.5
346.17	90.5
346.397	95.5
346.625	92.5
346.853	88.5
347.08	79.5
347.308	81.5
347.535	89.5
347.763	92.5
347.99	86.5
348.218	76.5
348.445	84.5
348.673	86.5
348.9	86.5
349.128	86.5
349.355	80.5
349.583	101.5
349.81	88.5
350.037	95.5
350.265	95.5
350.492	98.5
350.72	78.5
350.947	87.5
351.174	78.5
351.402	87.5
351.629	88.5
351.856	80.5
352.083	84.5
352.311	93.5
352.538	80.5
352.765	85.5
352.992	86.5
353.22	84.5
353.447	91.5
353.674	82.5
353.901	89.5
354.128	78.5
354.355	90.5
354.583	77.5
354.81	86.5
355.037	89.5
355.264	78.5
355.491	86.5
355.718	86.5
355.945	84.5
356.172	85.5
356.399	70.5
356.626	79.5
356.853	85.5
357.08	90.5
357.307	94.5
357.534	99.5
357.761	84.5
357.988	80.5
358.215	92.5
358.441	88.5
358.668	90.5
358.895	96.5
359.122	83.5
359.349	84.5
359.576	74.5
359.802	87.5
360.029	79.5
360.256	86.5
360.483	84.5
360.709	86.5
360.936	97.5
361.163	80.5
361.39	84.5
361.616	80.5
361.843	84.5
362.07	81.5
362.296	96.5
362.523	86.5
362.749	87.5
362.976	91.5
363.203	83.5
363.429	83.5
363.656	88.5
363.882	94.5
364.109	82.5
364.335	71.5
364.562	86.5
364.788	76.5
365.015	79.5
365.241	92.5
365.468	70.5
365.694	88.5
365.92	91.5
366.147	86.5
366.373	91.5
366.599	92.5
366.826	84.5
367.052	89.5
367.278	79.5
367.505	86.5
367.731	101.5
367.957	86.5
368.184	78.5
368.41	87.5
368.636	86.5
368.862	103.5
369.089	88.5
369.315	76.5
369.541	87.5
369.767	97.5
369.993	90.5
370.219	108.5
370.445	96.5
370.672	84.5
370.898	99.5
371.124	95.5
371.35	93.5
371.576	83.5
371.802	87.5
372.028	86.5
372.254	87.5
372.48	88.5
372.706	94.5
372.932	86.5
373.158	93.5
373.384	86.5
373.61	91.5
373.835	96.5
374.061	91.5
374.287	91.5
374.513	91.5
374.739	91.5
374.965	90.5
375.191	101.5
375.416	99.5
375.642	96.5
375.868	87.5
376.094	99.5
376.319	87.5
376.545	83.5
376.771	89.5
376.997	91.5
377.222	87.5
377.448	99.5
377.674	94.5
377.899	91.5
378.125	107.5
378.35	96.5
378.576	89.5
378.802	90.5
379.027	96.5
379.253	78.5
379.478	99.5
379.704	91.5
379.929	108.5
380.155	83.5
380.38	88.5
380.606	104.5
380.831	103.5
381.057	111.5
381.282	98.5
381.507	89.5
381.733	92.5
381.958	100.5
382.184	85.5
382.409	91.5
382.634	75.5
382.86	94.5
383.085	105.5
383.31	79.5
383.535	95.5
383.761	98.5
383.986	111.5
384.211	93.5
384.436	116.5
384.662	100.5
384.887	93.5
385.112	101.5
385.337	102.5
385.562	95.5
385.787	103.5
386.013	102.5
386.238	98.5
386.463	96.5
386.688	98.5
386.913	98.5
387.138	105.5
387.363	86.5
387.588	107.5
387.813	95.5
388.038	98.5
388.263	116.5
388.488	103.5
388.713	92.5
388.938	102.5
389.163	108.5
389.387	97.5
389.612	95.5
389.837	103.5
390.062	97.5
390.287	111.5
390.512	94.5
390.736	89.5
390.961	102.5
391.186	94.5
391.411	83.5
391.636	86.5
391.86	109.5
392.085	114.5
392.31	119.5
392.534	108.5
392.759	98.5
392.984	105.5
393.208	103.5
393.433	107.5
393.658	110.5
393.882	107.5
394.107	99.5
394.331	97.5
394.556	105.5
394.78	105.5
395.005	123.5
395.229	110.5
395.454	104.5
395.678	100.5
395.903	107.5
396.127	99.5
396.352	109.5
396.576	103.5
396.801	112.5
397.025	91.5
397.249	104.5
397.474	89.5
397.698	102.5
397.922	105.5
398.147	96.5
398.371	101.5
398.595	112.5
398.82	108.5
399.044	93.5
399.268	100.5
399.492	119.5
399.717	96.5
399.941	104.5
400.165	94.5
400.389	111.5
400.613	101.5
400.837	119.5
401.062	101.5
401.286	107.5
401.51	108.5
401.734	99.5
401.958	114.5
402.182	114.5
402.406	97.5
402.63	104.5
402.854	113.5
403.078	125.5
403.302	107.5
403.526	112.5
403.75	108.5
403.974	121.5
404.198	116.5
404.422	119.5
404.645	118.5
404.869	106.5
405.093	122.5
405.317	116.5
405.541	118.5
405.765	115.5
405.988	127.5
406.212	120.5
406.436	127.5
406.66	129.5
406.883	122.5
407.107	112.5
407.331	121.5
407.555	108.5
407.778	127.5
408.002	112.5
408.226	111.5
408.449	129.5
408.673	120.5
408.896	122.5
409.12	125.5
409.344	119.5
409.567	121.5
409.791	130.5
410.014	120.5
410.238	124.5
410.461	127.5
410.685	131.5
410.908	119.5
411.132	134.5
411.355	107.5
411.578	132.5
411.802	130.5
412.025	133.5
412.249	114.5
412.472	128.5
412.695	128.5
412.919	127.5
413.142	121.5
413.365	116.5
413.589	120.5
413.812	110.5
414.035	117.5
414.258	128.5
414.482	116.5
414.705	130.5
414.928	132.5
415.151	129.5
415.374	127.5
415.597	110.5
415.821	122.5
416.044	110.5
416.267	122.5
416.49	144.5
416.713	140.5
416.936	120.5
417.159	123.5
417.382	132.5
417.605	130.5
417.828	118.5
418.051	123.5
418.274	120.5
418.497	122.5
418.72	111.5
418.943	117.5
419.166	124.5
419.389	138.5
419.611	124.5
419.834	126.5
420.057	147.5
420.28	127.5
420.503	122.5
420.726	125.5
420.948	136.5
421.171	120.5
421.394	132.5
421.617	123.5
421.839	140.5
422.062	135.5
422.285	136.5
422.507	128.5
422.73	126.5
422.953	125.5
423.175	118.5
423.398	109.5
423.621	123.5
423.843	138.5
424.066	142.5
424.288	142.5
424.511	143.5
424.733	126.5
424.956	133.5
425.178	131.5
425.401	135.5
425.623	127.5
425.846	140.5
426.068	123.5
426.291	126.5
426.513	111.5
426.735	129.5
426.958	124.5
427.18	129.5
427.402	139.5
427.625	126.5
427.847	120.5
428.069	122.5
428.292	117.5
428.514	132.5
428.736	136.5
428.958	121.5
429.181	124.5
429.403	133.5
429.625	125.5
429.847	126.5
430.069	139.5
430.292	142.5
430.514	122.5
430.736	125.5
430.958	135.5
431.18	116.5
431.402	136.5
431.624	116.5
431.846	112.5
432.068	94.5
432.29	87.5
432.512	110.5
432.734	126.5
432.956	123.5
433.178	139.5
433.4	128.5
433.622	123.5
433.844	121.5
434.066	130.5
434.287	120.5
434.509	103.5
434.731	107.5
434.953	101.5
435.175	139.5
435.397	128.5
435.618	94.5
435.84	114.5
436.062	101.5
436.284	114.5
436.505	126.5
436.727	122.5
436.949	126.5
437.17	143.5
437.392	123.5
437.614	110.5
437.835	98.5
438.057	99.5
438.278	118.5
438.5	124.5
438.721	135.5
438.943	128.5
439.165	152.5
439.386	125.5
439.608	145.5
439.829	145.5
440.05	144.5
440.272	142.5
440.493	142.5
440.715	133.5
440.936	153.5
441.158	148.5
441.379	149.5
441.6	143.5
441.822	149.5
442.043	150.5
442.264	144.5
442.486	131.5
442.707	137.5
442.928	138.5
443.149	142.5
443.371	124.5
443.592	138.5
443.813	140.5
444.034	127.5
444.255	130.5
444.476	130.5
444.698	130.5
444.919	151.5
445.14	236.5
445.361	195.5
445.582	143.5
445.803	152.5
446.024	140.5
446.245	139.5
446.466	140.5
446.687	148.5
446.908	143.5
447.129	163.5
447.35	158.5
447.571	149.5
447.792	134.5
448.013	135.5
448.234	143.5
448.455	129.5
448.675	140.5
448.896	133.5
449.117	130.5
449.338	128.5
449.559	146.5
449.779	135.5
450	143.5
450.221	141.5
450.442	135.5
450.662	134.5
450.883	131.5
451.104	147.5
451.324	126.5
451.545	126.5
451.766	125.5
451.986	122.5
452.207	138.5
452.428	120.5
452.648	128.5
452.869	112.5
453.089	106.5
453.31	108.5
453.53	114.5
453.751	118.5
453.971	96.5
454.192	110.5
454.412	114.5
454.633	117.5
454.853	117.5
455.073	111.5
455.294	122.5
455.514	122.5
455.734	124.5
455.955	126.5
456.175	112.5
456.395	111.5
456.616	97.5
456.836	112.5
457.056	119.5
457.276	114.5
457.497	108.5
457.717	108.5
457.937	119.5
458.157	114.5
458.377	92.5
458.598	110.5
458.818	88.5
459.038	86.5
459.258	90.5
459.478	95.5
459.698	97.5
459.918	90.5
460.138	109.5
460.358	119.5
460.578	124.5
460.798	108.5
461.018	112.5
461.238	105.5
461.458	122.5
461.678	111.5
461.898	110.5
462.118	105.5
462.338	116.5
462.558	123.5
462.777	123.5
462.997	126.5
463.217	120.5
463.437	124.5
463.657	125.5
463.876	107.5
464.096	120.5
464.316	96.5
464.536	102.5
464.755	109.5
464.975	107.5
465.195	111.5
465.414	113.5
465.634	120.5
465.854	126.5
466.073	123.5
466.293	121.5
466.512	125.5
466.732	134.5
466.951	146.5
467.171	139.5
467.391	130.5
467.61	127.5
467.829	115.5
468.049	132.5
468.268	126.5
468.488	145.5
468.707	128.5
468.927	136.5
469.146	123.5
469.365	140.5
469.585	132.5
469.804	140.5
470.023	141.5
470.243	138.5
470.462	146.5
470.681	136.5
470.901	138.5
471.12	129.5
471.339	152.5
471.558	149.5
471.777	136.5
471.997	128.5
472.216	130.5
472.435	119.5
472.654	104.5
472.873	102.5
473.092	113.5
473.311	112.5
473.53	118.5
473.749	126.5
473.968	128.5
474.187	102.5
474.406	106.5
474.625	120.5
474.844	124.5
475.063	131.5
475.282	111.5
475.501	107.5
475.72	127.5
475.939	116.5
476.158	129.5
476.377	128.5
476.596	131.5
476.814	107.5
477.033	108.5
477.252	102.5
477.471	122.5
477.69	128.5
477.908	138.5
478.127	155.5
478.346	123.5
478.564	142.5
478.783	135.5
479.002	132.5
479.22	140.5
479.439	130.5
479.658	134.5
479.876	110.5
480.095	114.5
480.313	105.5
480.532	101.5
480.751	103.5
480.969	86.5
481.188	98.5
481.406	86.5
481.624	88.5
481.843	107.5
482.061	101.5
482.28	128.5
482.498	126.5
482.717	114.5
482.935	132.5
483.153	150.5
483.372	130.5
483.59	152.5
483.808	124.5
484.027	131.5
484.245	140.5
484.463	144.5
484.681	151.5
484.9	150.5
485.118	131.5
485.336	136.5
485.554	124.5
485.772	99.5
485.99	103.5
486.209	104.5
486.427	107.5
486.645	121.5
486.863	140.5
487.081	143.5
487.299	138.5
487.517	122.5
487.735	160.5
487.953	182.5
488.171	176.5
488.389	158.5
488.607	166.5
488.825	157.5
489.043	132.5
489.261	144.5
489.479	142.5
489.696	130.5
489.914	130.5
490.132	139.5
490.35	136.5
490.568	154.5
490.786	156.5
491.003	188.5
491.221	172.5
491.439	191.5
491.657	180.5
491.874	199.5
492.092	215.5
492.31	244.5
492.527	215.5
492.745	194.5
492.963	197.5
493.18	183.5
493.398	189.5
493.615	169.5
493.833	169.5
494.05	167.5
494.268	167.5
494.485	152.5
494.703	146.5
494.92	164.5
495.138	172.5
495.355	157.5
495.573	174.5
495.79	165.5
496.008	162.5
496.225	162.5
496.442	166.5
496.66	166.5
496.877	165.5
497.094	165.5
497.312	166.5
497.529	151.5
497.746	150.5
497.963	123.5
498.181	124.5
498.398	129.5
498.615	124.5
498.832	120.5
499.049	118.5
499.267	120.5
499.484	122.5
499.701	132.5
499.918	140.5
500.135	131.5
500.352	129.5
500.569	124.5
500.786	149.5
501.003	151.5
501.22	139.5
501.437	153.5
501.654	132.5
501.871	134.5
502.088	133.5
502.305	140.5
502.522	121.5
502.739	129.5
502.956	126.5
503.172	126.5
503.389	111.5
503.606	112.5
503.823	117.5
504.04	124.5
504.256	118.5
504.473	124.5
504.69	92.5
504.907	122.5
505.123	119.5
505.34	118.5
505.557	127.5
505.773	121.5
505.99	119.5
506.207	115.5
506.423	124.5
506.64	125.5
506.856	107.5
507.073	124.5
507.289	119.5
507.506	121.5
507.722	120.5
507.939	120.5
508.155	120.5
508.372	129.5
508.588	131.5
508.805	117.5
509.021	119.5
509.238	114.5
509.454	106.5
509.67	110.5
509.887	120.5
510.103	98.5
510.319	106.5
510.536	98.5
510.752	94.5
510.968	93.5
511.184	91.5
511.401	97.5
511.617	88.5
511.833	84.5
512.049	99.5
512.265	90.5
512.481	108.5
512.698	86.5
512.914	99.5
513.13	92.5
513.346	88.5
513.562	84.5
513.778	92.5
513.994	93.5
514.21	72.5
514.426	94.5
514.642	88.5
514.858	89.5
515.074	100.5
515.29	79.5
515.506	75.5
515.721	87.5
515.937	95.5
516.153	107.5
516.369	102.5
516.585	99.5
516.801	80.5
517.016	88.5
517.232	97.5
517.448	106.5
517.664	94.5
517.879	92.5
518.095	91.5
518.311	92.5
518.527	100.5
518.742	110.5
518.958	89.5
519.173	104.5
519.389	106.5
519.605	113.5
519.82	106.5
520.036	118.5
520.251	108.5
520.467	104.5
520.682	97.5
520.898	97.5
521.113	88.5
521.329	92.5
521.544	75.5
521.76	99.5
521.975	105.5
522.19	77.5
522.406	91.5
522.621	94.5
522.836	102.5
523.052	105.5
523.267	117.5
523.482	116.5
523.698	117.5
523.913	105.5
524.128	97.5
524.343	98.5
524.559	121.5
524.774	131.5
524.989	124.5
525.204	126.5
525.419	120.5
525.634	120.5
525.849	111.5
526.064	107.5
526.28	107.5
526.495	83.5
526.71	94.5
526.925	80.5
527.14	93.5
527.355	96.5
527.57	89.5
527.785	87.5
527.999	108.5
528.214	105.5
528.429	111.5
528.644	122.5
528.859	136.5
529.074	148.5
529.289	168.5
529.503	156.5
529.718	145.5
529.933	123.5
530.148	98.5
530.363	104.5
530.577	84.5
530.792	90.5
