Data from Location1.07152019.Energy5.Lamp.07192019.3%Agarose_HRD10591_14-33-14-015.txt Node
Date: Fri Jul 19 14:33:14 EDT 2019
User: cochatt
Spectrometer: HR+D1059
Trigger mode: 1
Integration Time (sec): 1.000000E-1
Scans to average: 1
Electric dark correction enabled: true
Nonlinearity correction enabled: false
Boxcar width: 0
XAxis mode: Wavelengths
Number of Pixels in Spectrum: 2048
>>>>>Begin Spectral Data<<<<<
223.165	-9.31
223.4	-9.31
223.635	-9.31
223.869	-11.31
224.104	-23.31
224.338	-10.31
224.573	-14.31
224.808	-10.31
225.042	-15.31
225.277	-19.31
225.511	12.69
225.746	14.69
225.98	8.69
226.215	5.69
226.449	9.69
226.683	12.69
226.918	24.69
227.152	24.69
227.387	36.69
227.621	49.69
227.856	55.69
228.09	38.69
228.324	45.69
228.559	45.69
228.793	64.69
229.027	56.69
229.262	69.69
229.496	57.69
229.73	68.69
229.964	73.69
230.199	70.69
230.433	75.69
230.667	80.69
230.901	67.69
231.136	77.69
231.37	71.69
231.604	72.69
231.838	87.69
232.072	82.69
232.306	69.69
232.541	72.69
232.775	73.69
233.009	71.69
233.243	75.69
233.477	91.69
233.711	90.69
233.945	78.69
234.179	78.69
234.413	102.69
234.647	82.69
234.881	71.69
235.115	73.69
235.349	77.69
235.583	72.69
235.817	65.69
236.051	59.69
236.285	71.69
236.519	74.69
236.753	75.69
236.987	83.69
237.221	72.69
237.455	84.69
237.689	84.69
237.922	75.69
238.156	71.69
238.39	81.69
238.624	78.69
238.858	84.69
239.091	66.69
239.325	70.69
239.559	67.69
239.793	70.69
240.027	87.69
240.26	70.69
240.494	74.69
240.728	83.69
240.961	64.69
241.195	84.69
241.429	64.69
241.662	60.69
241.896	85.69
242.13	78.69
242.363	69.69
242.597	62.69
242.83	75.69
243.064	74.69
243.298	85.69
243.531	85.69
243.765	69.69
243.998	77.69
244.232	81.69
244.465	77.69
244.699	80.69
244.932	72.69
245.166	77.69
245.399	75.69
245.633	72.69
245.866	82.69
246.099	78.69
246.333	98.69
246.566	78.69
246.8	84.69
247.033	71.69
247.266	64.69
247.5	88.69
247.733	71.69
247.966	74.69
248.2	79.69
248.433	74.69
248.666	78.69
248.899	85.69
249.133	73.69
249.366	93.69
249.599	81.69
249.832	84.69
250.066	80.69
250.299	73.69
250.532	85.69
250.765	84.69
250.998	74.69
251.231	70.69
251.465	68.69
251.698	76.69
251.931	74.69
252.164	88.69
252.397	85.69
252.63	98.69
252.863	86.69
253.096	79.69
253.329	85.69
253.562	78.69
253.795	80.69
254.028	77.69
254.261	74.69
254.494	81.69
254.727	76.69
254.96	48.69
255.193	73.69
255.426	80.69
255.659	91.69
255.892	80.69
256.124	86.69
256.357	86.69
256.59	87.69
256.823	81.69
257.056	81.69
257.289	68.69
257.521	70.69
257.754	83.69
257.987	83.69
258.22	81.69
258.452	76.69
258.685	80.69
258.918	82.69
259.151	88.69
259.383	78.69
259.616	74.69
259.849	82.69
260.081	84.69
260.314	74.69
260.547	78.69
260.779	85.69
261.012	78.69
261.244	77.69
261.477	74.69
261.71	67.69
261.942	78.69
262.175	76.69
262.407	85.69
262.64	74.69
262.872	86.69
263.105	77.69
263.337	79.69
263.57	72.69
263.802	83.69
264.035	85.69
264.267	70.69
264.499	69.69
264.732	92.69
264.964	88.69
265.197	74.69
265.429	86.69
265.661	90.69
265.894	86.69
266.126	89.69
266.358	76.69
266.591	78.69
266.823	85.69
267.055	81.69
267.287	88.69
267.52	78.69
267.752	77.69
267.984	90.69
268.216	78.69
268.448	82.69
268.681	91.69
268.913	83.69
269.145	85.69
269.377	84.69
269.609	78.69
269.841	79.69
270.073	82.69
270.306	70.69
270.538	92.69
270.77	81.69
271.002	76.69
271.234	85.69
271.466	92.69
271.698	85.69
271.93	78.69
272.162	88.69
272.394	76.69
272.626	78.69
272.858	88.69
273.09	82.69
273.322	74.69
273.553	87.69
273.785	84.69
274.017	84.69
274.249	86.69
274.481	78.69
274.713	87.69
274.945	84.69
275.176	81.69
275.408	86.69
275.64	78.69
275.872	77.69
276.104	84.69
276.335	71.69
276.567	74.69
276.799	91.69
277.031	86.69
277.262	77.69
277.494	92.69
277.726	91.69
277.957	71.69
278.189	77.69
278.421	80.69
278.652	84.69
278.884	70.69
279.115	83.69
279.347	69.69
279.579	92.69
279.81	92.69
280.042	82.69
280.273	89.69
280.505	78.69
280.736	83.69
280.968	85.69
281.199	94.69
281.431	91.69
281.662	77.69
281.894	83.69
282.125	70.69
282.356	78.69
282.588	86.69
282.819	88.69
283.051	81.69
283.282	84.69
283.513	82.69
283.745	85.69
283.976	96.69
284.207	94.69
284.439	84.69
284.67	81.69
284.901	87.69
285.132	71.69
285.364	90.69
285.595	81.69
285.826	96.69
286.057	81.69
286.288	73.69
286.52	92.69
286.751	88.69
286.982	61.69
287.213	84.69
287.444	86.69
287.675	79.69
287.906	82.69
288.138	79.69
288.369	81.69
288.6	72.69
288.831	86.69
289.062	102.69
289.293	99.69
289.524	75.69
289.755	78.69
289.986	70.69
290.217	72.69
290.448	82.69
290.679	86.69
290.91	96.69
291.141	78.69
291.371	78.69
291.602	107.69
291.833	91.69
292.064	88.69
292.295	88.69
292.526	91.69
292.757	85.69
292.987	96.69
293.218	84.69
293.449	78.69
293.68	84.69
293.91	80.69
294.141	83.69
294.372	81.69
294.603	79.69
294.833	80.69
295.064	84.69
295.295	80.69
295.525	78.69
295.756	103.69
295.987	88.69
296.217	76.69
296.448	76.69
296.679	75.69
296.909	88.69
297.14	100.69
297.37	73.69
297.601	71.69
297.831	72.69
298.062	71.69
298.292	76.69
298.523	90.69
298.753	76.69
298.984	91.69
299.214	87.69
299.445	78.69
299.675	76.69
299.905	79.69
300.136	76.69
300.366	81.69
300.597	87.69
300.827	85.69
301.057	90.69
301.288	88.69
301.518	80.69
301.748	89.69
301.979	73.69
302.209	92.69
302.439	83.69
302.669	82.69
302.9	90.69
303.13	83.69
303.36	86.69
303.59	75.69
303.82	88.69
304.051	98.69
304.281	84.69
304.511	77.69
304.741	80.69
304.971	77.69
305.201	92.69
305.431	89.69
305.661	80.69
305.891	72.69
306.121	86.69
306.352	81.69
306.582	70.69
306.812	70.69
307.042	87.69
307.272	78.69
307.502	74.69
307.731	85.69
307.961	89.69
308.191	94.69
308.421	84.69
308.651	94.69
308.881	88.69
309.111	94.69
309.341	81.69
309.571	82.69
309.8	68.69
310.03	76.69
310.26	80.69
310.49	87.69
310.72	78.69
310.949	89.69
311.179	89.69
311.409	83.69
311.639	98.69
311.868	95.69
312.098	85.69
312.328	78.69
312.557	83.69
312.787	74.69
313.017	85.69
313.246	84.69
313.476	85.69
313.706	70.69
313.935	80.69
314.165	85.69
314.394	79.69
314.624	79.69
314.853	76.69
315.083	93.69
315.312	71.69
315.542	69.69
315.771	96.69
316.001	86.69
316.23	93.69
316.46	89.69
316.689	89.69
316.919	73.69
317.148	97.69
317.377	92.69
317.607	87.69
317.836	97.69
318.065	78.69
318.295	75.69
318.524	88.69
318.753	79.69
318.983	81.69
319.212	85.69
319.441	85.69
319.67	80.69
319.9	78.69
320.129	72.69
320.358	92.69
320.587	75.69
320.816	72.69
321.046	77.69
321.275	80.69
321.504	79.69
321.733	75.69
321.962	93.69
322.191	99.69
322.42	86.69
322.649	85.69
322.878	83.69
323.108	85.69
323.337	86.69
323.566	92.69
323.795	73.69
324.024	93.69
324.253	83.69
324.482	91.69
324.71	85.69
324.939	94.69
325.168	78.69
325.397	74.69
325.626	87.69
325.855	104.69
326.084	79.69
326.313	92.69
326.542	66.69
326.77	74.69
326.999	85.69
327.228	72.69
327.457	87.69
327.686	90.69
327.914	96.69
328.143	83.69
328.372	91.69
328.6	96.69
328.829	81.69
329.058	80.69
329.287	96.69
329.515	81.69
329.744	82.69
329.972	98.69
330.201	86.69
330.43	76.69
330.658	86.69
330.887	93.69
331.115	87.69
331.344	97.69
331.572	87.69
331.801	74.69
332.03	82.69
332.258	85.69
332.486	89.69
332.715	75.69
332.943	93.69
333.172	85.69
333.4	96.69
333.629	67.69
333.857	88.69
334.085	93.69
334.314	87.69
334.542	99.69
334.771	73.69
334.999	89.69
335.227	80.69
335.455	98.69
335.684	88.69
335.912	81.69
336.14	89.69
336.369	70.69
336.597	92.69
336.825	86.69
337.053	80.69
337.281	79.69
337.51	80.69
337.738	82.69
337.966	85.69
338.194	73.69
338.422	78.69
338.65	88.69
338.878	85.69
339.106	79.69
339.334	83.69
339.562	79.69
339.79	72.69
340.018	81.69
340.246	86.69
340.474	84.69
340.702	84.69
340.93	76.69
341.158	87.69
341.386	98.69
341.614	84.69
341.842	91.69
342.07	68.69
342.298	85.69
342.526	88.69
342.754	87.69
342.981	91.69
343.209	88.69
343.437	95.69
343.665	70.69
343.893	92.69
344.12	81.69
344.348	92.69
344.576	97.69
344.804	92.69
345.031	94.69
345.259	87.69
345.487	83.69
345.714	79.69
345.942	89.69
346.17	72.69
346.397	91.69
346.625	94.69
346.853	69.69
347.08	83.69
347.308	86.69
347.535	82.69
347.763	80.69
347.99	82.69
348.218	81.69
348.445	84.69
348.673	75.69
348.9	90.69
349.128	82.69
349.355	77.69
349.583	81.69
349.81	92.69
350.037	84.69
350.265	75.69
350.492	74.69
350.72	92.69
350.947	81.69
351.174	71.69
351.402	79.69
351.629	79.69
351.856	75.69
352.083	83.69
352.311	79.69
352.538	83.69
352.765	72.69
352.992	90.69
353.22	80.69
353.447	87.69
353.674	82.69
353.901	65.69
354.128	85.69
354.355	78.69
354.583	83.69
354.81	87.69
355.037	92.69
355.264	91.69
355.491	78.69
355.718	82.69
355.945	97.69
356.172	80.69
356.399	77.69
356.626	66.69
356.853	85.69
357.08	82.69
357.307	75.69
357.534	82.69
357.761	90.69
357.988	77.69
358.215	75.69
358.441	78.69
358.668	79.69
358.895	73.69
359.122	83.69
359.349	89.69
359.576	85.69
359.802	87.69
360.029	85.69
360.256	87.69
360.483	85.69
360.709	72.69
360.936	100.69
361.163	90.69
361.39	87.69
361.616	76.69
361.843	69.69
362.07	89.69
362.296	81.69
362.523	77.69
362.749	76.69
362.976	81.69
363.203	80.69
363.429	75.69
363.656	80.69
363.882	76.69
364.109	93.69
364.335	77.69
364.562	76.69
364.788	82.69
365.015	94.69
365.241	80.69
365.468	86.69
365.694	74.69
365.92	84.69
366.147	91.69
366.373	75.69
366.599	81.69
366.826	98.69
367.052	73.69
367.278	98.69
367.505	88.69
367.731	88.69
367.957	82.69
368.184	74.69
368.41	81.69
368.636	89.69
368.862	97.69
369.089	97.69
369.315	95.69
369.541	96.69
369.767	89.69
369.993	99.69
370.219	78.69
370.445	77.69
370.672	87.69
370.898	79.69
371.124	106.69
371.35	83.69
371.576	84.69
371.802	98.69
372.028	82.69
372.254	86.69
372.48	89.69
372.706	88.69
372.932	92.69
373.158	88.69
373.384	92.69
373.61	83.69
373.835	88.69
374.061	97.69
374.287	88.69
374.513	79.69
374.739	73.69
374.965	103.69
375.191	87.69
375.416	99.69
375.642	79.69
375.868	93.69
376.094	80.69
376.319	97.69
376.545	85.69
376.771	83.69
376.997	93.69
377.222	78.69
377.448	107.69
377.674	93.69
377.899	96.69
378.125	84.69
378.35	103.69
378.576	96.69
378.802	92.69
379.027	75.69
379.253	85.69
379.478	90.69
379.704	92.69
379.929	101.69
380.155	98.69
380.38	96.69
380.606	94.69
380.831	73.69
381.057	93.69
381.282	96.69
381.507	93.69
381.733	108.69
381.958	109.69
382.184	101.69
382.409	101.69
382.634	91.69
382.86	94.69
383.085	92.69
383.31	98.69
383.535	94.69
383.761	86.69
383.986	100.69
384.211	95.69
384.436	105.69
384.662	100.69
384.887	98.69
385.112	97.69
385.337	107.69
385.562	101.69
385.787	89.69
386.013	97.69
386.238	106.69
386.463	93.69
386.688	93.69
386.913	101.69
387.138	92.69
387.363	84.69
387.588	94.69
387.813	90.69
388.038	93.69
388.263	100.69
388.488	93.69
388.713	90.69
388.938	109.69
389.163	97.69
389.387	85.69
389.612	100.69
389.837	101.69
390.062	98.69
390.287	99.69
390.512	118.69
390.736	104.69
390.961	96.69
391.186	94.69
391.411	105.69
391.636	110.69
391.86	109.69
392.085	110.69
392.31	98.69
392.534	101.69
392.759	107.69
392.984	106.69
393.208	108.69
393.433	101.69
393.658	124.69
393.882	95.69
394.107	99.69
394.331	113.69
394.556	101.69
394.78	97.69
395.005	101.69
395.229	98.69
395.454	115.69
395.678	103.69
395.903	107.69
396.127	100.69
396.352	109.69
396.576	91.69
396.801	90.69
397.025	105.69
397.249	112.69
397.474	109.69
397.698	107.69
397.922	101.69
398.147	104.69
398.371	108.69
398.595	103.69
398.82	105.69
399.044	99.69
399.268	96.69
399.492	109.69
399.717	114.69
399.941	105.69
400.165	112.69
400.389	111.69
400.613	94.69
400.837	102.69
401.062	126.69
401.286	105.69
401.51	112.69
401.734	95.69
401.958	102.69
402.182	121.69
402.406	109.69
402.63	115.69
402.854	103.69
403.078	105.69
403.302	113.69
403.526	132.69
403.75	97.69
403.974	107.69
404.198	114.69
404.422	118.69
404.645	116.69
404.869	125.69
405.093	108.69
405.317	118.69
405.541	111.69
405.765	114.69
405.988	122.69
406.212	114.69
406.436	123.69
406.66	118.69
406.883	112.69
407.107	107.69
407.331	134.69
407.555	118.69
407.778	107.69
408.002	108.69
408.226	112.69
408.449	101.69
408.673	114.69
408.896	122.69
409.12	123.69
409.344	120.69
409.567	104.69
409.791	121.69
410.014	122.69
410.238	121.69
410.461	117.69
410.685	122.69
410.908	108.69
411.132	124.69
411.355	132.69
411.578	119.69
411.802	121.69
412.025	108.69
412.249	121.69
412.472	122.69
412.695	116.69
412.919	139.69
413.142	118.69
413.365	128.69
413.589	115.69
413.812	118.69
414.035	112.69
414.258	140.69
414.482	128.69
414.705	115.69
414.928	128.69
415.151	118.69
415.374	120.69
415.597	112.69
415.821	107.69
416.044	110.69
416.267	117.69
416.49	116.69
416.713	125.69
416.936	122.69
417.159	130.69
417.382	132.69
417.605	117.69
417.828	127.69
418.051	131.69
418.274	133.69
418.497	122.69
418.72	121.69
418.943	137.69
419.166	116.69
419.389	133.69
419.611	128.69
419.834	127.69
420.057	130.69
420.28	124.69
420.503	115.69
420.726	125.69
420.948	118.69
421.171	140.69
421.394	147.69
421.617	122.69
421.839	126.69
422.062	124.69
422.285	129.69
422.507	114.69
422.73	120.69
422.953	126.69
423.175	129.69
423.398	122.69
423.621	114.69
423.843	122.69
424.066	144.69
424.288	128.69
424.511	131.69
424.733	140.69
424.956	133.69
425.178	129.69
425.401	129.69
425.623	141.69
425.846	132.69
426.068	125.69
426.291	129.69
426.513	126.69
426.735	129.69
426.958	116.69
427.18	135.69
427.402	128.69
427.625	105.69
427.847	130.69
428.069	116.69
428.292	117.69
428.514	126.69
428.736	122.69
428.958	119.69
429.181	130.69
429.403	123.69
429.625	129.69
429.847	121.69
430.069	125.69
430.292	128.69
430.514	122.69
430.736	130.69
430.958	132.69
431.18	132.69
431.402	117.69
431.624	119.69
431.846	97.69
432.068	86.69
432.29	101.69
432.512	99.69
432.734	114.69
432.956	122.69
433.178	143.69
433.4	116.69
433.622	125.69
433.844	132.69
434.066	135.69
434.287	114.69
434.509	100.69
434.731	97.69
434.953	113.69
435.175	113.69
435.397	116.69
435.618	107.69
435.84	112.69
436.062	112.69
436.284	111.69
436.505	113.69
436.727	124.69
436.949	124.69
437.17	131.69
437.392	129.69
437.614	130.69
437.835	109.69
438.057	110.69
438.278	108.69
438.5	117.69
438.721	120.69
438.943	130.69
439.165	136.69
439.386	132.69
439.608	150.69
439.829	145.69
440.05	142.69
440.272	126.69
440.493	145.69
440.715	135.69
440.936	142.69
441.158	134.69
441.379	142.69
441.6	155.69
441.822	154.69
442.043	132.69
442.264	134.69
442.486	148.69
442.707	148.69
442.928	121.69
443.149	124.69
443.371	144.69
443.592	130.69
443.813	129.69
444.034	132.69
444.255	130.69
444.476	136.69
444.698	139.69
444.919	147.69
445.14	241.69
445.361	176.69
445.582	144.69
445.803	140.69
446.024	140.69
446.245	148.69
446.466	151.69
446.687	141.69
446.908	152.69
447.129	153.69
447.35	142.69
447.571	161.69
447.792	161.69
448.013	128.69
448.234	148.69
448.455	138.69
448.675	129.69
448.896	124.69
449.117	136.69
449.338	125.69
449.559	121.69
449.779	135.69
450	144.69
450.221	124.69
450.442	125.69
450.662	131.69
450.883	141.69
451.104	140.69
451.324	130.69
451.545	125.69
451.766	138.69
451.986	109.69
452.207	124.69
452.428	109.69
452.648	128.69
452.869	115.69
453.089	125.69
453.31	109.69
453.53	116.69
453.751	114.69
453.971	92.69
454.192	108.69
454.412	100.69
454.633	113.69
454.853	122.69
455.073	124.69
455.294	133.69
455.514	119.69
455.734	106.69
455.955	126.69
456.175	102.69
456.395	114.69
456.616	92.69
456.836	112.69
457.056	97.69
457.276	101.69
457.497	103.69
457.717	107.69
457.937	104.69
458.157	112.69
458.377	104.69
458.598	100.69
458.818	97.69
459.038	91.69
459.258	79.69
459.478	96.69
459.698	93.69
459.918	108.69
460.138	110.69
460.358	125.69
460.578	108.69
460.798	115.69
461.018	107.69
461.238	118.69
461.458	119.69
461.678	112.69
461.898	121.69
462.118	109.69
462.338	111.69
462.558	109.69
462.777	123.69
462.997	103.69
463.217	105.69
463.437	113.69
463.657	117.69
463.876	101.69
464.096	103.69
464.316	105.69
464.536	100.69
464.755	109.69
464.975	112.69
465.195	124.69
465.414	102.69
465.634	103.69
465.854	108.69
466.073	122.69
466.293	123.69
466.512	134.69
466.732	121.69
466.951	142.69
467.171	133.69
467.391	139.69
467.61	123.69
467.829	119.69
468.049	133.69
468.268	148.69
468.488	132.69
468.707	134.69
468.927	132.69
469.146	135.69
469.365	148.69
469.585	140.69
469.804	142.69
470.023	126.69
470.243	146.69
470.462	142.69
470.681	149.69
470.901	136.69
471.12	130.69
471.339	137.69
471.558	138.69
471.777	122.69
471.997	133.69
472.216	118.69
472.435	122.69
472.654	114.69
472.873	111.69
473.092	121.69
473.311	116.69
473.53	141.69
473.749	134.69
473.968	130.69
474.187	99.69
474.406	115.69
474.625	135.69
474.844	131.69
475.063	135.69
475.282	126.69
475.501	118.69
475.72	130.69
475.939	115.69
476.158	136.69
476.377	127.69
476.596	115.69
476.814	104.69
477.033	100.69
477.252	116.69
477.471	122.69
477.69	136.69
477.908	136.69
478.127	129.69
478.346	124.69
478.564	126.69
478.783	142.69
479.002	122.69
479.22	141.69
479.439	135.69
479.658	120.69
479.876	117.69
480.095	96.69
480.313	99.69
480.532	117.69
480.751	113.69
480.969	94.69
481.188	89.69
481.406	99.69
481.624	77.69
481.843	92.69
482.061	91.69
482.28	108.69
482.498	115.69
482.717	117.69
482.935	115.69
483.153	139.69
483.372	150.69
483.59	160.69
483.808	133.69
484.027	142.69
484.245	129.69
484.463	140.69
484.681	155.69
484.9	134.69
485.118	132.69
485.336	125.69
485.554	113.69
485.772	112.69
485.99	111.69
486.209	108.69
486.427	112.69
486.645	120.69
486.863	132.69
487.081	148.69
487.299	130.69
487.517	146.69
487.735	169.69
487.953	193.69
488.171	178.69
488.389	177.69
488.607	164.69
488.825	139.69
489.043	126.69
489.261	137.69
489.479	136.69
489.696	152.69
489.914	134.69
490.132	142.69
490.35	145.69
490.568	154.69
490.786	171.69
491.003	182.69
491.221	181.69
491.439	177.69
491.657	181.69
491.874	186.69
492.092	203.69
492.31	251.69
492.527	224.69
492.745	201.69
492.963	188.69
493.18	176.69
493.398	165.69
493.615	176.69
493.833	175.69
494.05	162.69
494.268	181.69
494.485	170.69
494.703	177.69
494.92	193.69
495.138	169.69
495.355	186.69
495.573	166.69
495.79	169.69
496.008	160.69
496.225	168.69
496.442	169.69
496.66	166.69
496.877	145.69
497.094	163.69
497.312	160.69
497.529	153.69
497.746	157.69
497.963	129.69
498.181	124.69
498.398	113.69
498.615	124.69
498.832	120.69
499.049	124.69
499.267	112.69
499.484	121.69
499.701	122.69
499.918	130.69
500.135	135.69
500.352	142.69
500.569	132.69
500.786	150.69
501.003	138.69
501.22	148.69
501.437	128.69
501.654	119.69
501.871	144.69
502.088	149.69
502.305	144.69
502.522	118.69
502.739	125.69
502.956	121.69
503.172	117.69
503.389	102.69
503.606	128.69
503.823	116.69
504.04	128.69
504.256	122.69
504.473	120.69
504.69	117.69
504.907	115.69
505.123	133.69
505.34	125.69
505.557	135.69
505.773	141.69
505.99	116.69
506.207	113.69
506.423	125.69
506.64	142.69
506.856	127.69
507.073	131.69
507.289	131.69
507.506	123.69
507.722	118.69
507.939	119.69
508.155	117.69
508.372	115.69
508.588	101.69
508.805	102.69
509.021	107.69
509.238	109.69
509.454	89.69
509.67	113.69
509.887	94.69
510.103	104.69
510.319	115.69
510.536	94.69
510.752	85.69
510.968	83.69
511.184	77.69
511.401	87.69
511.617	90.69
511.833	86.69
