Data from Location1.07152019.Energy5.Lamp.07192019.3%Agarose_HRD10591_14-33-16-016.txt Node
Date: Fri Jul 19 14:33:16 EDT 2019
User: cochatt
Spectrometer: HR+D1059
Trigger mode: 1
Integration Time (sec): 1.000000E-1
Scans to average: 1
Electric dark correction enabled: true
Nonlinearity correction enabled: false
Boxcar width: 0
XAxis mode: Wavelengths
Number of Pixels in Spectrum: 2048
>>>>>Begin Spectral Data<<<<<
223.165	-15.19
223.4	-15.19
223.635	-15.19
223.869	-12.19
224.104	-20.19
224.338	-16.19
224.573	-21.19
224.808	-8.19
225.042	-4.19
225.277	4.81
225.511	-5.19
225.746	-9.19
225.98	-1.19
226.215	13.81
226.449	20.81
226.683	22.81
226.918	32.81
227.152	17.81
227.387	13.81
227.621	36.81
227.856	49.81
228.09	43.81
228.324	46.81
228.559	42.81
228.793	50.81
229.027	71.81
229.262	72.81
229.496	82.81
229.73	49.81
229.964	74.81
230.199	69.81
230.433	57.81
230.667	67.81
230.901	75.81
231.136	72.81
231.37	82.81
231.604	82.81
231.838	76.81
232.072	91.81
232.306	73.81
232.541	74.81
232.775	94.81
233.009	77.81
233.243	84.81
233.477	82.81
233.711	85.81
233.945	68.81
234.179	85.81
234.413	83.81
234.647	84.81
234.881	91.81
235.115	83.81
235.349	86.81
235.583	85.81
235.817	87.81
236.051	90.81
236.285	80.81
236.519	85.81
236.753	94.81
236.987	79.81
237.221	75.81
237.455	74.81
237.689	77.81
237.922	74.81
238.156	71.81
238.39	80.81
238.624	71.81
238.858	87.81
239.091	82.81
239.325	80.81
239.559	74.81
239.793	76.81
240.027	80.81
240.26	80.81
240.494	73.81
240.728	75.81
240.961	90.81
241.195	78.81
241.429	81.81
241.662	75.81
241.896	90.81
242.13	76.81
242.363	82.81
242.597	77.81
242.83	83.81
243.064	90.81
243.298	93.81
243.531	79.81
243.765	82.81
243.998	83.81
244.232	77.81
244.465	86.81
244.699	88.81
244.932	81.81
245.166	73.81
245.399	88.81
245.633	76.81
245.866	77.81
246.099	73.81
246.333	88.81
246.566	74.81
246.8	75.81
247.033	94.81
247.266	87.81
247.5	91.81
247.733	78.81
247.966	75.81
248.2	93.81
248.433	69.81
248.666	80.81
248.899	79.81
249.133	85.81
249.366	82.81
249.599	73.81
249.832	74.81
250.066	83.81
250.299	90.81
250.532	91.81
250.765	81.81
250.998	70.81
251.231	87.81
251.465	87.81
251.698	76.81
251.931	82.81
252.164	86.81
252.397	88.81
252.63	78.81
252.863	102.81
253.096	89.81
253.329	85.81
253.562	101.81
253.795	80.81
254.028	78.81
254.261	78.81
254.494	91.81
254.727	78.81
254.96	78.81
255.193	75.81
255.426	85.81
255.659	80.81
255.892	76.81
256.124	81.81
256.357	83.81
256.59	92.81
256.823	69.81
257.056	91.81
257.289	73.81
257.521	86.81
257.754	89.81
257.987	88.81
258.22	79.81
258.452	81.81
258.685	75.81
258.918	89.81
259.151	79.81
259.383	94.81
259.616	96.81
259.849	84.81
260.081	99.81
260.314	94.81
260.547	76.81
260.779	90.81
261.012	90.81
261.244	89.81
261.477	99.81
261.71	79.81
261.942	67.81
262.175	111.81
262.407	97.81
262.64	81.81
262.872	88.81
263.105	87.81
263.337	87.81
263.57	86.81
263.802	89.81
264.035	113.81
264.267	86.81
264.499	77.81
264.732	87.81
264.964	104.81
265.197	82.81
265.429	97.81
265.661	91.81
265.894	81.81
266.126	71.81
266.358	91.81
266.591	89.81
266.823	85.81
267.055	72.81
267.287	83.81
267.52	86.81
267.752	99.81
267.984	91.81
268.216	89.81
268.448	93.81
268.681	81.81
268.913	81.81
269.145	93.81
269.377	93.81
269.609	78.81
269.841	97.81
270.073	81.81
270.306	82.81
270.538	79.81
270.77	91.81
271.002	89.81
271.234	95.81
271.466	70.81
271.698	80.81
271.93	91.81
272.162	94.81
272.394	69.81
272.626	80.81
272.858	98.81
273.09	89.81
273.322	87.81
273.553	79.81
273.785	71.81
274.017	84.81
274.249	66.81
274.481	81.81
274.713	82.81
274.945	89.81
275.176	86.81
275.408	99.81
275.64	90.81
275.872	90.81
276.104	98.81
276.335	100.81
276.567	77.81
276.799	79.81
277.031	85.81
277.262	76.81
277.494	96.81
277.726	86.81
277.957	85.81
278.189	94.81
278.421	89.81
278.652	87.81
278.884	87.81
279.115	85.81
279.347	80.81
279.579	76.81
279.81	78.81
280.042	89.81
280.273	79.81
280.505	73.81
280.736	95.81
280.968	102.81
281.199	84.81
281.431	75.81
281.662	83.81
281.894	101.81
282.125	91.81
282.356	95.81
282.588	87.81
282.819	98.81
283.051	92.81
283.282	94.81
283.513	84.81
283.745	97.81
283.976	94.81
284.207	98.81
284.439	91.81
284.67	94.81
284.901	102.81
285.132	101.81
285.364	90.81
285.595	89.81
285.826	91.81
286.057	79.81
286.288	82.81
286.52	82.81
286.751	92.81
286.982	93.81
287.213	95.81
287.444	86.81
287.675	89.81
287.906	92.81
288.138	90.81
288.369	91.81
288.6	70.81
288.831	94.81
289.062	95.81
289.293	91.81
289.524	90.81
289.755	81.81
289.986	90.81
290.217	70.81
290.448	92.81
290.679	89.81
290.91	87.81
291.141	87.81
291.371	89.81
291.602	85.81
291.833	89.81
292.064	78.81
292.295	84.81
292.526	95.81
292.757	71.81
292.987	77.81
293.218	91.81
293.449	92.81
293.68	80.81
293.91	94.81
294.141	97.81
294.372	96.81
294.603	88.81
294.833	94.81
295.064	75.81
295.295	90.81
295.525	84.81
295.756	85.81
295.987	90.81
296.217	93.81
296.448	75.81
296.679	97.81
296.909	90.81
297.14	93.81
297.37	89.81
297.601	73.81
297.831	78.81
298.062	89.81
298.292	103.81
298.523	87.81
298.753	102.81
298.984	84.81
299.214	94.81
299.445	81.81
299.675	92.81
299.905	91.81
300.136	82.81
300.366	96.81
300.597	102.81
300.827	83.81
301.057	96.81
301.288	89.81
301.518	74.81
301.748	92.81
301.979	99.81
302.209	86.81
302.439	85.81
302.669	88.81
302.9	74.81
303.13	89.81
303.36	85.81
303.59	82.81
303.82	84.81
304.051	78.81
304.281	72.81
304.511	95.81
304.741	93.81
304.971	83.81
305.201	88.81
305.431	110.81
305.661	98.81
305.891	90.81
306.121	81.81
306.352	84.81
306.582	80.81
306.812	83.81
307.042	82.81
307.272	89.81
307.502	78.81
307.731	98.81
307.961	91.81
308.191	76.81
308.421	96.81
308.651	90.81
308.881	94.81
309.111	82.81
309.341	87.81
309.571	78.81
309.8	90.81
310.03	88.81
310.26	95.81
310.49	84.81
310.72	89.81
310.949	88.81
311.179	84.81
311.409	71.81
311.639	82.81
311.868	85.81
312.098	83.81
312.328	90.81
312.557	92.81
312.787	81.81
313.017	91.81
313.246	88.81
313.476	75.81
313.706	81.81
313.935	93.81
314.165	90.81
314.394	106.81
314.624	85.81
314.853	74.81
315.083	87.81
315.312	85.81
315.542	89.81
315.771	92.81
316.001	77.81
316.23	82.81
316.46	91.81
316.689	82.81
316.919	88.81
317.148	96.81
317.377	104.81
317.607	90.81
317.836	91.81
318.065	96.81
318.295	83.81
318.524	87.81
318.753	90.81
318.983	82.81
319.212	104.81
319.441	84.81
319.67	94.81
319.9	91.81
320.129	82.81
320.358	101.81
320.587	92.81
320.816	94.81
321.046	95.81
321.275	93.81
321.504	87.81
321.733	86.81
321.962	82.81
322.191	97.81
322.42	115.81
322.649	76.81
322.878	99.81
323.108	94.81
323.337	77.81
323.566	103.81
323.795	93.81
324.024	97.81
324.253	84.81
324.482	86.81
324.71	76.81
324.939	89.81
325.168	79.81
325.397	83.81
325.626	104.81
325.855	78.81
326.084	88.81
326.313	99.81
326.542	104.81
326.77	80.81
326.999	83.81
327.228	84.81
327.457	80.81
327.686	87.81
327.914	75.81
328.143	91.81
328.372	102.81
328.6	93.81
328.829	105.81
329.058	98.81
329.287	85.81
329.515	102.81
329.744	83.81
329.972	89.81
330.201	98.81
330.43	77.81
330.658	91.81
330.887	93.81
331.115	91.81
331.344	82.81
331.572	89.81
331.801	90.81
332.03	94.81
332.258	88.81
332.486	101.81
332.715	94.81
332.943	83.81
333.172	82.81
333.4	88.81
333.629	93.81
333.857	92.81
334.085	87.81
334.314	88.81
334.542	81.81
334.771	83.81
334.999	79.81
335.227	82.81
335.455	89.81
335.684	90.81
335.912	81.81
336.14	95.81
336.369	86.81
336.597	92.81
336.825	94.81
337.053	87.81
337.281	94.81
337.51	96.81
337.738	83.81
337.966	104.81
338.194	88.81
338.422	77.81
338.65	96.81
338.878	95.81
339.106	88.81
339.334	93.81
339.562	86.81
339.79	100.81
340.018	82.81
340.246	87.81
340.474	91.81
340.702	77.81
340.93	90.81
341.158	96.81
341.386	98.81
341.614	106.81
341.842	99.81
342.07	88.81
342.298	91.81
342.526	83.81
342.754	89.81
342.981	89.81
343.209	97.81
343.437	95.81
343.665	90.81
343.893	96.81
344.12	98.81
344.348	87.81
344.576	91.81
344.804	92.81
345.031	92.81
345.259	82.81
345.487	104.81
345.714	72.81
345.942	92.81
346.17	99.81
346.397	89.81
346.625	93.81
346.853	82.81
347.08	93.81
347.308	101.81
347.535	83.81
347.763	87.81
347.99	93.81
348.218	89.81
348.445	92.81
348.673	94.81
348.9	101.81
349.128	93.81
349.355	94.81
349.583	84.81
349.81	87.81
350.037	99.81
350.265	77.81
350.492	94.81
350.72	88.81
350.947	87.81
351.174	95.81
351.402	79.81
351.629	97.81
351.856	92.81
352.083	80.81
352.311	94.81
352.538	91.81
352.765	83.81
352.992	110.81
353.22	85.81
353.447	84.81
353.674	90.81
353.901	93.81
354.128	88.81
354.355	80.81
354.583	86.81
354.81	81.81
355.037	89.81
355.264	93.81
355.491	90.81
355.718	81.81
355.945	89.81
356.172	85.81
356.399	82.81
356.626	87.81
356.853	83.81
357.08	74.81
357.307	82.81
357.534	84.81
357.761	96.81
357.988	95.81
358.215	97.81
358.441	87.81
358.668	89.81
358.895	70.81
359.122	78.81
359.349	94.81
359.576	89.81
359.802	92.81
360.029	88.81
360.256	94.81
360.483	106.81
360.709	99.81
360.936	104.81
361.163	93.81
361.39	91.81
361.616	97.81
361.843	82.81
362.07	83.81
362.296	102.81
362.523	83.81
362.749	84.81
362.976	99.81
363.203	70.81
363.429	96.81
363.656	87.81
363.882	81.81
364.109	88.81
364.335	97.81
364.562	79.81
364.788	80.81
365.015	94.81
365.241	85.81
365.468	89.81
365.694	89.81
365.92	84.81
366.147	88.81
366.373	82.81
366.599	85.81
366.826	87.81
367.052	88.81
367.278	79.81
367.505	83.81
367.731	84.81
367.957	91.81
368.184	95.81
368.41	90.81
368.636	87.81
368.862	91.81
369.089	104.81
369.315	93.81
369.541	104.81
369.767	93.81
369.993	96.81
370.219	79.81
370.445	84.81
370.672	89.81
370.898	91.81
371.124	92.81
371.35	98.81
371.576	98.81
371.802	110.81
372.028	103.81
372.254	101.81
372.48	88.81
372.706	99.81
372.932	83.81
373.158	85.81
373.384	92.81
373.61	107.81
373.835	98.81
374.061	103.81
374.287	96.81
374.513	95.81
374.739	103.81
374.965	96.81
375.191	89.81
375.416	106.81
375.642	109.81
375.868	97.81
376.094	97.81
376.319	91.81
376.545	90.81
376.771	82.81
376.997	109.81
377.222	103.81
377.448	106.81
377.674	96.81
377.899	104.81
378.125	104.81
378.35	103.81
378.576	94.81
378.802	81.81
379.027	95.81
379.253	93.81
379.478	104.81
379.704	97.81
379.929	99.81
380.155	102.81
380.38	110.81
380.606	102.81
380.831	109.81
381.057	98.81
381.282	87.81
381.507	99.81
381.733	95.81
381.958	89.81
382.184	98.81
382.409	107.81
382.634	92.81
382.86	103.81
383.085	104.81
383.31	108.81
383.535	91.81
383.761	84.81
383.986	91.81
384.211	114.81
384.436	117.81
384.662	106.81
384.887	108.81
385.112	97.81
385.337	95.81
385.562	100.81
385.787	90.81
386.013	101.81
386.238	100.81
386.463	106.81
386.688	105.81
386.913	90.81
387.138	91.81
387.363	98.81
387.588	119.81
387.813	107.81
388.038	99.81
388.263	95.81
388.488	101.81
388.713	95.81
388.938	101.81
389.163	112.81
389.387	107.81
389.612	86.81
389.837	96.81
390.062	105.81
390.287	100.81
390.512	102.81
390.736	105.81
390.961	111.81
391.186	110.81
391.411	113.81
391.636	117.81
391.86	104.81
392.085	99.81
392.31	107.81
392.534	113.81
392.759	97.81
392.984	103.81
393.208	118.81
393.433	87.81
393.658	114.81
393.882	108.81
394.107	119.81
394.331	104.81
394.556	123.81
394.78	110.81
395.005	104.81
395.229	110.81
395.454	104.81
395.678	117.81
395.903	130.81
396.127	112.81
396.352	115.81
396.576	111.81
396.801	94.81
397.025	103.81
397.249	111.81
397.474	107.81
397.698	111.81
397.922	120.81
398.147	103.81
398.371	117.81
398.595	104.81
398.82	111.81
399.044	119.81
399.268	109.81
399.492	124.81
399.717	123.81
399.941	127.81
400.165	123.81
400.389	113.81
400.613	109.81
400.837	124.81
401.062	123.81
401.286	109.81
401.51	110.81
401.734	117.81
401.958	121.81
402.182	127.81
402.406	118.81
402.63	102.81
402.854	111.81
403.078	133.81
403.302	135.81
403.526	121.81
403.75	112.81
403.974	123.81
404.198	126.81
404.422	122.81
404.645	120.81
404.869	111.81
405.093	124.81
405.317	99.81
405.541	126.81
405.765	131.81
405.988	122.81
406.212	106.81
406.436	115.81
406.66	105.81
406.883	121.81
407.107	122.81
407.331	112.81
407.555	107.81
407.778	115.81
408.002	130.81
408.226	127.81
408.449	110.81
408.673	129.81
408.896	123.81
409.12	124.81
409.344	123.81
409.567	129.81
409.791	122.81
410.014	129.81
410.238	126.81
410.461	129.81
410.685	131.81
410.908	107.81
411.132	128.81
411.355	137.81
411.578	140.81
411.802	132.81
412.025	119.81
412.249	130.81
412.472	130.81
412.695	121.81
412.919	129.81
413.142	122.81
413.365	133.81
413.589	126.81
413.812	114.81
414.035	129.81
414.258	127.81
414.482	129.81
414.705	130.81
414.928	125.81
415.151	123.81
415.374	118.81
415.597	118.81
415.821	141.81
416.044	137.81
416.267	128.81
416.49	129.81
416.713	119.81
416.936	117.81
417.159	125.81
417.382	119.81
417.605	122.81
417.828	140.81
418.051	139.81
418.274	143.81
418.497	151.81
418.72	125.81
418.943	120.81
419.166	138.81
419.389	162.81
419.611	135.81
419.834	143.81
420.057	135.81
420.28	145.81
420.503	135.81
420.726	134.81
420.948	133.81
421.171	133.81
421.394	141.81
421.617	131.81
421.839	143.81
422.062	137.81
422.285	134.81
422.507	129.81
422.73	151.81
422.953	131.81
423.175	133.81
423.398	133.81
423.621	131.81
423.843	141.81
424.066	157.81
424.288	140.81
424.511	134.81
424.733	157.81
424.956	139.81
425.178	131.81
425.401	136.81
425.623	119.81
425.846	132.81
426.068	131.81
426.291	143.81
426.513	138.81
426.735	112.81
426.958	140.81
427.18	120.81
427.402	129.81
427.625	129.81
427.847	125.81
428.069	129.81
428.292	144.81
428.514	129.81
428.736	123.81
428.958	127.81
429.181	121.81
429.403	133.81
429.625	150.81
429.847	128.81
430.069	120.81
430.292	125.81
430.514	128.81
430.736	119.81
430.958	135.81
431.18	118.81
431.402	122.81
431.624	118.81
431.846	97.81
432.068	110.81
432.29	105.81
432.512	114.81
432.734	119.81
432.956	143.81
433.178	139.81
433.4	126.81
433.622	131.81
433.844	135.81
434.066	135.81
434.287	110.81
434.509	95.81
434.731	110.81
434.953	112.81
435.175	125.81
435.397	131.81
435.618	134.81
435.84	112.81
436.062	114.81
436.284	137.81
436.505	129.81
436.727	133.81
436.949	122.81
437.17	127.81
437.392	120.81
437.614	122.81
437.835	119.81
438.057	107.81
438.278	109.81
438.5	125.81
438.721	124.81
438.943	129.81
439.165	151.81
439.386	137.81
439.608	150.81
439.829	145.81
440.05	149.81
440.272	149.81
440.493	147.81
440.715	148.81
440.936	144.81
441.158	135.81
441.379	153.81
441.6	145.81
441.822	141.81
442.043	162.81
442.264	142.81
442.486	148.81
442.707	151.81
442.928	128.81
443.149	127.81
443.371	135.81
443.592	120.81
443.813	145.81
444.034	140.81
444.255	147.81
444.476	153.81
444.698	148.81
444.919	151.81
445.14	231.81
445.361	175.81
445.582	164.81
445.803	145.81
446.024	151.81
446.245	155.81
446.466	158.81
446.687	156.81
446.908	142.81
447.129	151.81
447.35	136.81
447.571	159.81
447.792	129.81
448.013	141.81
448.234	147.81
448.455	149.81
448.675	145.81
448.896	139.81
449.117	138.81
449.338	125.81
449.559	137.81
449.779	138.81
450	130.81
450.221	131.81
450.442	132.81
450.662	138.81
450.883	152.81
451.104	133.81
451.324	130.81
451.545	123.81
451.766	108.81
451.986	140.81
452.207	142.81
452.428	123.81
452.648	131.81
452.869	128.81
453.089	126.81
453.31	110.81
453.53	117.81
453.751	108.81
453.971	99.81
454.192	121.81
454.412	107.81
454.633	125.81
454.853	121.81
455.073	124.81
455.294	120.81
455.514	128.81
455.734	127.81
455.955	129.81
456.175	113.81
456.395	112.81
456.616	121.81
456.836	113.81
457.056	122.81
457.276	117.81
457.497	105.81
457.717	112.81
457.937	109.81
458.157	91.81
458.377	113.81
458.598	96.81
458.818	99.81
459.038	96.81
459.258	101.81
459.478	97.81
459.698	107.81
459.918	121.81
460.138	108.81
460.358	126.81
460.578	137.81
460.798	109.81
461.018	120.81
461.238	113.81
461.458	140.81
461.678	124.81
461.898	125.81
462.118	122.81
462.338	110.81
462.558	112.81
462.777	109.81
462.997	103.81
463.217	100.81
463.437	113.81
463.657	117.81
463.876	107.81
464.096	115.81
464.316	121.81
464.536	96.81
464.755	87.81
464.975	114.81
465.195	128.81
465.414	121.81
465.634	115.81
465.854	120.81
466.073	131.81
466.293	113.81
466.512	125.81
466.732	128.81
466.951	128.81
467.171	139.81
467.391	130.81
467.61	128.81
467.829	144.81
468.049	135.81
468.268	141.81
468.488	134.81
468.707	141.81
468.927	128.81
469.146	135.81
469.365	127.81
469.585	139.81
469.804	149.81
470.023	148.81
470.243	129.81
470.462	154.81
470.681	146.81
470.901	144.81
471.12	135.81
471.339	147.81
471.558	132.81
471.777	151.81
471.997	127.81
472.216	136.81
472.435	143.81
472.654	111.81
472.873	117.81
473.092	121.81
473.311	103.81
473.53	120.81
473.749	128.81
473.968	133.81
474.187	126.81
474.406	117.81
474.625	129.81
474.844	141.81
475.063	142.81
475.282	139.81
475.501	133.81
475.72	121.81
475.939	128.81
476.158	131.81
476.377	131.81
476.596	123.81
476.814	108.81
477.033	99.81
477.252	115.81
477.471	117.81
477.69	133.81
477.908	132.81
478.127	137.81
478.346	136.81
478.564	122.81
478.783	134.81
479.002	153.81
479.22	151.81
479.439	133.81
479.658	121.81
479.876	120.81
480.095	106.81
480.313	117.81
480.532	121.81
480.751	126.81
480.969	93.81
481.188	89.81
481.406	106.81
481.624	91.81
481.843	82.81
482.061	96.81
482.28	106.81
482.498	108.81
482.717	106.81
482.935	120.81
483.153	127.81
483.372	139.81
483.59	140.81
483.808	140.81
484.027	135.81
484.245	147.81
484.463	153.81
484.681	151.81
484.9	135.81
485.118	143.81
485.336	131.81
485.554	119.81
485.772	98.81
485.99	108.81
486.209	127.81
486.427	112.81
486.645	127.81
486.863	141.81
487.081	144.81
487.299	136.81
487.517	145.81
487.735	161.81
487.953	191.81
488.171	185.81
488.389	169.81
488.607	165.81
488.825	144.81
489.043	144.81
489.261	130.81
489.479	134.81
489.696	144.81
489.914	138.81
490.132	155.81
490.35	186.81
490.568	157.81
490.786	151.81
491.003	170.81
491.221	161.81
491.439	185.81
491.657	192.81
491.874	191.81
492.092	217.81
492.31	237.81
492.527	219.81
492.745	187.81
492.963	189.81
493.18	188.81
493.398	200.81
493.615	188.81
493.833	178.81
494.05	171.81
494.268	163.81
494.485	169.81
494.703	165.81
494.92	171.81
495.138	171.81
495.355	153.81
495.573	167.81
495.79	159.81
496.008	178.81
496.225	165.81
496.442	163.81
496.66	171.81
496.877	168.81
497.094	157.81
497.312	164.81
497.529	149.81
497.746	153.81
497.963	137.81
498.181	127.81
498.398	121.81
498.615	131.81
498.832	107.81
499.049	130.81
499.267	133.81
499.484	122.81
499.701	147.81
499.918	135.81
500.135	133.81
500.352	139.81
500.569	133.81
500.786	143.81
501.003	138.81
501.22	138.81
501.437	126.81
501.654	138.81
501.871	137.81
502.088	129.81
502.305	130.81
502.522	127.81
502.739	128.81
502.956	142.81
503.172	120.81
503.389	119.81
503.606	127.81
503.823	121.81
504.04	126.81
504.256	127.81
504.473	121.81
504.69	111.81
504.907	143.81
505.123	132.81
505.34	130.81
505.557	127.81
505.773	131.81
505.99	128.81
506.207	133.81
506.423	131.81
506.64	129.81
506.856	111.81
507.073	122.81
507.289	127.81
507.506	123.81
507.722	126.81
507.939	112.81
508.155	113.81
508.372	129.81
508.588	112.81
508.805	118.81
509.021	106.81
509.238	117.81
509.454	93.81
509.67	79.81
509.887	116.81
510.103	110.81
510.319	89.81
510.536	95.81
510.752	89.81
510.968	98.81
