Data from 1970.PennyLincolnUp.Lamp.En5.5.200Scan.071719.P1._HRD10591_15-15-48-841.txt Node
Date: Thu Jul 18 15:15:48 EDT 2019
User: cochatt
Spectrometer: HR+D1059
Trigger mode: 1
Integration Time (sec): 1.000000E-1
Scans to average: 1
Electric dark correction enabled: true
Nonlinearity correction enabled: false
Boxcar width: 0
XAxis mode: Wavelengths
Number of Pixels in Spectrum: 2048
>>>>>Begin Spectral Data<<<<<
223.165	2.5
223.4	2.5
223.635	2.5
223.869	-8.5
224.104	-10.5
224.338	-13.5
224.573	3.5
224.808	-10.5
225.042	-16.5
225.277	-23.5
225.511	-19.5
225.746	9.5
225.98	-0.5
226.215	5.5
226.449	10.5
226.683	23.5
226.918	24.5
227.152	23.5
227.387	41.5
227.621	26.5
227.856	33.5
228.09	41.5
228.324	44.5
228.559	53.5
228.793	72.5
229.027	108.5
229.262	117.5
229.496	103.5
229.73	149.5
229.964	163.5
230.199	143.5
230.433	122.5
230.667	139.5
230.901	116.5
231.136	118.5
231.37	119.5
231.604	124.5
231.838	125.5
232.072	114.5
232.306	109.5
232.541	121.5
232.775	122.5
233.009	115.5
233.243	129.5
233.477	119.5
233.711	134.5
233.945	113.5
234.179	119.5
234.413	143.5
234.647	130.5
234.881	126.5
235.115	122.5
235.349	121.5
235.583	123.5
235.817	115.5
236.051	131.5
236.285	137.5
236.519	127.5
236.753	127.5
236.987	165.5
237.221	190.5
237.455	271.5
237.689	218.5
237.922	154.5
238.156	115.5
238.39	122.5
238.624	141.5
238.858	133.5
239.091	135.5
239.325	133.5
239.559	143.5
239.793	134.5
240.027	145.5
240.26	142.5
240.494	173.5
240.728	170.5
240.961	168.5
241.195	145.5
241.429	153.5
241.662	162.5
241.896	149.5
242.13	137.5
242.363	135.5
242.597	136.5
242.83	159.5
243.064	145.5
243.298	154.5
243.531	139.5
243.765	152.5
243.998	154.5
244.232	144.5
244.465	150.5
244.699	148.5
244.932	141.5
245.166	151.5
245.399	151.5
245.633	167.5
245.866	163.5
246.099	154.5
246.333	164.5
246.566	182.5
246.8	157.5
247.033	170.5
247.266	165.5
247.5	175.5
247.733	165.5
247.966	194.5
248.2	189.5
248.433	181.5
248.666	199.5
248.899	201.5
249.133	232.5
249.366	232.5
249.599	232.5
249.832	190.5
250.066	208.5
250.299	195.5
250.532	203.5
250.765	219.5
250.998	253.5
251.231	268.5
251.465	243.5
251.698	225.5
251.931	225.5
252.164	242.5
252.397	229.5
252.63	225.5
252.863	237.5
253.096	247.5
253.329	246.5
253.562	272.5
253.795	253.5
254.028	244.5
254.261	257.5
254.494	245.5
254.727	305.5
254.96	299.5
255.193	295.5
255.426	282.5
255.659	241.5
255.892	261.5
256.124	268.5
256.357	261.5
256.59	262.5
256.823	247.5
257.056	241.5
257.289	233.5
257.521	243.5
257.754	237.5
257.987	238.5
258.22	243.5
258.452	221.5
258.685	235.5
258.918	217.5
259.151	225.5
259.383	224.5
259.616	231.5
259.849	248.5
260.081	251.5
260.314	291.5
260.547	288.5
260.779	282.5
261.012	262.5
261.244	245.5
261.477	270.5
261.71	222.5
261.942	265.5
262.175	264.5
262.407	253.5
262.64	233.5
262.872	209.5
263.105	220.5
263.337	231.5
263.57	221.5
263.802	230.5
264.035	227.5
264.267	223.5
264.499	227.5
264.732	226.5
264.964	217.5
265.197	211.5
265.429	213.5
265.661	230.5
265.894	222.5
266.126	206.5
266.358	227.5
266.591	232.5
266.823	225.5
267.055	246.5
267.287	249.5
267.52	237.5
267.752	245.5
267.984	253.5
268.216	262.5
268.448	225.5
268.681	265.5
268.913	263.5
269.145	270.5
269.377	291.5
269.609	294.5
269.841	286.5
270.073	302.5
270.306	309.5
270.538	341.5
270.77	331.5
271.002	309.5
271.234	324.5
271.466	308.5
271.698	332.5
271.93	348.5
272.162	319.5
272.394	343.5
272.626	321.5
272.858	309.5
273.09	304.5
273.322	307.5
273.553	293.5
273.785	279.5
274.017	292.5
274.249	283.5
274.481	281.5
274.713	270.5
274.945	285.5
275.176	254.5
275.408	295.5
275.64	299.5
275.872	274.5
276.104	263.5
276.335	274.5
276.567	284.5
276.799	315.5
277.031	322.5
277.262	349.5
277.494	333.5
277.726	332.5
277.957	316.5
278.189	309.5
278.421	285.5
278.652	294.5
278.884	276.5
279.115	268.5
279.347	281.5
279.579	267.5
279.81	281.5
280.042	257.5
280.273	276.5
280.505	285.5
280.736	259.5
280.968	264.5
281.199	268.5
281.431	259.5
281.662	266.5
281.894	259.5
282.125	283.5
282.356	291.5
282.588	331.5
282.819	322.5
283.051	290.5
283.282	254.5
283.513	266.5
283.745	278.5
283.976	281.5
284.207	282.5
284.439	289.5
284.67	276.5
284.901	259.5
285.132	288.5
285.364	300.5
285.595	263.5
285.826	284.5
286.057	291.5
286.288	277.5
286.52	283.5
286.751	279.5
286.982	283.5
287.213	278.5
287.444	279.5
287.675	286.5
287.906	298.5
288.138	293.5
288.369	293.5
288.6	311.5
288.831	317.5
289.062	293.5
289.293	301.5
289.524	279.5
289.755	286.5
289.986	303.5
290.217	285.5
290.448	282.5
290.679	290.5
290.91	294.5
291.141	276.5
291.371	283.5
291.602	290.5
291.833	276.5
292.064	287.5
292.295	274.5
292.526	285.5
292.757	293.5
292.987	310.5
293.218	289.5
293.449	280.5
293.68	294.5
293.91	295.5
294.141	296.5
294.372	283.5
294.603	288.5
294.833	294.5
295.064	285.5
295.295	286.5
295.525	294.5
295.756	299.5
295.987	323.5
296.217	325.5
296.448	330.5
296.679	321.5
296.909	310.5
297.14	295.5
297.37	305.5
297.601	307.5
297.831	315.5
298.062	305.5
298.292	291.5
298.523	305.5
298.753	286.5
298.984	294.5
299.214	318.5
299.445	298.5
299.675	307.5
299.905	319.5
300.136	306.5
300.366	287.5
300.597	300.5
300.827	295.5
301.057	326.5
301.288	318.5
301.518	324.5
301.748	311.5
301.979	315.5
302.209	331.5
302.439	327.5
302.669	314.5
302.9	327.5
303.13	326.5
303.36	326.5
303.59	341.5
303.82	350.5
304.051	344.5
304.281	318.5
304.511	317.5
304.741	330.5
304.971	323.5
305.201	311.5
305.431	324.5
305.661	338.5
305.891	319.5
306.121	343.5
306.352	341.5
306.582	349.5
306.812	324.5
307.042	327.5
307.272	323.5
307.502	353.5
307.731	325.5
307.961	324.5
308.191	319.5
308.421	352.5
308.651	346.5
308.881	343.5
309.111	349.5
309.341	354.5
309.571	367.5
309.8	362.5
310.03	399.5
310.26	407.5
310.49	389.5
310.72	393.5
310.949	409.5
311.179	426.5
311.409	394.5
311.639	360.5
311.868	390.5
312.098	391.5
312.328	405.5
312.557	443.5
312.787	430.5
313.017	421.5
313.246	399.5
313.476	388.5
313.706	392.5
313.935	375.5
314.165	413.5
314.394	422.5
314.624	429.5
314.853	419.5
315.083	390.5
315.312	396.5
315.542	399.5
315.771	369.5
316.001	378.5
316.23	361.5
316.46	373.5
316.689	395.5
316.919	396.5
317.148	395.5
317.377	412.5
317.607	393.5
317.836	404.5
318.065	399.5
318.295	384.5
318.524	388.5
318.753	397.5
318.983	377.5
319.212	392.5
319.441	398.5
319.67	404.5
319.9	395.5
320.129	384.5
320.358	392.5
320.587	392.5
320.816	421.5
321.046	408.5
321.275	415.5
321.504	426.5
321.733	438.5
321.962	442.5
322.191	476.5
322.42	467.5
322.649	479.5
322.878	499.5
323.108	501.5
323.337	549.5
323.566	544.5
323.795	616.5
324.024	677.5
324.253	823.5
324.482	1187.5
324.71	1806.5
324.939	2606.5
325.168	2187.5
325.397	1191.5
325.626	776.5
325.855	626.5
326.084	600.5
326.313	579.5
326.542	575.5
326.77	641.5
326.999	775.5
327.228	1047.5
327.457	1569.5
327.686	1898.5
327.914	1354.5
328.143	875.5
328.372	778.5
328.6	725.5
328.829	653.5
329.058	669.5
329.287	693.5
329.515	643.5
329.744	559.5
329.972	567.5
330.201	625.5
330.43	667.5
330.658	680.5
330.887	723.5
331.115	682.5
331.344	587.5
331.572	539.5
331.801	554.5
332.03	564.5
332.258	523.5
332.486	486.5
332.715	475.5
332.943	460.5
333.172	477.5
333.4	481.5
333.629	486.5
333.857	513.5
334.085	522.5
334.314	563.5
334.542	578.5
334.771	627.5
334.999	551.5
335.227	508.5
335.455	471.5
335.684	465.5
335.912	479.5
336.14	450.5
336.369	479.5
336.597	468.5
336.825	478.5
337.053	451.5
337.281	481.5
337.51	440.5
337.738	457.5
337.966	458.5
338.194	470.5
338.422	473.5
338.65	461.5
338.878	460.5
339.106	439.5
339.334	446.5
339.562	436.5
339.79	439.5
340.018	414.5
340.246	437.5
340.474	439.5
340.702	451.5
340.93	440.5
341.158	444.5
341.386	454.5
341.614	437.5
341.842	442.5
342.07	453.5
342.298	431.5
342.526	430.5
342.754	440.5
342.981	419.5
343.209	438.5
343.437	422.5
343.665	422.5
343.893	462.5
344.12	448.5
344.348	474.5
344.576	449.5
344.804	470.5
345.031	461.5
345.259	474.5
345.487	511.5
345.714	458.5
345.942	440.5
346.17	439.5
346.397	435.5
346.625	430.5
346.853	417.5
347.08	446.5
347.308	457.5
347.535	462.5
347.763	455.5
347.99	460.5
348.218	463.5
348.445	485.5
348.673	466.5
348.9	448.5
349.128	441.5
349.355	419.5
349.583	433.5
349.81	442.5
350.037	396.5
350.265	418.5
350.492	410.5
350.72	439.5
350.947	449.5
351.174	438.5
351.402	468.5
351.629	481.5
351.856	468.5
352.083	481.5
352.311	436.5
352.538	470.5
352.765	454.5
352.992	466.5
353.22	478.5
353.447	439.5
353.674	423.5
353.901	425.5
354.128	421.5
354.355	403.5
354.583	423.5
354.81	409.5
355.037	411.5
355.264	414.5
355.491	406.5
355.718	399.5
355.945	427.5
356.172	391.5
356.399	398.5
356.626	386.5
356.853	403.5
357.08	388.5
357.307	413.5
357.534	395.5
357.761	415.5
357.988	429.5
358.215	406.5
358.441	419.5
358.668	410.5
358.895	417.5
359.122	444.5
359.349	423.5
359.576	452.5
359.802	451.5
360.029	523.5
360.256	540.5
360.483	507.5
360.709	451.5
360.936	458.5
361.163	446.5
361.39	462.5
361.616	462.5
361.843	453.5
362.07	462.5
362.296	458.5
362.523	455.5
362.749	455.5
362.976	453.5
363.203	414.5
363.429	428.5
363.656	426.5
363.882	427.5
364.109	425.5
364.335	437.5
364.562	428.5
364.788	437.5
365.015	438.5
365.241	440.5
365.468	440.5
365.694	438.5
365.92	449.5
366.147	450.5
366.373	410.5
366.599	426.5
366.826	421.5
367.052	439.5
367.278	416.5
367.505	437.5
367.731	430.5
367.957	425.5
368.184	425.5
368.41	419.5
368.636	448.5
368.862	446.5
369.089	427.5
369.315	417.5
369.541	404.5
369.767	410.5
369.993	417.5
370.219	419.5
370.445	430.5
370.672	425.5
370.898	410.5
371.124	409.5
371.35	417.5
371.576	412.5
371.802	434.5
372.028	396.5
372.254	409.5
372.48	413.5
372.706	435.5
372.932	413.5
373.158	425.5
373.384	418.5
373.61	418.5
373.835	427.5
374.061	417.5
374.287	419.5
374.513	434.5
374.739	443.5
374.965	443.5
375.191	424.5
375.416	410.5
375.642	421.5
375.868	419.5
376.094	430.5
376.319	442.5
376.545	433.5
376.771	410.5
376.997	410.5
377.222	411.5
377.448	421.5
377.674	415.5
377.899	420.5
378.125	415.5
378.35	427.5
378.576	408.5
378.802	406.5
379.027	421.5
379.253	420.5
379.478	418.5
379.704	424.5
379.929	423.5
380.155	423.5
380.38	421.5
380.606	426.5
380.831	429.5
381.057	439.5
381.282	414.5
381.507	425.5
381.733	422.5
381.958	420.5
382.184	427.5
382.409	431.5
382.634	430.5
382.86	439.5
383.085	419.5
383.31	452.5
383.535	435.5
383.761	441.5
383.986	449.5
384.211	431.5
384.436	435.5
384.662	444.5
384.887	432.5
385.112	442.5
385.337	438.5
385.562	439.5
385.787	445.5
386.013	449.5
386.238	453.5
386.463	480.5
386.688	446.5
386.913	443.5
387.138	457.5
387.363	464.5
387.588	430.5
387.813	464.5
388.038	445.5
388.263	458.5
388.488	453.5
388.713	455.5
388.938	466.5
389.163	443.5
389.387	462.5
389.612	457.5
389.837	466.5
390.062	462.5
390.287	438.5
390.512	433.5
390.736	464.5
390.961	460.5
391.186	455.5
391.411	472.5
391.636	463.5
391.86	474.5
392.085	442.5
392.31	445.5
392.534	459.5
392.759	465.5
392.984	466.5
393.208	459.5
393.433	453.5
393.658	471.5
393.882	459.5
394.107	444.5
394.331	461.5
394.556	444.5
394.78	451.5
395.005	469.5
395.229	439.5
395.454	449.5
395.678	469.5
395.903	470.5
396.127	499.5
396.352	512.5
396.576	486.5
396.801	481.5
397.025	490.5
397.249	475.5
397.474	494.5
397.698	499.5
397.922	509.5
398.147	522.5
398.371	537.5
398.595	513.5
398.82	510.5
399.044	519.5
399.268	520.5
399.492	552.5
399.717	572.5
399.941	583.5
400.165	632.5
400.389	618.5
400.613	604.5
400.837	554.5
401.062	543.5
401.286	513.5
401.51	535.5
401.734	520.5
401.958	511.5
402.182	536.5
402.406	549.5
402.63	550.5
402.854	562.5
403.078	541.5
403.302	519.5
403.526	548.5
403.75	550.5
403.974	538.5
404.198	542.5
404.422	560.5
404.645	552.5
404.869	570.5
405.093	601.5
405.317	647.5
405.541	681.5
405.765	613.5
405.988	606.5
406.212	611.5
406.436	635.5
406.66	635.5
406.883	611.5
407.107	635.5
407.331	677.5
407.555	735.5
407.778	764.5
408.002	665.5
408.226	608.5
408.449	593.5
408.673	627.5
408.896	650.5
409.12	678.5
409.344	659.5
409.567	586.5
409.791	567.5
410.014	565.5
410.238	543.5
410.461	563.5
410.685	570.5
410.908	586.5
411.132	629.5
411.355	641.5
411.578	614.5
411.802	577.5
412.025	572.5
412.249	581.5
412.472	603.5
412.695	631.5
412.919	622.5
413.142	587.5
413.365	546.5
413.589	540.5
413.812	536.5
414.035	527.5
414.258	545.5
414.482	517.5
414.705	513.5
414.928	520.5
415.151	507.5
415.374	501.5
415.597	501.5
415.821	513.5
416.044	518.5
416.267	521.5
416.49	525.5
416.713	518.5
416.936	524.5
417.159	522.5
417.382	521.5
417.605	525.5
417.828	531.5
418.051	548.5
418.274	558.5
418.497	527.5
418.72	523.5
418.943	531.5
419.166	561.5
419.389	571.5
419.611	573.5
419.834	567.5
420.057	572.5
420.28	569.5
420.503	584.5
420.726	563.5
420.948	579.5
421.171	629.5
421.394	650.5
421.617	563.5
421.839	559.5
422.062	578.5
422.285	573.5
422.507	654.5
422.73	721.5
422.953	706.5
423.175	615.5
423.398	590.5
423.621	602.5
423.843	637.5
424.066	622.5
424.288	617.5
424.511	652.5
424.733	709.5
424.956	808.5
425.178	766.5
425.401	758.5
425.623	779.5
425.846	687.5
426.068	622.5
426.291	612.5
426.513	621.5
426.735	618.5
426.958	681.5
427.18	759.5
427.402	901.5
427.625	987.5
427.847	892.5
428.069	803.5
428.292	693.5
428.514	667.5
428.736	620.5
428.958	595.5
429.181	581.5
429.403	591.5
429.625	591.5
429.847	628.5
430.069	709.5
430.292	685.5
430.514	598.5
430.736	581.5
430.958	562.5
431.18	545.5
431.402	527.5
431.624	555.5
431.846	525.5
432.068	540.5
432.29	547.5
432.512	539.5
432.734	540.5
432.956	568.5
433.178	550.5
433.4	566.5
433.622	547.5
433.844	537.5
434.066	535.5
434.287	533.5
434.509	540.5
434.731	551.5
434.953	562.5
435.175	575.5
435.397	582.5
435.618	630.5
435.84	679.5
436.062	757.5
436.284	833.5
436.505	703.5
436.727	635.5
436.949	613.5
437.17	588.5
437.392	599.5
437.614	604.5
437.835	641.5
438.057	749.5
438.278	867.5
438.5	846.5
438.721	895.5
438.943	887.5
439.165	741.5
439.386	697.5
439.608	635.5
439.829	642.5
440.05	695.5
440.272	737.5
440.493	687.5
440.715	612.5
440.936	594.5
441.158	590.5
441.379	586.5
441.6	580.5
441.822	629.5
442.043	648.5
442.264	763.5
442.486	804.5
442.707	701.5
442.928	632.5
443.149	673.5
443.371	685.5
443.592	725.5
443.813	813.5
444.034	860.5
444.255	718.5
444.476	648.5
444.698	617.5
444.919	621.5
445.14	738.5
445.361	721.5
445.582	684.5
445.803	743.5
446.024	855.5
446.245	875.5
446.466	807.5
446.687	711.5
446.908	649.5
447.129	601.5
447.35	591.5
447.571	566.5
447.792	580.5
448.013	583.5
448.234	619.5
448.455	676.5
448.675	801.5
448.896	891.5
449.117	763.5
449.338	735.5
449.559	839.5
449.779	938.5
450	747.5
450.221	657.5
450.442	600.5
450.662	584.5
450.883	596.5
451.104	617.5
451.324	588.5
451.545	567.5
451.766	555.5
451.986	535.5
452.207	501.5
452.428	526.5
452.648	510.5
452.869	543.5
453.089	552.5
453.31	539.5
453.53	541.5
453.751	518.5
453.971	522.5
454.192	581.5
454.412	541.5
454.633	525.5
454.853	531.5
455.073	529.5
455.294	573.5
455.514	618.5
455.734	615.5
455.955	540.5
456.175	504.5
456.395	502.5
456.616	507.5
456.836	481.5
457.056	509.5
457.276	466.5
457.497	483.5
457.717	485.5
457.937	512.5
458.157	504.5
458.377	505.5
458.598	531.5
458.818	617.5
459.038	726.5
459.258	745.5
459.478	614.5
459.698	537.5
459.918	549.5
460.138	538.5
460.358	553.5
460.578	551.5
460.798	564.5
461.018	543.5
461.238	534.5
461.458	529.5
461.678	525.5
461.898	525.5
462.118	514.5
462.338	537.5
462.558	541.5
462.777	545.5
462.997	553.5
463.217	563.5
463.437	551.5
463.657	563.5
463.876	570.5
464.096	553.5
464.316	553.5
464.536	556.5
464.755	573.5
464.975	589.5
465.195	623.5
465.414	750.5
465.634	662.5
465.854	583.5
466.073	565.5
466.293	562.5
466.512	532.5
466.732	530.5
466.951	533.5
467.171	533.5
467.391	538.5
467.61	553.5
467.829	583.5
468.049	560.5
468.268	549.5
468.488	545.5
468.707	533.5
468.927	553.5
469.146	513.5
469.365	509.5
469.585	517.5
469.804	538.5
470.023	545.5
470.243	543.5
470.462	539.5
470.681	566.5
470.901	559.5
471.12	561.5
471.339	550.5
471.558	541.5
471.777	571.5
471.997	532.5
472.216	561.5
472.435	598.5
472.654	581.5
472.873	571.5
473.092	550.5
473.311	553.5
473.53	546.5
473.749	546.5
473.968	600.5
474.187	737.5
474.406	729.5
474.625	642.5
474.844	583.5
475.063	554.5
475.282	574.5
475.501	561.5
475.72	548.5
475.939	554.5
476.158	560.5
476.377	574.5
476.596	570.5
476.814	545.5
477.033	577.5
477.252	587.5
477.471	549.5
477.69	579.5
477.908	573.5
478.127	570.5
478.346	579.5
478.564	591.5
478.783	585.5
479.002	597.5
479.22	606.5
479.439	642.5
479.658	661.5
479.876	643.5
480.095	656.5
480.313	687.5
480.532	670.5
480.751	652.5
480.969	690.5
481.188	757.5
481.406	847.5
481.624	728.5
481.843	674.5
482.061	677.5
482.28	664.5
482.498	655.5
482.717	677.5
482.935	655.5
483.153	664.5
483.372	651.5
483.59	630.5
483.808	626.5
484.027	644.5
484.245	633.5
484.463	673.5
484.681	670.5
484.9	678.5
485.118	647.5
485.336	641.5
485.554	665.5
485.772	659.5
485.99	658.5
486.209	671.5
486.427	695.5
486.645	675.5
486.863	684.5
487.081	694.5
487.299	683.5
487.517	697.5
487.735	711.5
487.953	684.5
488.171	705.5
488.389	707.5
488.607	690.5
488.825	708.5
489.043	708.5
489.261	723.5
489.479	684.5
489.696	700.5
489.914	715.5
490.132	738.5
490.35	736.5
490.568	746.5
490.786	777.5
491.003	757.5
491.221	769.5
491.439	781.5
491.657	817.5
491.874	817.5
492.092	829.5
492.31	809.5
492.527	814.5
492.745	817.5
492.963	829.5
493.18	843.5
493.398	849.5
493.615	839.5
493.833	856.5
494.05	853.5
494.268	848.5
494.485	845.5
494.703	808.5
494.92	844.5
495.138	858.5
495.355	854.5
495.573	849.5
495.79	814.5
496.008	833.5
496.225	862.5
496.442	831.5
496.66	832.5
496.877	854.5
497.094	838.5
497.312	879.5
497.529	857.5
497.746	867.5
497.963	876.5
498.181	915.5
498.398	896.5
498.615	911.5
498.832	945.5
499.049	920.5
499.267	933.5
499.484	945.5
499.701	957.5
499.918	965.5
500.135	1031.5
500.352	1062.5
500.569	1035.5
500.786	1047.5
501.003	1049.5
501.22	1029.5
501.437	1029.5
501.654	1011.5
501.871	1029.5
502.088	987.5
502.305	924.5
502.522	917.5
502.739	925.5
502.956	899.5
503.172	886.5
503.389	878.5
503.606	889.5
503.823	866.5
504.04	864.5
504.256	849.5
504.473	840.5
504.69	823.5
504.907	842.5
505.123	828.5
505.34	841.5
505.557	839.5
505.773	823.5
505.99	826.5
506.207	805.5
506.423	820.5
506.64	839.5
506.856	824.5
507.073	813.5
507.289	778.5
507.506	824.5
507.722	825.5
507.939	849.5
508.155	806.5
508.372	779.5
508.588	776.5
508.805	783.5
509.021	782.5
509.238	787.5
509.454	811.5
509.67	799.5
509.887	809.5
510.103	787.5
510.319	803.5
510.536	942.5
510.752	1587.5
510.968	1286.5
511.184	829.5
511.401	784.5
511.617	793.5
511.833	771.5
512.049	754.5
512.265	754.5
512.481	756.5
512.698	756.5
512.914	769.5
513.13	743.5
513.346	725.5
513.562	739.5
513.778	769.5
513.994	782.5
514.21	778.5
514.426	804.5
514.642	887.5
514.858	882.5
515.074	955.5
515.29	1150.5
515.506	1793.5
515.721	1446.5
515.937	948.5
516.153	860.5
516.369	785.5
516.585	799.5
516.801	765.5
517.016	758.5
517.232	746.5
517.448	745.5
517.664	749.5
517.879	732.5
518.095	758.5
518.311	759.5
518.527	745.5
518.742	728.5
518.958	745.5
519.173	729.5
519.389	729.5
519.605	732.5
