Data from 1970.PennyLincolnUp.Lamp.En5.5.200Scan.071719.P1._HRD10591_15-15-18-841.txt Node
Date: Thu Jul 18 15:15:18 EDT 2019
User: cochatt
Spectrometer: HR+D1059
Trigger mode: 1
Integration Time (sec): 1.000000E-1
Scans to average: 1
Electric dark correction enabled: true
Nonlinearity correction enabled: false
Boxcar width: 0
XAxis mode: Wavelengths
Number of Pixels in Spectrum: 2048
>>>>>Begin Spectral Data<<<<<
223.165	-6.31
223.4	-6.31
223.635	-6.31
223.869	-16.31
224.104	-21.31
224.338	-18.31
224.573	-19.31
224.808	2.69
225.042	-5.31
225.277	-10.31
225.511	-6.31
225.746	-4.31
225.98	13.69
226.215	17.69
226.449	-1.31
226.683	17.69
226.918	21.69
227.152	35.69
227.387	19.69
227.621	40.69
227.856	44.69
228.09	39.69
228.324	38.69
228.559	58.69
228.793	95.69
229.027	118.69
229.262	128.69
229.496	137.69
229.73	175.69
229.964	188.69
230.199	144.69
230.433	115.69
230.667	123.69
230.901	125.69
231.136	119.69
231.37	116.69
231.604	129.69
231.838	136.69
232.072	122.69
232.306	127.69
232.541	112.69
232.775	117.69
233.009	121.69
233.243	113.69
233.477	116.69
233.711	118.69
233.945	124.69
234.179	124.69
234.413	124.69
234.647	118.69
234.881	121.69
235.115	118.69
235.349	133.69
235.583	130.69
235.817	115.69
236.051	131.69
236.285	140.69
236.519	130.69
236.753	140.69
236.987	161.69
237.221	232.69
237.455	276.69
237.689	231.69
237.922	173.69
238.156	145.69
238.39	152.69
238.624	137.69
238.858	120.69
239.091	140.69
239.325	133.69
239.559	146.69
239.793	140.69
240.027	160.69
240.26	151.69
240.494	177.69
240.728	168.69
240.961	168.69
241.195	164.69
241.429	165.69
241.662	158.69
241.896	156.69
242.13	156.69
242.363	152.69
242.597	146.69
242.83	161.69
243.064	162.69
243.298	143.69
243.531	149.69
243.765	152.69
243.998	144.69
244.232	154.69
244.465	147.69
244.699	169.69
244.932	171.69
245.166	164.69
245.399	157.69
245.633	175.69
245.866	165.69
246.099	174.69
246.333	176.69
246.566	174.69
246.8	159.69
247.033	163.69
247.266	182.69
247.5	192.69
247.733	169.69
247.966	189.69
248.2	194.69
248.433	188.69
248.666	202.69
248.899	178.69
249.133	205.69
249.366	239.69
249.599	208.69
249.832	213.69
250.066	206.69
250.299	229.69
250.532	216.69
250.765	232.69
250.998	268.69
251.231	272.69
251.465	238.69
251.698	236.69
251.931	224.69
252.164	227.69
252.397	213.69
252.63	215.69
252.863	249.69
253.096	242.69
253.329	260.69
253.562	266.69
253.795	249.69
254.028	244.69
254.261	234.69
254.494	251.69
254.727	296.69
254.96	318.69
255.193	329.69
255.426	309.69
255.659	291.69
255.892	251.69
256.124	260.69
256.357	265.69
256.59	264.69
256.823	245.69
257.056	230.69
257.289	234.69
257.521	224.69
257.754	246.69
257.987	231.69
258.22	230.69
258.452	239.69
258.685	240.69
258.918	227.69
259.151	238.69
259.383	255.69
259.616	248.69
259.849	240.69
260.081	260.69
260.314	285.69
260.547	294.69
260.779	265.69
261.012	259.69
261.244	264.69
261.477	256.69
261.71	253.69
261.942	250.69
262.175	245.69
262.407	263.69
262.64	223.69
262.872	221.69
263.105	235.69
263.337	246.69
263.57	233.69
263.802	224.69
264.035	236.69
264.267	220.69
264.499	241.69
264.732	233.69
264.964	242.69
265.197	219.69
265.429	231.69
265.661	214.69
265.894	232.69
266.126	225.69
266.358	253.69
266.591	236.69
266.823	239.69
267.055	264.69
267.287	236.69
267.52	233.69
267.752	240.69
267.984	233.69
268.216	246.69
268.448	267.69
268.681	247.69
268.913	270.69
269.145	284.69
269.377	304.69
269.609	286.69
269.841	285.69
270.073	296.69
270.306	302.69
270.538	339.69
270.77	353.69
271.002	336.69
271.234	333.69
271.466	333.69
271.698	345.69
271.93	350.69
272.162	343.69
272.394	354.69
272.626	330.69
272.858	315.69
273.09	302.69
273.322	301.69
273.553	283.69
273.785	279.69
274.017	283.69
274.249	282.69
274.481	281.69
274.713	278.69
274.945	281.69
275.176	279.69
275.408	283.69
275.64	284.69
275.872	281.69
276.104	299.69
276.335	294.69
276.567	299.69
276.799	288.69
277.031	352.69
277.262	359.69
277.494	347.69
277.726	325.69
277.957	327.69
278.189	299.69
278.421	283.69
278.652	283.69
278.884	310.69
279.115	286.69
279.347	280.69
279.579	280.69
279.81	281.69
280.042	272.69
280.273	295.69
280.505	281.69
280.736	284.69
280.968	278.69
281.199	266.69
281.431	271.69
281.662	260.69
281.894	276.69
282.125	282.69
282.356	289.69
282.588	315.69
282.819	328.69
283.051	292.69
283.282	279.69
283.513	283.69
283.745	308.69
283.976	282.69
284.207	280.69
284.439	296.69
284.67	307.69
284.901	280.69
285.132	296.69
285.364	275.69
285.595	296.69
285.826	288.69
286.057	272.69
286.288	276.69
286.52	299.69
286.751	278.69
286.982	278.69
287.213	300.69
287.444	308.69
287.675	285.69
287.906	298.69
288.138	318.69
288.369	312.69
288.6	302.69
288.831	318.69
289.062	309.69
289.293	295.69
289.524	288.69
289.755	299.69
289.986	277.69
290.217	297.69
290.448	285.69
290.679	312.69
290.91	294.69
291.141	282.69
291.371	290.69
291.602	297.69
291.833	288.69
292.064	285.69
292.295	298.69
292.526	295.69
292.757	291.69
292.987	292.69
293.218	296.69
293.449	282.69
293.68	291.69
293.91	298.69
294.141	292.69
294.372	298.69
294.603	295.69
294.833	308.69
295.064	294.69
295.295	314.69
295.525	325.69
295.756	300.69
295.987	313.69
296.217	344.69
296.448	353.69
296.679	314.69
296.909	299.69
297.14	306.69
297.37	304.69
297.601	294.69
297.831	316.69
298.062	307.69
298.292	325.69
298.523	302.69
298.753	313.69
298.984	321.69
299.214	312.69
299.445	308.69
299.675	300.69
299.905	318.69
300.136	323.69
300.366	313.69
300.597	325.69
300.827	316.69
301.057	338.69
301.288	346.69
301.518	322.69
301.748	312.69
301.979	333.69
302.209	336.69
302.439	336.69
302.669	332.69
302.9	325.69
303.13	311.69
303.36	338.69
303.59	343.69
303.82	346.69
304.051	345.69
304.281	309.69
304.511	312.69
304.741	340.69
304.971	314.69
305.201	343.69
305.431	327.69
305.661	335.69
305.891	324.69
306.121	326.69
306.352	338.69
306.582	335.69
306.812	346.69
307.042	328.69
307.272	344.69
307.502	354.69
307.731	335.69
307.961	341.69
308.191	354.69
308.421	334.69
308.651	367.69
308.881	355.69
309.111	353.69
309.341	348.69
309.571	370.69
309.8	382.69
310.03	380.69
310.26	411.69
310.49	400.69
310.72	384.69
310.949	417.69
311.179	430.69
311.409	414.69
311.639	418.69
311.868	397.69
312.098	396.69
312.328	401.69
312.557	431.69
312.787	416.69
313.017	416.69
313.246	423.69
313.476	401.69
313.706	395.69
313.935	398.69
314.165	418.69
314.394	427.69
314.624	400.69
314.853	388.69
315.083	394.69
315.312	405.69
315.542	378.69
315.771	393.69
316.001	389.69
316.23	387.69
316.46	388.69
316.689	382.69
316.919	377.69
317.148	425.69
317.377	399.69
317.607	380.69
317.836	411.69
318.065	401.69
318.295	402.69
318.524	385.69
318.753	389.69
318.983	396.69
319.212	400.69
319.441	399.69
319.67	424.69
319.9	402.69
320.129	389.69
320.358	398.69
320.587	401.69
320.816	424.69
321.046	436.69
321.275	412.69
321.504	402.69
321.733	440.69
321.962	424.69
322.191	420.69
322.42	469.69
322.649	486.69
322.878	490.69
323.108	504.69
323.337	522.69
323.566	578.69
323.795	616.69
324.024	662.69
324.253	798.69
324.482	1149.69
324.71	1785.69
324.939	2562.69
325.168	2213.69
325.397	1162.69
325.626	779.69
325.855	637.69
326.084	574.69
326.313	561.69
326.542	570.69
326.77	624.69
326.999	740.69
327.228	1034.69
327.457	1556.69
327.686	1880.69
327.914	1294.69
328.143	861.69
328.372	757.69
328.6	695.69
328.829	644.69
329.058	651.69
329.287	668.69
329.515	613.69
329.744	582.69
329.972	557.69
330.201	603.69
330.43	658.69
330.658	696.69
330.887	716.69
331.115	672.69
331.344	590.69
331.572	545.69
331.801	548.69
332.03	533.69
332.258	508.69
332.486	502.69
332.715	452.69
332.943	477.69
333.172	484.69
333.4	469.69
333.629	503.69
333.857	500.69
334.085	517.69
334.314	533.69
334.542	577.69
334.771	606.69
334.999	550.69
335.227	519.69
335.455	478.69
335.684	498.69
335.912	474.69
336.14	473.69
336.369	472.69
336.597	482.69
336.825	487.69
337.053	470.69
337.281	465.69
337.51	470.69
337.738	447.69
337.966	436.69
338.194	451.69
338.422	457.69
338.65	470.69
338.878	462.69
339.106	454.69
339.334	463.69
339.562	449.69
339.79	436.69
340.018	444.69
340.246	448.69
340.474	465.69
340.702	461.69
340.93	465.69
341.158	446.69
341.386	455.69
341.614	456.69
341.842	473.69
342.07	438.69
342.298	447.69
342.526	466.69
342.754	427.69
342.981	428.69
343.209	431.69
343.437	454.69
343.665	451.69
343.893	431.69
344.12	452.69
344.348	454.69
344.576	462.69
344.804	445.69
345.031	466.69
345.259	496.69
345.487	475.69
345.714	472.69
345.942	442.69
346.17	458.69
346.397	441.69
346.625	452.69
346.853	449.69
347.08	437.69
347.308	439.69
347.535	475.69
347.763	467.69
347.99	445.69
348.218	479.69
348.445	478.69
348.673	476.69
348.9	465.69
349.128	444.69
349.355	444.69
349.583	416.69
349.81	436.69
350.037	436.69
350.265	449.69
350.492	432.69
350.72	449.69
350.947	456.69
351.174	469.69
351.402	462.69
351.629	468.69
351.856	481.69
352.083	478.69
352.311	458.69
352.538	469.69
352.765	465.69
352.992	465.69
353.22	447.69
353.447	429.69
353.674	452.69
353.901	426.69
354.128	432.69
354.355	424.69
354.583	422.69
354.81	419.69
355.037	424.69
355.264	402.69
355.491	406.69
355.718	409.69
355.945	394.69
356.172	409.69
356.399	413.69
356.626	413.69
356.853	438.69
357.08	388.69
357.307	404.69
357.534	419.69
357.761	390.69
357.988	434.69
358.215	423.69
358.441	401.69
358.668	408.69
358.895	425.69
359.122	431.69
359.349	447.69
359.576	458.69
359.802	474.69
360.029	518.69
360.256	532.69
360.483	518.69
360.709	454.69
360.936	461.69
361.163	467.69
361.39	460.69
361.616	458.69
361.843	441.69
362.07	460.69
362.296	470.69
362.523	453.69
362.749	448.69
362.976	441.69
363.203	437.69
363.429	443.69
363.656	448.69
363.882	437.69
364.109	449.69
364.335	452.69
364.562	440.69
364.788	418.69
365.015	436.69
365.241	440.69
365.468	449.69
365.694	457.69
365.92	451.69
366.147	440.69
366.373	431.69
366.599	425.69
366.826	423.69
367.052	446.69
367.278	427.69
367.505	428.69
367.731	421.69
367.957	434.69
368.184	432.69
368.41	455.69
368.636	462.69
368.862	465.69
369.089	452.69
369.315	423.69
369.541	438.69
369.767	416.69
369.993	424.69
370.219	438.69
370.445	445.69
370.672	440.69
370.898	431.69
371.124	427.69
371.35	437.69
371.576	434.69
371.802	436.69
372.028	428.69
372.254	430.69
372.48	414.69
372.706	398.69
372.932	428.69
373.158	406.69
373.384	431.69
373.61	434.69
373.835	429.69
374.061	436.69
374.287	418.69
374.513	436.69
374.739	451.69
374.965	435.69
375.191	437.69
375.416	431.69
375.642	448.69
375.868	438.69
376.094	432.69
376.319	425.69
376.545	418.69
376.771	441.69
376.997	433.69
377.222	420.69
377.448	413.69
377.674	429.69
377.899	424.69
378.125	412.69
378.35	435.69
378.576	408.69
378.802	428.69
379.027	441.69
379.253	452.69
379.478	433.69
379.704	440.69
379.929	420.69
380.155	453.69
380.38	438.69
380.606	429.69
380.831	424.69
381.057	437.69
381.282	439.69
381.507	438.69
381.733	440.69
381.958	440.69
382.184	436.69
382.409	421.69
382.634	453.69
382.86	434.69
383.085	428.69
383.31	441.69
383.535	438.69
383.761	448.69
383.986	458.69
384.211	461.69
384.436	436.69
384.662	438.69
384.887	442.69
385.112	458.69
385.337	483.69
385.562	457.69
385.787	460.69
386.013	475.69
386.238	480.69
386.463	481.69
386.688	466.69
386.913	455.69
387.138	466.69
387.363	478.69
387.588	453.69
387.813	473.69
388.038	468.69
388.263	473.69
388.488	465.69
388.713	484.69
388.938	465.69
389.163	457.69
389.387	464.69
389.612	462.69
389.837	472.69
390.062	448.69
390.287	474.69
390.512	457.69
390.736	459.69
390.961	455.69
391.186	475.69
391.411	472.69
391.636	465.69
391.86	470.69
392.085	485.69
392.31	447.69
392.534	461.69
392.759	469.69
392.984	465.69
393.208	466.69
393.433	493.69
393.658	462.69
393.882	459.69
394.107	465.69
394.331	460.69
394.556	472.69
394.78	464.69
395.005	460.69
395.229	474.69
395.454	472.69
395.678	489.69
395.903	493.69
396.127	505.69
396.352	525.69
396.576	487.69
396.801	477.69
397.025	503.69
397.249	490.69
397.474	495.69
397.698	496.69
397.922	523.69
398.147	520.69
398.371	539.69
398.595	535.69
398.82	519.69
399.044	533.69
399.268	531.69
399.492	546.69
399.717	605.69
399.941	612.69
400.165	617.69
400.389	661.69
400.613	600.69
400.837	578.69
401.062	574.69
401.286	548.69
401.51	520.69
401.734	543.69
401.958	543.69
402.182	562.69
402.406	562.69
402.63	584.69
402.854	534.69
403.078	536.69
403.302	559.69
403.526	546.69
403.75	550.69
403.974	558.69
404.198	542.69
404.422	581.69
404.645	550.69
404.869	573.69
405.093	630.69
405.317	661.69
405.541	687.69
405.765	615.69
405.988	599.69
406.212	586.69
406.436	634.69
406.66	662.69
406.883	625.69
407.107	648.69
407.331	689.69
407.555	752.69
407.778	758.69
408.002	681.69
408.226	638.69
408.449	639.69
408.673	633.69
408.896	653.69
409.12	693.69
409.344	672.69
409.567	600.69
409.791	576.69
410.014	556.69
410.238	566.69
410.461	549.69
410.685	566.69
410.908	576.69
411.132	646.69
411.355	670.69
411.578	652.69
411.802	565.69
412.025	568.69
412.249	555.69
412.472	605.69
412.695	669.69
412.919	652.69
413.142	596.69
413.365	557.69
413.589	576.69
413.812	551.69
414.035	533.69
414.258	544.69
414.482	538.69
414.705	533.69
414.928	528.69
415.151	528.69
415.374	533.69
415.597	546.69
415.821	534.69
416.044	561.69
416.267	542.69
416.49	565.69
416.713	538.69
416.936	526.69
417.159	540.69
417.382	554.69
417.605	568.69
417.828	568.69
418.051	572.69
418.274	552.69
418.497	562.69
418.72	539.69
418.943	533.69
419.166	560.69
419.389	575.69
419.611	590.69
419.834	582.69
420.057	576.69
420.28	581.69
420.503	561.69
420.726	582.69
420.948	595.69
421.171	639.69
421.394	650.69
421.617	608.69
421.839	604.69
422.062	583.69
422.285	604.69
422.507	650.69
422.73	730.69
422.953	724.69
423.175	628.69
423.398	592.69
423.621	612.69
423.843	616.69
424.066	641.69
424.288	642.69
424.511	641.69
424.733	709.69
424.956	793.69
425.178	766.69
425.401	762.69
425.623	782.69
425.846	668.69
426.068	644.69
426.291	632.69
426.513	647.69
426.735	629.69
426.958	692.69
427.18	775.69
427.402	922.69
427.625	998.69
427.847	932.69
428.069	781.69
428.292	714.69
428.514	658.69
428.736	640.69
428.958	631.69
429.181	598.69
429.403	601.69
429.625	600.69
429.847	634.69
430.069	718.69
430.292	728.69
430.514	625.69
430.736	571.69
430.958	581.69
431.18	562.69
431.402	555.69
431.624	548.69
431.846	552.69
432.068	541.69
432.29	550.69
432.512	553.69
432.734	567.69
432.956	569.69
433.178	546.69
433.4	563.69
433.622	558.69
433.844	545.69
434.066	561.69
434.287	548.69
434.509	547.69
434.731	560.69
434.953	561.69
435.175	598.69
435.397	628.69
435.618	640.69
435.84	681.69
436.062	782.69
436.284	880.69
436.505	751.69
436.727	639.69
436.949	617.69
437.17	588.69
437.392	594.69
437.614	616.69
437.835	652.69
438.057	775.69
438.278	868.69
438.5	873.69
438.721	928.69
438.943	896.69
439.165	740.69
439.386	687.69
439.608	680.69
439.829	652.69
440.05	684.69
440.272	734.69
440.493	712.69
440.715	663.69
440.936	607.69
441.158	614.69
441.379	597.69
441.6	595.69
441.822	646.69
442.043	709.69
442.264	784.69
442.486	807.69
442.707	683.69
442.928	650.69
443.149	658.69
443.371	696.69
443.592	732.69
443.813	824.69
444.034	924.69
444.255	748.69
444.476	640.69
444.698	640.69
444.919	624.69
445.14	721.69
445.361	684.69
445.582	668.69
445.803	749.69
446.024	876.69
446.245	887.69
446.466	817.69
446.687	696.69
446.908	650.69
447.129	638.69
447.35	598.69
447.571	616.69
447.792	597.69
448.013	607.69
448.234	625.69
448.455	690.69
448.675	812.69
448.896	913.69
449.117	810.69
449.338	753.69
449.559	864.69
449.779	948.69
450	784.69
450.221	622.69
450.442	623.69
450.662	598.69
450.883	587.69
451.104	621.69
451.324	613.69
451.545	580.69
451.766	570.69
451.986	544.69
452.207	539.69
452.428	537.69
452.648	531.69
452.869	557.69
453.089	545.69
453.31	560.69
453.53	543.69
453.751	543.69
453.971	538.69
454.192	579.69
454.412	556.69
454.633	538.69
454.853	521.69
455.073	525.69
455.294	564.69
455.514	652.69
455.734	615.69
455.955	542.69
456.175	536.69
456.395	506.69
456.616	484.69
456.836	501.69
457.056	484.69
457.276	488.69
457.497	494.69
457.717	488.69
457.937	510.69
458.157	506.69
458.377	524.69
458.598	526.69
458.818	590.69
459.038	720.69
459.258	730.69
459.478	603.69
459.698	540.69
459.918	564.69
460.138	549.69
460.358	559.69
460.578	547.69
460.798	536.69
461.018	554.69
461.238	570.69
461.458	534.69
461.678	550.69
461.898	551.69
462.118	525.69
462.338	532.69
462.558	566.69
462.777	542.69
462.997	556.69
463.217	579.69
463.437	584.69
463.657	593.69
463.876	566.69
464.096	568.69
464.316	568.69
464.536	583.69
464.755	575.69
464.975	606.69
465.195	631.69
465.414	742.69
465.634	650.69
465.854	590.69
466.073	582.69
466.293	537.69
466.512	535.69
466.732	541.69
466.951	552.69
467.171	555.69
467.391	557.69
467.61	562.69
467.829	566.69
468.049	569.69
468.268	547.69
468.488	536.69
468.707	537.69
468.927	525.69
469.146	529.69
469.365	521.69
469.585	526.69
469.804	551.69
470.023	564.69
470.243	542.69
470.462	559.69
470.681	578.69
470.901	563.69
471.12	555.69
471.339	559.69
471.558	570.69
471.777	555.69
471.997	542.69
472.216	530.69
472.435	598.69
472.654	573.69
472.873	544.69
473.092	531.69
473.311	529.69
473.53	561.69
473.749	586.69
473.968	602.69
474.187	725.69
474.406	770.69
474.625	644.69
474.844	572.69
475.063	562.69
475.282	574.69
475.501	557.69
475.72	553.69
475.939	567.69
476.158	567.69
476.377	587.69
476.596	576.69
476.814	573.69
477.033	583.69
477.252	603.69
477.471	592.69
477.69	584.69
477.908	595.69
478.127	617.69
478.346	578.69
478.564	609.69
478.783	590.69
479.002	617.69
479.22	596.69
479.439	606.69
479.658	634.69
479.876	676.69
480.095	664.69
480.313	705.69
480.532	697.69
480.751	698.69
480.969	685.69
481.188	781.69
481.406	835.69
481.624	720.69
481.843	717.69
482.061	694.69
482.28	664.69
482.498	659.69
482.717	638.69
482.935	646.69
483.153	660.69
483.372	662.69
483.59	681.69
483.808	648.69
484.027	659.69
484.245	656.69
484.463	660.69
484.681	692.69
484.9	651.69
485.118	650.69
485.336	687.69
485.554	676.69
485.772	664.69
485.99	665.69
486.209	688.69
486.427	664.69
486.645	700.69
486.863	717.69
487.081	723.69
487.299	703.69
487.517	714.69
487.735	711.69
487.953	733.69
488.171	719.69
488.389	717.69
488.607	700.69
488.825	705.69
489.043	733.69
489.261	716.69
489.479	741.69
489.696	738.69
489.914	737.69
490.132	729.69
490.35	740.69
490.568	761.69
490.786	750.69
491.003	778.69
491.221	791.69
491.439	826.69
491.657	814.69
491.874	857.69
492.092	833.69
492.31	845.69
492.527	855.69
492.745	858.69
492.963	853.69
493.18	817.69
493.398	847.69
493.615	871.69
493.833	827.69
494.05	847.69
494.268	863.69
494.485	855.69
494.703	884.69
494.92	874.69
495.138	846.69
495.355	868.69
495.573	867.69
495.79	862.69
496.008	866.69
496.225	868.69
496.442	869.69
496.66	863.69
496.877	862.69
497.094	870.69
497.312	858.69
497.529	861.69
497.746	884.69
497.963	894.69
498.181	893.69
498.398	906.69
498.615	927.69
498.832	926.69
499.049	937.69
499.267	921.69
499.484	944.69
499.701	998.69
499.918	1005.69
500.135	1030.69
500.352	1043.69
500.569	1050.69
500.786	1049.69
501.003	1061.69
501.22	1050.69
501.437	1042.69
501.654	1024.69
