Data from 1970.PennyLincolnUp.Lamp.En5.5.200Scan.071719.P1._HRD10591_15-12-52-844.txt Node
Date: Thu Jul 18 15:12:52 EDT 2019
User: cochatt
Spectrometer: HR+D1059
Trigger mode: 1
Integration Time (sec): 1.000000E-1
Scans to average: 1
Electric dark correction enabled: true
Nonlinearity correction enabled: false
Boxcar width: 0
XAxis mode: Wavelengths
Number of Pixels in Spectrum: 2048
>>>>>Begin Spectral Data<<<<<
223.165	-15.56
223.4	-15.56
223.635	-15.56
223.869	-9.56
224.104	-29.56
224.338	-11.56
224.573	-6.56
224.808	-1.56
225.042	-19.56
225.277	-10.56
225.511	6.44
225.746	14.44
225.98	13.44
226.215	7.44
226.449	5.44
226.683	-0.56
226.918	16.44
227.152	41.44
227.387	39.44
227.621	41.44
227.856	45.44
228.09	49.44
228.324	41.44
228.559	54.44
228.793	63.44
229.027	80.44
229.262	81.44
229.496	81.44
229.73	81.44
229.964	92.44
230.199	82.44
230.433	97.44
230.667	86.44
230.901	86.44
231.136	76.44
231.37	86.44
231.604	95.44
231.838	103.44
232.072	73.44
232.306	97.44
232.541	88.44
232.775	93.44
233.009	99.44
233.243	108.44
233.477	98.44
233.711	91.44
233.945	83.44
234.179	98.44
234.413	105.44
234.647	94.44
234.881	83.44
235.115	98.44
235.349	98.44
235.583	95.44
235.817	82.44
236.051	93.44
236.285	101.44
236.519	95.44
236.753	85.44
236.987	102.44
237.221	103.44
237.455	111.44
237.689	97.44
237.922	96.44
238.156	107.44
238.39	103.44
238.624	87.44
238.858	95.44
239.091	90.44
239.325	104.44
239.559	96.44
239.793	88.44
240.027	81.44
240.26	96.44
240.494	92.44
240.728	86.44
240.961	95.44
241.195	83.44
241.429	86.44
241.662	82.44
241.896	71.44
242.13	85.44
242.363	98.44
242.597	91.44
242.83	86.44
243.064	83.44
243.298	101.44
243.531	106.44
243.765	95.44
243.998	88.44
244.232	94.44
244.465	105.44
244.699	102.44
244.932	118.44
245.166	98.44
245.399	98.44
245.633	98.44
245.866	81.44
246.099	101.44
246.333	91.44
246.566	98.44
246.8	100.44
247.033	92.44
247.266	94.44
247.5	98.44
247.733	87.44
247.966	106.44
248.2	106.44
248.433	105.44
248.666	101.44
248.899	100.44
249.133	109.44
249.366	109.44
249.599	109.44
249.832	101.44
250.066	105.44
250.299	101.44
250.532	103.44
250.765	96.44
250.998	108.44
251.231	105.44
251.465	111.44
251.698	104.44
251.931	117.44
252.164	113.44
252.397	124.44
252.63	98.44
252.863	105.44
253.096	112.44
253.329	89.44
253.562	110.44
253.795	110.44
254.028	111.44
254.261	104.44
254.494	112.44
254.727	116.44
254.96	124.44
255.193	125.44
255.426	124.44
255.659	100.44
255.892	109.44
256.124	109.44
256.357	106.44
256.59	121.44
256.823	106.44
257.056	113.44
257.289	98.44
257.521	117.44
257.754	111.44
257.987	113.44
258.22	116.44
258.452	116.44
258.685	95.44
258.918	116.44
259.151	122.44
259.383	114.44
259.616	115.44
259.849	112.44
260.081	105.44
260.314	138.44
260.547	125.44
260.779	119.44
261.012	122.44
261.244	116.44
261.477	104.44
261.71	128.44
261.942	101.44
262.175	130.44
262.407	120.44
262.64	107.44
262.872	111.44
263.105	105.44
263.337	125.44
263.57	107.44
263.802	108.44
264.035	111.44
264.267	136.44
264.499	122.44
264.732	109.44
264.964	120.44
265.197	107.44
265.429	110.44
265.661	109.44
265.894	103.44
266.126	116.44
266.358	120.44
266.591	119.44
266.823	109.44
267.055	103.44
267.287	110.44
267.52	113.44
267.752	104.44
267.984	120.44
268.216	128.44
268.448	134.44
268.681	128.44
268.913	116.44
269.145	113.44
269.377	120.44
269.609	116.44
269.841	131.44
270.073	119.44
270.306	123.44
270.538	128.44
270.77	128.44
271.002	139.44
271.234	132.44
271.466	125.44
271.698	131.44
271.93	120.44
272.162	130.44
272.394	142.44
272.626	137.44
272.858	120.44
273.09	141.44
273.322	120.44
273.553	125.44
273.785	140.44
274.017	125.44
274.249	133.44
274.481	133.44
274.713	131.44
274.945	124.44
275.176	132.44
275.408	132.44
275.64	136.44
275.872	137.44
276.104	134.44
276.335	122.44
276.567	131.44
276.799	132.44
277.031	151.44
277.262	144.44
277.494	143.44
277.726	145.44
277.957	129.44
278.189	134.44
278.421	139.44
278.652	123.44
278.884	134.44
279.115	157.44
279.347	176.44
279.579	221.44
279.81	253.44
280.042	233.44
280.273	208.44
280.505	217.44
280.736	179.44
280.968	127.44
281.199	128.44
281.431	110.44
281.662	149.44
281.894	126.44
282.125	134.44
282.356	135.44
282.588	133.44
282.819	154.44
283.051	137.44
283.282	121.44
283.513	122.44
283.745	134.44
283.976	120.44
284.207	136.44
284.439	131.44
284.67	129.44
284.901	150.44
285.132	132.44
285.364	139.44
285.595	143.44
285.826	131.44
286.057	136.44
286.288	131.44
286.52	121.44
286.751	120.44
286.982	120.44
287.213	114.44
287.444	134.44
287.675	141.44
287.906	128.44
288.138	142.44
288.369	142.44
288.6	149.44
288.831	140.44
289.062	134.44
289.293	128.44
289.524	111.44
289.755	126.44
289.986	127.44
290.217	117.44
290.448	120.44
290.679	131.44
290.91	132.44
291.141	129.44
291.371	137.44
291.602	129.44
291.833	131.44
292.064	138.44
292.295	124.44
292.526	143.44
292.757	121.44
292.987	130.44
293.218	138.44
293.449	129.44
293.68	126.44
293.91	129.44
294.141	145.44
294.372	131.44
294.603	126.44
294.833	134.44
295.064	125.44
295.295	144.44
295.525	135.44
295.756	136.44
295.987	134.44
296.217	145.44
296.448	153.44
296.679	137.44
296.909	127.44
297.14	131.44
297.37	140.44
297.601	128.44
297.831	128.44
298.062	152.44
298.292	132.44
298.523	134.44
298.753	133.44
298.984	129.44
299.214	119.44
299.445	135.44
299.675	128.44
299.905	124.44
300.136	137.44
300.366	133.44
300.597	137.44
300.827	145.44
301.057	129.44
301.288	155.44
301.518	134.44
301.748	137.44
301.979	152.44
302.209	139.44
302.439	140.44
302.669	137.44
302.9	121.44
303.13	138.44
303.36	155.44
303.59	147.44
303.82	148.44
304.051	129.44
304.281	129.44
304.511	134.44
304.741	138.44
304.971	140.44
305.201	130.44
305.431	139.44
305.661	134.44
305.891	124.44
306.121	135.44
306.352	142.44
306.582	141.44
306.812	135.44
307.042	140.44
307.272	128.44
307.502	142.44
307.731	155.44
307.961	145.44
308.191	154.44
308.421	156.44
308.651	139.44
308.881	150.44
309.111	152.44
309.341	152.44
309.571	160.44
309.8	139.44
310.03	172.44
310.26	158.44
310.49	156.44
310.72	172.44
310.949	169.44
311.179	168.44
311.409	162.44
311.639	156.44
311.868	154.44
312.098	144.44
312.328	148.44
312.557	165.44
312.787	158.44
313.017	161.44
313.246	152.44
313.476	140.44
313.706	157.44
313.935	146.44
314.165	145.44
314.394	153.44
314.624	159.44
314.853	146.44
315.083	154.44
315.312	150.44
315.542	156.44
315.771	160.44
316.001	168.44
316.23	155.44
316.46	154.44
316.689	182.44
316.919	159.44
317.148	169.44
317.377	164.44
317.607	164.44
317.836	172.44
318.065	194.44
318.295	182.44
318.524	160.44
318.753	153.44
318.983	166.44
319.212	155.44
319.441	168.44
319.67	161.44
319.9	153.44
320.129	145.44
320.358	146.44
320.587	151.44
320.816	145.44
321.046	159.44
321.275	155.44
321.504	157.44
321.733	165.44
321.962	161.44
322.191	180.44
322.42	169.44
322.649	180.44
322.878	185.44
323.108	189.44
323.337	192.44
323.566	205.44
323.795	226.44
324.024	263.44
324.253	319.44
324.482	459.44
324.71	662.44
324.939	836.44
325.168	653.44
325.397	345.44
325.626	248.44
325.855	209.44
326.084	188.44
326.313	194.44
326.542	205.44
326.77	233.44
326.999	293.44
327.228	414.44
327.457	580.44
327.686	606.44
327.914	398.44
328.143	279.44
328.372	259.44
328.6	221.44
328.829	223.44
329.058	223.44
329.287	217.44
329.515	224.44
329.744	194.44
329.972	197.44
330.201	194.44
330.43	203.44
330.658	222.44
330.887	232.44
331.115	222.44
331.344	163.44
331.572	199.44
331.801	177.44
332.03	195.44
332.258	195.44
332.486	158.44
332.715	166.44
332.943	164.44
333.172	182.44
333.4	177.44
333.629	180.44
333.857	171.44
334.085	175.44
334.314	186.44
334.542	181.44
334.771	199.44
334.999	199.44
335.227	194.44
335.455	184.44
335.684	161.44
335.912	173.44
336.14	173.44
336.369	174.44
336.597	158.44
336.825	175.44
337.053	199.44
337.281	183.44
337.51	160.44
337.738	176.44
337.966	164.44
338.194	166.44
338.422	193.44
338.65	189.44
338.878	166.44
339.106	159.44
339.334	162.44
339.562	152.44
339.79	161.44
340.018	163.44
340.246	153.44
340.474	153.44
340.702	160.44
340.93	170.44
341.158	162.44
341.386	177.44
341.614	167.44
341.842	151.44
342.07	162.44
342.298	160.44
342.526	154.44
342.754	160.44
342.981	166.44
343.209	160.44
343.437	159.44
343.665	178.44
343.893	167.44
344.12	158.44
344.348	150.44
344.576	162.44
344.804	172.44
345.031	168.44
345.259	165.44
345.487	171.44
345.714	147.44
345.942	164.44
346.17	153.44
346.397	159.44
346.625	170.44
346.853	174.44
347.08	144.44
347.308	174.44
347.535	160.44
347.763	163.44
347.99	156.44
348.218	169.44
348.445	164.44
348.673	172.44
348.9	171.44
349.128	151.44
349.355	146.44
349.583	162.44
349.81	156.44
350.037	159.44
350.265	161.44
350.492	157.44
350.72	152.44
350.947	137.44
351.174	160.44
351.402	172.44
351.629	180.44
351.856	154.44
352.083	165.44
352.311	173.44
352.538	165.44
352.765	171.44
352.992	186.44
353.22	159.44
353.447	171.44
353.674	153.44
353.901	160.44
354.128	146.44
354.355	153.44
354.583	152.44
354.81	140.44
355.037	152.44
355.264	167.44
355.491	162.44
355.718	139.44
355.945	159.44
356.172	149.44
356.399	150.44
356.626	139.44
356.853	145.44
357.08	150.44
357.307	152.44
357.534	131.44
357.761	129.44
357.988	144.44
358.215	166.44
358.441	168.44
358.668	162.44
358.895	155.44
359.122	167.44
359.349	141.44
359.576	167.44
359.802	174.44
360.029	186.44
360.256	190.44
360.483	172.44
360.709	148.44
360.936	167.44
361.163	163.44
361.39	162.44
361.616	160.44
361.843	178.44
362.07	158.44
362.296	162.44
362.523	159.44
362.749	143.44
362.976	161.44
363.203	145.44
363.429	167.44
363.656	156.44
363.882	160.44
364.109	170.44
364.335	150.44
364.562	153.44
364.788	164.44
365.015	154.44
365.241	164.44
365.468	159.44
365.694	154.44
365.92	159.44
366.147	165.44
366.373	161.44
366.599	167.44
366.826	141.44
367.052	145.44
367.278	165.44
367.505	155.44
367.731	147.44
367.957	140.44
368.184	144.44
368.41	150.44
368.636	172.44
368.862	160.44
369.089	180.44
369.315	147.44
369.541	155.44
369.767	156.44
369.993	167.44
370.219	169.44
370.445	145.44
370.672	145.44
370.898	140.44
371.124	158.44
371.35	147.44
371.576	163.44
371.802	140.44
372.028	149.44
372.254	156.44
372.48	161.44
372.706	170.44
372.932	156.44
373.158	151.44
373.384	160.44
373.61	173.44
373.835	164.44
374.061	157.44
374.287	162.44
374.513	151.44
374.739	158.44
374.965	154.44
375.191	162.44
375.416	166.44
375.642	148.44
375.868	152.44
376.094	159.44
376.319	164.44
376.545	156.44
376.771	155.44
376.997	130.44
377.222	147.44
377.448	161.44
377.674	140.44
377.899	145.44
378.125	153.44
378.35	152.44
378.576	157.44
378.802	147.44
379.027	154.44
379.253	140.44
379.478	157.44
379.704	153.44
379.929	160.44
380.155	144.44
380.38	159.44
380.606	155.44
380.831	162.44
381.057	161.44
381.282	143.44
381.507	151.44
381.733	161.44
381.958	155.44
382.184	149.44
382.409	163.44
382.634	181.44
382.86	170.44
383.085	167.44
383.31	155.44
383.535	166.44
383.761	160.44
383.986	174.44
384.211	168.44
384.436	184.44
384.662	171.44
384.887	160.44
385.112	152.44
385.337	153.44
385.562	164.44
385.787	162.44
386.013	171.44
386.238	171.44
386.463	186.44
386.688	164.44
386.913	166.44
387.138	174.44
387.363	143.44
387.588	162.44
387.813	157.44
388.038	155.44
388.263	149.44
388.488	164.44
388.713	171.44
388.938	148.44
389.163	154.44
389.387	160.44
389.612	168.44
389.837	158.44
390.062	152.44
390.287	154.44
390.512	162.44
390.736	167.44
390.961	180.44
391.186	154.44
391.411	164.44
391.636	150.44
391.86	161.44
392.085	167.44
392.31	179.44
392.534	181.44
392.759	193.44
392.984	228.44
393.208	364.44
393.433	494.44
393.658	496.44
393.882	274.44
394.107	188.44
394.331	195.44
394.556	191.44
394.78	188.44
395.005	175.44
395.229	166.44
395.454	164.44
395.678	177.44
395.903	180.44
396.127	191.44
396.352	206.44
396.576	249.44
396.801	320.44
397.025	404.44
397.249	296.44
397.474	209.44
397.698	168.44
397.922	164.44
398.147	179.44
398.371	165.44
398.595	191.44
398.82	176.44
399.044	176.44
399.268	178.44
399.492	181.44
399.717	189.44
399.941	197.44
400.165	203.44
400.389	214.44
400.613	192.44
400.837	183.44
401.062	179.44
401.286	169.44
401.51	172.44
401.734	173.44
401.958	178.44
402.182	174.44
402.406	192.44
402.63	169.44
402.854	174.44
403.078	192.44
403.302	186.44
403.526	185.44
403.75	188.44
403.974	176.44
404.198	174.44
404.422	188.44
404.645	198.44
404.869	175.44
405.093	185.44
405.317	184.44
405.541	199.44
405.765	198.44
405.988	191.44
406.212	208.44
406.436	220.44
406.66	216.44
406.883	198.44
407.107	191.44
407.331	201.44
407.555	215.44
407.778	209.44
408.002	209.44
408.226	213.44
408.449	175.44
408.673	197.44
408.896	201.44
409.12	190.44
409.344	205.44
409.567	176.44
409.791	184.44
410.014	181.44
410.238	157.44
410.461	172.44
410.685	182.44
410.908	187.44
411.132	201.44
411.355	183.44
411.578	183.44
411.802	165.44
412.025	176.44
412.249	162.44
412.472	194.44
412.695	188.44
412.919	198.44
413.142	186.44
413.365	179.44
413.589	161.44
413.812	167.44
414.035	186.44
414.258	166.44
414.482	167.44
414.705	164.44
414.928	182.44
415.151	186.44
415.374	172.44
415.597	181.44
415.821	175.44
416.044	169.44
416.267	171.44
416.49	174.44
416.713	187.44
416.936	185.44
417.159	188.44
417.382	182.44
417.605	175.44
417.828	180.44
418.051	180.44
418.274	180.44
418.497	178.44
418.72	172.44
418.943	174.44
419.166	177.44
419.389	202.44
419.611	163.44
419.834	185.44
420.057	193.44
420.28	175.44
420.503	192.44
420.726	169.44
420.948	184.44
421.171	188.44
421.394	198.44
421.617	187.44
421.839	188.44
422.062	168.44
422.285	198.44
422.507	220.44
422.73	241.44
422.953	248.44
423.175	200.44
423.398	200.44
423.621	183.44
423.843	207.44
424.066	183.44
424.288	192.44
424.511	187.44
424.733	215.44
424.956	222.44
425.178	208.44
425.401	221.44
425.623	210.44
425.846	194.44
426.068	198.44
426.291	209.44
426.513	199.44
426.735	191.44
426.958	210.44
427.18	231.44
427.402	271.44
427.625	283.44
427.847	270.44
428.069	232.44
428.292	192.44
428.514	202.44
428.736	198.44
428.958	182.44
429.181	174.44
429.403	170.44
429.625	180.44
429.847	180.44
430.069	204.44
430.292	220.44
430.514	188.44
430.736	165.44
430.958	169.44
431.18	191.44
431.402	168.44
431.624	173.44
431.846	171.44
432.068	168.44
432.29	172.44
432.512	186.44
432.734	168.44
432.956	174.44
433.178	188.44
433.4	173.44
433.622	179.44
433.844	174.44
434.066	177.44
434.287	181.44
434.509	162.44
434.731	186.44
434.953	184.44
435.175	182.44
435.397	187.44
435.618	193.44
435.84	174.44
436.062	203.44
436.284	228.44
436.505	203.44
436.727	202.44
436.949	191.44
437.17	175.44
437.392	190.44
437.614	191.44
437.835	205.44
438.057	230.44
438.278	233.44
438.5	236.44
438.721	252.44
438.943	249.44
439.165	226.44
439.386	203.44
439.608	198.44
439.829	201.44
440.05	223.44
440.272	237.44
440.493	212.44
440.715	200.44
440.936	190.44
441.158	190.44
441.379	189.44
441.6	206.44
441.822	198.44
442.043	210.44
442.264	221.44
442.486	231.44
442.707	214.44
442.928	211.44
443.149	203.44
443.371	220.44
443.592	223.44
443.813	246.44
444.034	238.44
444.255	221.44
444.476	210.44
444.698	201.44
444.919	189.44
445.14	343.44
445.361	252.44
445.582	209.44
445.803	244.44
446.024	268.44
446.245	259.44
446.466	240.44
446.687	206.44
446.908	210.44
447.129	199.44
447.35	185.44
447.571	182.44
447.792	180.44
448.013	189.44
448.234	205.44
448.455	216.44
448.675	228.44
448.896	245.44
449.117	229.44
449.338	209.44
449.559	259.44
449.779	276.44
450	205.44
450.221	196.44
450.442	194.44
450.662	191.44
450.883	199.44
451.104	204.44
451.324	175.44
451.545	186.44
451.766	187.44
451.986	164.44
452.207	174.44
452.428	167.44
452.648	166.44
452.869	180.44
453.089	181.44
453.31	188.44
453.53	174.44
453.751	165.44
453.971	168.44
454.192	173.44
454.412	200.44
454.633	164.44
454.853	171.44
455.073	171.44
455.294	186.44
455.514	202.44
455.734	184.44
455.955	175.44
456.175	164.44
456.395	166.44
456.616	163.44
456.836	159.44
457.056	161.44
457.276	173.44
457.497	157.44
457.717	165.44
457.937	172.44
458.157	169.44
458.377	172.44
458.598	171.44
458.818	203.44
459.038	244.44
459.258	219.44
459.478	198.44
459.698	180.44
459.918	157.44
460.138	160.44
460.358	171.44
460.578	182.44
460.798	181.44
461.018	166.44
461.238	173.44
461.458	180.44
461.678	163.44
461.898	182.44
462.118	176.44
462.338	180.44
462.558	198.44
462.777	165.44
462.997	183.44
463.217	180.44
463.437	186.44
463.657	174.44
463.876	180.44
464.096	177.44
464.316	191.44
464.536	192.44
464.755	185.44
464.975	201.44
465.195	229.44
465.414	266.44
465.634	212.44
465.854	186.44
466.073	183.44
466.293	169.44
466.512	183.44
466.732	177.44
466.951	180.44
467.171	174.44
467.391	184.44
467.61	186.44
467.829	189.44
468.049	187.44
468.268	190.44
468.488	165.44
468.707	164.44
468.927	155.44
469.146	169.44
469.365	171.44
469.585	158.44
469.804	189.44
470.023	182.44
470.243	176.44
470.462	180.44
470.681	207.44
470.901	186.44
471.12	186.44
471.339	173.44
471.558	177.44
471.777	192.44
471.997	172.44
472.216	178.44
472.435	184.44
472.654	167.44
472.873	164.44
473.092	166.44
473.311	155.44
473.53	181.44
473.749	177.44
473.968	194.44
474.187	219.44
474.406	202.44
474.625	188.44
474.844	180.44
475.063	168.44
475.282	170.44
475.501	184.44
475.72	180.44
475.939	183.44
476.158	192.44
476.377	182.44
476.596	172.44
476.814	194.44
477.033	181.44
477.252	174.44
477.471	184.44
477.69	174.44
477.908	180.44
478.127	196.44
478.346	187.44
478.564	176.44
478.783	189.44
479.002	206.44
479.22	204.44
479.439	206.44
479.658	197.44
479.876	200.44
480.095	196.44
480.313	205.44
480.532	209.44
480.751	199.44
480.969	197.44
481.188	231.44
481.406	216.44
481.624	202.44
481.843	188.44
482.061	182.44
482.28	198.44
482.498	188.44
482.717	184.44
482.935	192.44
483.153	177.44
483.372	192.44
483.59	206.44
483.808	192.44
484.027	193.44
484.245	199.44
484.463	190.44
484.681	197.44
484.9	194.44
485.118	200.44
485.336	199.44
485.554	182.44
485.772	201.44
485.99	194.44
486.209	200.44
486.427	196.44
486.645	186.44
486.863	215.44
487.081	220.44
487.299	204.44
487.517	215.44
487.735	196.44
487.953	224.44
488.171	229.44
488.389	209.44
488.607	217.44
488.825	214.44
489.043	203.44
489.261	209.44
489.479	210.44
489.696	216.44
489.914	215.44
490.132	209.44
490.35	210.44
490.568	225.44
490.786	222.44
491.003	242.44
491.221	245.44
491.439	224.44
491.657	239.44
491.874	249.44
492.092	250.44
492.31	231.44
492.527	236.44
492.745	242.44
492.963	241.44
493.18	235.44
493.398	238.44
493.615	261.44
493.833	241.44
494.05	237.44
494.268	215.44
494.485	248.44
494.703	232.44
494.92	236.44
495.138	221.44
495.355	234.44
495.573	233.44
495.79	245.44
496.008	233.44
496.225	229.44
496.442	229.44
496.66	231.44
496.877	250.44
497.094	224.44
497.312	218.44
497.529	241.44
497.746	242.44
497.963	228.44
498.181	240.44
498.398	232.44
498.615	241.44
498.832	242.44
499.049	239.44
499.267	232.44
499.484	265.44
499.701	266.44
499.918	277.44
500.135	277.44
500.352	301.44
500.569	281.44
500.786	298.44
501.003	291.44
501.22	290.44
501.437	268.44
501.654	278.44
501.871	282.44
502.088	279.44
502.305	258.44
502.522	260.44
502.739	233.44
502.956	246.44
