Data from 1970.PennyLincolnUp.Lamp.En5.5.200Scan.071719.P1._HRD10591_15-14-13-843.txt Node
Date: Thu Jul 18 15:14:13 EDT 2019
User: cochatt
Spectrometer: HR+D1059
Trigger mode: 1
Integration Time (sec): 1.000000E-1
Scans to average: 1
Electric dark correction enabled: true
Nonlinearity correction enabled: false
Boxcar width: 0
XAxis mode: Wavelengths
Number of Pixels in Spectrum: 2048
>>>>>Begin Spectral Data<<<<<
223.165	-11
223.4	-11
223.635	-11
223.869	-22
224.104	-25
224.338	-2
224.573	-9
224.808	-11
225.042	-1
225.277	-13
225.511	-7
225.746	-5
225.98	9
226.215	23
226.449	7
226.683	12
226.918	28
227.152	27
227.387	39
227.621	49
227.856	49
228.09	44
228.324	58
228.559	53
228.793	57
229.027	113
229.262	110
229.496	114
229.73	135
229.964	167
230.199	130
230.433	110
230.667	123
230.901	119
231.136	130
231.37	110
231.604	117
231.838	119
232.072	108
232.306	120
232.541	106
232.775	125
233.009	126
233.243	117
233.477	121
233.711	122
233.945	115
234.179	133
234.413	122
234.647	111
234.881	119
235.115	127
235.349	118
235.583	128
235.817	113
236.051	141
236.285	126
236.519	147
236.753	138
236.987	156
237.221	199
237.455	251
237.689	199
237.922	150
238.156	133
238.39	148
238.624	129
238.858	136
239.091	136
239.325	136
239.559	133
239.793	141
240.027	141
240.26	163
240.494	172
240.728	164
240.961	157
241.195	177
241.429	141
241.662	153
241.896	147
242.13	151
242.363	138
242.597	150
242.83	157
243.064	144
243.298	157
243.531	135
243.765	156
243.998	146
244.232	156
244.465	146
244.699	166
244.932	151
245.166	169
245.399	141
245.633	162
245.866	162
246.099	165
246.333	169
246.566	153
246.8	161
247.033	155
247.266	183
247.5	166
247.733	185
247.966	183
248.2	183
248.433	187
248.666	201
248.899	212
249.133	226
249.366	221
249.599	216
249.832	211
250.066	198
250.299	185
250.532	209
250.765	233
250.998	252
251.231	249
251.465	253
251.698	236
251.931	238
252.164	228
252.397	227
252.63	213
252.863	227
253.096	252
253.329	245
253.562	253
253.795	238
254.028	258
254.261	238
254.494	262
254.727	262
254.96	294
255.193	296
255.426	271
255.659	256
255.892	254
256.124	250
256.357	255
256.59	253
256.823	243
257.056	233
257.289	248
257.521	228
257.754	224
257.987	230
258.22	221
258.452	234
258.685	238
258.918	220
259.151	214
259.383	231
259.616	238
259.849	257
260.081	252
260.314	261
260.547	288
260.779	251
261.012	261
261.244	245
261.477	252
261.71	247
261.942	256
262.175	233
262.407	228
262.64	232
262.872	214
263.105	229
263.337	249
263.57	215
263.802	231
264.035	224
264.267	205
264.499	217
264.732	223
264.964	224
265.197	239
265.429	199
265.661	225
265.894	218
266.126	228
266.358	222
266.591	240
266.823	211
267.055	238
267.287	246
267.52	234
267.752	255
267.984	263
268.216	228
268.448	238
268.681	264
268.913	255
269.145	271
269.377	274
269.609	285
269.841	303
270.073	288
270.306	296
270.538	318
270.77	320
271.002	315
271.234	300
271.466	319
271.698	335
271.93	337
272.162	352
272.394	338
272.626	311
272.858	304
273.09	288
273.322	276
273.553	269
273.785	273
274.017	249
274.249	275
274.481	249
274.713	284
274.945	287
275.176	269
275.408	246
275.64	268
275.872	267
276.104	285
276.335	263
276.567	285
276.799	303
277.031	325
277.262	319
277.494	353
277.726	304
277.957	301
278.189	279
278.421	267
278.652	277
278.884	272
279.115	281
279.347	278
279.579	271
279.81	266
280.042	278
280.273	270
280.505	245
280.736	270
280.968	271
281.199	247
281.431	253
281.662	248
281.894	240
282.125	259
282.356	291
282.588	312
282.819	311
283.051	278
283.282	246
283.513	250
283.745	279
283.976	282
284.207	286
284.439	273
284.67	272
284.901	270
285.132	278
285.364	280
285.595	261
285.826	274
286.057	273
286.288	282
286.52	293
286.751	261
286.982	267
287.213	288
287.444	270
287.675	283
287.906	287
288.138	318
288.369	315
288.6	295
288.831	288
289.062	297
289.293	293
289.524	286
289.755	285
289.986	283
290.217	277
290.448	282
290.679	275
290.91	295
291.141	293
291.371	278
291.602	275
291.833	269
292.064	271
292.295	286
292.526	274
292.757	292
292.987	271
293.218	269
293.449	276
293.68	288
293.91	281
294.141	286
294.372	289
294.603	278
294.833	265
295.064	297
295.295	295
295.525	280
295.756	282
295.987	296
296.217	323
296.448	318
296.679	287
296.909	289
297.14	290
297.37	274
297.601	294
297.831	291
298.062	289
298.292	289
298.523	295
298.753	289
298.984	311
299.214	315
299.445	293
299.675	270
299.905	301
300.136	308
300.366	302
300.597	297
300.827	338
301.057	325
301.288	323
301.518	298
301.748	331
301.979	302
302.209	314
302.439	320
302.669	316
302.9	318
303.13	319
303.36	321
303.59	319
303.82	339
304.051	331
304.281	316
304.511	321
304.741	293
304.971	322
305.201	301
305.431	315
305.661	290
305.891	321
306.121	334
306.352	328
306.582	351
306.812	331
307.042	320
307.272	317
307.502	326
307.731	337
307.961	314
308.191	323
308.421	319
308.651	355
308.881	333
309.111	347
309.341	339
309.571	354
309.8	357
310.03	353
310.26	372
310.49	380
310.72	387
310.949	421
311.179	405
311.409	367
311.639	381
311.868	377
312.098	388
312.328	395
312.557	403
312.787	424
313.017	430
313.246	371
313.476	359
313.706	365
313.935	380
314.165	379
314.394	389
314.624	391
314.853	376
315.083	357
315.312	385
315.542	367
315.771	352
316.001	360
316.23	368
316.46	361
316.689	373
316.919	375
317.148	390
317.377	380
317.607	394
317.836	379
318.065	386
318.295	368
318.524	375
318.753	347
318.983	351
319.212	358
319.441	400
319.67	393
319.9	395
320.129	384
320.358	382
320.587	374
320.816	400
321.046	400
321.275	403
321.504	386
321.733	408
321.962	414
322.191	417
322.42	431
322.649	452
322.878	469
323.108	482
323.337	522
323.566	515
323.795	559
324.024	633
324.253	776
324.482	1070
324.71	1626
324.939	2305
325.168	2003
325.397	1068
325.626	714
325.855	602
326.084	537
326.313	520
326.542	544
326.77	591
326.999	741
327.228	953
327.457	1401
327.686	1738
327.914	1211
328.143	807
328.372	685
328.6	635
328.829	622
329.058	623
329.287	648
329.515	592
329.744	541
329.972	544
330.201	555
330.43	603
330.658	632
330.887	671
331.115	647
331.344	532
331.572	516
331.801	532
332.03	518
332.258	483
332.486	461
332.715	448
332.943	440
333.172	445
333.4	457
333.629	462
333.857	489
334.085	479
334.314	506
334.542	518
334.771	574
334.999	495
335.227	486
335.455	446
335.684	457
335.912	438
336.14	432
336.369	425
336.597	441
336.825	447
337.053	457
337.281	434
337.51	422
337.738	449
337.966	434
338.194	449
338.422	461
338.65	441
338.878	438
339.106	426
339.334	422
339.562	412
339.79	392
340.018	416
340.246	437
340.474	439
340.702	437
340.93	438
341.158	418
341.386	431
341.614	449
341.842	442
342.07	439
342.298	421
342.526	409
342.754	405
342.981	403
343.209	420
343.437	423
343.665	429
343.893	421
344.12	414
344.348	400
344.576	429
344.804	451
345.031	451
345.259	455
345.487	431
345.714	453
345.942	439
346.17	408
346.397	414
346.625	429
346.853	414
347.08	423
347.308	433
347.535	441
347.763	432
347.99	437
348.218	439
348.445	446
348.673	455
348.9	441
349.128	432
349.355	413
349.583	409
349.81	412
350.037	401
350.265	439
350.492	404
350.72	425
350.947	419
351.174	421
351.402	458
351.629	442
351.856	437
352.083	432
352.311	432
352.538	440
352.765	438
352.992	429
353.22	439
353.447	422
353.674	434
353.901	394
354.128	405
354.355	401
354.583	423
354.81	395
355.037	396
355.264	391
355.491	397
355.718	395
355.945	389
356.172	392
356.399	385
356.626	407
356.853	391
357.08	401
357.307	377
357.534	389
357.761	389
357.988	371
358.215	427
358.441	418
358.668	400
358.895	402
359.122	412
359.349	420
359.576	423
359.802	471
360.029	520
360.256	504
360.483	479
360.709	442
360.936	434
361.163	435
361.39	438
361.616	457
361.843	438
362.07	440
362.296	461
362.523	440
362.749	425
362.976	408
363.203	427
363.429	426
363.656	423
363.882	416
364.109	411
364.335	412
364.562	400
364.788	418
365.015	410
365.241	420
365.468	407
365.694	408
365.92	434
366.147	431
366.373	411
366.599	426
366.826	406
367.052	404
367.278	399
367.505	416
367.731	431
367.957	412
368.184	415
368.41	430
368.636	429
368.862	420
369.089	411
369.315	408
369.541	424
369.767	422
369.993	417
370.219	399
370.445	405
370.672	421
370.898	410
371.124	410
371.35	413
371.576	395
371.802	391
372.028	398
372.254	387
372.48	396
372.706	398
372.932	406
373.158	402
373.384	414
373.61	407
373.835	411
374.061	423
374.287	400
374.513	400
374.739	395
374.965	428
375.191	403
375.416	412
375.642	407
375.868	419
376.094	425
376.319	413
376.545	414
376.771	412
376.997	404
377.222	387
377.448	405
377.674	403
377.899	417
378.125	415
378.35	398
378.576	398
378.802	410
379.027	393
379.253	421
379.478	395
379.704	405
379.929	393
380.155	421
380.38	429
380.606	425
380.831	421
381.057	415
381.282	413
381.507	393
381.733	419
381.958	427
382.184	413
382.409	401
382.634	427
382.86	418
383.085	433
383.31	414
383.535	409
383.761	425
383.986	417
384.211	437
384.436	425
384.662	415
384.887	429
385.112	433
385.337	441
385.562	430
385.787	426
386.013	468
386.238	452
386.463	450
386.688	463
386.913	427
387.138	444
387.363	445
387.588	433
387.813	432
388.038	431
388.263	443
388.488	471
388.713	444
388.938	465
389.163	460
389.387	459
389.612	431
389.837	453
390.062	447
390.287	448
390.512	427
390.736	416
390.961	440
391.186	452
391.411	438
391.636	432
391.86	459
392.085	434
392.31	448
392.534	452
392.759	452
392.984	440
393.208	437
393.433	457
393.658	461
393.882	437
394.107	437
394.331	459
394.556	439
394.78	456
395.005	448
395.229	435
395.454	462
395.678	459
395.903	490
396.127	479
396.352	486
396.576	466
396.801	471
397.025	461
397.249	467
397.474	465
397.698	480
397.922	470
398.147	483
398.371	509
398.595	494
398.82	498
399.044	477
399.268	513
399.492	527
399.717	551
399.941	567
400.165	608
400.389	613
400.613	569
400.837	536
401.062	524
401.286	519
401.51	514
401.734	505
401.958	509
402.182	520
402.406	560
402.63	517
402.854	518
403.078	490
403.302	539
403.526	536
403.75	543
403.974	545
404.198	527
404.422	534
404.645	544
404.869	527
405.093	574
405.317	626
405.541	647
405.765	610
405.988	570
406.212	563
406.436	625
406.66	624
406.883	583
407.107	595
407.331	626
407.555	687
407.778	711
408.002	646
408.226	618
408.449	576
408.673	593
408.896	615
409.12	645
409.344	635
409.567	565
409.791	553
410.014	539
410.238	524
410.461	545
410.685	550
410.908	545
411.132	594
411.355	606
411.578	590
411.802	546
412.025	529
412.249	526
412.472	559
412.695	601
412.919	621
413.142	571
413.365	512
413.589	521
413.812	524
414.035	507
414.258	521
414.482	502
414.705	495
414.928	507
415.151	520
415.374	517
415.597	501
415.821	503
416.044	503
416.267	523
416.49	528
416.713	496
416.936	527
417.159	517
417.382	498
417.605	502
417.828	535
418.051	534
418.274	531
418.497	529
418.72	515
418.943	499
419.166	537
419.389	546
419.611	579
419.834	532
420.057	541
420.28	540
420.503	549
420.726	553
420.948	552
421.171	626
421.394	643
421.617	567
421.839	571
422.062	552
422.285	541
422.507	609
422.73	703
422.953	679
423.175	581
423.398	559
423.621	553
423.843	580
424.066	593
424.288	588
424.511	610
424.733	659
424.956	747
425.178	749
425.401	729
425.623	754
425.846	651
426.068	607
426.291	587
426.513	591
426.735	599
426.958	652
427.18	733
427.402	842
427.625	957
427.847	857
428.069	734
428.292	663
428.514	625
428.736	587
428.958	562
429.181	587
429.403	565
429.625	551
429.847	605
430.069	653
430.292	659
430.514	581
430.736	559
430.958	555
431.18	532
431.402	503
431.624	527
431.846	533
432.068	540
432.29	505
432.512	521
432.734	527
432.956	512
433.178	543
433.4	531
433.622	511
433.844	520
434.066	505
434.287	525
434.509	499
434.731	534
434.953	536
435.175	577
435.397	583
435.618	611
435.84	639
436.062	737
436.284	802
436.505	701
436.727	635
436.949	571
437.17	585
437.392	570
437.614	599
437.835	627
438.057	735
438.278	808
438.5	829
438.721	889
438.943	825
439.165	710
439.386	643
439.608	618
439.829	625
440.05	633
440.272	689
440.493	634
440.715	603
440.936	582
441.158	578
441.379	561
441.6	594
441.822	603
442.043	630
442.264	736
442.486	751
442.707	675
442.928	615
443.149	608
443.371	610
443.592	702
443.813	803
444.034	858
444.255	695
444.476	613
444.698	600
444.919	614
445.14	705
445.361	654
445.582	653
445.803	711
446.024	851
446.245	821
446.466	764
446.687	649
446.908	633
447.129	594
447.35	563
447.571	563
447.792	542
448.013	593
448.234	579
448.455	647
448.675	747
448.896	848
449.117	735
449.338	714
449.559	811
449.779	900
450	730
450.221	633
450.442	577
450.662	556
450.883	591
451.104	592
451.324	544
451.545	527
451.766	522
451.986	517
452.207	519
452.428	478
452.648	515
452.869	498
453.089	503
453.31	503
453.53	514
453.751	511
453.971	515
454.192	530
454.412	530
454.633	507
454.853	499
455.073	514
455.294	546
455.514	613
455.734	590
455.955	530
456.175	470
456.395	464
456.616	443
456.836	479
457.056	487
457.276	455
457.497	458
457.717	496
457.937	490
458.157	478
458.377	487
458.598	545
458.818	588
459.038	679
459.258	686
459.478	581
459.698	520
459.918	517
460.138	508
460.358	513
460.578	488
460.798	522
461.018	529
461.238	520
461.458	518
461.678	492
461.898	537
462.118	511
462.338	528
462.558	511
462.777	517
462.997	537
463.217	551
463.437	551
463.657	529
463.876	528
464.096	535
464.316	543
464.536	546
464.755	559
464.975	550
465.195	604
465.414	717
465.634	633
465.854	575
466.073	531
466.293	532
466.512	504
466.732	518
466.951	521
467.171	489
467.391	519
467.61	525
467.829	543
468.049	521
468.268	517
468.488	508
468.707	494
468.927	504
469.146	482
469.365	510
469.585	515
469.804	509
470.023	541
470.243	520
470.462	539
470.681	546
470.901	557
471.12	528
471.339	525
471.558	529
471.777	515
471.997	518
472.216	509
472.435	551
472.654	550
472.873	523
473.092	496
473.311	526
473.53	525
473.749	547
473.968	577
474.187	686
474.406	706
474.625	606
474.844	535
475.063	521
475.282	536
475.501	507
475.72	521
475.939	532
476.158	538
476.377	509
476.596	533
476.814	560
477.033	562
477.252	562
477.471	549
477.69	552
477.908	559
478.127	562
478.346	557
478.564	577
478.783	586
479.002	583
479.22	581
479.439	611
479.658	656
479.876	633
480.095	634
480.313	653
480.532	642
480.751	641
480.969	666
481.188	748
481.406	770
481.624	702
481.843	648
482.061	651
482.28	629
482.498	619
482.717	625
482.935	622
483.153	637
483.372	619
483.59	604
483.808	606
484.027	633
484.245	591
484.463	639
484.681	655
484.9	620
485.118	646
485.336	630
485.554	659
485.772	667
485.99	641
486.209	645
486.427	643
486.645	683
486.863	687
487.081	697
487.299	656
487.517	670
487.735	653
487.953	669
488.171	678
488.389	697
488.607	689
488.825	676
489.043	667
489.261	664
489.479	706
489.696	698
489.914	701
490.132	740
490.35	735
490.568	720
490.786	736
491.003	753
491.221	780
491.439	774
491.657	780
491.874	790
492.092	785
492.31	822
492.527	833
492.745	809
492.963	799
493.18	797
493.398	814
493.615	833
493.833	817
494.05	833
494.268	828
494.485	790
494.703	814
494.92	836
495.138	831
495.355	809
495.573	810
495.79	817
496.008	818
496.225	819
496.442	821
496.66	815
496.877	806
497.094	818
497.312	827
497.529	841
497.746	830
497.963	839
498.181	849
498.398	885
498.615	874
498.832	875
499.049	893
499.267	881
499.484	941
499.701	951
499.918	931
500.135	960
500.352	989
500.569	984
500.786	996
501.003	977
501.22	980
501.437	955
501.654	956
501.871	967
502.088	936
502.305	923
502.522	878
502.739	882
502.956	831
503.172	838
503.389	831
503.606	818
503.823	837
504.04	825
504.256	807
504.473	833
504.69	794
504.907	797
505.123	764
505.34	808
505.557	788
505.773	774
505.99	793
506.207	777
506.423	809
506.64	794
506.856	774
507.073	777
507.289	759
507.506	770
507.722	817
507.939	793
508.155	804
508.372	784
508.588	747
508.805	743
509.021	746
509.238	773
509.454	754
509.67	759
509.887	771
510.103	743
510.319	770
510.536	892
510.752	1454
510.968	1205
511.184	786
511.401	755
511.617	746
511.833	706
512.049	730
512.265	719
512.481	706
512.698	725
512.914	746
513.13	701
513.346	728
513.562	742
513.778	711
513.994	734
514.21	750
514.426	779
514.642	836
514.858	859
515.074	910
515.29	1109
515.506	1626
515.721	1346
515.937	891
516.153	804
516.369	775
516.585	738
516.801	725
517.016	732
517.232	728
517.448	720
517.664	699
517.879	716
518.095	739
518.311	720
518.527	690
518.742	717
518.958	719
519.173	686
519.389	705
519.605	694
519.82	733
520.036	750
520.251	757
520.467	809
520.682	793
520.898	814
521.113	843
521.329	891
521.544	1008
521.76	1267
521.975	2170
522.19	2145
522.406	1172
522.621	873
522.836	755
523.052	727
523.267	713
523.482	671
523.698	664
523.913	665
524.128	681
524.343	649
524.559	653
524.774	624
524.989	606
525.204	621
525.419	623
525.634	613
525.849	614
526.064	616
526.28	603
526.495	577
526.71	584
526.925	573
527.14	575
527.355	561
527.57	576
527.785	599
527.999	567
528.214	574
528.429	576
528.644	571
528.859	578
529.074	599
529.289	616
529.503	725
529.718	687
529.933	622
530.148	608
530.363	606
530.577	571
530.792	571
531.007	577
531.221	567
531.436	557
531.651	562
531.865	527
532.08	545
532.295	546
532.509	548
532.724	567
532.938	554
533.153	532
533.367	536
533.582	549
533.796	551
534.011	539
534.225	518
534.44	530
534.654	537
534.868	524
535.083	545
535.297	528
535.511	530
535.726	552
535.94	545
536.154	570
536.369	544
536.583	524
536.797	518
537.011	507
537.225	499
537.44	508
537.654	523
537.868	519
538.082	526
538.296	505
538.51	503
538.724	539
538.938	515
539.153	538
539.367	538
539.581	534
539.795	525
540.009	527
540.222	505
540.436	526
540.65	540
540.864	528
541.078	530
541.292	530
541.506	530
541.72	518
541.934	525
542.147	537
542.361	537
542.575	510
542.789	521
543.002	499
543.216	515
543.43	513
543.644	527
543.857	494
544.071	528
544.285	506
544.498	535
544.712	517
544.925	511
545.139	513
545.352	506
545.566	485
545.779	507
545.993	498
546.206	515
546.42	521
546.633	486
546.847	484
547.06	504
547.274	505
547.487	502
547.7	474
547.914	501
548.127	476
548.34	497
548.554	475
548.767	483
548.98	491
549.193	460
549.407	487
549.62	492
549.833	471
550.046	472
550.259	481
550.473	472
550.686	478
550.899	488
551.112	462
551.325	459
551.538	470
551.751	474
551.964	472
552.177	454
552.39	465
552.603	483
552.816	466
553.029	466
553.242	489
553.455	448
553.667	498
553.88	525
554.093	507
554.306	509
554.519	489
554.732	478
554.944	480
555.157	477
555.37	465
555.583	456
555.795	446
556.008	451
556.221	424
556.433	453
556.646	420
556.859	440
557.071	450
557.284	433
557.496	436
557.709	451
557.921	441
558.134	446
558.346	441
558.559	419
558.771	449
558.984	428
559.196	422
559.409	427
559.621	445
559.833	429
560.046	440
560.258	425
560.47	423
560.683	439
560.895	440
561.107	420
561.32	424
561.532	414
561.744	443
561.956	437
562.168	437
562.381	426
562.593	429
562.805	427
563.017	438
563.229	427
563.441	441
