Data from 1970.PennyLincolnUp.Lamp.En5.5.200Scan.071719.P1._HRD10591_15-14-32-843.txt Node
Date: Thu Jul 18 15:14:32 EDT 2019
User: cochatt
Spectrometer: HR+D1059
Trigger mode: 1
Integration Time (sec): 1.000000E-1
Scans to average: 1
Electric dark correction enabled: true
Nonlinearity correction enabled: false
Boxcar width: 0
XAxis mode: Wavelengths
Number of Pixels in Spectrum: 2048
>>>>>Begin Spectral Data<<<<<
223.165	-4.88
223.4	-4.88
223.635	-4.88
223.869	-24.88
224.104	-10.88
224.338	-12.88
224.573	-6.88
224.808	-8.88
225.042	-10.88
225.277	-8.88
225.511	0.12
225.746	1.12
225.98	5.12
226.215	3.12
226.449	9.12
226.683	16.12
226.918	20.12
227.152	34.12
227.387	32.12
227.621	28.12
227.856	28.12
228.09	47.12
228.324	62.12
228.559	49.12
228.793	65.12
229.027	107.12
229.262	109.12
229.496	129.12
229.73	133.12
229.964	158.12
230.199	143.12
230.433	129.12
230.667	111.12
230.901	124.12
231.136	125.12
231.37	115.12
231.604	109.12
231.838	113.12
232.072	121.12
232.306	127.12
232.541	119.12
232.775	115.12
233.009	125.12
233.243	135.12
233.477	121.12
233.711	121.12
233.945	117.12
234.179	128.12
234.413	123.12
234.647	119.12
234.881	123.12
235.115	117.12
235.349	110.12
235.583	119.12
235.817	123.12
236.051	136.12
236.285	129.12
236.519	127.12
236.753	136.12
236.987	165.12
237.221	199.12
237.455	248.12
237.689	197.12
237.922	152.12
238.156	146.12
238.39	147.12
238.624	133.12
238.858	124.12
239.091	148.12
239.325	139.12
239.559	144.12
239.793	137.12
240.027	151.12
240.26	139.12
240.494	167.12
240.728	171.12
240.961	155.12
241.195	158.12
241.429	147.12
241.662	135.12
241.896	142.12
242.13	159.12
242.363	144.12
242.597	140.12
242.83	143.12
243.064	137.12
243.298	144.12
243.531	143.12
243.765	146.12
243.998	137.12
244.232	144.12
244.465	157.12
244.699	144.12
244.932	159.12
245.166	161.12
245.399	151.12
245.633	155.12
245.866	157.12
246.099	168.12
246.333	153.12
246.566	161.12
246.8	179.12
247.033	177.12
247.266	162.12
247.5	193.12
247.733	189.12
247.966	198.12
248.2	182.12
248.433	187.12
248.666	184.12
248.899	204.12
249.133	210.12
249.366	215.12
249.599	222.12
249.832	209.12
250.066	211.12
250.299	201.12
250.532	210.12
250.765	223.12
250.998	243.12
251.231	255.12
251.465	233.12
251.698	233.12
251.931	214.12
252.164	228.12
252.397	215.12
252.63	227.12
252.863	222.12
253.096	240.12
253.329	254.12
253.562	253.12
253.795	251.12
254.028	236.12
254.261	237.12
254.494	260.12
254.727	276.12
254.96	309.12
255.193	290.12
255.426	279.12
255.659	261.12
255.892	278.12
256.124	267.12
256.357	250.12
256.59	244.12
256.823	239.12
257.056	226.12
257.289	228.12
257.521	233.12
257.754	208.12
257.987	239.12
258.22	240.12
258.452	218.12
258.685	221.12
258.918	231.12
259.151	224.12
259.383	243.12
259.616	232.12
259.849	229.12
260.081	252.12
260.314	276.12
260.547	302.12
260.779	267.12
261.012	262.12
261.244	258.12
261.477	233.12
261.71	227.12
261.942	231.12
262.175	243.12
262.407	251.12
262.64	220.12
262.872	235.12
263.105	213.12
263.337	225.12
263.57	212.12
263.802	217.12
264.035	223.12
264.267	205.12
264.499	216.12
264.732	211.12
264.964	215.12
265.197	209.12
265.429	224.12
265.661	212.12
265.894	215.12
266.126	233.12
266.358	223.12
266.591	224.12
266.823	223.12
267.055	224.12
267.287	245.12
267.52	234.12
267.752	224.12
267.984	221.12
268.216	233.12
268.448	235.12
268.681	246.12
268.913	259.12
269.145	271.12
269.377	303.12
269.609	291.12
269.841	263.12
270.073	267.12
270.306	307.12
270.538	329.12
270.77	347.12
271.002	353.12
271.234	312.12
271.466	301.12
271.698	344.12
271.93	319.12
272.162	336.12
272.394	323.12
272.626	336.12
272.858	307.12
273.09	303.12
273.322	285.12
273.553	289.12
273.785	271.12
274.017	254.12
274.249	265.12
274.481	284.12
274.713	265.12
274.945	270.12
275.176	277.12
275.408	283.12
275.64	268.12
275.872	271.12
276.104	251.12
276.335	273.12
276.567	283.12
276.799	304.12
277.031	299.12
277.262	342.12
277.494	331.12
277.726	318.12
277.957	305.12
278.189	282.12
278.421	272.12
278.652	280.12
278.884	273.12
279.115	267.12
279.347	261.12
279.579	249.12
279.81	275.12
280.042	272.12
280.273	273.12
280.505	281.12
280.736	270.12
280.968	248.12
281.199	268.12
281.431	264.12
281.662	252.12
281.894	268.12
282.125	265.12
282.356	291.12
282.588	301.12
282.819	321.12
283.051	279.12
283.282	271.12
283.513	259.12
283.745	261.12
283.976	279.12
284.207	283.12
284.439	268.12
284.67	279.12
284.901	268.12
285.132	261.12
285.364	264.12
285.595	286.12
285.826	283.12
286.057	256.12
286.288	263.12
286.52	278.12
286.751	281.12
286.982	279.12
287.213	287.12
287.444	273.12
287.675	276.12
287.906	284.12
288.138	285.12
288.369	286.12
288.6	304.12
288.831	309.12
289.062	307.12
289.293	285.12
289.524	280.12
289.755	305.12
289.986	295.12
290.217	287.12
290.448	293.12
290.679	292.12
290.91	288.12
291.141	260.12
291.371	269.12
291.602	270.12
291.833	246.12
292.064	282.12
292.295	291.12
292.526	292.12
292.757	295.12
292.987	280.12
293.218	291.12
293.449	297.12
293.68	280.12
293.91	304.12
294.141	281.12
294.372	283.12
294.603	281.12
294.833	277.12
295.064	304.12
295.295	284.12
295.525	282.12
295.756	311.12
295.987	298.12
296.217	302.12
296.448	324.12
296.679	315.12
296.909	294.12
297.14	295.12
297.37	317.12
297.601	297.12
297.831	288.12
298.062	301.12
298.292	302.12
298.523	284.12
298.753	295.12
298.984	284.12
299.214	300.12
299.445	303.12
299.675	294.12
299.905	309.12
300.136	315.12
300.366	314.12
300.597	295.12
300.827	315.12
301.057	311.12
301.288	334.12
301.518	326.12
301.748	317.12
301.979	315.12
302.209	320.12
302.439	326.12
302.669	321.12
302.9	331.12
303.13	323.12
303.36	317.12
303.59	335.12
303.82	324.12
304.051	341.12
304.281	320.12
304.511	301.12
304.741	323.12
304.971	311.12
305.201	316.12
305.431	299.12
305.661	314.12
305.891	313.12
306.121	323.12
306.352	347.12
306.582	351.12
306.812	332.12
307.042	329.12
307.272	324.12
307.502	335.12
307.731	336.12
307.961	329.12
308.191	319.12
308.421	329.12
308.651	340.12
308.881	329.12
309.111	340.12
309.341	352.12
309.571	361.12
309.8	375.12
310.03	373.12
310.26	373.12
310.49	377.12
310.72	397.12
310.949	419.12
311.179	395.12
311.409	396.12
311.639	348.12
311.868	381.12
312.098	415.12
312.328	406.12
312.557	419.12
312.787	435.12
313.017	413.12
313.246	409.12
313.476	388.12
313.706	380.12
313.935	404.12
314.165	402.12
314.394	392.12
314.624	415.12
314.853	396.12
315.083	382.12
315.312	382.12
315.542	365.12
315.771	371.12
316.001	359.12
316.23	379.12
316.46	372.12
316.689	395.12
316.919	379.12
317.148	385.12
317.377	393.12
317.607	383.12
317.836	391.12
318.065	381.12
318.295	373.12
318.524	391.12
318.753	373.12
318.983	386.12
319.212	371.12
319.441	381.12
319.67	407.12
319.9	383.12
320.129	369.12
320.358	377.12
320.587	376.12
320.816	380.12
321.046	405.12
321.275	407.12
321.504	408.12
321.733	415.12
321.962	436.12
322.191	413.12
322.42	443.12
322.649	464.12
322.878	497.12
323.108	479.12
323.337	508.12
323.566	545.12
323.795	578.12
324.024	616.12
324.253	784.12
324.482	1101.12
324.71	1633.12
324.939	2376.12
325.168	2064.12
325.397	1111.12
325.626	729.12
325.855	603.12
326.084	539.12
326.313	554.12
326.542	565.12
326.77	587.12
326.999	716.12
327.228	943.12
327.457	1468.12
327.686	1766.12
327.914	1239.12
328.143	823.12
328.372	706.12
328.6	650.12
328.829	615.12
329.058	641.12
329.287	654.12
329.515	599.12
329.744	549.12
329.972	529.12
330.201	587.12
330.43	618.12
330.658	658.12
330.887	661.12
331.115	651.12
331.344	566.12
331.572	539.12
331.801	533.12
332.03	525.12
332.258	496.12
332.486	464.12
332.715	456.12
332.943	463.12
333.172	459.12
333.4	464.12
333.629	469.12
333.857	491.12
334.085	489.12
334.314	535.12
334.542	566.12
334.771	578.12
334.999	540.12
335.227	483.12
335.455	470.12
335.684	462.12
335.912	468.12
336.14	431.12
336.369	449.12
336.597	467.12
336.825	473.12
337.053	457.12
337.281	455.12
337.51	430.12
337.738	470.12
337.966	454.12
338.194	461.12
338.422	457.12
338.65	457.12
338.878	447.12
339.106	437.12
339.334	415.12
339.562	417.12
339.79	428.12
340.018	426.12
340.246	460.12
340.474	450.12
340.702	433.12
340.93	435.12
341.158	433.12
341.386	439.12
341.614	462.12
341.842	428.12
342.07	431.12
342.298	443.12
342.526	429.12
342.754	425.12
342.981	409.12
343.209	410.12
343.437	415.12
343.665	418.12
343.893	447.12
344.12	458.12
344.348	432.12
344.576	424.12
344.804	451.12
345.031	446.12
345.259	466.12
345.487	446.12
345.714	455.12
345.942	437.12
346.17	420.12
346.397	442.12
346.625	445.12
346.853	414.12
347.08	421.12
347.308	420.12
347.535	454.12
347.763	484.12
347.99	448.12
348.218	453.12
348.445	442.12
348.673	463.12
348.9	423.12
349.128	399.12
349.355	423.12
349.583	408.12
349.81	419.12
350.037	441.12
350.265	423.12
350.492	427.12
350.72	407.12
350.947	431.12
351.174	441.12
351.402	439.12
351.629	446.12
351.856	430.12
352.083	442.12
352.311	455.12
352.538	461.12
352.765	458.12
352.992	444.12
353.22	438.12
353.447	449.12
353.674	433.12
353.901	411.12
354.128	409.12
354.355	407.12
354.583	414.12
354.81	394.12
355.037	404.12
355.264	396.12
355.491	407.12
355.718	399.12
355.945	400.12
356.172	405.12
356.399	394.12
356.626	381.12
356.853	410.12
357.08	398.12
357.307	408.12
357.534	391.12
357.761	407.12
357.988	410.12
358.215	393.12
358.441	406.12
358.668	416.12
358.895	410.12
359.122	405.12
359.349	422.12
359.576	432.12
359.802	464.12
360.029	497.12
360.256	522.12
360.483	473.12
360.709	455.12
360.936	455.12
361.163	447.12
361.39	432.12
361.616	445.12
361.843	437.12
362.07	426.12
362.296	459.12
362.523	443.12
362.749	452.12
362.976	442.12
363.203	423.12
363.429	415.12
363.656	420.12
363.882	429.12
364.109	406.12
364.335	412.12
364.562	411.12
364.788	420.12
365.015	444.12
365.241	417.12
365.468	453.12
365.694	437.12
365.92	429.12
366.147	432.12
366.373	429.12
366.599	413.12
366.826	411.12
367.052	409.12
367.278	421.12
367.505	427.12
367.731	433.12
367.957	400.12
368.184	428.12
368.41	428.12
368.636	433.12
368.862	462.12
369.089	444.12
369.315	419.12
369.541	413.12
369.767	433.12
369.993	415.12
370.219	423.12
370.445	430.12
370.672	423.12
370.898	399.12
371.124	409.12
371.35	408.12
371.576	399.12
371.802	412.12
372.028	412.12
372.254	390.12
372.48	388.12
372.706	414.12
372.932	422.12
373.158	396.12
373.384	418.12
373.61	410.12
373.835	405.12
374.061	415.12
374.287	423.12
374.513	412.12
374.739	425.12
374.965	435.12
375.191	424.12
375.416	421.12
375.642	423.12
375.868	416.12
376.094	419.12
376.319	413.12
376.545	422.12
376.771	420.12
376.997	409.12
377.222	418.12
377.448	414.12
377.674	396.12
377.899	410.12
378.125	401.12
378.35	422.12
378.576	415.12
378.802	397.12
379.027	420.12
379.253	408.12
379.478	435.12
379.704	423.12
379.929	399.12
380.155	425.12
380.38	427.12
380.606	419.12
380.831	411.12
381.057	435.12
381.282	423.12
381.507	426.12
381.733	420.12
381.958	423.12
382.184	431.12
382.409	423.12
382.634	406.12
382.86	429.12
383.085	429.12
383.31	433.12
383.535	437.12
383.761	431.12
383.986	431.12
384.211	440.12
384.436	431.12
384.662	429.12
384.887	436.12
385.112	431.12
385.337	458.12
385.562	459.12
385.787	458.12
386.013	455.12
386.238	453.12
386.463	463.12
386.688	475.12
386.913	448.12
387.138	446.12
387.363	451.12
387.588	448.12
387.813	444.12
388.038	467.12
388.263	459.12
388.488	443.12
388.713	445.12
388.938	465.12
389.163	454.12
389.387	463.12
389.612	459.12
389.837	462.12
390.062	444.12
390.287	445.12
390.512	457.12
390.736	436.12
390.961	470.12
391.186	435.12
391.411	438.12
391.636	447.12
391.86	469.12
392.085	462.12
392.31	471.12
392.534	467.12
392.759	472.12
392.984	448.12
393.208	444.12
393.433	448.12
393.658	456.12
393.882	461.12
394.107	456.12
394.331	451.12
394.556	443.12
394.78	436.12
395.005	439.12
395.229	449.12
395.454	472.12
395.678	475.12
395.903	499.12
396.127	489.12
396.352	517.12
396.576	500.12
396.801	484.12
397.025	464.12
397.249	505.12
397.474	486.12
397.698	470.12
397.922	518.12
398.147	498.12
398.371	525.12
398.595	503.12
398.82	521.12
399.044	522.12
399.268	527.12
399.492	565.12
399.717	585.12
399.941	617.12
400.165	620.12
400.389	610.12
400.613	576.12
400.837	554.12
401.062	525.12
401.286	514.12
401.51	521.12
401.734	502.12
401.958	528.12
402.182	535.12
402.406	539.12
402.63	552.12
402.854	516.12
403.078	528.12
403.302	534.12
403.526	543.12
403.75	527.12
403.974	546.12
404.198	518.12
404.422	545.12
404.645	556.12
404.869	567.12
405.093	607.12
405.317	615.12
405.541	659.12
405.765	593.12
405.988	597.12
406.212	600.12
406.436	593.12
406.66	631.12
406.883	579.12
407.107	619.12
407.331	657.12
407.555	702.12
407.778	719.12
408.002	652.12
408.226	611.12
408.449	575.12
408.673	615.12
408.896	624.12
409.12	664.12
409.344	645.12
409.567	580.12
409.791	560.12
410.014	560.12
410.238	552.12
410.461	536.12
410.685	549.12
410.908	563.12
411.132	621.12
411.355	627.12
411.578	604.12
411.802	573.12
412.025	576.12
412.249	556.12
412.472	585.12
412.695	619.12
412.919	605.12
413.142	551.12
413.365	543.12
413.589	543.12
413.812	536.12
414.035	532.12
414.258	518.12
414.482	497.12
414.705	519.12
414.928	522.12
415.151	530.12
415.374	536.12
415.597	501.12
415.821	512.12
416.044	535.12
416.267	554.12
416.49	507.12
416.713	499.12
416.936	526.12
417.159	535.12
417.382	530.12
417.605	529.12
417.828	540.12
418.051	575.12
418.274	544.12
418.497	551.12
418.72	560.12
418.943	517.12
419.166	543.12
419.389	555.12
419.611	565.12
419.834	567.12
420.057	548.12
420.28	553.12
420.503	551.12
420.726	551.12
420.948	565.12
421.171	593.12
421.394	639.12
421.617	577.12
421.839	543.12
422.062	556.12
422.285	580.12
422.507	668.12
422.73	710.12
422.953	687.12
423.175	620.12
423.398	591.12
423.621	584.12
423.843	598.12
424.066	588.12
424.288	592.12
424.511	614.12
424.733	679.12
424.956	763.12
425.178	755.12
425.401	740.12
425.623	758.12
425.846	655.12
426.068	621.12
426.291	627.12
426.513	606.12
426.735	631.12
426.958	684.12
427.18	761.12
427.402	885.12
427.625	945.12
427.847	874.12
428.069	743.12
428.292	684.12
428.514	620.12
428.736	599.12
428.958	581.12
429.181	578.12
429.403	564.12
429.625	583.12
429.847	614.12
430.069	702.12
430.292	685.12
430.514	597.12
430.736	569.12
430.958	556.12
431.18	540.12
431.402	535.12
431.624	513.12
431.846	501.12
432.068	521.12
432.29	523.12
432.512	517.12
432.734	545.12
432.956	552.12
433.178	557.12
433.4	544.12
433.622	537.12
433.844	530.12
434.066	529.12
434.287	517.12
434.509	547.12
434.731	544.12
434.953	565.12
435.175	589.12
435.397	606.12
435.618	632.12
435.84	641.12
436.062	753.12
436.284	826.12
436.505	701.12
436.727	653.12
436.949	606.12
437.17	563.12
437.392	564.12
437.614	588.12
437.835	637.12
438.057	734.12
438.278	839.12
438.5	837.12
438.721	901.12
438.943	877.12
439.165	703.12
439.386	645.12
439.608	634.12
439.829	637.12
440.05	662.12
440.272	704.12
440.493	656.12
440.715	623.12
440.936	595.12
441.158	584.12
441.379	583.12
441.6	593.12
441.822	613.12
442.043	655.12
442.264	749.12
442.486	796.12
442.707	665.12
442.928	636.12
443.149	636.12
443.371	689.12
443.592	704.12
443.813	789.12
444.034	855.12
444.255	705.12
444.476	669.12
444.698	614.12
444.919	596.12
445.14	708.12
445.361	697.12
445.582	647.12
445.803	724.12
446.024	835.12
446.245	847.12
446.466	780.12
446.687	693.12
446.908	643.12
447.129	598.12
447.35	616.12
447.571	583.12
447.792	579.12
448.013	583.12
448.234	582.12
448.455	651.12
448.675	775.12
448.896	867.12
449.117	773.12
449.338	699.12
449.559	837.12
449.779	908.12
450	759.12
450.221	643.12
450.442	593.12
450.662	571.12
450.883	588.12
451.104	605.12
451.324	600.12
451.545	567.12
451.766	534.12
451.986	539.12
452.207	498.12
452.428	505.12
452.648	516.12
452.869	519.12
453.089	519.12
453.31	539.12
453.53	523.12
453.751	529.12
453.971	537.12
454.192	538.12
454.412	549.12
454.633	502.12
454.853	531.12
455.073	506.12
455.294	548.12
455.514	607.12
455.734	612.12
455.955	523.12
456.175	501.12
456.395	477.12
456.616	471.12
456.836	464.12
457.056	479.12
457.276	468.12
457.497	471.12
457.717	475.12
457.937	500.12
458.157	476.12
458.377	484.12
458.598	559.12
458.818	570.12
459.038	692.12
459.258	682.12
459.478	599.12
459.698	546.12
459.918	536.12
460.138	520.12
460.358	541.12
460.578	524.12
460.798	524.12
461.018	541.12
461.238	527.12
461.458	517.12
461.678	535.12
461.898	527.12
462.118	530.12
462.338	533.12
462.558	528.12
462.777	510.12
462.997	549.12
463.217	577.12
463.437	552.12
463.657	555.12
463.876	546.12
464.096	553.12
464.316	542.12
464.536	579.12
464.755	563.12
464.975	575.12
465.195	655.12
465.414	736.12
465.634	633.12
465.854	606.12
466.073	578.12
466.293	524.12
466.512	504.12
466.732	524.12
466.951	504.12
467.171	517.12
467.391	513.12
467.61	516.12
467.829	553.12
468.049	525.12
468.268	535.12
468.488	539.12
468.707	513.12
468.927	496.12
469.146	511.12
469.365	496.12
469.585	502.12
469.804	503.12
470.023	544.12
470.243	540.12
470.462	527.12
470.681	568.12
470.901	543.12
471.12	543.12
471.339	535.12
471.558	541.12
471.777	541.12
471.997	548.12
472.216	551.12
472.435	591.12
472.654	576.12
472.873	527.12
473.092	509.12
473.311	544.12
473.53	540.12
473.749	552.12
473.968	590.12
474.187	697.12
474.406	737.12
474.625	618.12
474.844	577.12
475.063	539.12
475.282	533.12
475.501	554.12
475.72	561.12
475.939	558.12
476.158	544.12
476.377	546.12
476.596	542.12
476.814	578.12
477.033	553.12
477.252	563.12
477.471	560.12
477.69	585.12
477.908	590.12
478.127	597.12
478.346	575.12
478.564	588.12
478.783	607.12
479.002	601.12
479.22	589.12
479.439	628.12
479.658	623.12
479.876	630.12
480.095	637.12
480.313	650.12
480.532	651.12
480.751	652.12
480.969	655.12
481.188	730.12
481.406	785.12
481.624	691.12
481.843	639.12
482.061	632.12
482.28	651.12
482.498	650.12
482.717	603.12
482.935	631.12
483.153	629.12
483.372	657.12
483.59	632.12
483.808	644.12
484.027	613.12
484.245	637.12
484.463	636.12
484.681	629.12
484.9	667.12
485.118	651.12
485.336	642.12
485.554	664.12
485.772	621.12
485.99	643.12
486.209	653.12
486.427	650.12
486.645	677.12
486.863	691.12
487.081	701.12
487.299	691.12
487.517	686.12
487.735	696.12
487.953	677.12
488.171	696.12
488.389	689.12
488.607	662.12
488.825	701.12
489.043	703.12
489.261	719.12
489.479	720.12
489.696	721.12
489.914	731.12
490.132	722.12
490.35	709.12
490.568	735.12
490.786	764.12
491.003	755.12
491.221	775.12
491.439	747.12
491.657	783.12
491.874	812.12
492.092	818.12
492.31	818.12
492.527	807.12
492.745	829.12
492.963	840.12
493.18	823.12
493.398	803.12
493.615	829.12
493.833	817.12
494.05	834.12
494.268	823.12
494.485	833.12
494.703	823.12
494.92	852.12
495.138	827.12
495.355	813.12
495.573	813.12
495.79	816.12
496.008	825.12
496.225	821.12
496.442	830.12
496.66	836.12
496.877	840.12
497.094	866.12
497.312	850.12
497.529	861.12
497.746	837.12
497.963	871.12
498.181	891.12
498.398	861.12
498.615	865.12
498.832	894.12
499.049	891.12
499.267	903.12
499.484	943.12
499.701	933.12
499.918	977.12
500.135	1019.12
500.352	1035.12
500.569	1047.12
500.786	1068.12
501.003	1001.12
501.22	1014.12
501.437	981.12
501.654	977.12
501.871	1005.12
