Data from 1970.PennyLincolnUp.Lamp.En5.5.200Scan.071719.P1._HRD10591_15-14-38-842.txt Node
Date: Thu Jul 18 15:14:38 EDT 2019
User: cochatt
Spectrometer: HR+D1059
Trigger mode: 1
Integration Time (sec): 1.000000E-1
Scans to average: 1
Electric dark correction enabled: true
Nonlinearity correction enabled: false
Boxcar width: 0
XAxis mode: Wavelengths
Number of Pixels in Spectrum: 2048
>>>>>Begin Spectral Data<<<<<
223.165	-29.31
223.4	-29.31
223.635	-29.31
223.869	-14.31
224.104	-4.31
224.338	-17.31
224.573	-10.31
224.808	-8.31
225.042	16.69
225.277	-12.31
225.511	-14.31
225.746	-0.31
225.98	3.69
226.215	5.69
226.449	17.69
226.683	18.69
226.918	20.69
227.152	27.69
227.387	30.69
227.621	36.69
227.856	28.69
228.09	51.69
228.324	37.69
228.559	63.69
228.793	71.69
229.027	100.69
229.262	108.69
229.496	136.69
229.73	146.69
229.964	155.69
230.199	152.69
230.433	115.69
230.667	115.69
230.901	136.69
231.136	119.69
231.37	115.69
231.604	118.69
231.838	119.69
232.072	110.69
232.306	129.69
232.541	105.69
232.775	123.69
233.009	122.69
233.243	128.69
233.477	116.69
233.711	105.69
233.945	114.69
234.179	122.69
234.413	118.69
234.647	106.69
234.881	113.69
235.115	104.69
235.349	115.69
235.583	109.69
235.817	117.69
236.051	124.69
236.285	142.69
236.519	121.69
236.753	137.69
236.987	142.69
237.221	190.69
237.455	229.69
237.689	186.69
237.922	150.69
238.156	140.69
238.39	127.69
238.624	125.69
238.858	131.69
239.091	114.69
239.325	122.69
239.559	122.69
239.793	146.69
240.027	142.69
240.26	152.69
240.494	151.69
240.728	160.69
240.961	149.69
241.195	151.69
241.429	130.69
241.662	137.69
241.896	142.69
242.13	129.69
242.363	145.69
242.597	115.69
242.83	149.69
243.064	146.69
243.298	146.69
243.531	139.69
243.765	139.69
243.998	145.69
244.232	145.69
244.465	122.69
244.699	151.69
244.932	149.69
245.166	162.69
245.399	138.69
245.633	157.69
245.866	156.69
246.099	148.69
246.333	156.69
246.566	142.69
246.8	148.69
247.033	151.69
247.266	168.69
247.5	158.69
247.733	164.69
247.966	174.69
248.2	158.69
248.433	165.69
248.666	170.69
248.899	178.69
249.133	200.69
249.366	213.69
249.599	216.69
249.832	199.69
250.066	203.69
250.299	186.69
250.532	197.69
250.765	221.69
250.998	237.69
251.231	229.69
251.465	228.69
251.698	213.69
251.931	213.69
252.164	204.69
252.397	205.69
252.63	209.69
252.863	220.69
253.096	229.69
253.329	244.69
253.562	250.69
253.795	228.69
254.028	227.69
254.261	219.69
254.494	231.69
254.727	258.69
254.96	285.69
255.193	289.69
255.426	272.69
255.659	254.69
255.892	233.69
256.124	245.69
256.357	247.69
256.59	231.69
256.823	219.69
257.056	228.69
257.289	225.69
257.521	220.69
257.754	223.69
257.987	220.69
258.22	213.69
258.452	216.69
258.685	222.69
258.918	202.69
259.151	219.69
259.383	217.69
259.616	213.69
259.849	212.69
260.081	229.69
260.314	238.69
260.547	258.69
260.779	254.69
261.012	234.69
261.244	232.69
261.477	234.69
261.71	212.69
261.942	220.69
262.175	243.69
262.407	232.69
262.64	219.69
262.872	226.69
263.105	230.69
263.337	207.69
263.57	207.69
263.802	206.69
264.035	208.69
264.267	204.69
264.499	201.69
264.732	211.69
264.964	202.69
265.197	204.69
265.429	212.69
265.661	209.69
265.894	216.69
266.126	208.69
266.358	221.69
266.591	204.69
266.823	202.69
267.055	229.69
267.287	233.69
267.52	234.69
267.752	229.69
267.984	213.69
268.216	205.69
268.448	203.69
268.681	220.69
268.913	249.69
269.145	244.69
269.377	281.69
269.609	257.69
269.841	269.69
270.073	259.69
270.306	287.69
270.538	305.69
270.77	307.69
271.002	292.69
271.234	298.69
271.466	300.69
271.698	329.69
271.93	293.69
272.162	318.69
272.394	309.69
272.626	298.69
272.858	290.69
273.09	276.69
273.322	266.69
273.553	255.69
273.785	256.69
274.017	251.69
274.249	259.69
274.481	239.69
274.713	262.69
274.945	244.69
275.176	244.69
275.408	247.69
275.64	270.69
275.872	233.69
276.104	233.69
276.335	261.69
276.567	261.69
276.799	278.69
277.031	297.69
277.262	316.69
277.494	302.69
277.726	307.69
277.957	270.69
278.189	273.69
278.421	278.69
278.652	261.69
278.884	241.69
279.115	258.69
279.347	244.69
279.579	233.69
279.81	242.69
280.042	233.69
280.273	244.69
280.505	237.69
280.736	233.69
280.968	267.69
281.199	231.69
281.431	243.69
281.662	251.69
281.894	253.69
282.125	253.69
282.356	252.69
282.588	283.69
282.819	277.69
283.051	275.69
283.282	264.69
283.513	247.69
283.745	230.69
283.976	237.69
284.207	260.69
284.439	241.69
284.67	265.69
284.901	254.69
285.132	241.69
285.364	247.69
285.595	260.69
285.826	238.69
286.057	249.69
286.288	271.69
286.52	241.69
286.751	247.69
286.982	249.69
287.213	258.69
287.444	252.69
287.675	278.69
287.906	265.69
288.138	273.69
288.369	261.69
288.6	279.69
288.831	266.69
289.062	250.69
289.293	257.69
289.524	262.69
289.755	265.69
289.986	254.69
290.217	250.69
290.448	261.69
290.679	263.69
290.91	262.69
291.141	249.69
291.371	264.69
291.602	259.69
291.833	272.69
292.064	241.69
292.295	246.69
292.526	279.69
292.757	254.69
292.987	253.69
293.218	251.69
293.449	264.69
293.68	259.69
293.91	266.69
294.141	250.69
294.372	260.69
294.603	255.69
294.833	257.69
295.064	262.69
295.295	254.69
295.525	277.69
295.756	281.69
295.987	289.69
296.217	279.69
296.448	312.69
296.679	291.69
296.909	269.69
297.14	257.69
297.37	265.69
297.601	259.69
297.831	260.69
298.062	254.69
298.292	277.69
298.523	257.69
298.753	262.69
298.984	288.69
299.214	277.69
299.445	266.69
299.675	269.69
299.905	266.69
300.136	301.69
300.366	248.69
300.597	273.69
300.827	291.69
301.057	291.69
301.288	302.69
301.518	277.69
301.748	278.69
301.979	294.69
302.209	292.69
302.439	291.69
302.669	302.69
302.9	306.69
303.13	289.69
303.36	286.69
303.59	293.69
303.82	302.69
304.051	309.69
304.281	293.69
304.511	295.69
304.741	309.69
304.971	283.69
305.201	293.69
305.431	289.69
305.661	282.69
305.891	305.69
306.121	308.69
306.352	280.69
306.582	285.69
306.812	298.69
307.042	307.69
307.272	312.69
307.502	309.69
307.731	307.69
307.961	306.69
308.191	283.69
308.421	296.69
308.651	307.69
308.881	299.69
309.111	298.69
309.341	327.69
309.571	315.69
309.8	335.69
310.03	346.69
310.26	346.69
310.49	334.69
310.72	340.69
310.949	370.69
311.179	381.69
311.409	355.69
311.639	350.69
311.868	334.69
312.098	351.69
312.328	361.69
312.557	364.69
312.787	380.69
313.017	377.69
313.246	379.69
313.476	364.69
313.706	331.69
313.935	341.69
314.165	351.69
314.394	351.69
314.624	355.69
314.853	358.69
315.083	354.69
315.312	341.69
315.542	329.69
315.771	342.69
316.001	332.69
316.23	340.69
316.46	356.69
316.689	358.69
316.919	358.69
317.148	358.69
317.377	360.69
317.607	350.69
317.836	351.69
318.065	344.69
318.295	349.69
318.524	349.69
318.753	334.69
318.983	341.69
319.212	360.69
319.441	369.69
319.67	337.69
319.9	353.69
320.129	351.69
320.358	351.69
320.587	349.69
320.816	360.69
321.046	366.69
321.275	365.69
321.504	386.69
321.733	383.69
321.962	377.69
322.191	383.69
322.42	403.69
322.649	420.69
322.878	428.69
323.108	418.69
323.337	462.69
323.566	494.69
323.795	533.69
324.024	584.69
324.253	706.69
324.482	973.69
324.71	1523.69
324.939	2133.69
325.168	1894.69
325.397	1023.69
325.626	695.69
325.855	549.69
326.084	490.69
326.313	484.69
326.542	500.69
326.77	565.69
326.999	640.69
327.228	876.69
327.457	1329.69
327.686	1623.69
327.914	1105.69
328.143	767.69
328.372	635.69
328.6	588.69
328.829	553.69
329.058	548.69
329.287	595.69
329.515	562.69
329.744	521.69
329.972	525.69
330.201	541.69
330.43	571.69
330.658	595.69
330.887	619.69
331.115	599.69
331.344	506.69
331.572	486.69
331.801	475.69
332.03	462.69
332.258	442.69
332.486	448.69
332.715	434.69
332.943	409.69
333.172	409.69
333.4	418.69
333.629	432.69
333.857	430.69
334.085	433.69
334.314	471.69
334.542	473.69
334.771	531.69
334.999	454.69
335.227	435.69
335.455	438.69
335.684	428.69
335.912	386.69
336.14	415.69
336.369	413.69
336.597	413.69
336.825	408.69
337.053	408.69
337.281	414.69
337.51	404.69
337.738	417.69
337.966	410.69
338.194	403.69
338.422	406.69
338.65	402.69
338.878	378.69
339.106	398.69
339.334	405.69
339.562	381.69
339.79	379.69
340.018	399.69
340.246	386.69
340.474	389.69
340.702	396.69
340.93	392.69
341.158	392.69
341.386	403.69
341.614	392.69
341.842	385.69
342.07	367.69
342.298	394.69
342.526	378.69
342.754	373.69
342.981	379.69
343.209	357.69
343.437	395.69
343.665	374.69
343.893	398.69
344.12	398.69
344.348	393.69
344.576	397.69
344.804	417.69
345.031	421.69
345.259	411.69
345.487	439.69
345.714	409.69
345.942	389.69
346.17	393.69
346.397	382.69
346.625	403.69
346.853	379.69
347.08	369.69
347.308	361.69
347.535	395.69
347.763	399.69
347.99	401.69
348.218	423.69
348.445	414.69
348.673	420.69
348.9	391.69
349.128	385.69
349.355	385.69
349.583	385.69
349.81	394.69
350.037	373.69
350.265	377.69
350.492	370.69
350.72	377.69
350.947	385.69
351.174	392.69
351.402	412.69
351.629	402.69
351.856	407.69
352.083	405.69
352.311	424.69
352.538	433.69
352.765	410.69
352.992	401.69
353.22	398.69
353.447	395.69
353.674	378.69
353.901	378.69
354.128	382.69
354.355	372.69
354.583	369.69
354.81	363.69
355.037	370.69
355.264	379.69
355.491	346.69
355.718	369.69
355.945	371.69
356.172	357.69
356.399	364.69
356.626	369.69
356.853	349.69
357.08	370.69
357.307	364.69
357.534	357.69
357.761	346.69
357.988	374.69
358.215	365.69
358.441	375.69
358.668	351.69
358.895	383.69
359.122	381.69
359.349	391.69
359.576	417.69
359.802	414.69
360.029	455.69
360.256	476.69
360.483	437.69
360.709	414.69
360.936	405.69
361.163	381.69
361.39	415.69
361.616	403.69
361.843	389.69
362.07	395.69
362.296	404.69
362.523	412.69
362.749	386.69
362.976	389.69
363.203	395.69
363.429	393.69
363.656	391.69
363.882	385.69
364.109	379.69
364.335	361.69
364.562	383.69
364.788	385.69
365.015	372.69
365.241	384.69
365.468	389.69
365.694	378.69
365.92	398.69
366.147	382.69
366.373	373.69
366.599	366.69
366.826	379.69
367.052	381.69
367.278	371.69
367.505	370.69
367.731	380.69
367.957	381.69
368.184	381.69
368.41	396.69
368.636	409.69
368.862	397.69
369.089	383.69
369.315	382.69
369.541	379.69
369.767	370.69
369.993	382.69
370.219	373.69
370.445	374.69
370.672	369.69
370.898	382.69
371.124	383.69
371.35	365.69
371.576	359.69
371.802	360.69
372.028	362.69
372.254	371.69
372.48	394.69
372.706	367.69
372.932	356.69
373.158	364.69
373.384	367.69
373.61	370.69
373.835	393.69
374.061	374.69
374.287	388.69
374.513	362.69
374.739	379.69
374.965	388.69
375.191	373.69
375.416	391.69
375.642	372.69
375.868	377.69
376.094	381.69
376.319	372.69
376.545	350.69
376.771	365.69
376.997	359.69
377.222	353.69
377.448	351.69
377.674	377.69
377.899	384.69
378.125	361.69
378.35	392.69
378.576	379.69
378.802	360.69
379.027	373.69
379.253	359.69
379.478	374.69
379.704	374.69
379.929	386.69
380.155	369.69
380.38	384.69
380.606	384.69
380.831	382.69
381.057	374.69
381.282	383.69
381.507	376.69
381.733	366.69
381.958	393.69
382.184	362.69
382.409	388.69
382.634	381.69
382.86	366.69
383.085	375.69
383.31	377.69
383.535	392.69
383.761	395.69
383.986	379.69
384.211	380.69
384.436	377.69
384.662	387.69
384.887	390.69
385.112	367.69
385.337	396.69
385.562	410.69
385.787	393.69
386.013	430.69
386.238	419.69
386.463	413.69
386.688	415.69
386.913	404.69
387.138	412.69
387.363	412.69
387.588	394.69
387.813	410.69
388.038	387.69
388.263	403.69
388.488	407.69
388.713	413.69
388.938	389.69
389.163	385.69
389.387	393.69
389.612	423.69
389.837	401.69
390.062	375.69
390.287	403.69
390.512	379.69
390.736	380.69
390.961	411.69
391.186	408.69
391.411	394.69
391.636	389.69
391.86	435.69
392.085	427.69
392.31	413.69
392.534	417.69
392.759	412.69
392.984	401.69
393.208	399.69
393.433	408.69
393.658	414.69
393.882	408.69
394.107	405.69
394.331	417.69
394.556	433.69
394.78	405.69
395.005	410.69
395.229	394.69
395.454	410.69
395.678	419.69
395.903	423.69
396.127	445.69
396.352	443.69
396.576	436.69
396.801	438.69
397.025	423.69
397.249	425.69
397.474	424.69
397.698	421.69
397.922	418.69
398.147	433.69
398.371	435.69
398.595	445.69
398.82	454.69
399.044	437.69
399.268	462.69
399.492	496.69
399.717	471.69
399.941	516.69
400.165	531.69
400.389	550.69
400.613	526.69
400.837	485.69
401.062	466.69
401.286	460.69
401.51	454.69
401.734	447.69
401.958	445.69
402.182	481.69
402.406	486.69
402.63	477.69
402.854	465.69
403.078	474.69
403.302	480.69
403.526	464.69
403.75	464.69
403.974	471.69
404.198	455.69
404.422	474.69
404.645	487.69
404.869	479.69
405.093	534.69
405.317	552.69
405.541	585.69
405.765	545.69
405.988	521.69
406.212	526.69
406.436	557.69
406.66	571.69
406.883	542.69
407.107	544.69
407.331	577.69
407.555	634.69
407.778	643.69
408.002	590.69
408.226	538.69
408.449	517.69
408.673	538.69
408.896	539.69
409.12	619.69
409.344	580.69
409.567	504.69
409.791	478.69
410.014	477.69
410.238	470.69
410.461	494.69
410.685	489.69
410.908	516.69
411.132	538.69
411.355	547.69
411.578	547.69
411.802	502.69
412.025	485.69
412.249	510.69
412.472	528.69
412.695	547.69
412.919	569.69
413.142	510.69
413.365	479.69
413.589	481.69
413.812	479.69
414.035	466.69
414.258	462.69
414.482	468.69
414.705	461.69
414.928	458.69
415.151	461.69
415.374	478.69
415.597	440.69
415.821	446.69
416.044	459.69
416.267	460.69
416.49	452.69
416.713	459.69
416.936	457.69
417.159	452.69
417.382	459.69
417.605	466.69
417.828	491.69
418.051	480.69
418.274	469.69
418.497	450.69
418.72	473.69
418.943	477.69
419.166	468.69
419.389	489.69
419.611	501.69
419.834	475.69
420.057	494.69
420.28	521.69
420.503	499.69
420.726	499.69
420.948	509.69
421.171	558.69
421.394	585.69
421.617	541.69
421.839	505.69
422.062	497.69
422.285	525.69
422.507	572.69
422.73	618.69
422.953	603.69
423.175	545.69
423.398	519.69
423.621	514.69
423.843	548.69
424.066	545.69
424.288	543.69
424.511	566.69
424.733	617.69
424.956	677.69
425.178	673.69
425.401	644.69
425.623	649.69
425.846	585.69
426.068	573.69
426.291	553.69
426.513	537.69
426.735	564.69
426.958	587.69
427.18	652.69
427.402	764.69
427.625	874.69
427.847	782.69
428.069	681.69
428.292	605.69
428.514	552.69
428.736	528.69
428.958	535.69
429.181	507.69
429.403	505.69
429.625	521.69
429.847	567.69
430.069	586.69
430.292	591.69
430.514	545.69
430.736	541.69
430.958	502.69
431.18	498.69
431.402	477.69
431.624	483.69
431.846	470.69
432.068	471.69
432.29	474.69
432.512	495.69
432.734	471.69
432.956	484.69
433.178	490.69
433.4	492.69
433.622	471.69
433.844	474.69
434.066	485.69
434.287	474.69
434.509	467.69
434.731	469.69
434.953	495.69
435.175	493.69
435.397	539.69
435.618	552.69
435.84	609.69
436.062	674.69
436.284	717.69
436.505	627.69
436.727	558.69
436.949	506.69
437.17	529.69
437.392	523.69
437.614	522.69
437.835	562.69
438.057	669.69
438.278	747.69
438.5	753.69
438.721	812.69
438.943	780.69
439.165	635.69
439.386	563.69
439.608	569.69
439.829	578.69
440.05	592.69
440.272	665.69
440.493	609.69
440.715	545.69
440.936	534.69
441.158	501.69
441.379	533.69
441.6	529.69
441.822	567.69
442.043	610.69
442.264	664.69
442.486	735.69
442.707	628.69
442.928	549.69
443.149	572.69
443.371	623.69
443.592	610.69
443.813	713.69
444.034	760.69
444.255	653.69
444.476	581.69
444.698	537.69
444.919	536.69
445.14	671.69
445.361	632.69
445.582	596.69
445.803	633.69
446.024	734.69
446.245	764.69
446.466	684.69
446.687	604.69
446.908	582.69
447.129	546.69
447.35	532.69
447.571	521.69
447.792	504.69
448.013	512.69
448.234	543.69
448.455	591.69
448.675	700.69
448.896	761.69
449.117	674.69
449.338	669.69
449.559	773.69
449.779	830.69
450	675.69
450.221	579.69
450.442	515.69
450.662	532.69
450.883	514.69
451.104	519.69
451.324	532.69
451.545	521.69
451.766	489.69
451.986	476.69
452.207	450.69
452.428	477.69
452.648	466.69
452.869	469.69
453.089	465.69
453.31	471.69
453.53	468.69
453.751	467.69
453.971	454.69
454.192	489.69
454.412	497.69
454.633	457.69
454.853	441.69
455.073	446.69
455.294	501.69
455.514	554.69
455.734	559.69
455.955	455.69
456.175	446.69
456.395	408.69
456.616	434.69
456.836	427.69
457.056	414.69
457.276	406.69
457.497	434.69
457.717	417.69
457.937	438.69
458.157	457.69
458.377	452.69
458.598	467.69
458.818	526.69
459.038	630.69
459.258	635.69
459.478	555.69
459.698	499.69
459.918	491.69
460.138	475.69
460.358	461.69
460.578	465.69
460.798	465.69
461.018	441.69
461.238	470.69
461.458	457.69
461.678	458.69
461.898	447.69
462.118	469.69
462.338	477.69
462.558	474.69
462.777	465.69
462.997	465.69
463.217	476.69
463.437	498.69
463.657	501.69
463.876	476.69
464.096	473.69
464.316	501.69
464.536	531.69
464.755	497.69
464.975	505.69
465.195	563.69
465.414	651.69
465.634	569.69
465.854	544.69
466.073	510.69
466.293	486.69
466.512	485.69
466.732	471.69
466.951	479.69
467.171	469.69
467.391	466.69
467.61	476.69
467.829	471.69
468.049	469.69
468.268	492.69
468.488	471.69
468.707	468.69
468.927	463.69
469.146	457.69
469.365	454.69
469.585	449.69
469.804	454.69
470.023	485.69
470.243	475.69
470.462	485.69
470.681	493.69
470.901	486.69
471.12	492.69
471.339	487.69
471.558	472.69
471.777	482.69
471.997	489.69
472.216	469.69
472.435	509.69
472.654	503.69
472.873	482.69
473.092	484.69
473.311	473.69
473.53	486.69
473.749	500.69
473.968	547.69
474.187	634.69
474.406	677.69
474.625	540.69
474.844	515.69
475.063	488.69
475.282	467.69
475.501	474.69
475.72	492.69
475.939	496.69
476.158	505.69
476.377	489.69
476.596	508.69
476.814	501.69
477.033	504.69
477.252	506.69
477.471	504.69
477.69	516.69
477.908	510.69
478.127	527.69
478.346	511.69
478.564	551.69
478.783	518.69
479.002	524.69
479.22	525.69
479.439	561.69
479.658	566.69
479.876	554.69
480.095	586.69
480.313	612.69
480.532	585.69
480.751	580.69
480.969	592.69
481.188	663.69
481.406	709.69
481.624	631.69
481.843	602.69
482.061	587.69
482.28	572.69
482.498	598.69
482.717	580.69
482.935	563.69
483.153	550.69
483.372	579.69
483.59	575.69
483.808	549.69
484.027	563.69
484.245	549.69
484.463	559.69
484.681	619.69
484.9	561.69
485.118	602.69
485.336	580.69
485.554	558.69
485.772	583.69
485.99	596.69
486.209	595.69
486.427	578.69
486.645	595.69
486.863	630.69
487.081	638.69
487.299	636.69
487.517	626.69
487.735	638.69
487.953	633.69
488.171	606.69
488.389	617.69
488.607	635.69
488.825	636.69
489.043	598.69
489.261	619.69
489.479	637.69
489.696	656.69
489.914	630.69
490.132	659.69
490.35	635.69
490.568	666.69
490.786	674.69
491.003	703.69
491.221	719.69
491.439	709.69
491.657	707.69
491.874	704.69
492.092	739.69
492.31	761.69
492.527	724.69
492.745	749.69
492.963	733.69
493.18	766.69
493.398	743.69
493.615	755.69
493.833	746.69
494.05	764.69
494.268	758.69
494.485	758.69
494.703	731.69
494.92	781.69
495.138	781.69
495.355	741.69
495.573	747.69
495.79	754.69
496.008	758.69
496.225	766.69
496.442	762.69
496.66	746.69
496.877	761.69
497.094	751.69
497.312	760.69
497.529	788.69
497.746	759.69
497.963	755.69
498.181	802.69
498.398	814.69
498.615	820.69
498.832	813.69
499.049	803.69
499.267	803.69
499.484	820.69
499.701	840.69
499.918	862.69
500.135	907.69
500.352	893.69
500.569	898.69
500.786	916.69
501.003	889.69
501.22	881.69
501.437	884.69
501.654	833.69
501.871	889.69
