Data from 1970.PennyLincolnUp.Lamp.En5.5.200Scan.071719.P1._HRD10591_15-14-46-843.txt Node
Date: Thu Jul 18 15:14:46 EDT 2019
User: cochatt
Spectrometer: HR+D1059
Trigger mode: 1
Integration Time (sec): 1.000000E-1
Scans to average: 1
Electric dark correction enabled: true
Nonlinearity correction enabled: false
Boxcar width: 0
XAxis mode: Wavelengths
Number of Pixels in Spectrum: 2048
>>>>>Begin Spectral Data<<<<<
223.165	-19.56
223.4	-19.56
223.635	-19.56
223.869	-17.56
224.104	-26.56
224.338	-23.56
224.573	-13.56
224.808	-15.56
225.042	-2.56
225.277	-3.56
225.511	11.44
225.746	3.44
225.98	17.44
226.215	11.44
226.449	11.44
226.683	9.44
226.918	24.44
227.152	33.44
227.387	43.44
227.621	33.44
227.856	37.44
228.09	56.44
228.324	42.44
228.559	55.44
228.793	62.44
229.027	106.44
229.262	107.44
229.496	119.44
229.73	148.44
229.964	173.44
230.199	140.44
230.433	128.44
230.667	129.44
230.901	128.44
231.136	118.44
231.37	109.44
231.604	108.44
231.838	122.44
232.072	122.44
232.306	108.44
232.541	120.44
232.775	96.44
233.009	112.44
233.243	114.44
233.477	117.44
233.711	113.44
233.945	123.44
234.179	134.44
234.413	123.44
234.647	124.44
234.881	125.44
235.115	115.44
235.349	134.44
235.583	113.44
235.817	120.44
236.051	129.44
236.285	138.44
236.519	132.44
236.753	148.44
236.987	165.44
237.221	197.44
237.455	252.44
237.689	189.44
237.922	152.44
238.156	139.44
238.39	141.44
238.624	145.44
238.858	139.44
239.091	147.44
239.325	140.44
239.559	148.44
239.793	134.44
240.027	147.44
240.26	144.44
240.494	177.44
240.728	165.44
240.961	155.44
241.195	176.44
241.429	158.44
241.662	139.44
241.896	135.44
242.13	148.44
242.363	152.44
242.597	125.44
242.83	140.44
243.064	138.44
243.298	134.44
243.531	136.44
243.765	152.44
243.998	153.44
244.232	149.44
244.465	169.44
244.699	151.44
244.932	155.44
245.166	165.44
245.399	152.44
245.633	154.44
245.866	147.44
246.099	157.44
246.333	147.44
246.566	161.44
246.8	158.44
247.033	167.44
247.266	173.44
247.5	192.44
247.733	195.44
247.966	184.44
248.2	190.44
248.433	194.44
248.666	200.44
248.899	201.44
249.133	217.44
249.366	236.44
249.599	231.44
249.832	204.44
250.066	206.44
250.299	206.44
250.532	216.44
250.765	230.44
250.998	233.44
251.231	237.44
251.465	236.44
251.698	227.44
251.931	213.44
252.164	210.44
252.397	216.44
252.63	221.44
252.863	234.44
253.096	229.44
253.329	240.44
253.562	255.44
253.795	257.44
254.028	243.44
254.261	228.44
254.494	254.44
254.727	267.44
254.96	318.44
255.193	306.44
255.426	278.44
255.659	255.44
255.892	268.44
256.124	259.44
256.357	264.44
256.59	261.44
256.823	247.44
257.056	230.44
257.289	221.44
257.521	229.44
257.754	226.44
257.987	213.44
258.22	209.44
258.452	221.44
258.685	211.44
258.918	234.44
259.151	204.44
259.383	241.44
259.616	224.44
259.849	247.44
260.081	254.44
260.314	282.44
260.547	283.44
260.779	280.44
261.012	230.44
261.244	243.44
261.477	237.44
261.71	240.44
261.942	246.44
262.175	246.44
262.407	246.44
262.64	229.44
262.872	229.44
263.105	240.44
263.337	233.44
263.57	207.44
263.802	220.44
264.035	212.44
264.267	219.44
264.499	210.44
264.732	229.44
264.964	215.44
265.197	205.44
265.429	222.44
265.661	211.44
265.894	242.44
266.126	234.44
266.358	219.44
266.591	205.44
266.823	240.44
267.055	228.44
267.287	250.44
267.52	240.44
267.752	232.44
267.984	233.44
268.216	235.44
268.448	229.44
268.681	247.44
268.913	252.44
269.145	274.44
269.377	297.44
269.609	278.44
269.841	272.44
270.073	289.44
270.306	320.44
270.538	324.44
270.77	349.44
271.002	300.44
271.234	297.44
271.466	298.44
271.698	333.44
271.93	342.44
272.162	363.44
272.394	344.44
272.626	315.44
272.858	285.44
273.09	297.44
273.322	261.44
273.553	278.44
273.785	271.44
274.017	270.44
274.249	274.44
274.481	286.44
274.713	276.44
274.945	266.44
275.176	283.44
275.408	280.44
275.64	267.44
275.872	283.44
276.104	263.44
276.335	263.44
276.567	277.44
276.799	299.44
277.031	313.44
277.262	350.44
277.494	303.44
277.726	314.44
277.957	290.44
278.189	270.44
278.421	285.44
278.652	274.44
278.884	271.44
279.115	261.44
279.347	261.44
279.579	276.44
279.81	258.44
280.042	269.44
280.273	265.44
280.505	248.44
280.736	272.44
280.968	261.44
281.199	261.44
281.431	267.44
281.662	259.44
281.894	269.44
282.125	270.44
282.356	284.44
282.588	308.44
282.819	327.44
283.051	286.44
283.282	286.44
283.513	280.44
283.745	259.44
283.976	273.44
284.207	280.44
284.439	277.44
284.67	284.44
284.901	272.44
285.132	289.44
285.364	274.44
285.595	265.44
285.826	267.44
286.057	269.44
286.288	262.44
286.52	263.44
286.751	269.44
286.982	256.44
287.213	288.44
287.444	274.44
287.675	272.44
287.906	298.44
288.138	308.44
288.369	308.44
288.6	308.44
288.831	289.44
289.062	301.44
289.293	298.44
289.524	297.44
289.755	290.44
289.986	284.44
290.217	277.44
290.448	299.44
290.679	284.44
290.91	290.44
291.141	282.44
291.371	287.44
291.602	296.44
291.833	299.44
292.064	289.44
292.295	295.44
292.526	290.44
292.757	312.44
292.987	283.44
293.218	289.44
293.449	277.44
293.68	281.44
293.91	278.44
294.141	288.44
294.372	281.44
294.603	276.44
294.833	296.44
295.064	291.44
295.295	298.44
295.525	287.44
295.756	286.44
295.987	279.44
296.217	323.44
296.448	333.44
296.679	324.44
296.909	260.44
297.14	284.44
297.37	302.44
297.601	288.44
297.831	307.44
298.062	282.44
298.292	304.44
298.523	321.44
298.753	296.44
298.984	294.44
299.214	293.44
299.445	297.44
299.675	315.44
299.905	320.44
300.136	323.44
300.366	298.44
300.597	304.44
300.827	308.44
301.057	328.44
301.288	328.44
301.518	324.44
301.748	305.44
301.979	291.44
302.209	313.44
302.439	331.44
302.669	343.44
302.9	312.44
303.13	308.44
303.36	318.44
303.59	318.44
303.82	345.44
304.051	336.44
304.281	331.44
304.511	320.44
304.741	333.44
304.971	325.44
305.201	306.44
305.431	335.44
305.661	312.44
305.891	317.44
306.121	301.44
306.352	334.44
306.582	334.44
306.812	331.44
307.042	334.44
307.272	333.44
307.502	348.44
307.731	340.44
307.961	342.44
308.191	331.44
308.421	329.44
308.651	322.44
308.881	325.44
309.111	333.44
309.341	346.44
309.571	369.44
309.8	376.44
310.03	352.44
310.26	372.44
310.49	374.44
310.72	386.44
310.949	398.44
311.179	417.44
311.409	378.44
311.639	382.44
311.868	398.44
312.098	381.44
312.328	397.44
312.557	428.44
312.787	410.44
313.017	425.44
313.246	393.44
313.476	394.44
313.706	393.44
313.935	384.44
314.165	385.44
314.394	423.44
314.624	418.44
314.853	396.44
315.083	381.44
315.312	384.44
315.542	382.44
315.771	376.44
316.001	371.44
316.23	401.44
316.46	379.44
316.689	378.44
316.919	394.44
317.148	393.44
317.377	378.44
317.607	384.44
317.836	389.44
318.065	378.44
318.295	376.44
318.524	377.44
318.753	382.44
318.983	391.44
319.212	375.44
319.441	404.44
319.67	392.44
319.9	389.44
320.129	380.44
320.358	382.44
320.587	420.44
320.816	395.44
321.046	436.44
321.275	441.44
321.504	395.44
321.733	432.44
321.962	409.44
322.191	434.44
322.42	443.44
322.649	470.44
322.878	486.44
323.108	474.44
323.337	522.44
323.566	530.44
323.795	589.44
324.024	630.44
324.253	768.44
324.482	1125.44
324.71	1693.44
324.939	2392.44
325.168	2084.44
325.397	1096.44
325.626	747.44
325.855	602.44
326.084	554.44
326.313	557.44
326.542	561.44
326.77	616.44
326.999	736.44
327.228	970.44
327.457	1456.44
327.686	1827.44
327.914	1232.44
328.143	822.44
328.372	692.44
328.6	661.44
328.829	624.44
329.058	633.44
329.287	648.44
329.515	605.44
329.744	554.44
329.972	560.44
330.201	586.44
330.43	637.44
330.658	662.44
330.887	694.44
331.115	665.44
331.344	571.44
331.572	542.44
331.801	520.44
332.03	529.44
332.258	507.44
332.486	466.44
332.715	469.44
332.943	464.44
333.172	460.44
333.4	469.44
333.629	459.44
333.857	480.44
334.085	491.44
334.314	517.44
334.542	561.44
334.771	573.44
334.999	535.44
335.227	489.44
335.455	478.44
335.684	446.44
335.912	462.44
336.14	434.44
336.369	450.44
336.597	464.44
336.825	466.44
337.053	445.44
337.281	427.44
337.51	443.44
337.738	448.44
337.966	465.44
338.194	457.44
338.422	453.44
338.65	437.44
338.878	442.44
339.106	440.44
339.334	448.44
339.562	420.44
339.79	435.44
340.018	424.44
340.246	426.44
340.474	452.44
340.702	422.44
340.93	437.44
341.158	443.44
341.386	433.44
341.614	427.44
341.842	448.44
342.07	428.44
342.298	409.44
342.526	425.44
342.754	425.44
342.981	430.44
343.209	416.44
343.437	433.44
343.665	432.44
343.893	448.44
344.12	442.44
344.348	434.44
344.576	453.44
344.804	448.44
345.031	436.44
345.259	464.44
345.487	448.44
345.714	446.44
345.942	462.44
346.17	446.44
346.397	427.44
346.625	416.44
346.853	432.44
347.08	435.44
347.308	441.44
347.535	454.44
347.763	461.44
347.99	441.44
348.218	453.44
348.445	455.44
348.673	473.44
348.9	445.44
349.128	456.44
349.355	412.44
349.583	422.44
349.81	403.44
350.037	431.44
350.265	417.44
350.492	418.44
350.72	419.44
350.947	410.44
351.174	453.44
351.402	458.44
351.629	445.44
351.856	451.44
352.083	466.44
352.311	473.44
352.538	461.44
352.765	462.44
352.992	448.44
353.22	462.44
353.447	441.44
353.674	428.44
353.901	420.44
354.128	417.44
354.355	400.44
354.583	424.44
354.81	408.44
355.037	410.44
355.264	396.44
355.491	388.44
355.718	404.44
355.945	409.44
356.172	396.44
356.399	374.44
356.626	386.44
356.853	402.44
357.08	399.44
357.307	402.44
357.534	392.44
357.761	396.44
357.988	403.44
358.215	400.44
358.441	410.44
358.668	391.44
358.895	404.44
359.122	410.44
359.349	448.44
359.576	445.44
359.802	440.44
360.029	496.44
360.256	530.44
360.483	482.44
360.709	454.44
360.936	468.44
361.163	432.44
361.39	441.44
361.616	450.44
361.843	445.44
362.07	427.44
362.296	450.44
362.523	439.44
362.749	441.44
362.976	448.44
363.203	428.44
363.429	445.44
363.656	439.44
363.882	432.44
364.109	414.44
364.335	412.44
364.562	421.44
364.788	418.44
365.015	443.44
365.241	428.44
365.468	432.44
365.694	429.44
365.92	428.44
366.147	419.44
366.373	407.44
366.599	397.44
366.826	416.44
367.052	418.44
367.278	416.44
367.505	392.44
367.731	420.44
367.957	410.44
368.184	436.44
368.41	432.44
368.636	428.44
368.862	445.44
369.089	424.44
369.315	414.44
369.541	419.44
369.767	415.44
369.993	416.44
370.219	421.44
370.445	419.44
370.672	420.44
370.898	414.44
371.124	399.44
371.35	413.44
371.576	420.44
371.802	408.44
372.028	443.44
372.254	436.44
372.48	420.44
372.706	412.44
372.932	413.44
373.158	416.44
373.384	412.44
373.61	420.44
373.835	433.44
374.061	419.44
374.287	416.44
374.513	417.44
374.739	413.44
374.965	418.44
375.191	410.44
375.416	430.44
375.642	399.44
375.868	413.44
376.094	427.44
376.319	419.44
376.545	417.44
376.771	415.44
376.997	429.44
377.222	409.44
377.448	424.44
377.674	425.44
377.899	419.44
378.125	414.44
378.35	396.44
378.576	422.44
378.802	413.44
379.027	416.44
379.253	399.44
379.478	420.44
379.704	429.44
379.929	438.44
380.155	418.44
380.38	409.44
380.606	422.44
380.831	409.44
381.057	424.44
381.282	416.44
381.507	434.44
381.733	425.44
381.958	442.44
382.184	426.44
382.409	436.44
382.634	425.44
382.86	439.44
383.085	419.44
383.31	405.44
383.535	428.44
383.761	421.44
383.986	445.44
384.211	439.44
384.436	426.44
384.662	444.44
384.887	428.44
385.112	434.44
385.337	445.44
385.562	474.44
385.787	463.44
386.013	471.44
386.238	449.44
386.463	462.44
386.688	441.44
386.913	456.44
387.138	450.44
387.363	458.44
387.588	435.44
387.813	459.44
388.038	454.44
388.263	456.44
388.488	456.44
388.713	464.44
388.938	437.44
389.163	473.44
389.387	457.44
389.612	459.44
389.837	436.44
390.062	447.44
390.287	454.44
390.512	442.44
390.736	433.44
390.961	453.44
391.186	445.44
391.411	445.44
391.636	449.44
391.86	449.44
392.085	457.44
392.31	458.44
392.534	483.44
392.759	472.44
392.984	446.44
393.208	460.44
393.433	476.44
393.658	455.44
393.882	460.44
394.107	450.44
394.331	454.44
394.556	458.44
394.78	487.44
395.005	481.44
395.229	462.44
395.454	460.44
395.678	475.44
395.903	487.44
396.127	485.44
396.352	531.44
396.576	461.44
396.801	466.44
397.025	485.44
397.249	485.44
397.474	472.44
397.698	476.44
397.922	505.44
398.147	514.44
398.371	542.44
398.595	514.44
398.82	495.44
399.044	520.44
399.268	519.44
399.492	561.44
399.717	548.44
399.941	597.44
400.165	620.44
400.389	626.44
400.613	602.44
400.837	551.44
401.062	510.44
401.286	519.44
401.51	544.44
401.734	520.44
401.958	526.44
402.182	535.44
402.406	550.44
402.63	530.44
402.854	544.44
403.078	534.44
403.302	543.44
403.526	547.44
403.75	552.44
403.974	548.44
404.198	551.44
404.422	558.44
404.645	554.44
404.869	549.44
405.093	587.44
405.317	633.44
405.541	655.44
405.765	611.44
405.988	589.44
406.212	604.44
406.436	613.44
406.66	636.44
406.883	600.44
407.107	633.44
407.331	646.44
407.555	728.44
407.778	700.44
408.002	679.44
408.226	612.44
408.449	605.44
408.673	618.44
408.896	634.44
409.12	672.44
409.344	643.44
409.567	599.44
409.791	580.44
410.014	562.44
410.238	567.44
410.461	549.44
410.685	568.44
410.908	577.44
411.132	595.44
411.355	678.44
411.578	600.44
411.802	562.44
412.025	566.44
412.249	556.44
412.472	608.44
412.695	625.44
412.919	603.44
413.142	578.44
413.365	544.44
413.589	546.44
413.812	514.44
414.035	543.44
414.258	520.44
414.482	530.44
414.705	527.44
414.928	499.44
415.151	529.44
415.374	517.44
415.597	505.44
415.821	510.44
416.044	502.44
416.267	514.44
416.49	514.44
416.713	529.44
416.936	534.44
417.159	503.44
417.382	517.44
417.605	519.44
417.828	540.44
418.051	564.44
418.274	560.44
418.497	540.44
418.72	513.44
418.943	525.44
419.166	546.44
419.389	548.44
419.611	549.44
419.834	538.44
420.057	572.44
420.28	552.44
420.503	546.44
420.726	554.44
420.948	577.44
421.171	609.44
421.394	658.44
421.617	597.44
421.839	576.44
422.062	549.44
422.285	566.44
422.507	655.44
422.73	714.44
422.953	680.44
423.175	600.44
423.398	597.44
423.621	595.44
423.843	599.44
424.066	622.44
424.288	606.44
424.511	653.44
424.733	691.44
424.956	790.44
425.178	761.44
425.401	752.44
425.623	752.44
425.846	682.44
426.068	616.44
426.291	589.44
426.513	593.44
426.735	658.44
426.958	658.44
427.18	732.44
427.402	887.44
427.625	995.44
427.847	926.44
428.069	778.44
428.292	660.44
428.514	601.44
428.736	617.44
428.958	592.44
429.181	563.44
429.403	566.44
429.625	599.44
429.847	616.44
430.069	692.44
430.292	683.44
430.514	610.44
430.736	556.44
430.958	565.44
431.18	530.44
431.402	549.44
431.624	548.44
431.846	526.44
432.068	526.44
432.29	527.44
432.512	542.44
432.734	553.44
432.956	573.44
433.178	536.44
433.4	564.44
433.622	512.44
433.844	525.44
434.066	522.44
434.287	516.44
434.509	533.44
434.731	548.44
434.953	556.44
435.175	572.44
435.397	631.44
435.618	632.44
435.84	645.44
436.062	763.44
436.284	828.44
436.505	725.44
436.727	642.44
436.949	580.44
437.17	586.44
437.392	576.44
437.614	618.44
437.835	640.44
438.057	756.44
438.278	839.44
438.5	844.44
438.721	897.44
438.943	865.44
439.165	702.44
439.386	662.44
439.608	639.44
439.829	640.44
440.05	678.44
440.272	714.44
440.493	655.44
440.715	621.44
440.936	619.44
441.158	580.44
441.379	599.44
441.6	590.44
441.822	617.44
442.043	672.44
442.264	759.44
442.486	816.44
442.707	682.44
442.928	644.44
443.149	638.44
443.371	674.44
443.592	715.44
443.813	837.44
444.034	855.44
444.255	716.44
444.476	640.44
444.698	616.44
444.919	600.44
445.14	694.44
445.361	688.44
445.582	664.44
445.803	738.44
446.024	851.44
446.245	848.44
446.466	774.44
446.687	689.44
446.908	650.44
447.129	600.44
447.35	580.44
447.571	597.44
447.792	580.44
448.013	582.44
448.234	588.44
448.455	651.44
448.675	784.44
448.896	877.44
449.117	804.44
449.338	744.44
449.559	839.44
449.779	939.44
450	786.44
450.221	648.44
450.442	604.44
450.662	589.44
450.883	585.44
451.104	578.44
451.324	568.44
451.545	554.44
451.766	522.44
451.986	537.44
452.207	534.44
452.428	509.44
452.648	521.44
452.869	504.44
453.089	516.44
453.31	542.44
453.53	520.44
453.751	529.44
453.971	517.44
454.192	563.44
454.412	542.44
454.633	534.44
454.853	535.44
455.073	516.44
455.294	556.44
455.514	628.44
455.734	608.44
455.955	526.44
456.175	475.44
456.395	470.44
456.616	483.44
456.836	490.44
457.056	478.44
457.276	479.44
457.497	486.44
457.717	470.44
457.937	473.44
458.157	482.44
458.377	513.44
458.598	540.44
458.818	596.44
459.038	688.44
459.258	724.44
459.478	623.44
459.698	552.44
459.918	547.44
460.138	520.44
460.358	540.44
460.578	526.44
460.798	554.44
461.018	554.44
461.238	516.44
461.458	505.44
461.678	552.44
461.898	538.44
462.118	536.44
462.338	536.44
462.558	522.44
462.777	525.44
462.997	536.44
463.217	572.44
463.437	560.44
463.657	556.44
463.876	570.44
464.096	552.44
464.316	541.44
464.536	568.44
464.755	557.44
464.975	594.44
465.195	634.44
465.414	702.44
465.634	632.44
465.854	610.44
466.073	569.44
466.293	540.44
466.512	541.44
466.732	517.44
466.951	535.44
467.171	518.44
467.391	522.44
467.61	534.44
467.829	540.44
468.049	551.44
468.268	520.44
468.488	534.44
468.707	513.44
468.927	530.44
469.146	498.44
469.365	492.44
469.585	524.44
469.804	518.44
470.023	530.44
470.243	538.44
470.462	551.44
470.681	570.44
470.901	548.44
471.12	534.44
471.339	534.44
471.558	523.44
471.777	532.44
471.997	517.44
472.216	524.44
472.435	588.44
472.654	579.44
472.873	548.44
473.092	528.44
473.311	527.44
473.53	554.44
473.749	558.44
473.968	595.44
474.187	711.44
474.406	731.44
474.625	638.44
474.844	554.44
475.063	532.44
475.282	540.44
475.501	565.44
475.72	558.44
475.939	578.44
476.158	556.44
476.377	547.44
476.596	556.44
476.814	569.44
477.033	576.44
477.252	575.44
477.471	569.44
477.69	598.44
477.908	563.44
478.127	573.44
478.346	602.44
478.564	582.44
478.783	591.44
479.002	594.44
479.22	617.44
479.439	629.44
479.658	656.44
479.876	654.44
480.095	653.44
480.313	676.44
480.532	670.44
480.751	655.44
480.969	661.44
481.188	772.44
481.406	789.44
481.624	712.44
481.843	688.44
482.061	644.44
482.28	637.44
482.498	634.44
482.717	628.44
482.935	634.44
483.153	638.44
483.372	646.44
483.59	637.44
483.808	650.44
484.027	637.44
484.245	644.44
484.463	631.44
484.681	665.44
484.9	646.44
485.118	643.44
485.336	659.44
485.554	649.44
485.772	633.44
485.99	644.44
486.209	663.44
486.427	668.44
486.645	694.44
486.863	685.44
487.081	707.44
487.299	701.44
487.517	709.44
487.735	678.44
487.953	723.44
488.171	696.44
488.389	701.44
488.607	698.44
488.825	710.44
489.043	699.44
489.261	692.44
489.479	728.44
489.696	717.44
489.914	723.44
490.132	722.44
490.35	734.44
490.568	724.44
490.786	732.44
491.003	752.44
491.221	784.44
491.439	780.44
491.657	809.44
491.874	790.44
492.092	810.44
492.31	814.44
492.527	844.44
492.745	829.44
492.963	801.44
493.18	856.44
493.398	840.44
493.615	850.44
493.833	858.44
494.05	843.44
494.268	834.44
494.485	859.44
494.703	857.44
494.92	857.44
495.138	813.44
495.355	851.44
495.573	836.44
495.79	816.44
496.008	840.44
496.225	850.44
496.442	869.44
496.66	821.44
496.877	836.44
497.094	865.44
497.312	852.44
497.529	846.44
497.746	888.44
497.963	859.44
498.181	898.44
498.398	869.44
498.615	912.44
498.832	918.44
499.049	909.44
499.267	891.44
499.484	938.44
499.701	951.44
499.918	978.44
500.135	1016.44
500.352	1018.44
500.569	1043.44
500.786	1049.44
501.003	1033.44
501.22	1032.44
501.437	1022.44
501.654	1001.44
501.871	990.44
