Data from 1970.PennyLincolnUp.Lamp.En5.5.200Scan.071719.P1._HRD10591_15-15-44-842.txt Node
Date: Thu Jul 18 15:15:44 EDT 2019
User: cochatt
Spectrometer: HR+D1059
Trigger mode: 1
Integration Time (sec): 1.000000E-1
Scans to average: 1
Electric dark correction enabled: true
Nonlinearity correction enabled: false
Boxcar width: 0
XAxis mode: Wavelengths
Number of Pixels in Spectrum: 2048
>>>>>Begin Spectral Data<<<<<
223.165	-21.44
223.4	-21.44
223.635	-21.44
223.869	-16.44
224.104	-14.44
224.338	-7.44
224.573	-25.44
224.808	-8.44
225.042	-12.44
225.277	-5.44
225.511	-5.44
225.746	-1.44
225.98	16.56
226.215	10.56
226.449	15.56
226.683	23.56
226.918	21.56
227.152	30.56
227.387	29.56
227.621	36.56
227.856	50.56
228.09	46.56
228.324	57.56
228.559	64.56
228.793	73.56
229.027	105.56
229.262	129.56
229.496	129.56
229.73	152.56
229.964	184.56
230.199	138.56
230.433	132.56
230.667	128.56
230.901	129.56
231.136	124.56
231.37	117.56
231.604	117.56
231.838	113.56
232.072	124.56
232.306	121.56
232.541	104.56
232.775	128.56
233.009	122.56
233.243	125.56
233.477	130.56
233.711	114.56
233.945	123.56
234.179	129.56
234.413	130.56
234.647	124.56
234.881	121.56
235.115	132.56
235.349	128.56
235.583	112.56
235.817	133.56
236.051	135.56
236.285	126.56
236.519	123.56
236.753	154.56
236.987	169.56
237.221	213.56
237.455	271.56
237.689	220.56
237.922	168.56
238.156	156.56
238.39	153.56
238.624	132.56
238.858	140.56
239.091	140.56
239.325	127.56
239.559	132.56
239.793	145.56
240.027	144.56
240.26	169.56
240.494	177.56
240.728	160.56
240.961	178.56
241.195	171.56
241.429	158.56
241.662	165.56
241.896	155.56
242.13	139.56
242.363	152.56
242.597	153.56
242.83	163.56
243.064	147.56
243.298	145.56
243.531	152.56
243.765	159.56
243.998	158.56
244.232	155.56
244.465	152.56
244.699	159.56
244.932	182.56
245.166	158.56
245.399	178.56
245.633	170.56
245.866	164.56
246.099	161.56
246.333	161.56
246.566	173.56
246.8	164.56
247.033	164.56
247.266	175.56
247.5	180.56
247.733	195.56
247.966	194.56
248.2	199.56
248.433	171.56
248.666	184.56
248.899	208.56
249.133	225.56
249.366	226.56
249.599	240.56
249.832	207.56
250.066	196.56
250.299	187.56
250.532	218.56
250.765	232.56
250.998	249.56
251.231	270.56
251.465	250.56
251.698	230.56
251.931	208.56
252.164	240.56
252.397	214.56
252.63	217.56
252.863	242.56
253.096	253.56
253.329	265.56
253.562	251.56
253.795	260.56
254.028	268.56
254.261	241.56
254.494	249.56
254.727	296.56
254.96	304.56
255.193	313.56
255.426	296.56
255.659	278.56
255.892	268.56
256.124	269.56
256.357	268.56
256.59	263.56
256.823	264.56
257.056	249.56
257.289	237.56
257.521	236.56
257.754	237.56
257.987	232.56
258.22	237.56
258.452	231.56
258.685	237.56
258.918	237.56
259.151	237.56
259.383	238.56
259.616	249.56
259.849	268.56
260.081	265.56
260.314	304.56
260.547	306.56
260.779	268.56
261.012	279.56
261.244	255.56
261.477	263.56
261.71	252.56
261.942	243.56
262.175	258.56
262.407	256.56
262.64	236.56
262.872	237.56
263.105	225.56
263.337	227.56
263.57	218.56
263.802	233.56
264.035	235.56
264.267	232.56
264.499	208.56
264.732	227.56
264.964	216.56
265.197	224.56
265.429	217.56
265.661	214.56
265.894	238.56
266.126	226.56
266.358	214.56
266.591	222.56
266.823	229.56
267.055	240.56
267.287	239.56
267.52	235.56
267.752	231.56
267.984	253.56
268.216	228.56
268.448	237.56
268.681	240.56
268.913	265.56
269.145	284.56
269.377	298.56
269.609	304.56
269.841	282.56
270.073	303.56
270.306	310.56
270.538	347.56
270.77	341.56
271.002	337.56
271.234	328.56
271.466	312.56
271.698	323.56
271.93	350.56
272.162	350.56
272.394	345.56
272.626	335.56
272.858	322.56
273.09	290.56
273.322	282.56
273.553	279.56
273.785	284.56
274.017	277.56
274.249	285.56
274.481	303.56
274.713	287.56
274.945	269.56
275.176	293.56
275.408	284.56
275.64	280.56
275.872	288.56
276.104	271.56
276.335	278.56
276.567	277.56
276.799	303.56
277.031	326.56
277.262	329.56
277.494	336.56
277.726	315.56
277.957	309.56
278.189	301.56
278.421	304.56
278.652	274.56
278.884	293.56
279.115	270.56
279.347	273.56
279.579	276.56
279.81	272.56
280.042	300.56
280.273	278.56
280.505	262.56
280.736	270.56
280.968	281.56
281.199	268.56
281.431	280.56
281.662	273.56
281.894	291.56
282.125	299.56
282.356	293.56
282.588	330.56
282.819	314.56
283.051	302.56
283.282	283.56
283.513	274.56
283.745	292.56
283.976	299.56
284.207	278.56
284.439	279.56
284.67	285.56
284.901	295.56
285.132	298.56
285.364	282.56
285.595	289.56
285.826	301.56
286.057	295.56
286.288	267.56
286.52	290.56
286.751	293.56
286.982	263.56
287.213	297.56
287.444	293.56
287.675	282.56
287.906	300.56
288.138	310.56
288.369	285.56
288.6	300.56
288.831	294.56
289.062	286.56
289.293	311.56
289.524	297.56
289.755	288.56
289.986	308.56
290.217	282.56
290.448	286.56
290.679	293.56
290.91	301.56
291.141	300.56
291.371	293.56
291.602	296.56
291.833	289.56
292.064	288.56
292.295	276.56
292.526	300.56
292.757	296.56
292.987	294.56
293.218	299.56
293.449	291.56
293.68	302.56
293.91	266.56
294.141	301.56
294.372	293.56
294.603	289.56
294.833	281.56
295.064	299.56
295.295	306.56
295.525	281.56
295.756	289.56
295.987	308.56
296.217	320.56
296.448	353.56
296.679	314.56
296.909	326.56
297.14	304.56
297.37	291.56
297.601	281.56
297.831	285.56
298.062	299.56
298.292	311.56
298.523	321.56
298.753	311.56
298.984	308.56
299.214	303.56
299.445	330.56
299.675	326.56
299.905	314.56
300.136	321.56
300.366	300.56
300.597	316.56
300.827	313.56
301.057	322.56
301.288	328.56
301.518	338.56
301.748	332.56
301.979	319.56
302.209	332.56
302.439	339.56
302.669	342.56
302.9	320.56
303.13	319.56
303.36	329.56
303.59	330.56
303.82	351.56
304.051	341.56
304.281	324.56
304.511	334.56
304.741	333.56
304.971	342.56
305.201	342.56
305.431	338.56
305.661	323.56
305.891	344.56
306.121	344.56
306.352	340.56
306.582	353.56
306.812	343.56
307.042	335.56
307.272	322.56
307.502	351.56
307.731	330.56
307.961	336.56
308.191	345.56
308.421	319.56
308.651	345.56
308.881	343.56
309.111	362.56
309.341	375.56
309.571	372.56
309.8	384.56
310.03	387.56
310.26	414.56
310.49	386.56
310.72	408.56
310.949	409.56
311.179	428.56
311.409	394.56
311.639	384.56
311.868	410.56
312.098	408.56
312.328	400.56
312.557	411.56
312.787	436.56
313.017	426.56
313.246	392.56
313.476	392.56
313.706	401.56
313.935	396.56
314.165	426.56
314.394	428.56
314.624	425.56
314.853	399.56
315.083	401.56
315.312	393.56
315.542	389.56
315.771	383.56
316.001	361.56
316.23	382.56
316.46	390.56
316.689	388.56
316.919	392.56
317.148	431.56
317.377	411.56
317.607	408.56
317.836	394.56
318.065	406.56
318.295	395.56
318.524	408.56
318.753	376.56
318.983	380.56
319.212	382.56
319.441	399.56
319.67	431.56
319.9	397.56
320.129	390.56
320.358	406.56
320.587	410.56
320.816	404.56
321.046	423.56
321.275	416.56
321.504	408.56
321.733	420.56
321.962	430.56
322.191	451.56
322.42	460.56
322.649	484.56
322.878	499.56
323.108	506.56
323.337	533.56
323.566	567.56
323.795	601.56
324.024	660.56
324.253	837.56
324.482	1204.56
324.71	1816.56
324.939	2602.56
325.168	2265.56
325.397	1184.56
325.626	790.56
325.855	636.56
326.084	573.56
326.313	570.56
326.542	586.56
326.77	639.56
326.999	741.56
327.228	1028.56
327.457	1566.56
327.686	1937.56
327.914	1319.56
328.143	864.56
328.372	756.56
328.6	700.56
328.829	644.56
329.058	675.56
329.287	683.56
329.515	650.56
329.744	580.56
329.972	589.56
330.201	621.56
330.43	669.56
330.658	692.56
330.887	717.56
331.115	700.56
331.344	587.56
331.572	542.56
331.801	528.56
332.03	536.56
332.258	518.56
332.486	486.56
332.715	488.56
332.943	482.56
333.172	474.56
333.4	492.56
333.629	480.56
333.857	525.56
334.085	509.56
334.314	547.56
334.542	601.56
334.771	586.56
334.999	541.56
335.227	487.56
335.455	485.56
335.684	463.56
335.912	497.56
336.14	460.56
336.369	459.56
336.597	487.56
336.825	458.56
337.053	450.56
337.281	449.56
337.51	455.56
337.738	461.56
337.966	444.56
338.194	485.56
338.422	463.56
338.65	456.56
338.878	474.56
339.106	456.56
339.334	437.56
339.562	433.56
339.79	444.56
340.018	447.56
340.246	457.56
340.474	461.56
340.702	438.56
340.93	437.56
341.158	447.56
341.386	466.56
341.614	453.56
341.842	444.56
342.07	431.56
342.298	439.56
342.526	429.56
342.754	439.56
342.981	418.56
343.209	431.56
343.437	431.56
343.665	426.56
343.893	426.56
344.12	448.56
344.348	456.56
344.576	448.56
344.804	457.56
345.031	469.56
345.259	478.56
345.487	488.56
345.714	458.56
345.942	437.56
346.17	448.56
346.397	421.56
346.625	466.56
346.853	461.56
347.08	441.56
347.308	448.56
347.535	462.56
347.763	457.56
347.99	444.56
348.218	459.56
348.445	488.56
348.673	477.56
348.9	456.56
349.128	424.56
349.355	431.56
349.583	430.56
349.81	440.56
350.037	425.56
350.265	415.56
350.492	425.56
350.72	430.56
350.947	431.56
351.174	451.56
351.402	479.56
351.629	482.56
351.856	479.56
352.083	463.56
352.311	466.56
352.538	469.56
352.765	480.56
352.992	466.56
353.22	469.56
353.447	444.56
353.674	452.56
353.901	413.56
354.128	421.56
354.355	410.56
354.583	409.56
354.81	429.56
355.037	401.56
355.264	397.56
355.491	391.56
355.718	415.56
355.945	430.56
356.172	407.56
356.399	418.56
356.626	404.56
356.853	400.56
357.08	398.56
357.307	401.56
357.534	414.56
357.761	419.56
357.988	401.56
358.215	400.56
358.441	424.56
358.668	409.56
358.895	430.56
359.122	414.56
359.349	426.56
359.576	455.56
359.802	476.56
360.029	510.56
360.256	553.56
360.483	519.56
360.709	464.56
360.936	470.56
361.163	449.56
361.39	457.56
361.616	457.56
361.843	449.56
362.07	417.56
362.296	449.56
362.523	461.56
362.749	450.56
362.976	462.56
363.203	462.56
363.429	445.56
363.656	433.56
363.882	420.56
364.109	445.56
364.335	417.56
364.562	429.56
364.788	420.56
365.015	432.56
365.241	430.56
365.468	436.56
365.694	431.56
365.92	440.56
366.147	423.56
366.373	416.56
366.599	424.56
366.826	417.56
367.052	430.56
367.278	440.56
367.505	438.56
367.731	439.56
367.957	442.56
368.184	440.56
368.41	455.56
368.636	446.56
368.862	429.56
369.089	433.56
369.315	445.56
369.541	426.56
369.767	430.56
369.993	424.56
370.219	432.56
370.445	431.56
370.672	426.56
370.898	426.56
371.124	431.56
371.35	424.56
371.576	416.56
371.802	412.56
372.028	442.56
372.254	414.56
372.48	440.56
372.706	418.56
372.932	416.56
373.158	405.56
373.384	407.56
373.61	429.56
373.835	406.56
374.061	415.56
374.287	425.56
374.513	437.56
374.739	429.56
374.965	428.56
375.191	414.56
375.416	411.56
375.642	452.56
375.868	429.56
376.094	408.56
376.319	427.56
376.545	416.56
376.771	421.56
376.997	427.56
377.222	415.56
377.448	421.56
377.674	437.56
377.899	406.56
378.125	395.56
378.35	415.56
378.576	430.56
378.802	408.56
379.027	424.56
379.253	435.56
379.478	436.56
379.704	425.56
379.929	436.56
380.155	429.56
380.38	446.56
380.606	428.56
380.831	410.56
381.057	438.56
381.282	401.56
381.507	418.56
381.733	423.56
381.958	428.56
382.184	452.56
382.409	395.56
382.634	446.56
382.86	435.56
383.085	406.56
383.31	435.56
383.535	431.56
383.761	430.56
383.986	432.56
384.211	421.56
384.436	432.56
384.662	423.56
384.887	431.56
385.112	448.56
385.337	446.56
385.562	450.56
385.787	432.56
386.013	456.56
386.238	469.56
386.463	456.56
386.688	457.56
386.913	464.56
387.138	465.56
387.363	465.56
387.588	465.56
387.813	443.56
388.038	447.56
388.263	448.56
388.488	458.56
388.713	430.56
388.938	453.56
389.163	457.56
389.387	442.56
389.612	463.56
389.837	450.56
390.062	458.56
390.287	473.56
390.512	446.56
390.736	452.56
390.961	452.56
391.186	468.56
391.411	451.56
391.636	436.56
391.86	471.56
392.085	457.56
392.31	455.56
392.534	449.56
392.759	474.56
392.984	485.56
393.208	462.56
393.433	465.56
393.658	454.56
393.882	444.56
394.107	466.56
394.331	433.56
394.556	439.56
394.78	440.56
395.005	446.56
395.229	486.56
395.454	471.56
395.678	464.56
395.903	500.56
396.127	518.56
396.352	511.56
396.576	483.56
396.801	472.56
397.025	480.56
397.249	474.56
397.474	472.56
397.698	484.56
397.922	500.56
398.147	504.56
398.371	529.56
398.595	511.56
398.82	511.56
399.044	509.56
399.268	511.56
399.492	532.56
399.717	566.56
399.941	597.56
400.165	627.56
400.389	651.56
400.613	590.56
400.837	576.56
401.062	529.56
401.286	522.56
401.51	532.56
401.734	530.56
401.958	521.56
402.182	534.56
402.406	541.56
402.63	549.56
402.854	541.56
403.078	527.56
403.302	559.56
403.526	547.56
403.75	528.56
403.974	530.56
404.198	533.56
404.422	536.56
404.645	541.56
404.869	558.56
405.093	604.56
405.317	629.56
405.541	658.56
405.765	614.56
405.988	582.56
406.212	604.56
406.436	632.56
406.66	627.56
406.883	613.56
407.107	619.56
407.331	660.56
407.555	742.56
407.778	725.56
408.002	670.56
408.226	623.56
408.449	615.56
408.673	607.56
408.896	632.56
409.12	688.56
409.344	630.56
409.567	584.56
409.791	555.56
410.014	542.56
410.238	541.56
410.461	559.56
410.685	577.56
410.908	582.56
411.132	583.56
411.355	645.56
411.578	644.56
411.802	576.56
412.025	567.56
412.249	568.56
412.472	592.56
412.695	638.56
412.919	612.56
413.142	554.56
413.365	545.56
413.589	525.56
413.812	560.56
414.035	516.56
414.258	541.56
414.482	520.56
414.705	524.56
414.928	515.56
415.151	519.56
415.374	514.56
415.597	520.56
415.821	526.56
416.044	539.56
416.267	529.56
416.49	515.56
416.713	505.56
416.936	518.56
417.159	519.56
417.382	526.56
417.605	542.56
417.828	538.56
418.051	557.56
418.274	552.56
418.497	557.56
418.72	525.56
418.943	541.56
419.166	560.56
419.389	572.56
419.611	559.56
419.834	562.56
420.057	556.56
420.28	621.56
420.503	559.56
420.726	573.56
420.948	580.56
421.171	624.56
421.394	652.56
421.617	580.56
421.839	563.56
422.062	584.56
422.285	573.56
422.507	634.56
422.73	736.56
422.953	693.56
423.175	632.56
423.398	591.56
423.621	600.56
423.843	588.56
424.066	623.56
424.288	602.56
424.511	618.56
424.733	689.56
424.956	794.56
425.178	766.56
425.401	735.56
425.623	770.56
425.846	656.56
426.068	623.56
426.291	637.56
426.513	623.56
426.735	636.56
426.958	669.56
427.18	758.56
427.402	868.56
427.625	991.56
427.847	892.56
428.069	785.56
428.292	692.56
428.514	644.56
428.736	603.56
428.958	584.56
429.181	587.56
429.403	580.56
429.625	597.56
429.847	632.56
430.069	688.56
430.292	686.56
430.514	610.56
430.736	593.56
430.958	555.56
431.18	557.56
431.402	520.56
431.624	534.56
431.846	544.56
432.068	537.56
432.29	525.56
432.512	527.56
432.734	554.56
432.956	534.56
433.178	556.56
433.4	578.56
433.622	552.56
433.844	555.56
434.066	535.56
434.287	530.56
434.509	536.56
434.731	551.56
434.953	565.56
435.175	551.56
435.397	612.56
435.618	630.56
435.84	636.56
436.062	752.56
436.284	854.56
436.505	711.56
436.727	628.56
436.949	612.56
437.17	583.56
437.392	605.56
437.614	607.56
437.835	643.56
438.057	744.56
438.278	865.56
438.5	846.56
438.721	896.56
438.943	864.56
439.165	730.56
439.386	646.56
439.608	654.56
439.829	656.56
440.05	667.56
440.272	742.56
440.493	667.56
440.715	638.56
440.936	592.56
441.158	600.56
441.379	587.56
441.6	601.56
441.822	608.56
442.043	693.56
442.264	759.56
442.486	820.56
442.707	700.56
442.928	649.56
443.149	644.56
443.371	696.56
443.592	721.56
443.813	817.56
444.034	875.56
444.255	738.56
444.476	634.56
444.698	619.56
444.919	638.56
445.14	773.56
445.361	687.56
445.582	681.56
445.803	745.56
446.024	841.56
446.245	872.56
446.466	771.56
446.687	692.56
446.908	634.56
447.129	619.56
447.35	589.56
447.571	598.56
447.792	561.56
448.013	593.56
448.234	622.56
448.455	668.56
448.675	796.56
448.896	895.56
449.117	780.56
449.338	726.56
449.559	824.56
449.779	926.56
450	770.56
450.221	656.56
450.442	602.56
450.662	589.56
450.883	604.56
451.104	631.56
451.324	616.56
451.545	586.56
451.766	534.56
451.986	535.56
452.207	529.56
452.428	510.56
452.648	548.56
452.869	520.56
453.089	560.56
453.31	559.56
453.53	542.56
453.751	549.56
453.971	521.56
454.192	565.56
454.412	541.56
454.633	538.56
454.853	522.56
455.073	530.56
455.294	546.56
455.514	625.56
455.734	613.56
455.955	548.56
456.175	508.56
456.395	500.56
456.616	479.56
456.836	478.56
457.056	474.56
457.276	467.56
457.497	467.56
457.717	489.56
457.937	486.56
458.157	505.56
458.377	500.56
458.598	508.56
458.818	622.56
459.038	722.56
459.258	722.56
459.478	613.56
459.698	556.56
459.918	514.56
460.138	510.56
460.358	540.56
460.578	509.56
460.798	526.56
461.018	539.56
461.238	531.56
461.458	529.56
461.678	531.56
461.898	548.56
462.118	512.56
462.338	558.56
462.558	540.56
462.777	536.56
462.997	545.56
463.217	559.56
463.437	542.56
463.657	538.56
463.876	559.56
464.096	557.56
464.316	553.56
464.536	555.56
464.755	552.56
464.975	590.56
465.195	640.56
465.414	747.56
465.634	649.56
465.854	593.56
466.073	582.56
466.293	569.56
466.512	543.56
466.732	530.56
466.951	535.56
467.171	542.56
467.391	527.56
467.61	547.56
467.829	586.56
468.049	552.56
468.268	554.56
468.488	537.56
468.707	510.56
468.927	517.56
469.146	496.56
469.365	518.56
469.585	508.56
469.804	534.56
470.023	550.56
470.243	554.56
470.462	543.56
470.681	545.56
470.901	544.56
471.12	551.56
471.339	521.56
471.558	533.56
471.777	534.56
471.997	518.56
472.216	548.56
472.435	613.56
472.654	577.56
472.873	548.56
473.092	540.56
473.311	550.56
473.53	565.56
473.749	544.56
473.968	602.56
474.187	721.56
474.406	735.56
474.625	617.56
474.844	568.56
475.063	552.56
475.282	551.56
475.501	525.56
475.72	520.56
475.939	554.56
476.158	548.56
476.377	558.56
476.596	578.56
476.814	582.56
477.033	592.56
477.252	568.56
477.471	574.56
477.69	572.56
477.908	571.56
478.127	575.56
478.346	598.56
478.564	579.56
478.783	612.56
479.002	593.56
479.22	609.56
479.439	609.56
479.658	649.56
479.876	670.56
480.095	654.56
480.313	681.56
480.532	680.56
480.751	650.56
480.969	697.56
481.188	757.56
481.406	808.56
481.624	732.56
481.843	721.56
482.061	640.56
482.28	650.56
482.498	616.56
482.717	648.56
482.935	634.56
483.153	617.56
483.372	636.56
483.59	648.56
483.808	655.56
484.027	648.56
484.245	648.56
484.463	641.56
484.681	662.56
484.9	668.56
485.118	652.56
485.336	666.56
485.554	671.56
485.772	669.56
485.99	667.56
486.209	651.56
486.427	662.56
486.645	692.56
486.863	712.56
487.081	692.56
487.299	708.56
487.517	697.56
487.735	703.56
487.953	700.56
488.171	715.56
488.389	686.56
488.607	724.56
488.825	713.56
489.043	699.56
489.261	694.56
489.479	719.56
489.696	720.56
489.914	716.56
490.132	720.56
490.35	746.56
490.568	746.56
490.786	789.56
491.003	760.56
491.221	798.56
491.439	786.56
491.657	791.56
491.874	827.56
492.092	820.56
492.31	826.56
492.527	848.56
492.745	825.56
492.963	830.56
493.18	802.56
493.398	845.56
493.615	842.56
493.833	849.56
494.05	850.56
494.268	862.56
494.485	848.56
494.703	842.56
494.92	851.56
495.138	840.56
495.355	838.56
495.573	868.56
495.79	839.56
496.008	840.56
496.225	814.56
496.442	828.56
496.66	873.56
496.877	853.56
497.094	879.56
497.312	867.56
497.529	871.56
497.746	863.56
497.963	899.56
498.181	896.56
498.398	903.56
498.615	879.56
498.832	928.56
499.049	915.56
499.267	927.56
499.484	938.56
499.701	977.56
499.918	936.56
500.135	996.56
500.352	1003.56
500.569	1032.56
500.786	1052.56
501.003	1032.56
501.22	1014.56
501.437	1022.56
501.654	1012.56
