Data from 1970.PennyLincolnUp.Lamp.En5.5.200Scan.071719.P1._HRD10591_15-16-18-842.txt Node
Date: Thu Jul 18 15:16:18 EDT 2019
User: cochatt
Spectrometer: HR+D1059
Trigger mode: 1
Integration Time (sec): 1.000000E-1
Scans to average: 1
Electric dark correction enabled: true
Nonlinearity correction enabled: false
Boxcar width: 0
XAxis mode: Wavelengths
Number of Pixels in Spectrum: 2048
>>>>>Begin Spectral Data<<<<<
223.165	-7.19
223.4	-7.19
223.635	-7.19
223.869	-29.19
224.104	-25.19
224.338	-17.19
224.573	-9.19
224.808	-10.19
225.042	-1.19
225.277	-1.19
225.511	5.81
225.746	20.81
225.98	-0.19
226.215	4.81
226.449	16.81
226.683	5.81
226.918	25.81
227.152	20.81
227.387	37.81
227.621	40.81
227.856	50.81
228.09	42.81
228.324	44.81
228.559	52.81
228.793	70.81
229.027	118.81
229.262	135.81
229.496	129.81
229.73	142.81
229.964	185.81
230.199	143.81
230.433	126.81
230.667	138.81
230.901	123.81
231.136	122.81
231.37	101.81
231.604	119.81
231.838	112.81
232.072	114.81
232.306	123.81
232.541	135.81
232.775	118.81
233.009	115.81
233.243	146.81
233.477	116.81
233.711	125.81
233.945	119.81
234.179	129.81
234.413	127.81
234.647	128.81
234.881	125.81
235.115	131.81
235.349	137.81
235.583	142.81
235.817	146.81
236.051	135.81
236.285	133.81
236.519	130.81
236.753	143.81
236.987	178.81
237.221	213.81
237.455	273.81
237.689	208.81
237.922	158.81
238.156	159.81
238.39	147.81
238.624	131.81
238.858	130.81
239.091	145.81
239.325	133.81
239.559	127.81
239.793	146.81
240.027	154.81
240.26	177.81
240.494	174.81
240.728	169.81
240.961	151.81
241.195	156.81
241.429	149.81
241.662	148.81
241.896	137.81
242.13	149.81
242.363	137.81
242.597	144.81
242.83	151.81
243.064	157.81
243.298	147.81
243.531	146.81
243.765	142.81
243.998	159.81
244.232	155.81
244.465	152.81
244.699	161.81
244.932	162.81
245.166	155.81
245.399	147.81
245.633	157.81
245.866	148.81
246.099	158.81
246.333	158.81
246.566	160.81
246.8	180.81
247.033	164.81
247.266	178.81
247.5	179.81
247.733	195.81
247.966	202.81
248.2	205.81
248.433	203.81
248.666	198.81
248.899	208.81
249.133	209.81
249.366	222.81
249.599	235.81
249.832	191.81
250.066	211.81
250.299	199.81
250.532	231.81
250.765	227.81
250.998	249.81
251.231	247.81
251.465	229.81
251.698	220.81
251.931	238.81
252.164	230.81
252.397	231.81
252.63	216.81
252.863	249.81
253.096	242.81
253.329	259.81
253.562	274.81
253.795	239.81
254.028	240.81
254.261	259.81
254.494	253.81
254.727	279.81
254.96	326.81
255.193	305.81
255.426	293.81
255.659	277.81
255.892	274.81
256.124	289.81
256.357	279.81
256.59	262.81
256.823	241.81
257.056	241.81
257.289	242.81
257.521	243.81
257.754	242.81
257.987	231.81
258.22	219.81
258.452	251.81
258.685	244.81
258.918	243.81
259.151	234.81
259.383	266.81
259.616	245.81
259.849	246.81
260.081	266.81
260.314	286.81
260.547	297.81
260.779	269.81
261.012	263.81
261.244	259.81
261.477	247.81
261.71	249.81
261.942	263.81
262.175	258.81
262.407	244.81
262.64	250.81
262.872	233.81
263.105	237.81
263.337	233.81
263.57	228.81
263.802	246.81
264.035	231.81
264.267	236.81
264.499	234.81
264.732	250.81
264.964	220.81
265.197	210.81
265.429	230.81
265.661	217.81
265.894	238.81
266.126	221.81
266.358	222.81
266.591	244.81
266.823	247.81
267.055	243.81
267.287	249.81
267.52	242.81
267.752	226.81
267.984	246.81
268.216	243.81
268.448	252.81
268.681	270.81
268.913	268.81
269.145	289.81
269.377	299.81
269.609	285.81
269.841	299.81
270.073	286.81
270.306	314.81
270.538	347.81
270.77	367.81
271.002	345.81
271.234	325.81
271.466	325.81
271.698	349.81
271.93	358.81
272.162	350.81
272.394	356.81
272.626	338.81
272.858	315.81
273.09	310.81
273.322	311.81
273.553	292.81
273.785	268.81
274.017	277.81
274.249	285.81
274.481	288.81
274.713	275.81
274.945	291.81
275.176	293.81
275.408	294.81
275.64	304.81
275.872	281.81
276.104	282.81
276.335	280.81
276.567	296.81
276.799	320.81
277.031	330.81
277.262	368.81
277.494	364.81
277.726	319.81
277.957	322.81
278.189	299.81
278.421	296.81
278.652	294.81
278.884	297.81
279.115	273.81
279.347	302.81
279.579	292.81
279.81	289.81
280.042	269.81
280.273	281.81
280.505	286.81
280.736	289.81
280.968	278.81
281.199	284.81
281.431	277.81
281.662	276.81
281.894	286.81
282.125	284.81
282.356	299.81
282.588	328.81
282.819	346.81
283.051	280.81
283.282	277.81
283.513	294.81
283.745	290.81
283.976	294.81
284.207	303.81
284.439	291.81
284.67	298.81
284.901	282.81
285.132	263.81
285.364	274.81
285.595	294.81
285.826	277.81
286.057	291.81
286.288	286.81
286.52	271.81
286.751	282.81
286.982	290.81
287.213	263.81
287.444	285.81
287.675	295.81
287.906	295.81
288.138	310.81
288.369	309.81
288.6	314.81
288.831	318.81
289.062	296.81
289.293	291.81
289.524	309.81
289.755	307.81
289.986	302.81
290.217	289.81
290.448	295.81
290.679	288.81
290.91	300.81
291.141	278.81
291.371	293.81
291.602	296.81
291.833	299.81
292.064	296.81
292.295	321.81
292.526	313.81
292.757	302.81
292.987	292.81
293.218	293.81
293.449	309.81
293.68	296.81
293.91	289.81
294.141	288.81
294.372	284.81
294.603	293.81
294.833	294.81
295.064	278.81
295.295	308.81
295.525	306.81
295.756	325.81
295.987	315.81
296.217	339.81
296.448	364.81
296.679	296.81
296.909	293.81
297.14	298.81
297.37	300.81
297.601	325.81
297.831	297.81
298.062	305.81
298.292	316.81
298.523	310.81
298.753	312.81
298.984	329.81
299.214	329.81
299.445	328.81
299.675	317.81
299.905	334.81
300.136	302.81
300.366	327.81
300.597	309.81
300.827	333.81
301.057	335.81
301.288	337.81
301.518	353.81
301.748	332.81
301.979	331.81
302.209	334.81
302.439	346.81
302.669	332.81
302.9	326.81
303.13	332.81
303.36	347.81
303.59	355.81
303.82	348.81
304.051	342.81
304.281	334.81
304.511	324.81
304.741	334.81
304.971	338.81
305.201	351.81
305.431	325.81
305.661	345.81
305.891	333.81
306.121	337.81
306.352	353.81
306.582	337.81
306.812	362.81
307.042	374.81
307.272	341.81
307.502	340.81
307.731	346.81
307.961	339.81
308.191	337.81
308.421	376.81
308.651	354.81
308.881	356.81
309.111	361.81
309.341	372.81
309.571	374.81
309.8	390.81
310.03	400.81
310.26	403.81
310.49	395.81
310.72	397.81
310.949	442.81
311.179	437.81
311.409	398.81
311.639	388.81
311.868	386.81
312.098	407.81
312.328	420.81
312.557	436.81
312.787	442.81
313.017	441.81
313.246	426.81
313.476	412.81
313.706	392.81
313.935	422.81
314.165	400.81
314.394	437.81
314.624	413.81
314.853	423.81
315.083	394.81
315.312	406.81
315.542	394.81
315.771	403.81
316.001	373.81
316.23	401.81
316.46	384.81
316.689	402.81
316.919	402.81
317.148	425.81
317.377	402.81
317.607	395.81
317.836	411.81
318.065	397.81
318.295	389.81
318.524	394.81
318.753	398.81
318.983	407.81
319.212	385.81
319.441	417.81
319.67	419.81
319.9	393.81
320.129	404.81
320.358	409.81
320.587	403.81
320.816	405.81
321.046	427.81
321.275	432.81
321.504	425.81
321.733	425.81
321.962	449.81
322.191	446.81
322.42	481.81
322.649	481.81
322.878	515.81
323.108	518.81
323.337	562.81
323.566	570.81
323.795	616.81
324.024	692.81
324.253	853.81
324.482	1186.81
324.71	1843.81
324.939	2627.81
325.168	2296.81
325.397	1205.81
325.626	808.81
325.855	678.81
326.084	603.81
326.313	587.81
326.542	586.81
326.77	656.81
326.999	773.81
327.228	1052.81
327.457	1630.81
327.686	1969.81
327.914	1366.81
328.143	885.81
328.372	753.81
328.6	697.81
328.829	665.81
329.058	667.81
329.287	709.81
329.515	641.81
329.744	604.81
329.972	593.81
330.201	622.81
330.43	671.81
330.658	710.81
330.887	735.81
331.115	704.81
331.344	613.81
331.572	555.81
331.801	551.81
332.03	565.81
332.258	519.81
332.486	484.81
332.715	463.81
332.943	481.81
333.172	483.81
333.4	482.81
333.629	492.81
333.857	535.81
334.085	526.81
334.314	543.81
334.542	600.81
334.771	609.81
334.999	543.81
335.227	538.81
335.455	474.81
335.684	499.81
335.912	460.81
336.14	490.81
336.369	472.81
336.597	476.81
336.825	487.81
337.053	470.81
337.281	440.81
337.51	470.81
337.738	482.81
337.966	466.81
338.194	477.81
338.422	489.81
338.65	463.81
338.878	475.81
339.106	469.81
339.334	463.81
339.562	433.81
339.79	433.81
340.018	452.81
340.246	475.81
340.474	499.81
340.702	467.81
340.93	467.81
341.158	454.81
341.386	447.81
341.614	468.81
341.842	467.81
342.07	442.81
342.298	450.81
342.526	445.81
342.754	440.81
342.981	427.81
343.209	449.81
343.437	459.81
343.665	445.81
343.893	454.81
344.12	457.81
344.348	453.81
344.576	448.81
344.804	467.81
345.031	507.81
345.259	494.81
345.487	471.81
345.714	466.81
345.942	464.81
346.17	443.81
346.397	454.81
346.625	462.81
346.853	454.81
347.08	437.81
347.308	445.81
347.535	468.81
347.763	501.81
347.99	471.81
348.218	443.81
348.445	470.81
348.673	460.81
348.9	466.81
349.128	448.81
349.355	428.81
349.583	427.81
349.81	430.81
350.037	437.81
350.265	422.81
350.492	428.81
350.72	436.81
350.947	467.81
351.174	474.81
351.402	464.81
351.629	474.81
351.856	448.81
352.083	459.81
352.311	483.81
352.538	477.81
352.765	475.81
352.992	475.81
353.22	443.81
353.447	448.81
353.674	453.81
353.901	442.81
354.128	446.81
354.355	418.81
354.583	425.81
354.81	422.81
355.037	402.81
355.264	415.81
355.491	420.81
355.718	416.81
355.945	406.81
356.172	425.81
356.399	415.81
356.626	427.81
356.853	419.81
357.08	400.81
357.307	412.81
357.534	421.81
357.761	407.81
357.988	428.81
358.215	423.81
358.441	419.81
358.668	430.81
358.895	423.81
359.122	431.81
359.349	450.81
359.576	443.81
359.802	478.81
360.029	510.81
360.256	526.81
360.483	517.81
360.709	475.81
360.936	473.81
361.163	466.81
361.39	453.81
361.616	453.81
361.843	470.81
362.07	468.81
362.296	460.81
362.523	467.81
362.749	448.81
362.976	445.81
363.203	458.81
363.429	446.81
363.656	450.81
363.882	436.81
364.109	442.81
364.335	427.81
364.562	435.81
364.788	431.81
365.015	439.81
365.241	416.81
365.468	443.81
365.694	466.81
365.92	450.81
366.147	443.81
366.373	425.81
366.599	420.81
366.826	425.81
367.052	414.81
367.278	436.81
367.505	448.81
367.731	420.81
367.957	445.81
368.184	453.81
368.41	439.81
368.636	441.81
368.862	463.81
369.089	440.81
369.315	437.81
369.541	422.81
369.767	438.81
369.993	442.81
370.219	422.81
370.445	424.81
370.672	436.81
370.898	434.81
371.124	428.81
371.35	431.81
371.576	429.81
371.802	435.81
372.028	437.81
372.254	417.81
372.48	441.81
372.706	415.81
372.932	426.81
373.158	416.81
373.384	444.81
373.61	435.81
373.835	443.81
374.061	439.81
374.287	470.81
374.513	428.81
374.739	430.81
374.965	432.81
375.191	433.81
375.416	435.81
375.642	453.81
375.868	425.81
376.094	434.81
376.319	426.81
376.545	437.81
376.771	411.81
376.997	412.81
377.222	430.81
377.448	435.81
377.674	412.81
377.899	407.81
378.125	415.81
378.35	426.81
378.576	414.81
378.802	428.81
379.027	444.81
379.253	421.81
379.478	423.81
379.704	440.81
379.929	429.81
380.155	436.81
380.38	414.81
380.606	430.81
380.831	460.81
381.057	439.81
381.282	435.81
381.507	450.81
381.733	453.81
381.958	419.81
382.184	443.81
382.409	430.81
382.634	417.81
382.86	441.81
383.085	437.81
383.31	431.81
383.535	447.81
383.761	444.81
383.986	445.81
384.211	455.81
384.436	445.81
384.662	428.81
384.887	437.81
385.112	453.81
385.337	475.81
385.562	446.81
385.787	428.81
386.013	473.81
386.238	471.81
386.463	476.81
386.688	483.81
386.913	453.81
387.138	479.81
387.363	471.81
387.588	459.81
387.813	469.81
388.038	469.81
388.263	461.81
388.488	454.81
388.713	463.81
388.938	465.81
389.163	465.81
389.387	471.81
389.612	473.81
389.837	488.81
390.062	460.81
390.287	480.81
390.512	477.81
390.736	484.81
390.961	462.81
391.186	486.81
391.411	479.81
391.636	471.81
391.86	469.81
392.085	466.81
392.31	482.81
392.534	482.81
392.759	468.81
392.984	478.81
393.208	449.81
393.433	462.81
393.658	471.81
393.882	470.81
394.107	471.81
394.331	464.81
394.556	454.81
394.78	493.81
395.005	476.81
395.229	469.81
395.454	480.81
395.678	489.81
395.903	503.81
396.127	523.81
396.352	515.81
396.576	493.81
396.801	486.81
397.025	513.81
397.249	478.81
397.474	484.81
397.698	489.81
397.922	522.81
398.147	531.81
398.371	501.81
398.595	506.81
398.82	522.81
399.044	539.81
399.268	536.81
399.492	575.81
399.717	579.81
399.941	588.81
400.165	635.81
400.389	656.81
400.613	622.81
400.837	577.81
401.062	536.81
401.286	558.81
401.51	531.81
401.734	532.81
401.958	532.81
402.182	533.81
402.406	543.81
402.63	575.81
402.854	584.81
403.078	556.81
403.302	551.81
403.526	562.81
403.75	571.81
403.974	571.81
404.198	545.81
404.422	582.81
404.645	577.81
404.869	586.81
405.093	616.81
405.317	655.81
405.541	670.81
405.765	636.81
405.988	602.81
406.212	623.81
406.436	641.81
406.66	651.81
406.883	620.81
407.107	637.81
407.331	701.81
407.555	729.81
407.778	769.81
408.002	698.81
408.226	631.81
408.449	611.81
408.673	619.81
408.896	630.81
409.12	699.81
409.344	682.81
409.567	585.81
409.791	591.81
410.014	573.81
410.238	572.81
410.461	559.81
410.685	583.81
410.908	612.81
411.132	626.81
411.355	653.81
411.578	619.81
411.802	578.81
412.025	554.81
412.249	590.81
412.472	646.81
412.695	674.81
412.919	651.81
413.142	589.81
413.365	561.81
413.589	547.81
413.812	541.81
414.035	548.81
414.258	544.81
414.482	517.81
414.705	538.81
414.928	520.81
415.151	528.81
415.374	505.81
415.597	526.81
415.821	533.81
416.044	514.81
416.267	530.81
416.49	516.81
416.713	516.81
416.936	518.81
417.159	541.81
417.382	547.81
417.605	547.81
417.828	558.81
418.051	583.81
418.274	586.81
418.497	555.81
418.72	550.81
418.943	531.81
419.166	563.81
419.389	565.81
419.611	581.81
419.834	586.81
420.057	570.81
420.28	594.81
420.503	602.81
420.726	570.81
420.948	618.81
421.171	623.81
421.394	669.81
421.617	595.81
421.839	586.81
422.062	606.81
422.285	603.81
422.507	660.81
422.73	741.81
422.953	744.81
423.175	650.81
423.398	590.81
423.621	631.81
423.843	628.81
424.066	636.81
424.288	601.81
424.511	654.81
424.733	698.81
424.956	794.81
425.178	795.81
425.401	774.81
425.623	786.81
425.846	685.81
426.068	653.81
426.291	627.81
426.513	641.81
426.735	645.81
426.958	682.81
427.18	786.81
427.402	921.81
427.625	1030.81
427.847	922.81
428.069	813.81
428.292	729.81
428.514	639.81
428.736	625.81
428.958	625.81
429.181	592.81
429.403	592.81
429.625	592.81
429.847	631.81
430.069	719.81
430.292	710.81
430.514	643.81
430.736	588.81
430.958	599.81
431.18	569.81
431.402	549.81
431.624	549.81
431.846	539.81
432.068	536.81
432.29	563.81
432.512	595.81
432.734	567.81
432.956	554.81
433.178	556.81
433.4	556.81
433.622	560.81
433.844	549.81
434.066	554.81
434.287	559.81
434.509	544.81
434.731	554.81
434.953	574.81
435.175	587.81
435.397	622.81
435.618	614.81
435.84	680.81
436.062	781.81
436.284	839.81
436.505	731.81
436.727	679.81
436.949	628.81
437.17	597.81
437.392	592.81
437.614	627.81
437.835	632.81
438.057	780.81
438.278	902.81
438.5	907.81
438.721	942.81
438.943	924.81
439.165	739.81
439.386	663.81
439.608	659.81
439.829	662.81
440.05	699.81
440.272	767.81
440.493	698.81
440.715	650.81
440.936	596.81
441.158	608.81
441.379	629.81
441.6	613.81
441.822	637.81
442.043	683.81
442.264	788.81
442.486	814.81
442.707	713.81
442.928	672.81
443.149	648.81
443.371	711.81
443.592	722.81
443.813	833.81
444.034	886.81
444.255	747.81
444.476	668.81
444.698	642.81
444.919	638.81
445.14	753.81
445.361	693.81
445.582	715.81
445.803	755.81
446.024	889.81
446.245	888.81
446.466	834.81
446.687	717.81
446.908	644.81
447.129	630.81
447.35	606.81
447.571	609.81
447.792	580.81
448.013	626.81
448.234	611.81
448.455	675.81
448.675	802.81
448.896	895.81
449.117	784.81
449.338	742.81
449.559	852.81
449.779	938.81
450	791.81
450.221	655.81
450.442	598.81
450.662	601.81
450.883	605.81
451.104	635.81
451.324	608.81
451.545	585.81
451.766	558.81
451.986	536.81
452.207	551.81
452.428	532.81
452.648	545.81
452.869	512.81
453.089	556.81
453.31	564.81
453.53	567.81
453.751	522.81
453.971	565.81
454.192	545.81
454.412	559.81
454.633	546.81
454.853	522.81
455.073	529.81
455.294	567.81
455.514	667.81
455.734	645.81
455.955	564.81
456.175	537.81
456.395	525.81
456.616	503.81
456.836	495.81
457.056	507.81
457.276	485.81
457.497	489.81
457.717	476.81
457.937	470.81
458.157	516.81
458.377	525.81
458.598	533.81
458.818	618.81
459.038	706.81
459.258	738.81
459.478	627.81
459.698	584.81
459.918	559.81
460.138	530.81
460.358	555.81
460.578	538.81
460.798	559.81
461.018	571.81
461.238	541.81
461.458	553.81
461.678	532.81
461.898	558.81
462.118	539.81
462.338	549.81
462.558	542.81
462.777	560.81
462.997	544.81
463.217	574.81
463.437	595.81
463.657	573.81
463.876	572.81
464.096	562.81
464.316	578.81
464.536	590.81
464.755	589.81
464.975	587.81
465.195	661.81
465.414	775.81
465.634	681.81
465.854	630.81
466.073	577.81
466.293	552.81
466.512	542.81
466.732	545.81
466.951	534.81
467.171	556.81
467.391	562.81
467.61	567.81
467.829	578.81
468.049	583.81
468.268	571.81
468.488	542.81
468.707	555.81
468.927	542.81
469.146	515.81
469.365	526.81
469.585	527.81
469.804	521.81
470.023	538.81
470.243	555.81
470.462	535.81
470.681	571.81
470.901	568.81
471.12	557.81
471.339	553.81
471.558	565.81
471.777	560.81
471.997	522.81
472.216	542.81
472.435	589.81
472.654	587.81
472.873	562.81
473.092	541.81
473.311	557.81
473.53	566.81
473.749	551.81
473.968	599.81
474.187	742.81
474.406	754.81
474.625	621.81
474.844	571.81
475.063	593.81
475.282	569.81
475.501	556.81
475.72	543.81
475.939	586.81
476.158	571.81
476.377	555.81
476.596	569.81
476.814	573.81
477.033	596.81
477.252	590.81
477.471	570.81
477.69	593.81
477.908	598.81
478.127	617.81
478.346	605.81
478.564	591.81
478.783	618.81
479.002	632.81
479.22	646.81
479.439	646.81
479.658	679.81
479.876	667.81
480.095	679.81
480.313	680.81
480.532	687.81
480.751	682.81
480.969	698.81
481.188	786.81
481.406	885.81
481.624	769.81
481.843	687.81
482.061	676.81
482.28	693.81
482.498	665.81
482.717	669.81
482.935	660.81
483.153	671.81
483.372	645.81
483.59	645.81
483.808	663.81
484.027	655.81
484.245	674.81
484.463	673.81
484.681	656.81
484.9	673.81
485.118	668.81
485.336	667.81
485.554	675.81
485.772	700.81
485.99	670.81
486.209	679.81
486.427	717.81
486.645	725.81
486.863	723.81
487.081	734.81
487.299	723.81
487.517	721.81
487.735	710.81
487.953	711.81
488.171	748.81
488.389	722.81
488.607	734.81
488.825	730.81
489.043	732.81
489.261	728.81
489.479	729.81
489.696	737.81
489.914	747.81
490.132	745.81
490.35	755.81
490.568	776.81
490.786	791.81
491.003	788.81
491.221	805.81
491.439	810.81
491.657	802.81
491.874	836.81
492.092	851.81
492.31	853.81
492.527	836.81
492.745	861.81
492.963	883.81
493.18	882.81
493.398	879.81
493.615	858.81
493.833	887.81
494.05	874.81
494.268	865.81
494.485	859.81
494.703	870.81
494.92	855.81
495.138	881.81
495.355	868.81
495.573	881.81
495.79	890.81
496.008	892.81
496.225	870.81
496.442	858.81
496.66	861.81
496.877	871.81
497.094	850.81
497.312	843.81
497.529	853.81
497.746	885.81
497.963	896.81
498.181	937.81
498.398	918.81
498.615	894.81
498.832	920.81
499.049	937.81
499.267	931.81
499.484	963.81
499.701	955.81
499.918	1023.81
500.135	1067.81
500.352	1051.81
500.569	1059.81
500.786	1074.81
501.003	1080.81
501.22	1070.81
501.437	1042.81
501.654	1033.81
501.871	1044.81
