Data from 1970.PennyLincolnUp.Lamp.En5.5.200Scan.071719.P1._HRD10591_15-16-20-842.txt Node
Date: Thu Jul 18 15:16:20 EDT 2019
User: cochatt
Spectrometer: HR+D1059
Trigger mode: 1
Integration Time (sec): 1.000000E-1
Scans to average: 1
Electric dark correction enabled: true
Nonlinearity correction enabled: false
Boxcar width: 0
XAxis mode: Wavelengths
Number of Pixels in Spectrum: 2048
>>>>>Begin Spectral Data<<<<<
223.165	-18.56
223.4	-18.56
223.635	-18.56
223.869	-17.56
224.104	-12.56
224.338	-16.56
224.573	-20.56
224.808	-11.56
225.042	-15.56
225.277	-2.56
225.511	-3.56
225.746	-0.56
225.98	16.44
226.215	6.44
226.449	19.44
226.683	28.44
226.918	22.44
227.152	26.44
227.387	25.44
227.621	54.44
227.856	39.44
228.09	31.44
228.324	55.44
228.559	46.44
228.793	76.44
229.027	110.44
229.262	119.44
229.496	116.44
229.73	153.44
229.964	181.44
230.199	157.44
230.433	131.44
230.667	136.44
230.901	115.44
231.136	103.44
231.37	110.44
231.604	127.44
231.838	116.44
232.072	117.44
232.306	116.44
232.541	114.44
232.775	127.44
233.009	117.44
233.243	133.44
233.477	108.44
233.711	115.44
233.945	113.44
234.179	127.44
234.413	126.44
234.647	109.44
234.881	133.44
235.115	128.44
235.349	122.44
235.583	135.44
235.817	129.44
236.051	124.44
236.285	135.44
236.519	134.44
236.753	134.44
236.987	162.44
237.221	215.44
237.455	282.44
237.689	218.44
237.922	162.44
238.156	141.44
238.39	123.44
238.624	130.44
238.858	129.44
239.091	144.44
239.325	119.44
239.559	129.44
239.793	144.44
240.027	137.44
240.26	162.44
240.494	187.44
240.728	161.44
240.961	164.44
241.195	157.44
241.429	161.44
241.662	144.44
241.896	130.44
242.13	149.44
242.363	139.44
242.597	136.44
242.83	146.44
243.064	136.44
243.298	145.44
243.531	159.44
243.765	161.44
243.998	147.44
244.232	156.44
244.465	152.44
244.699	159.44
244.932	152.44
245.166	168.44
245.399	141.44
245.633	159.44
245.866	161.44
246.099	142.44
246.333	158.44
246.566	159.44
246.8	162.44
247.033	167.44
247.266	169.44
247.5	168.44
247.733	196.44
247.966	185.44
248.2	175.44
248.433	185.44
248.666	162.44
248.899	204.44
249.133	201.44
249.366	215.44
249.599	214.44
249.832	189.44
250.066	196.44
250.299	191.44
250.532	211.44
250.765	237.44
250.998	267.44
251.231	264.44
251.465	256.44
251.698	228.44
251.931	234.44
252.164	226.44
252.397	229.44
252.63	231.44
252.863	227.44
253.096	250.44
253.329	268.44
253.562	249.44
253.795	242.44
254.028	247.44
254.261	249.44
254.494	279.44
254.727	293.44
254.96	321.44
255.193	333.44
255.426	308.44
255.659	269.44
255.892	264.44
256.124	269.44
256.357	261.44
256.59	238.44
256.823	254.44
257.056	248.44
257.289	246.44
257.521	245.44
257.754	231.44
257.987	247.44
258.22	228.44
258.452	217.44
258.685	236.44
258.918	242.44
259.151	251.44
259.383	244.44
259.616	241.44
259.849	249.44
260.081	262.44
260.314	298.44
260.547	291.44
260.779	296.44
261.012	271.44
261.244	264.44
261.477	273.44
261.71	250.44
261.942	255.44
262.175	250.44
262.407	247.44
262.64	228.44
262.872	236.44
263.105	241.44
263.337	232.44
263.57	231.44
263.802	223.44
264.035	225.44
264.267	230.44
264.499	222.44
264.732	219.44
264.964	221.44
265.197	219.44
265.429	219.44
265.661	231.44
265.894	228.44
266.126	239.44
266.358	221.44
266.591	233.44
266.823	222.44
267.055	246.44
267.287	257.44
267.52	238.44
267.752	252.44
267.984	253.44
268.216	242.44
268.448	230.44
268.681	256.44
268.913	259.44
269.145	273.44
269.377	298.44
269.609	285.44
269.841	300.44
270.073	280.44
270.306	321.44
270.538	341.44
270.77	335.44
271.002	325.44
271.234	317.44
271.466	316.44
271.698	345.44
271.93	351.44
272.162	365.44
272.394	330.44
272.626	341.44
272.858	311.44
273.09	324.44
273.322	310.44
273.553	291.44
273.785	278.44
274.017	278.44
274.249	285.44
274.481	273.44
274.713	293.44
274.945	296.44
275.176	295.44
275.408	255.44
275.64	276.44
275.872	267.44
276.104	281.44
276.335	270.44
276.567	290.44
276.799	315.44
277.031	330.44
277.262	354.44
277.494	339.44
277.726	329.44
277.957	296.44
278.189	305.44
278.421	286.44
278.652	277.44
278.884	302.44
279.115	279.44
279.347	287.44
279.579	288.44
279.81	271.44
280.042	283.44
280.273	268.44
280.505	275.44
280.736	260.44
280.968	270.44
281.199	275.44
281.431	273.44
281.662	274.44
281.894	275.44
282.125	277.44
282.356	305.44
282.588	328.44
282.819	327.44
283.051	320.44
283.282	275.44
283.513	294.44
283.745	291.44
283.976	276.44
284.207	308.44
284.439	266.44
284.67	292.44
284.901	284.44
285.132	279.44
285.364	280.44
285.595	299.44
285.826	286.44
286.057	279.44
286.288	279.44
286.52	290.44
286.751	307.44
286.982	292.44
287.213	291.44
287.444	300.44
287.675	293.44
287.906	307.44
288.138	300.44
288.369	306.44
288.6	307.44
288.831	302.44
289.062	303.44
289.293	292.44
289.524	309.44
289.755	291.44
289.986	298.44
290.217	282.44
290.448	307.44
290.679	281.44
290.91	291.44
291.141	301.44
291.371	294.44
291.602	301.44
291.833	283.44
292.064	298.44
292.295	310.44
292.526	307.44
292.757	290.44
292.987	298.44
293.218	273.44
293.449	283.44
293.68	291.44
293.91	306.44
294.141	313.44
294.372	307.44
294.603	291.44
294.833	291.44
295.064	304.44
295.295	292.44
295.525	301.44
295.756	299.44
295.987	315.44
296.217	347.44
296.448	343.44
296.679	318.44
296.909	308.44
297.14	306.44
297.37	290.44
297.601	307.44
297.831	300.44
298.062	311.44
298.292	307.44
298.523	316.44
298.753	310.44
298.984	298.44
299.214	305.44
299.445	329.44
299.675	315.44
299.905	321.44
300.136	322.44
300.366	326.44
300.597	316.44
300.827	309.44
301.057	349.44
301.288	362.44
301.518	338.44
301.748	327.44
301.979	326.44
302.209	338.44
302.439	323.44
302.669	339.44
302.9	329.44
303.13	317.44
303.36	336.44
303.59	347.44
303.82	361.44
304.051	335.44
304.281	330.44
304.511	318.44
304.741	332.44
304.971	341.44
305.201	298.44
305.431	332.44
305.661	327.44
305.891	324.44
306.121	333.44
306.352	342.44
306.582	344.44
306.812	339.44
307.042	339.44
307.272	343.44
307.502	343.44
307.731	338.44
307.961	341.44
308.191	341.44
308.421	346.44
308.651	333.44
308.881	349.44
309.111	358.44
309.341	362.44
309.571	364.44
309.8	377.44
310.03	391.44
310.26	386.44
310.49	406.44
310.72	420.44
310.949	449.44
311.179	439.44
311.409	417.44
311.639	384.44
311.868	401.44
312.098	398.44
312.328	395.44
312.557	425.44
312.787	453.44
313.017	452.44
313.246	422.44
313.476	393.44
313.706	397.44
313.935	397.44
314.165	437.44
314.394	430.44
314.624	419.44
314.853	411.44
315.083	396.44
315.312	386.44
315.542	375.44
315.771	395.44
316.001	398.44
316.23	371.44
316.46	389.44
316.689	411.44
316.919	393.44
317.148	400.44
317.377	408.44
317.607	407.44
317.836	407.44
318.065	400.44
318.295	381.44
318.524	397.44
318.753	387.44
318.983	404.44
319.212	415.44
319.441	405.44
319.67	413.44
319.9	410.44
320.129	407.44
320.358	393.44
320.587	388.44
320.816	444.44
321.046	440.44
321.275	456.44
321.504	420.44
321.733	410.44
321.962	446.44
322.191	441.44
322.42	467.44
322.649	509.44
322.878	505.44
323.108	518.44
323.337	520.44
323.566	569.44
323.795	610.44
324.024	651.44
324.253	835.44
324.482	1179.44
324.71	1868.44
324.939	2587.44
325.168	2257.44
325.397	1229.44
325.626	796.44
325.855	625.44
326.084	597.44
326.313	558.44
326.542	565.44
326.77	632.44
326.999	775.44
327.228	1059.44
327.457	1617.44
327.686	1964.44
327.914	1349.44
328.143	876.44
328.372	759.44
328.6	696.44
328.829	659.44
329.058	673.44
329.287	685.44
329.515	652.44
329.744	584.44
329.972	593.44
330.201	612.44
330.43	701.44
330.658	687.44
330.887	729.44
331.115	689.44
331.344	581.44
331.572	561.44
331.801	560.44
332.03	542.44
332.258	540.44
332.486	501.44
332.715	474.44
332.943	499.44
333.172	487.44
333.4	492.44
333.629	485.44
333.857	519.44
334.085	527.44
334.314	540.44
334.542	590.44
334.771	616.44
334.999	572.44
335.227	519.44
335.455	488.44
335.684	483.44
335.912	460.44
336.14	475.44
336.369	478.44
336.597	474.44
336.825	493.44
337.053	466.44
337.281	462.44
337.51	433.44
337.738	478.44
337.966	472.44
338.194	461.44
338.422	466.44
338.65	446.44
338.878	470.44
339.106	447.44
339.334	472.44
339.562	451.44
339.79	443.44
340.018	453.44
340.246	463.44
340.474	481.44
340.702	461.44
340.93	450.44
341.158	433.44
341.386	464.44
341.614	452.44
341.842	455.44
342.07	467.44
342.298	437.44
342.526	453.44
342.754	436.44
342.981	450.44
343.209	445.44
343.437	441.44
343.665	456.44
343.893	455.44
344.12	447.44
344.348	451.44
344.576	461.44
344.804	476.44
345.031	483.44
345.259	478.44
345.487	476.44
345.714	468.44
345.942	447.44
346.17	464.44
346.397	428.44
346.625	459.44
346.853	441.44
347.08	446.44
347.308	450.44
347.535	454.44
347.763	445.44
347.99	458.44
348.218	454.44
348.445	464.44
348.673	469.44
348.9	458.44
349.128	414.44
349.355	421.44
349.583	437.44
349.81	410.44
350.037	459.44
350.265	437.44
350.492	415.44
350.72	431.44
350.947	435.44
351.174	458.44
351.402	492.44
351.629	467.44
351.856	475.44
352.083	460.44
352.311	481.44
352.538	477.44
352.765	495.44
352.992	463.44
353.22	455.44
353.447	442.44
353.674	445.44
353.901	433.44
354.128	430.44
354.355	417.44
354.583	437.44
354.81	429.44
355.037	433.44
355.264	409.44
355.491	409.44
355.718	420.44
355.945	423.44
356.172	410.44
356.399	403.44
356.626	422.44
356.853	425.44
357.08	418.44
357.307	422.44
357.534	412.44
357.761	403.44
357.988	412.44
358.215	423.44
358.441	411.44
358.668	421.44
358.895	409.44
359.122	435.44
359.349	431.44
359.576	485.44
359.802	475.44
360.029	497.44
360.256	542.44
360.483	527.44
360.709	469.44
360.936	440.44
361.163	460.44
361.39	463.44
361.616	450.44
361.843	465.44
362.07	447.44
362.296	480.44
362.523	458.44
362.749	467.44
362.976	470.44
363.203	430.44
363.429	442.44
363.656	427.44
363.882	420.44
364.109	431.44
364.335	444.44
364.562	435.44
364.788	435.44
365.015	428.44
365.241	456.44
365.468	448.44
365.694	439.44
365.92	453.44
366.147	427.44
366.373	449.44
366.599	422.44
366.826	413.44
367.052	423.44
367.278	443.44
367.505	437.44
367.731	437.44
367.957	422.44
368.184	431.44
368.41	450.44
368.636	462.44
368.862	462.44
369.089	463.44
369.315	442.44
369.541	443.44
369.767	442.44
369.993	418.44
370.219	439.44
370.445	435.44
370.672	423.44
370.898	418.44
371.124	418.44
371.35	407.44
371.576	431.44
371.802	426.44
372.028	430.44
372.254	414.44
372.48	425.44
372.706	422.44
372.932	429.44
373.158	445.44
373.384	430.44
373.61	441.44
373.835	437.44
374.061	435.44
374.287	438.44
374.513	427.44
374.739	434.44
374.965	415.44
375.191	438.44
375.416	453.44
375.642	433.44
375.868	436.44
376.094	425.44
376.319	430.44
376.545	429.44
376.771	430.44
376.997	420.44
377.222	409.44
377.448	421.44
377.674	437.44
377.899	427.44
378.125	429.44
378.35	427.44
378.576	424.44
378.802	427.44
379.027	429.44
379.253	434.44
379.478	411.44
379.704	433.44
379.929	414.44
380.155	423.44
380.38	411.44
380.606	420.44
380.831	423.44
381.057	426.44
381.282	429.44
381.507	429.44
381.733	445.44
381.958	428.44
382.184	433.44
382.409	441.44
382.634	423.44
382.86	452.44
383.085	424.44
383.31	427.44
383.535	453.44
383.761	447.44
383.986	471.44
384.211	459.44
384.436	439.44
384.662	441.44
384.887	445.44
385.112	459.44
385.337	454.44
385.562	461.44
385.787	455.44
386.013	480.44
386.238	463.44
386.463	490.44
386.688	463.44
386.913	447.44
387.138	458.44
387.363	461.44
387.588	453.44
387.813	477.44
388.038	456.44
388.263	462.44
388.488	467.44
388.713	466.44
388.938	490.44
389.163	461.44
389.387	480.44
389.612	473.44
389.837	463.44
390.062	467.44
390.287	473.44
390.512	466.44
390.736	461.44
390.961	474.44
391.186	464.44
391.411	469.44
391.636	479.44
391.86	479.44
392.085	470.44
392.31	457.44
392.534	477.44
392.759	470.44
392.984	461.44
393.208	474.44
393.433	483.44
393.658	459.44
393.882	465.44
394.107	462.44
394.331	492.44
394.556	452.44
394.78	447.44
395.005	464.44
395.229	470.44
395.454	468.44
395.678	476.44
395.903	487.44
396.127	507.44
396.352	502.44
396.576	487.44
396.801	470.44
397.025	486.44
397.249	501.44
397.474	493.44
397.698	486.44
397.922	505.44
398.147	519.44
398.371	552.44
398.595	526.44
398.82	527.44
399.044	516.44
399.268	545.44
399.492	553.44
399.717	575.44
399.941	622.44
400.165	655.44
400.389	646.44
400.613	607.44
400.837	551.44
401.062	524.44
401.286	545.44
401.51	553.44
401.734	542.44
401.958	534.44
402.182	549.44
402.406	561.44
402.63	567.44
402.854	538.44
403.078	564.44
403.302	541.44
403.526	554.44
403.75	566.44
403.974	556.44
404.198	567.44
404.422	556.44
404.645	563.44
404.869	577.44
405.093	598.44
405.317	647.44
405.541	679.44
405.765	627.44
405.988	580.44
406.212	604.44
406.436	648.44
406.66	661.44
406.883	625.44
407.107	638.44
407.331	689.44
407.555	750.44
407.778	760.44
408.002	684.44
408.226	630.44
408.449	629.44
408.673	625.44
408.896	645.44
409.12	680.44
409.344	641.44
409.567	620.44
409.791	602.44
410.014	548.44
410.238	543.44
410.461	554.44
410.685	561.44
410.908	571.44
411.132	635.44
411.355	635.44
411.578	619.44
411.802	563.44
412.025	563.44
412.249	573.44
412.472	602.44
412.695	653.44
412.919	645.44
413.142	602.44
413.365	561.44
413.589	556.44
413.812	540.44
414.035	533.44
414.258	538.44
414.482	530.44
414.705	537.44
414.928	525.44
415.151	506.44
415.374	537.44
415.597	544.44
415.821	519.44
416.044	535.44
416.267	545.44
416.49	528.44
416.713	545.44
416.936	548.44
417.159	535.44
417.382	542.44
417.605	546.44
417.828	571.44
418.051	563.44
418.274	571.44
418.497	557.44
418.72	539.44
418.943	515.44
419.166	549.44
419.389	580.44
419.611	580.44
419.834	580.44
420.057	591.44
420.28	571.44
420.503	588.44
420.726	564.44
420.948	613.44
421.171	645.44
421.394	647.44
421.617	580.44
421.839	575.44
422.062	581.44
422.285	590.44
422.507	672.44
422.73	753.44
422.953	696.44
423.175	619.44
423.398	591.44
423.621	603.44
423.843	619.44
424.066	608.44
424.288	633.44
424.511	637.44
424.733	685.44
424.956	793.44
425.178	770.44
425.401	751.44
425.623	743.44
425.846	671.44
426.068	633.44
426.291	629.44
426.513	641.44
426.735	637.44
426.958	690.44
427.18	769.44
427.402	908.44
427.625	990.44
427.847	923.44
428.069	812.44
428.292	714.44
428.514	646.44
428.736	627.44
428.958	620.44
429.181	579.44
429.403	585.44
429.625	594.44
429.847	640.44
430.069	711.44
430.292	740.44
430.514	628.44
430.736	583.44
430.958	577.44
431.18	556.44
431.402	558.44
431.624	551.44
431.846	558.44
432.068	546.44
432.29	547.44
432.512	539.44
432.734	574.44
432.956	581.44
433.178	569.44
433.4	602.44
433.622	565.44
433.844	550.44
434.066	548.44
434.287	523.44
434.509	513.44
434.731	571.44
434.953	577.44
435.175	595.44
435.397	636.44
435.618	635.44
435.84	657.44
436.062	807.44
436.284	852.44
436.505	722.44
436.727	684.44
436.949	613.44
437.17	595.44
437.392	571.44
437.614	604.44
437.835	641.44
438.057	746.44
438.278	857.44
438.5	878.44
438.721	945.44
438.943	893.44
439.165	754.44
439.386	663.44
439.608	652.44
439.829	654.44
440.05	676.44
440.272	739.44
440.493	719.44
440.715	640.44
440.936	606.44
441.158	577.44
441.379	583.44
441.6	601.44
441.822	637.44
442.043	698.44
442.264	776.44
442.486	821.44
442.707	715.44
442.928	655.44
443.149	672.44
443.371	683.44
443.592	716.44
443.813	817.44
444.034	870.44
444.255	719.44
444.476	635.44
444.698	625.44
444.919	620.44
445.14	715.44
445.361	689.44
445.582	682.44
445.803	767.44
446.024	856.44
446.245	867.44
446.466	806.44
446.687	687.44
446.908	637.44
447.129	619.44
447.35	595.44
447.571	596.44
447.792	554.44
448.013	614.44
448.234	621.44
448.455	682.44
448.675	783.44
448.896	910.44
449.117	796.44
449.338	784.44
449.559	884.44
449.779	939.44
450	781.44
450.221	661.44
450.442	599.44
450.662	597.44
450.883	594.44
451.104	625.44
451.324	603.44
451.545	565.44
451.766	568.44
451.986	546.44
452.207	539.44
452.428	547.44
452.648	526.44
452.869	508.44
453.089	533.44
453.31	554.44
453.53	532.44
453.751	522.44
453.971	551.44
454.192	585.44
454.412	561.44
454.633	512.44
454.853	510.44
455.073	547.44
455.294	556.44
455.514	636.44
455.734	613.44
455.955	542.44
456.175	509.44
456.395	514.44
456.616	483.44
456.836	487.44
457.056	492.44
457.276	493.44
457.497	485.44
457.717	495.44
457.937	478.44
458.157	517.44
458.377	505.44
458.598	528.44
458.818	606.44
459.038	717.44
459.258	721.44
459.478	625.44
459.698	568.44
459.918	528.44
460.138	539.44
460.358	532.44
460.578	549.44
460.798	527.44
461.018	533.44
461.238	555.44
461.458	519.44
461.678	518.44
461.898	537.44
462.118	528.44
462.338	553.44
462.558	526.44
462.777	556.44
462.997	540.44
463.217	539.44
463.437	564.44
463.657	556.44
463.876	555.44
464.096	563.44
464.316	574.44
464.536	583.44
464.755	568.44
464.975	579.44
465.195	665.44
465.414	751.44
465.634	670.44
465.854	606.44
466.073	579.44
466.293	557.44
466.512	531.44
466.732	531.44
466.951	529.44
467.171	532.44
467.391	528.44
467.61	571.44
467.829	543.44
468.049	571.44
468.268	545.44
468.488	521.44
468.707	535.44
468.927	527.44
469.146	506.44
469.365	519.44
469.585	525.44
469.804	535.44
470.023	557.44
470.243	558.44
470.462	546.44
470.681	577.44
470.901	589.44
471.12	562.44
471.339	551.44
471.558	549.44
471.777	559.44
471.997	551.44
472.216	568.44
472.435	621.44
472.654	608.44
472.873	551.44
473.092	567.44
473.311	553.44
473.53	553.44
473.749	568.44
473.968	625.44
474.187	711.44
474.406	743.44
474.625	640.44
474.844	577.44
475.063	567.44
475.282	575.44
475.501	578.44
475.72	574.44
475.939	573.44
476.158	561.44
476.377	570.44
476.596	558.44
476.814	581.44
477.033	597.44
477.252	591.44
477.471	600.44
477.69	593.44
477.908	597.44
478.127	603.44
478.346	573.44
478.564	605.44
478.783	619.44
479.002	612.44
479.22	621.44
479.439	631.44
479.658	654.44
479.876	670.44
480.095	682.44
480.313	695.44
480.532	693.44
480.751	671.44
480.969	700.44
481.188	784.44
481.406	855.44
481.624	719.44
481.843	706.44
482.061	683.44
482.28	663.44
482.498	643.44
482.717	644.44
482.935	663.44
483.153	650.44
483.372	657.44
483.59	644.44
483.808	656.44
484.027	651.44
484.245	647.44
484.463	658.44
484.681	667.44
484.9	672.44
485.118	657.44
485.336	647.44
485.554	652.44
485.772	660.44
485.99	662.44
486.209	668.44
486.427	689.44
486.645	693.44
486.863	742.44
487.081	738.44
487.299	695.44
487.517	703.44
487.735	705.44
487.953	714.44
488.171	718.44
488.389	701.44
488.607	717.44
488.825	717.44
489.043	731.44
489.261	717.44
489.479	728.44
489.696	732.44
489.914	753.44
490.132	742.44
490.35	746.44
490.568	781.44
490.786	771.44
491.003	794.44
491.221	797.44
491.439	820.44
491.657	840.44
491.874	841.44
492.092	849.44
492.31	845.44
492.527	866.44
492.745	835.44
492.963	837.44
493.18	859.44
493.398	871.44
493.615	825.44
493.833	864.44
494.05	853.44
494.268	871.44
494.485	851.44
494.703	857.44
494.92	844.44
495.138	866.44
495.355	868.44
495.573	870.44
495.79	886.44
496.008	885.44
496.225	850.44
496.442	844.44
496.66	857.44
496.877	882.44
497.094	871.44
497.312	854.44
497.529	884.44
497.746	885.44
497.963	903.44
498.181	926.44
498.398	911.44
498.615	915.44
498.832	925.44
499.049	895.44
499.267	942.44
499.484	935.44
499.701	1017.44
499.918	974.44
500.135	1019.44
500.352	1041.44
500.569	1062.44
500.786	1046.44
501.003	1061.44
501.22	1041.44
501.437	1035.44
501.654	1025.44
