Data from 1970.PennyLincolnUp.Lamp.En5.5.200Scan.071719.P1._HRD10591_15-13-41-843.txt Node
Date: Thu Jul 18 15:13:41 EDT 2019
User: cochatt
Spectrometer: HR+D1059
Trigger mode: 1
Integration Time (sec): 1.000000E-1
Scans to average: 1
Electric dark correction enabled: true
Nonlinearity correction enabled: false
Boxcar width: 0
XAxis mode: Wavelengths
Number of Pixels in Spectrum: 2048
>>>>>Begin Spectral Data<<<<<
223.165	-13.5
223.4	-13.5
223.635	-13.5
223.869	-15.5
224.104	-32.5
224.338	-8.5
224.573	-10.5
224.808	-9.5
225.042	-9.5
225.277	-8.5
225.511	-4.5
225.746	4.5
225.98	4.5
226.215	0.5
226.449	11.5
226.683	24.5
226.918	27.5
227.152	39.5
227.387	33.5
227.621	35.5
227.856	40.5
228.09	44.5
228.324	56.5
228.559	49.5
228.793	57.5
229.027	90.5
229.262	110.5
229.496	129.5
229.73	149.5
229.964	149.5
230.199	140.5
230.433	122.5
230.667	101.5
230.901	113.5
231.136	110.5
231.37	107.5
231.604	116.5
231.838	136.5
232.072	119.5
232.306	105.5
232.541	112.5
232.775	102.5
233.009	105.5
233.243	110.5
233.477	119.5
233.711	124.5
233.945	121.5
234.179	113.5
234.413	123.5
234.647	111.5
234.881	126.5
235.115	115.5
235.349	115.5
235.583	107.5
235.817	116.5
236.051	127.5
236.285	127.5
236.519	127.5
236.753	125.5
236.987	141.5
237.221	187.5
237.455	222.5
237.689	209.5
237.922	138.5
238.156	132.5
238.39	127.5
238.624	128.5
238.858	117.5
239.091	134.5
239.325	130.5
239.559	126.5
239.793	137.5
240.027	131.5
240.26	133.5
240.494	158.5
240.728	144.5
240.961	157.5
241.195	153.5
241.429	145.5
241.662	127.5
241.896	129.5
242.13	120.5
242.363	128.5
242.597	142.5
242.83	144.5
243.064	155.5
243.298	157.5
243.531	147.5
243.765	148.5
243.998	151.5
244.232	151.5
244.465	144.5
244.699	145.5
244.932	134.5
245.166	138.5
245.399	147.5
245.633	143.5
245.866	136.5
246.099	147.5
246.333	147.5
246.566	159.5
246.8	158.5
247.033	157.5
247.266	168.5
247.5	169.5
247.733	186.5
247.966	176.5
248.2	169.5
248.433	183.5
248.666	182.5
248.899	192.5
249.133	204.5
249.366	223.5
249.599	208.5
249.832	198.5
250.066	190.5
250.299	198.5
250.532	213.5
250.765	228.5
250.998	216.5
251.231	231.5
251.465	210.5
251.698	220.5
251.931	220.5
252.164	214.5
252.397	198.5
252.63	212.5
252.863	212.5
253.096	233.5
253.329	243.5
253.562	233.5
253.795	218.5
254.028	230.5
254.261	240.5
254.494	254.5
254.727	247.5
254.96	286.5
255.193	280.5
255.426	266.5
255.659	246.5
255.892	247.5
256.124	235.5
256.357	214.5
256.59	214.5
256.823	214.5
257.056	217.5
257.289	207.5
257.521	226.5
257.754	205.5
257.987	217.5
258.22	194.5
258.452	206.5
258.685	223.5
258.918	217.5
259.151	238.5
259.383	225.5
259.616	230.5
259.849	227.5
260.081	223.5
260.314	244.5
260.547	262.5
260.779	242.5
261.012	235.5
261.244	224.5
261.477	215.5
261.71	227.5
261.942	225.5
262.175	240.5
262.407	261.5
262.64	229.5
262.872	236.5
263.105	210.5
263.337	213.5
263.57	215.5
263.802	211.5
264.035	221.5
264.267	215.5
264.499	193.5
264.732	215.5
264.964	204.5
265.197	202.5
265.429	217.5
265.661	213.5
265.894	211.5
266.126	212.5
266.358	219.5
266.591	210.5
266.823	207.5
267.055	222.5
267.287	217.5
267.52	206.5
267.752	223.5
267.984	209.5
268.216	217.5
268.448	225.5
268.681	224.5
268.913	240.5
269.145	247.5
269.377	258.5
269.609	282.5
269.841	248.5
270.073	274.5
270.306	285.5
270.538	303.5
270.77	299.5
271.002	315.5
271.234	286.5
271.466	300.5
271.698	320.5
271.93	302.5
272.162	289.5
272.394	308.5
272.626	305.5
272.858	276.5
273.09	273.5
273.322	265.5
273.553	260.5
273.785	258.5
274.017	257.5
274.249	270.5
274.481	258.5
274.713	265.5
274.945	249.5
275.176	260.5
275.408	259.5
275.64	245.5
275.872	239.5
276.104	247.5
276.335	257.5
276.567	265.5
276.799	269.5
277.031	295.5
277.262	311.5
277.494	312.5
277.726	295.5
277.957	276.5
278.189	280.5
278.421	276.5
278.652	256.5
278.884	240.5
279.115	255.5
279.347	275.5
279.579	255.5
279.81	256.5
280.042	245.5
280.273	247.5
280.505	257.5
280.736	258.5
280.968	245.5
281.199	259.5
281.431	249.5
281.662	252.5
281.894	258.5
282.125	272.5
282.356	261.5
282.588	284.5
282.819	306.5
283.051	272.5
283.282	259.5
283.513	274.5
283.745	278.5
283.976	275.5
284.207	250.5
284.439	254.5
284.67	276.5
284.901	255.5
285.132	262.5
285.364	254.5
285.595	245.5
285.826	244.5
286.057	254.5
286.288	252.5
286.52	259.5
286.751	258.5
286.982	258.5
287.213	265.5
287.444	279.5
287.675	258.5
287.906	262.5
288.138	291.5
288.369	295.5
288.6	275.5
288.831	268.5
289.062	278.5
289.293	260.5
289.524	255.5
289.755	268.5
289.986	267.5
290.217	246.5
290.448	276.5
290.679	268.5
290.91	277.5
291.141	278.5
291.371	283.5
291.602	258.5
291.833	277.5
292.064	265.5
292.295	265.5
292.526	253.5
292.757	277.5
292.987	253.5
293.218	264.5
293.449	270.5
293.68	264.5
293.91	267.5
294.141	272.5
294.372	281.5
294.603	260.5
294.833	266.5
295.064	278.5
295.295	268.5
295.525	280.5
295.756	286.5
295.987	283.5
296.217	289.5
296.448	295.5
296.679	282.5
296.909	284.5
297.14	276.5
297.37	263.5
297.601	279.5
297.831	290.5
298.062	283.5
298.292	280.5
298.523	271.5
298.753	286.5
298.984	287.5
299.214	273.5
299.445	263.5
299.675	297.5
299.905	287.5
300.136	294.5
300.366	296.5
300.597	289.5
300.827	281.5
301.057	299.5
301.288	304.5
301.518	297.5
301.748	294.5
301.979	295.5
302.209	284.5
302.439	286.5
302.669	293.5
302.9	286.5
303.13	302.5
303.36	298.5
303.59	288.5
303.82	322.5
304.051	285.5
304.281	286.5
304.511	286.5
304.741	283.5
304.971	307.5
305.201	297.5
305.431	294.5
305.661	303.5
305.891	295.5
306.121	300.5
306.352	297.5
306.582	317.5
306.812	290.5
307.042	322.5
307.272	318.5
307.502	307.5
307.731	312.5
307.961	318.5
308.191	311.5
308.421	309.5
308.651	293.5
308.881	312.5
309.111	290.5
309.341	324.5
309.571	322.5
309.8	334.5
310.03	336.5
310.26	352.5
310.49	353.5
310.72	374.5
310.949	368.5
311.179	378.5
311.409	358.5
311.639	374.5
311.868	371.5
312.098	364.5
312.328	362.5
312.557	366.5
312.787	368.5
313.017	358.5
313.246	361.5
313.476	336.5
313.706	354.5
313.935	349.5
314.165	366.5
314.394	374.5
314.624	377.5
314.853	369.5
315.083	370.5
315.312	338.5
315.542	346.5
315.771	326.5
316.001	339.5
316.23	341.5
316.46	351.5
316.689	369.5
316.919	346.5
317.148	360.5
317.377	370.5
317.607	353.5
317.836	343.5
318.065	356.5
318.295	341.5
318.524	359.5
318.753	328.5
318.983	358.5
319.212	353.5
319.441	370.5
319.67	362.5
319.9	346.5
320.129	372.5
320.358	366.5
320.587	363.5
320.816	352.5
321.046	358.5
321.275	366.5
321.504	374.5
321.733	386.5
321.962	370.5
322.191	390.5
322.42	400.5
322.649	451.5
322.878	443.5
323.108	439.5
323.337	464.5
323.566	496.5
323.795	524.5
324.024	583.5
324.253	670.5
324.482	961.5
324.71	1472.5
324.939	2072.5
325.168	1815.5
325.397	974.5
325.626	656.5
325.855	535.5
326.084	517.5
326.313	495.5
326.542	511.5
326.77	549.5
326.999	642.5
327.228	867.5
327.457	1314.5
327.686	1626.5
327.914	1108.5
328.143	736.5
328.372	636.5
328.6	582.5
328.829	564.5
329.058	563.5
329.287	594.5
329.515	548.5
329.744	520.5
329.972	518.5
330.201	517.5
330.43	556.5
330.658	601.5
330.887	608.5
331.115	598.5
331.344	500.5
331.572	482.5
331.801	472.5
332.03	473.5
332.258	452.5
332.486	430.5
332.715	422.5
332.943	426.5
333.172	433.5
333.4	442.5
333.629	428.5
333.857	442.5
334.085	475.5
334.314	465.5
334.542	497.5
334.771	520.5
334.999	478.5
335.227	470.5
335.455	430.5
335.684	399.5
335.912	423.5
336.14	430.5
336.369	409.5
336.597	426.5
336.825	411.5
337.053	430.5
337.281	434.5
337.51	411.5
337.738	395.5
337.966	419.5
338.194	410.5
338.422	431.5
338.65	414.5
338.878	427.5
339.106	415.5
339.334	402.5
339.562	397.5
339.79	417.5
340.018	411.5
340.246	397.5
340.474	404.5
340.702	394.5
340.93	404.5
341.158	404.5
341.386	389.5
341.614	417.5
341.842	414.5
342.07	393.5
342.298	386.5
342.526	401.5
342.754	398.5
342.981	395.5
343.209	394.5
343.437	381.5
343.665	401.5
343.893	407.5
344.12	416.5
344.348	410.5
344.576	414.5
344.804	395.5
345.031	431.5
345.259	448.5
345.487	418.5
345.714	400.5
345.942	402.5
346.17	395.5
346.397	404.5
346.625	406.5
346.853	416.5
347.08	399.5
347.308	409.5
347.535	390.5
347.763	421.5
347.99	417.5
348.218	396.5
348.445	407.5
348.673	419.5
348.9	405.5
349.128	406.5
349.355	389.5
349.583	385.5
349.81	383.5
350.037	397.5
350.265	379.5
350.492	376.5
350.72	398.5
350.947	418.5
351.174	415.5
351.402	404.5
351.629	421.5
351.856	404.5
352.083	400.5
352.311	425.5
352.538	436.5
352.765	434.5
352.992	411.5
353.22	411.5
353.447	413.5
353.674	396.5
353.901	375.5
354.128	390.5
354.355	378.5
354.583	382.5
354.81	389.5
355.037	369.5
355.264	384.5
355.491	377.5
355.718	338.5
355.945	398.5
356.172	385.5
356.399	371.5
356.626	389.5
356.853	386.5
357.08	372.5
357.307	379.5
357.534	394.5
357.761	368.5
357.988	390.5
358.215	392.5
358.441	388.5
358.668	395.5
358.895	390.5
359.122	393.5
359.349	387.5
359.576	407.5
359.802	441.5
360.029	476.5
360.256	502.5
360.483	428.5
360.709	426.5
360.936	427.5
361.163	426.5
361.39	418.5
361.616	426.5
361.843	397.5
362.07	403.5
362.296	401.5
362.523	419.5
362.749	418.5
362.976	409.5
363.203	421.5
363.429	403.5
363.656	392.5
363.882	390.5
364.109	397.5
364.335	394.5
364.562	373.5
364.788	400.5
365.015	388.5
365.241	408.5
365.468	399.5
365.694	423.5
365.92	397.5
366.147	404.5
366.373	415.5
366.599	382.5
366.826	400.5
367.052	403.5
367.278	400.5
367.505	396.5
367.731	418.5
367.957	417.5
368.184	412.5
368.41	405.5
368.636	407.5
368.862	396.5
369.089	419.5
369.315	400.5
369.541	379.5
369.767	374.5
369.993	387.5
370.219	374.5
370.445	407.5
370.672	402.5
370.898	378.5
371.124	396.5
371.35	388.5
371.576	383.5
371.802	378.5
372.028	390.5
372.254	400.5
372.48	387.5
372.706	391.5
372.932	409.5
373.158	402.5
373.384	403.5
373.61	403.5
373.835	396.5
374.061	395.5
374.287	399.5
374.513	414.5
374.739	400.5
374.965	403.5
375.191	395.5
375.416	382.5
375.642	408.5
375.868	404.5
376.094	402.5
376.319	391.5
376.545	398.5
376.771	392.5
376.997	390.5
377.222	409.5
377.448	403.5
377.674	414.5
377.899	390.5
378.125	382.5
378.35	383.5
378.576	403.5
378.802	381.5
379.027	402.5
379.253	410.5
379.478	404.5
379.704	392.5
379.929	399.5
380.155	418.5
380.38	402.5
380.606	396.5
380.831	381.5
381.057	407.5
381.282	390.5
381.507	430.5
381.733	407.5
381.958	404.5
382.184	395.5
382.409	400.5
382.634	417.5
382.86	427.5
383.085	416.5
383.31	420.5
383.535	414.5
383.761	424.5
383.986	411.5
384.211	405.5
384.436	413.5
384.662	434.5
384.887	406.5
385.112	437.5
385.337	421.5
385.562	409.5
385.787	420.5
386.013	442.5
386.238	437.5
386.463	436.5
386.688	422.5
386.913	424.5
387.138	435.5
387.363	438.5
387.588	415.5
387.813	437.5
388.038	434.5
388.263	427.5
388.488	442.5
388.713	431.5
388.938	430.5
389.163	435.5
389.387	436.5
389.612	434.5
389.837	439.5
390.062	444.5
390.287	448.5
390.512	435.5
390.736	431.5
390.961	416.5
391.186	427.5
391.411	428.5
391.636	426.5
391.86	439.5
392.085	443.5
392.31	442.5
392.534	422.5
392.759	427.5
392.984	432.5
393.208	440.5
393.433	447.5
393.658	443.5
393.882	446.5
394.107	422.5
394.331	424.5
394.556	421.5
394.78	440.5
395.005	434.5
395.229	453.5
395.454	425.5
395.678	465.5
395.903	455.5
396.127	460.5
396.352	488.5
396.576	448.5
396.801	446.5
397.025	472.5
397.249	452.5
397.474	467.5
397.698	459.5
397.922	464.5
398.147	494.5
398.371	491.5
398.595	465.5
398.82	474.5
399.044	490.5
399.268	488.5
399.492	516.5
399.717	531.5
399.941	574.5
400.165	612.5
400.389	591.5
400.613	555.5
400.837	521.5
401.062	488.5
401.286	510.5
401.51	479.5
401.734	489.5
401.958	501.5
402.182	496.5
402.406	509.5
402.63	512.5
402.854	508.5
403.078	522.5
403.302	527.5
403.526	512.5
403.75	527.5
403.974	514.5
404.198	496.5
404.422	525.5
404.645	545.5
404.869	529.5
405.093	549.5
405.317	603.5
405.541	617.5
405.765	574.5
405.988	538.5
406.212	570.5
406.436	590.5
406.66	590.5
406.883	551.5
407.107	578.5
407.331	623.5
407.555	697.5
407.778	677.5
408.002	656.5
408.226	611.5
408.449	578.5
408.673	594.5
408.896	617.5
409.12	643.5
409.344	610.5
409.567	552.5
409.791	522.5
410.014	529.5
410.238	518.5
410.461	539.5
410.685	532.5
410.908	536.5
411.132	585.5
411.355	628.5
411.578	608.5
411.802	561.5
412.025	502.5
412.249	536.5
412.472	540.5
412.695	572.5
412.919	595.5
413.142	569.5
413.365	517.5
413.589	523.5
413.812	488.5
414.035	499.5
414.258	501.5
414.482	489.5
414.705	496.5
414.928	473.5
415.151	502.5
415.374	503.5
415.597	501.5
415.821	503.5
416.044	487.5
416.267	486.5
416.49	500.5
416.713	479.5
416.936	484.5
417.159	491.5
417.382	508.5
417.605	500.5
417.828	532.5
418.051	527.5
418.274	502.5
418.497	497.5
418.72	508.5
418.943	517.5
419.166	534.5
419.389	525.5
419.611	523.5
419.834	534.5
420.057	540.5
420.28	540.5
420.503	530.5
420.726	522.5
420.948	511.5
421.171	568.5
421.394	623.5
421.617	559.5
421.839	546.5
422.062	545.5
422.285	538.5
422.507	614.5
422.73	693.5
422.953	665.5
423.175	582.5
423.398	558.5
423.621	553.5
423.843	568.5
424.066	556.5
424.288	566.5
424.511	576.5
424.733	646.5
424.956	720.5
425.178	723.5
425.401	716.5
425.623	710.5
425.846	612.5
426.068	584.5
426.291	604.5
426.513	581.5
426.735	594.5
426.958	636.5
427.18	712.5
427.402	835.5
427.625	902.5
427.847	842.5
428.069	717.5
428.292	624.5
428.514	609.5
428.736	580.5
428.958	554.5
429.181	554.5
429.403	542.5
429.625	551.5
429.847	556.5
430.069	659.5
430.292	651.5
430.514	566.5
430.736	551.5
430.958	532.5
431.18	515.5
431.402	508.5
431.624	487.5
431.846	478.5
432.068	508.5
432.29	510.5
432.512	494.5
432.734	497.5
432.956	526.5
433.178	519.5
433.4	533.5
433.622	525.5
433.844	487.5
434.066	495.5
434.287	495.5
434.509	506.5
434.731	509.5
434.953	491.5
435.175	543.5
435.397	556.5
435.618	556.5
435.84	604.5
436.062	717.5
436.284	784.5
436.505	658.5
436.727	589.5
436.949	531.5
437.17	533.5
437.392	528.5
437.614	558.5
437.835	604.5
438.057	712.5
438.278	779.5
438.5	791.5
438.721	849.5
438.943	826.5
439.165	692.5
439.386	649.5
439.608	636.5
439.829	601.5
440.05	638.5
440.272	682.5
440.493	609.5
440.715	574.5
440.936	555.5
441.158	552.5
441.379	532.5
441.6	544.5
441.822	570.5
442.043	619.5
442.264	707.5
442.486	748.5
442.707	630.5
442.928	613.5
443.149	607.5
443.371	628.5
443.592	659.5
443.813	748.5
444.034	810.5
444.255	670.5
444.476	610.5
444.698	599.5
444.919	576.5
445.14	692.5
445.361	645.5
445.582	616.5
445.803	681.5
446.024	790.5
446.245	807.5
446.466	713.5
446.687	653.5
446.908	563.5
447.129	569.5
447.35	571.5
447.571	551.5
447.792	535.5
448.013	540.5
448.234	566.5
448.455	622.5
448.675	737.5
448.896	834.5
449.117	740.5
449.338	692.5
449.559	803.5
449.779	874.5
450	728.5
450.221	594.5
450.442	545.5
450.662	537.5
450.883	536.5
451.104	556.5
451.324	544.5
451.545	525.5
451.766	510.5
451.986	496.5
452.207	497.5
452.428	476.5
452.648	488.5
452.869	467.5
453.089	491.5
453.31	515.5
453.53	491.5
453.751	494.5
453.971	503.5
454.192	507.5
454.412	493.5
454.633	472.5
454.853	486.5
455.073	496.5
455.294	513.5
455.514	572.5
455.734	570.5
455.955	503.5
456.175	483.5
456.395	469.5
456.616	449.5
456.836	448.5
457.056	455.5
457.276	442.5
457.497	470.5
457.717	451.5
457.937	454.5
458.157	469.5
458.377	468.5
458.598	489.5
458.818	537.5
459.038	638.5
459.258	663.5
459.478	537.5
459.698	508.5
459.918	494.5
460.138	500.5
460.358	501.5
460.578	502.5
460.798	496.5
461.018	504.5
461.238	505.5
461.458	507.5
461.678	487.5
461.898	520.5
462.118	487.5
462.338	495.5
462.558	532.5
462.777	522.5
462.997	527.5
463.217	525.5
463.437	548.5
463.657	504.5
463.876	514.5
464.096	509.5
464.316	522.5
464.536	538.5
464.755	576.5
464.975	558.5
465.195	588.5
465.414	673.5
465.634	595.5
465.854	566.5
466.073	516.5
466.293	531.5
466.512	476.5
466.732	475.5
466.951	487.5
467.171	482.5
467.391	508.5
467.61	505.5
467.829	518.5
468.049	515.5
468.268	508.5
468.488	495.5
468.707	485.5
468.927	464.5
469.146	480.5
469.365	483.5
469.585	487.5
469.804	479.5
470.023	493.5
470.243	494.5
470.462	500.5
470.681	514.5
470.901	543.5
471.12	525.5
471.339	488.5
471.558	514.5
471.777	494.5
471.997	503.5
472.216	495.5
472.435	549.5
472.654	521.5
472.873	521.5
473.092	496.5
473.311	506.5
473.53	499.5
473.749	518.5
473.968	545.5
474.187	674.5
474.406	687.5
474.625	555.5
474.844	524.5
475.063	502.5
475.282	501.5
475.501	514.5
475.72	510.5
475.939	534.5
476.158	512.5
476.377	529.5
476.596	522.5
476.814	525.5
477.033	544.5
477.252	565.5
477.471	543.5
477.69	536.5
477.908	516.5
478.127	551.5
478.346	552.5
478.564	560.5
478.783	572.5
479.002	579.5
479.22	589.5
479.439	594.5
479.658	571.5
479.876	601.5
480.095	612.5
480.313	668.5
480.532	640.5
480.751	619.5
480.969	611.5
481.188	676.5
481.406	726.5
481.624	666.5
481.843	627.5
482.061	608.5
482.28	592.5
482.498	609.5
482.717	606.5
482.935	618.5
483.153	617.5
483.372	639.5
483.59	593.5
483.808	580.5
484.027	592.5
484.245	598.5
484.463	602.5
484.681	629.5
484.9	630.5
485.118	612.5
485.336	605.5
485.554	618.5
485.772	611.5
485.99	625.5
486.209	627.5
486.427	618.5
486.645	651.5
486.863	678.5
487.081	673.5
487.299	654.5
487.517	676.5
487.735	651.5
487.953	639.5
488.171	674.5
488.389	644.5
488.607	655.5
488.825	653.5
489.043	658.5
489.261	648.5
489.479	678.5
489.696	661.5
489.914	660.5
490.132	668.5
490.35	702.5
490.568	723.5
490.786	702.5
491.003	699.5
491.221	727.5
491.439	748.5
491.657	751.5
491.874	766.5
492.092	771.5
492.31	770.5
492.527	764.5
492.745	773.5
492.963	775.5
493.18	794.5
493.398	780.5
493.615	786.5
493.833	804.5
494.05	794.5
494.268	808.5
494.485	766.5
494.703	768.5
494.92	796.5
495.138	764.5
495.355	791.5
495.573	772.5
495.79	791.5
496.008	788.5
496.225	755.5
496.442	791.5
496.66	792.5
496.877	770.5
497.094	775.5
497.312	785.5
497.529	798.5
497.746	818.5
497.963	810.5
498.181	820.5
498.398	859.5
498.615	857.5
498.832	839.5
499.049	866.5
499.267	865.5
499.484	903.5
499.701	920.5
499.918	934.5
500.135	946.5
500.352	1000.5
500.569	976.5
500.786	980.5
501.003	980.5
501.22	979.5
501.437	947.5
501.654	946.5
501.871	942.5
502.088	918.5
502.305	859.5
502.522	864.5
502.739	861.5
502.956	821.5
503.172	844.5
503.389	816.5
503.606	827.5
503.823	809.5
504.04	808.5
504.256	768.5
504.473	777.5
504.69	767.5
504.907	777.5
505.123	746.5
505.34	763.5
505.557	764.5
505.773	748.5
505.99	743.5
506.207	760.5
506.423	754.5
506.64	776.5
506.856	753.5
507.073	754.5
507.289	731.5
507.506	720.5
507.722	750.5
507.939	789.5
508.155	755.5
508.372	721.5
508.588	702.5
508.805	719.5
509.021	731.5
509.238	744.5
509.454	739.5
509.67	722.5
509.887	741.5
510.103	716.5
510.319	728.5
510.536	824.5
510.752	1349.5
510.968	1125.5
511.184	760.5
511.401	716.5
511.617	706.5
511.833	695.5
512.049	673.5
512.265	699.5
512.481	670.5
512.698	665.5
512.914	660.5
513.13	672.5
513.346	695.5
513.562	674.5
513.778	659.5
513.994	689.5
514.21	710.5
514.426	739.5
514.642	776.5
514.858	814.5
515.074	847.5
515.29	1062.5
515.506	1492.5
515.721	1206.5
515.937	828.5
516.153	787.5
516.369	742.5
516.585	716.5
516.801	695.5
517.016	695.5
517.232	708.5
517.448	697.5
517.664	718.5
517.879	678.5
518.095	686.5
518.311	688.5
518.527	672.5
518.742	702.5
518.958	659.5
519.173	692.5
519.389	676.5
519.605	688.5
519.82	681.5
