Data from 1970.PennyLincolnUp.Lamp.En5.5.200Scan.071719.P1._HRD10591_15-14-10-843.txt Node
Date: Thu Jul 18 15:14:10 EDT 2019
User: cochatt
Spectrometer: HR+D1059
Trigger mode: 1
Integration Time (sec): 1.000000E-1
Scans to average: 1
Electric dark correction enabled: true
Nonlinearity correction enabled: false
Boxcar width: 0
XAxis mode: Wavelengths
Number of Pixels in Spectrum: 2048
>>>>>Begin Spectral Data<<<<<
223.165	-21.38
223.4	-21.38
223.635	-21.38
223.869	-11.38
224.104	-31.38
224.338	-8.38
224.573	-26.38
224.808	-9.38
225.042	-3.38
225.277	-2.38
225.511	4.62
225.746	7.62
225.98	4.62
226.215	12.62
226.449	13.62
226.683	4.62
226.918	27.62
227.152	38.62
227.387	40.62
227.621	42.62
227.856	41.62
228.09	44.62
228.324	50.62
228.559	53.62
228.793	58.62
229.027	106.62
229.262	121.62
229.496	121.62
229.73	142.62
229.964	177.62
230.199	142.62
230.433	108.62
230.667	102.62
230.901	133.62
231.136	114.62
231.37	120.62
231.604	104.62
231.838	112.62
232.072	116.62
232.306	126.62
232.541	108.62
232.775	124.62
233.009	107.62
233.243	109.62
233.477	123.62
233.711	120.62
233.945	101.62
234.179	117.62
234.413	106.62
234.647	128.62
234.881	129.62
235.115	116.62
235.349	125.62
235.583	124.62
235.817	120.62
236.051	119.62
236.285	128.62
236.519	130.62
236.753	136.62
236.987	153.62
237.221	207.62
237.455	249.62
237.689	187.62
237.922	167.62
238.156	156.62
238.39	133.62
238.624	128.62
238.858	140.62
239.091	124.62
239.325	130.62
239.559	131.62
239.793	125.62
240.027	147.62
240.26	147.62
240.494	164.62
240.728	165.62
240.961	147.62
241.195	136.62
241.429	150.62
241.662	125.62
241.896	144.62
242.13	130.62
242.363	132.62
242.597	131.62
242.83	144.62
243.064	144.62
243.298	145.62
243.531	145.62
243.765	149.62
243.998	139.62
244.232	154.62
244.465	150.62
244.699	146.62
244.932	139.62
245.166	140.62
245.399	146.62
245.633	170.62
245.866	151.62
246.099	148.62
246.333	136.62
246.566	138.62
246.8	144.62
247.033	157.62
247.266	182.62
247.5	167.62
247.733	187.62
247.966	194.62
248.2	192.62
248.433	192.62
248.666	198.62
248.899	184.62
249.133	198.62
249.366	230.62
249.599	216.62
249.832	198.62
250.066	200.62
250.299	204.62
250.532	209.62
250.765	210.62
250.998	230.62
251.231	238.62
251.465	232.62
251.698	210.62
251.931	209.62
252.164	197.62
252.397	212.62
252.63	198.62
252.863	209.62
253.096	253.62
253.329	241.62
253.562	254.62
253.795	232.62
254.028	231.62
254.261	239.62
254.494	235.62
254.727	266.62
254.96	285.62
255.193	280.62
255.426	269.62
255.659	236.62
255.892	252.62
256.124	238.62
256.357	264.62
256.59	257.62
256.823	222.62
257.056	221.62
257.289	233.62
257.521	240.62
257.754	218.62
257.987	219.62
258.22	210.62
258.452	218.62
258.685	220.62
258.918	209.62
259.151	216.62
259.383	225.62
259.616	246.62
259.849	240.62
260.081	249.62
260.314	273.62
260.547	265.62
260.779	248.62
261.012	248.62
261.244	253.62
261.477	237.62
261.71	231.62
261.942	245.62
262.175	226.62
262.407	241.62
262.64	224.62
262.872	236.62
263.105	236.62
263.337	247.62
263.57	221.62
263.802	214.62
264.035	205.62
264.267	225.62
264.499	223.62
264.732	211.62
264.964	222.62
265.197	205.62
265.429	198.62
265.661	209.62
265.894	211.62
266.126	222.62
266.358	225.62
266.591	213.62
266.823	219.62
267.055	227.62
267.287	218.62
267.52	216.62
267.752	229.62
267.984	232.62
268.216	228.62
268.448	233.62
268.681	233.62
268.913	254.62
269.145	282.62
269.377	280.62
269.609	283.62
269.841	265.62
270.073	269.62
270.306	281.62
270.538	332.62
270.77	319.62
271.002	313.62
271.234	322.62
271.466	314.62
271.698	300.62
271.93	321.62
272.162	330.62
272.394	338.62
272.626	316.62
272.858	301.62
273.09	297.62
273.322	274.62
273.553	262.62
273.785	270.62
274.017	275.62
274.249	277.62
274.481	282.62
274.713	253.62
274.945	269.62
275.176	278.62
275.408	264.62
275.64	256.62
275.872	265.62
276.104	274.62
276.335	244.62
276.567	262.62
276.799	298.62
277.031	299.62
277.262	304.62
277.494	338.62
277.726	313.62
277.957	283.62
278.189	277.62
278.421	286.62
278.652	281.62
278.884	281.62
279.115	237.62
279.347	254.62
279.579	260.62
279.81	273.62
280.042	264.62
280.273	252.62
280.505	247.62
280.736	257.62
280.968	252.62
281.199	251.62
281.431	263.62
281.662	281.62
281.894	261.62
282.125	254.62
282.356	263.62
282.588	294.62
282.819	286.62
283.051	290.62
283.282	264.62
283.513	264.62
283.745	275.62
283.976	270.62
284.207	285.62
284.439	260.62
284.67	266.62
284.901	273.62
285.132	284.62
285.364	271.62
285.595	279.62
285.826	281.62
286.057	288.62
286.288	269.62
286.52	284.62
286.751	266.62
286.982	263.62
287.213	277.62
287.444	272.62
287.675	289.62
287.906	284.62
288.138	295.62
288.369	299.62
288.6	298.62
288.831	291.62
289.062	272.62
289.293	281.62
289.524	291.62
289.755	280.62
289.986	274.62
290.217	267.62
290.448	293.62
290.679	278.62
290.91	262.62
291.141	282.62
291.371	290.62
291.602	288.62
291.833	273.62
292.064	280.62
292.295	285.62
292.526	261.62
292.757	267.62
292.987	275.62
293.218	295.62
293.449	278.62
293.68	276.62
293.91	282.62
294.141	266.62
294.372	290.62
294.603	276.62
294.833	286.62
295.064	288.62
295.295	273.62
295.525	289.62
295.756	282.62
295.987	306.62
296.217	292.62
296.448	314.62
296.679	299.62
296.909	274.62
297.14	282.62
297.37	293.62
297.601	297.62
297.831	298.62
298.062	277.62
298.292	271.62
298.523	291.62
298.753	283.62
298.984	279.62
299.214	289.62
299.445	274.62
299.675	297.62
299.905	304.62
300.136	292.62
300.366	288.62
300.597	306.62
300.827	304.62
301.057	308.62
301.288	289.62
301.518	309.62
301.748	300.62
301.979	316.62
302.209	327.62
302.439	310.62
302.669	324.62
302.9	305.62
303.13	296.62
303.36	321.62
303.59	332.62
303.82	343.62
304.051	339.62
304.281	324.62
304.511	309.62
304.741	296.62
304.971	318.62
305.201	304.62
305.431	305.62
305.661	305.62
305.891	313.62
306.121	313.62
306.352	320.62
306.582	334.62
306.812	324.62
307.042	327.62
307.272	318.62
307.502	312.62
307.731	321.62
307.961	324.62
308.191	313.62
308.421	312.62
308.651	304.62
308.881	309.62
309.111	324.62
309.341	345.62
309.571	333.62
309.8	359.62
310.03	361.62
310.26	366.62
310.49	363.62
310.72	352.62
310.949	405.62
311.179	382.62
311.409	352.62
311.639	375.62
311.868	370.62
312.098	384.62
312.328	381.62
312.557	398.62
312.787	411.62
313.017	406.62
313.246	384.62
313.476	372.62
313.706	374.62
313.935	382.62
314.165	378.62
314.394	396.62
314.624	396.62
314.853	377.62
315.083	365.62
315.312	366.62
315.542	375.62
315.771	349.62
316.001	358.62
316.23	360.62
316.46	379.62
316.689	366.62
316.919	376.62
317.148	379.62
317.377	384.62
317.607	391.62
317.836	373.62
318.065	387.62
318.295	379.62
318.524	358.62
318.753	371.62
318.983	397.62
319.212	381.62
319.441	372.62
319.67	393.62
319.9	373.62
320.129	376.62
320.358	354.62
320.587	374.62
320.816	398.62
321.046	394.62
321.275	402.62
321.504	397.62
321.733	406.62
321.962	417.62
322.191	418.62
322.42	434.62
322.649	468.62
322.878	471.62
323.108	481.62
323.337	487.62
323.566	553.62
323.795	537.62
324.024	600.62
324.253	732.62
324.482	1038.62
324.71	1579.62
324.939	2244.62
325.168	1909.62
325.397	1052.62
325.626	680.62
325.855	558.62
326.084	526.62
326.313	519.62
326.542	546.62
326.77	570.62
326.999	684.62
327.228	951.62
327.457	1349.62
327.686	1668.62
327.914	1158.62
328.143	771.62
328.372	669.62
328.6	621.62
328.829	588.62
329.058	599.62
329.287	616.62
329.515	564.62
329.744	542.62
329.972	506.62
330.201	544.62
330.43	588.62
330.658	608.62
330.887	643.62
331.115	612.62
331.344	533.62
331.572	510.62
331.801	505.62
332.03	489.62
332.258	474.62
332.486	452.62
332.715	437.62
332.943	454.62
333.172	456.62
333.4	452.62
333.629	470.62
333.857	471.62
334.085	497.62
334.314	510.62
334.542	551.62
334.771	589.62
334.999	490.62
335.227	461.62
335.455	436.62
335.684	451.62
335.912	443.62
336.14	441.62
336.369	441.62
336.597	469.62
336.825	455.62
337.053	438.62
337.281	428.62
337.51	414.62
337.738	449.62
337.966	424.62
338.194	441.62
338.422	437.62
338.65	432.62
338.878	418.62
339.106	427.62
339.334	416.62
339.562	393.62
339.79	405.62
340.018	428.62
340.246	418.62
340.474	427.62
340.702	414.62
340.93	417.62
341.158	420.62
341.386	417.62
341.614	422.62
341.842	427.62
342.07	397.62
342.298	388.62
342.526	404.62
342.754	405.62
342.981	421.62
343.209	403.62
343.437	404.62
343.665	411.62
343.893	417.62
344.12	427.62
344.348	427.62
344.576	422.62
344.804	439.62
345.031	436.62
345.259	452.62
345.487	426.62
345.714	440.62
345.942	435.62
346.17	413.62
346.397	440.62
346.625	411.62
346.853	415.62
347.08	422.62
347.308	435.62
347.535	426.62
347.763	421.62
347.99	450.62
348.218	444.62
348.445	451.62
348.673	443.62
348.9	408.62
349.128	401.62
349.355	400.62
349.583	382.62
349.81	389.62
350.037	395.62
350.265	392.62
350.492	404.62
350.72	402.62
350.947	417.62
351.174	440.62
351.402	428.62
351.629	424.62
351.856	433.62
352.083	427.62
352.311	425.62
352.538	452.62
352.765	412.62
352.992	451.62
353.22	429.62
353.447	424.62
353.674	415.62
353.901	392.62
354.128	396.62
354.355	408.62
354.583	399.62
354.81	382.62
355.037	390.62
355.264	394.62
355.491	385.62
355.718	379.62
355.945	385.62
356.172	390.62
356.399	419.62
356.626	411.62
356.853	386.62
357.08	382.62
357.307	381.62
357.534	405.62
357.761	378.62
357.988	385.62
358.215	400.62
358.441	384.62
358.668	378.62
358.895	401.62
359.122	418.62
359.349	404.62
359.576	440.62
359.802	457.62
360.029	486.62
360.256	514.62
360.483	457.62
360.709	432.62
360.936	436.62
361.163	427.62
361.39	445.62
361.616	438.62
361.843	441.62
362.07	450.62
362.296	436.62
362.523	411.62
362.749	411.62
362.976	425.62
363.203	419.62
363.429	414.62
363.656	398.62
363.882	426.62
364.109	404.62
364.335	388.62
364.562	393.62
364.788	419.62
365.015	391.62
365.241	413.62
365.468	410.62
365.694	410.62
365.92	428.62
366.147	415.62
366.373	390.62
366.599	388.62
366.826	399.62
367.052	421.62
367.278	408.62
367.505	413.62
367.731	398.62
367.957	394.62
368.184	403.62
368.41	412.62
368.636	419.62
368.862	429.62
369.089	404.62
369.315	404.62
369.541	398.62
369.767	382.62
369.993	401.62
370.219	397.62
370.445	421.62
370.672	391.62
370.898	405.62
371.124	407.62
371.35	406.62
371.576	400.62
371.802	396.62
372.028	393.62
372.254	418.62
372.48	418.62
372.706	411.62
372.932	398.62
373.158	405.62
373.384	403.62
373.61	403.62
373.835	397.62
374.061	376.62
374.287	436.62
374.513	407.62
374.739	413.62
374.965	407.62
375.191	409.62
375.416	435.62
375.642	420.62
375.868	413.62
376.094	396.62
376.319	390.62
376.545	408.62
376.771	421.62
376.997	418.62
377.222	391.62
377.448	402.62
377.674	381.62
377.899	381.62
378.125	403.62
378.35	428.62
378.576	400.62
378.802	404.62
379.027	405.62
379.253	396.62
379.478	402.62
379.704	416.62
379.929	407.62
380.155	416.62
380.38	425.62
380.606	412.62
380.831	420.62
381.057	434.62
381.282	419.62
381.507	425.62
381.733	414.62
381.958	419.62
382.184	426.62
382.409	415.62
382.634	400.62
382.86	411.62
383.085	415.62
383.31	399.62
383.535	429.62
383.761	410.62
383.986	443.62
384.211	428.62
384.436	419.62
384.662	403.62
384.887	413.62
385.112	424.62
385.337	424.62
385.562	438.62
385.787	435.62
386.013	432.62
386.238	457.62
386.463	451.62
386.688	437.62
386.913	439.62
387.138	437.62
387.363	441.62
387.588	445.62
387.813	427.62
388.038	422.62
388.263	425.62
388.488	443.62
388.713	446.62
388.938	440.62
389.163	437.62
389.387	463.62
389.612	428.62
389.837	446.62
390.062	436.62
390.287	449.62
390.512	440.62
390.736	445.62
390.961	445.62
391.186	437.62
391.411	435.62
391.636	463.62
391.86	450.62
392.085	446.62
392.31	470.62
392.534	446.62
392.759	450.62
392.984	449.62
393.208	451.62
393.433	465.62
393.658	459.62
393.882	438.62
394.107	442.62
394.331	442.62
394.556	456.62
394.78	433.62
395.005	443.62
395.229	454.62
395.454	457.62
395.678	472.62
395.903	458.62
396.127	484.62
396.352	490.62
396.576	479.62
396.801	491.62
397.025	465.62
397.249	452.62
397.474	446.62
397.698	460.62
397.922	464.62
398.147	489.62
398.371	521.62
398.595	483.62
398.82	474.62
399.044	501.62
399.268	522.62
399.492	526.62
399.717	559.62
399.941	584.62
400.165	613.62
400.389	630.62
400.613	567.62
400.837	547.62
401.062	509.62
401.286	504.62
401.51	497.62
401.734	519.62
401.958	506.62
402.182	523.62
402.406	507.62
402.63	528.62
402.854	536.62
403.078	518.62
403.302	520.62
403.526	514.62
403.75	531.62
403.974	504.62
404.198	502.62
404.422	528.62
404.645	530.62
404.869	545.62
405.093	548.62
405.317	630.62
405.541	629.62
405.765	588.62
405.988	552.62
406.212	558.62
406.436	581.62
406.66	603.62
406.883	576.62
407.107	591.62
407.331	630.62
407.555	686.62
407.778	696.62
408.002	632.62
408.226	596.62
408.449	596.62
408.673	603.62
408.896	612.62
409.12	635.62
409.344	610.62
409.567	572.62
409.791	547.62
410.014	549.62
410.238	552.62
410.461	536.62
410.685	536.62
410.908	565.62
411.132	582.62
411.355	604.62
411.578	617.62
411.802	544.62
412.025	546.62
412.249	534.62
412.472	562.62
412.695	603.62
412.919	622.62
413.142	544.62
413.365	530.62
413.589	536.62
413.812	524.62
414.035	509.62
414.258	505.62
414.482	505.62
414.705	501.62
414.928	510.62
415.151	491.62
415.374	516.62
415.597	508.62
415.821	493.62
416.044	518.62
416.267	499.62
416.49	502.62
416.713	490.62
416.936	496.62
417.159	516.62
417.382	511.62
417.605	521.62
417.828	526.62
418.051	560.62
418.274	550.62
418.497	526.62
418.72	521.62
418.943	533.62
419.166	513.62
419.389	539.62
419.611	546.62
419.834	562.62
420.057	536.62
420.28	530.62
420.503	524.62
420.726	534.62
420.948	557.62
421.171	600.62
421.394	621.62
421.617	554.62
421.839	547.62
422.062	549.62
422.285	549.62
422.507	613.62
422.73	690.62
422.953	662.62
423.175	587.62
423.398	578.62
423.621	545.62
423.843	586.62
424.066	586.62
424.288	580.62
424.511	605.62
424.733	703.62
424.956	710.62
425.178	697.62
425.401	706.62
425.623	726.62
425.846	647.62
426.068	602.62
426.291	606.62
426.513	589.62
426.735	582.62
426.958	640.62
427.18	713.62
427.402	842.62
427.625	941.62
427.847	877.62
428.069	747.62
428.292	642.62
428.514	603.62
428.736	576.62
428.958	584.62
429.181	551.62
429.403	564.62
429.625	556.62
429.847	589.62
430.069	674.62
430.292	672.62
430.514	565.62
430.736	526.62
430.958	533.62
431.18	548.62
431.402	544.62
431.624	537.62
431.846	497.62
432.068	535.62
432.29	531.62
432.512	533.62
432.734	533.62
432.956	541.62
433.178	514.62
433.4	546.62
433.622	548.62
433.844	525.62
434.066	517.62
434.287	515.62
434.509	515.62
434.731	511.62
434.953	548.62
435.175	563.62
435.397	587.62
435.618	585.62
435.84	631.62
436.062	738.62
436.284	747.62
436.505	668.62
436.727	613.62
436.949	553.62
437.17	569.62
437.392	566.62
437.614	581.62
437.835	636.62
438.057	694.62
438.278	781.62
438.5	837.62
438.721	860.62
438.943	832.62
439.165	696.62
439.386	632.62
439.608	609.62
439.829	619.62
440.05	666.62
440.272	682.62
440.493	681.62
440.715	585.62
440.936	583.62
441.158	595.62
441.379	555.62
441.6	580.62
441.822	609.62
442.043	626.62
442.264	692.62
442.486	761.62
442.707	674.62
442.928	627.62
443.149	660.62
443.371	654.62
443.592	682.62
443.813	773.62
444.034	838.62
444.255	682.62
444.476	615.62
444.698	590.62
444.919	571.62
445.14	709.62
445.361	674.62
445.582	634.62
445.803	694.62
446.024	790.62
446.245	802.62
446.466	752.62
446.687	658.62
446.908	620.62
447.129	577.62
447.35	566.62
447.571	559.62
447.792	545.62
448.013	557.62
448.234	570.62
448.455	650.62
448.675	748.62
448.896	860.62
449.117	741.62
449.338	690.62
449.559	805.62
449.779	923.62
450	749.62
450.221	596.62
450.442	571.62
450.662	560.62
450.883	584.62
451.104	562.62
451.324	561.62
451.545	537.62
451.766	536.62
451.986	500.62
452.207	497.62
452.428	488.62
452.648	488.62
452.869	496.62
453.089	508.62
453.31	534.62
453.53	506.62
453.751	475.62
453.971	512.62
454.192	540.62
454.412	514.62
454.633	505.62
454.853	486.62
455.073	520.62
455.294	512.62
455.514	591.62
455.734	589.62
455.955	510.62
456.175	474.62
456.395	473.62
456.616	469.62
456.836	482.62
457.056	483.62
457.276	464.62
457.497	473.62
457.717	462.62
457.937	482.62
458.157	462.62
458.377	482.62
458.598	512.62
458.818	562.62
459.038	666.62
459.258	691.62
459.478	565.62
459.698	522.62
459.918	510.62
460.138	518.62
460.358	500.62
460.578	538.62
460.798	517.62
461.018	523.62
461.238	518.62
461.458	499.62
461.678	501.62
461.898	509.62
462.118	513.62
462.338	514.62
462.558	546.62
462.777	529.62
462.997	566.62
463.217	540.62
463.437	549.62
463.657	522.62
463.876	556.62
464.096	531.62
464.316	547.62
464.536	533.62
464.755	538.62
464.975	563.62
465.195	614.62
465.414	714.62
465.634	622.62
465.854	562.62
466.073	529.62
466.293	540.62
466.512	490.62
466.732	483.62
466.951	484.62
467.171	483.62
467.391	513.62
467.61	523.62
467.829	536.62
468.049	515.62
468.268	497.62
468.488	522.62
468.707	499.62
468.927	487.62
469.146	478.62
469.365	510.62
469.585	485.62
469.804	526.62
470.023	526.62
470.243	511.62
470.462	534.62
470.681	536.62
470.901	529.62
471.12	511.62
471.339	539.62
471.558	520.62
471.777	506.62
471.997	527.62
472.216	527.62
472.435	561.62
472.654	562.62
472.873	505.62
473.092	537.62
473.311	541.62
473.53	521.62
473.749	540.62
473.968	573.62
474.187	675.62
474.406	695.62
474.625	598.62
474.844	544.62
475.063	527.62
475.282	527.62
475.501	522.62
475.72	538.62
475.939	532.62
476.158	531.62
476.377	534.62
476.596	556.62
476.814	555.62
477.033	543.62
477.252	561.62
477.471	564.62
477.69	554.62
477.908	570.62
478.127	561.62
478.346	568.62
478.564	566.62
478.783	601.62
479.002	576.62
479.22	588.62
479.439	630.62
479.658	628.62
479.876	633.62
480.095	631.62
480.313	660.62
480.532	640.62
480.751	622.62
480.969	646.62
481.188	716.62
481.406	770.62
481.624	692.62
481.843	656.62
482.061	629.62
482.28	622.62
482.498	636.62
482.717	629.62
482.935	624.62
483.153	638.62
483.372	627.62
483.59	625.62
483.808	612.62
484.027	630.62
484.245	602.62
484.463	605.62
484.681	654.62
484.9	640.62
485.118	624.62
485.336	636.62
485.554	643.62
485.772	650.62
485.99	616.62
486.209	630.62
486.427	626.62
486.645	644.62
486.863	676.62
487.081	664.62
487.299	659.62
487.517	663.62
487.735	669.62
487.953	658.62
488.171	677.62
488.389	694.62
488.607	683.62
488.825	645.62
489.043	693.62
489.261	660.62
489.479	679.62
489.696	700.62
489.914	662.62
490.132	694.62
490.35	728.62
490.568	698.62
490.786	726.62
491.003	741.62
491.221	736.62
491.439	771.62
491.657	770.62
491.874	796.62
492.092	793.62
492.31	792.62
492.527	780.62
492.745	794.62
492.963	797.62
493.18	799.62
493.398	805.62
493.615	775.62
493.833	801.62
494.05	836.62
494.268	813.62
494.485	811.62
494.703	822.62
494.92	800.62
495.138	816.62
495.355	818.62
495.573	818.62
495.79	784.62
496.008	787.62
496.225	797.62
496.442	811.62
496.66	806.62
496.877	824.62
497.094	828.62
497.312	817.62
497.529	857.62
497.746	846.62
497.963	839.62
498.181	863.62
498.398	866.62
498.615	855.62
498.832	861.62
499.049	881.62
499.267	860.62
499.484	900.62
499.701	940.62
499.918	950.62
500.135	971.62
500.352	1021.62
500.569	1036.62
500.786	1032.62
501.003	995.62
501.22	1018.62
501.437	987.62
501.654	984.62
501.871	970.62
