Data from 1970.PennyLincolnUp.Lamp.En5.5.200Scan.071719.P1._HRD10591_15-13-30-843.txt Node
Date: Thu Jul 18 15:13:30 EDT 2019
User: cochatt
Spectrometer: HR+D1059
Trigger mode: 1
Integration Time (sec): 1.000000E-1
Scans to average: 1
Electric dark correction enabled: true
Nonlinearity correction enabled: false
Boxcar width: 0
XAxis mode: Wavelengths
Number of Pixels in Spectrum: 2048
>>>>>Begin Spectral Data<<<<<
223.165	-15.81
223.4	-15.81
223.635	-15.81
223.869	-16.81
224.104	-16.81
224.338	-7.81
224.573	-7.81
224.808	-12.81
225.042	-5.81
225.277	-7.81
225.511	-2.81
225.746	-1.81
225.98	12.19
226.215	8.19
226.449	17.19
226.683	9.19
226.918	27.19
227.152	22.19
227.387	27.19
227.621	32.19
227.856	44.19
228.09	38.19
228.324	54.19
228.559	52.19
228.793	73.19
229.027	93.19
229.262	121.19
229.496	134.19
229.73	130.19
229.964	156.19
230.199	134.19
230.433	126.19
230.667	112.19
230.901	110.19
231.136	96.19
231.37	108.19
231.604	103.19
231.838	110.19
232.072	111.19
232.306	122.19
232.541	120.19
232.775	115.19
233.009	125.19
233.243	111.19
233.477	119.19
233.711	109.19
233.945	106.19
234.179	124.19
234.413	120.19
234.647	117.19
234.881	124.19
235.115	107.19
235.349	122.19
235.583	120.19
235.817	128.19
236.051	126.19
236.285	128.19
236.519	121.19
236.753	139.19
236.987	158.19
237.221	179.19
237.455	224.19
237.689	204.19
237.922	124.19
238.156	135.19
238.39	118.19
238.624	135.19
238.858	124.19
239.091	111.19
239.325	125.19
239.559	132.19
239.793	138.19
240.027	140.19
240.26	152.19
240.494	147.19
240.728	152.19
240.961	147.19
241.195	142.19
241.429	125.19
241.662	133.19
241.896	143.19
242.13	139.19
242.363	144.19
242.597	142.19
242.83	153.19
243.064	143.19
243.298	132.19
243.531	141.19
243.765	150.19
243.998	150.19
244.232	145.19
244.465	165.19
244.699	153.19
244.932	150.19
245.166	154.19
245.399	144.19
245.633	141.19
245.866	156.19
246.099	143.19
246.333	153.19
246.566	148.19
246.8	170.19
247.033	167.19
247.266	175.19
247.5	180.19
247.733	180.19
247.966	184.19
248.2	189.19
248.433	171.19
248.666	179.19
248.899	197.19
249.133	210.19
249.366	215.19
249.599	216.19
249.832	186.19
250.066	189.19
250.299	184.19
250.532	197.19
250.765	218.19
250.998	235.19
251.231	237.19
251.465	223.19
251.698	210.19
251.931	207.19
252.164	201.19
252.397	203.19
252.63	227.19
252.863	206.19
253.096	219.19
253.329	236.19
253.562	227.19
253.795	223.19
254.028	220.19
254.261	242.19
254.494	256.19
254.727	266.19
254.96	283.19
255.193	284.19
255.426	275.19
255.659	260.19
255.892	246.19
256.124	224.19
256.357	241.19
256.59	219.19
256.823	233.19
257.056	229.19
257.289	233.19
257.521	218.19
257.754	222.19
257.987	220.19
258.22	228.19
258.452	218.19
258.685	215.19
258.918	219.19
259.151	216.19
259.383	211.19
259.616	226.19
259.849	245.19
260.081	237.19
260.314	250.19
260.547	250.19
260.779	251.19
261.012	254.19
261.244	234.19
261.477	237.19
261.71	243.19
261.942	228.19
262.175	228.19
262.407	231.19
262.64	210.19
262.872	212.19
263.105	218.19
263.337	196.19
263.57	202.19
263.802	206.19
264.035	226.19
264.267	208.19
264.499	209.19
264.732	208.19
264.964	226.19
265.197	215.19
265.429	211.19
265.661	227.19
265.894	227.19
266.126	206.19
266.358	203.19
266.591	207.19
266.823	217.19
267.055	200.19
267.287	232.19
267.52	233.19
267.752	212.19
267.984	223.19
268.216	214.19
268.448	232.19
268.681	249.19
268.913	242.19
269.145	238.19
269.377	275.19
269.609	264.19
269.841	262.19
270.073	267.19
270.306	271.19
270.538	303.19
270.77	312.19
271.002	300.19
271.234	293.19
271.466	279.19
271.698	283.19
271.93	294.19
272.162	298.19
272.394	308.19
272.626	291.19
272.858	278.19
273.09	285.19
273.322	269.19
273.553	246.19
273.785	262.19
274.017	255.19
274.249	254.19
274.481	239.19
274.713	246.19
274.945	251.19
275.176	244.19
275.408	256.19
275.64	241.19
275.872	248.19
276.104	267.19
276.335	263.19
276.567	279.19
276.799	298.19
277.031	298.19
277.262	294.19
277.494	315.19
277.726	298.19
277.957	288.19
278.189	276.19
278.421	261.19
278.652	259.19
278.884	257.19
279.115	247.19
279.347	260.19
279.579	259.19
279.81	250.19
280.042	248.19
280.273	240.19
280.505	253.19
280.736	267.19
280.968	237.19
281.199	260.19
281.431	255.19
281.662	244.19
281.894	248.19
282.125	251.19
282.356	263.19
282.588	298.19
282.819	281.19
283.051	267.19
283.282	265.19
283.513	237.19
283.745	256.19
283.976	266.19
284.207	247.19
284.439	264.19
284.67	277.19
284.901	278.19
285.132	273.19
285.364	253.19
285.595	257.19
285.826	265.19
286.057	269.19
286.288	262.19
286.52	262.19
286.751	275.19
286.982	274.19
287.213	252.19
287.444	260.19
287.675	266.19
287.906	257.19
288.138	266.19
288.369	272.19
288.6	262.19
288.831	261.19
289.062	283.19
289.293	278.19
289.524	281.19
289.755	272.19
289.986	276.19
290.217	262.19
290.448	258.19
290.679	278.19
290.91	279.19
291.141	268.19
291.371	290.19
291.602	265.19
291.833	259.19
292.064	263.19
292.295	275.19
292.526	256.19
292.757	278.19
292.987	261.19
293.218	263.19
293.449	266.19
293.68	269.19
293.91	267.19
294.141	252.19
294.372	270.19
294.603	269.19
294.833	278.19
295.064	277.19
295.295	266.19
295.525	266.19
295.756	276.19
295.987	270.19
296.217	307.19
296.448	298.19
296.679	284.19
296.909	281.19
297.14	280.19
297.37	282.19
297.601	265.19
297.831	271.19
298.062	287.19
298.292	287.19
298.523	285.19
298.753	277.19
298.984	273.19
299.214	306.19
299.445	280.19
299.675	256.19
299.905	282.19
300.136	292.19
300.366	290.19
300.597	279.19
300.827	293.19
301.057	299.19
301.288	294.19
301.518	296.19
301.748	278.19
301.979	290.19
302.209	305.19
302.439	305.19
302.669	296.19
302.9	280.19
303.13	308.19
303.36	304.19
303.59	306.19
303.82	295.19
304.051	301.19
304.281	303.19
304.511	280.19
304.741	306.19
304.971	290.19
305.201	291.19
305.431	308.19
305.661	301.19
305.891	290.19
306.121	300.19
306.352	314.19
306.582	325.19
306.812	300.19
307.042	309.19
307.272	314.19
307.502	309.19
307.731	320.19
307.961	311.19
308.191	318.19
308.421	301.19
308.651	294.19
308.881	305.19
309.111	312.19
309.341	343.19
309.571	328.19
309.8	320.19
310.03	337.19
310.26	343.19
310.49	353.19
310.72	358.19
310.949	366.19
311.179	383.19
311.409	341.19
311.639	336.19
311.868	340.19
312.098	342.19
312.328	342.19
312.557	374.19
312.787	368.19
313.017	390.19
313.246	371.19
313.476	363.19
313.706	351.19
313.935	340.19
314.165	371.19
314.394	378.19
314.624	371.19
314.853	353.19
315.083	342.19
315.312	346.19
315.542	355.19
315.771	334.19
316.001	340.19
316.23	346.19
316.46	349.19
316.689	365.19
316.919	360.19
317.148	364.19
317.377	374.19
317.607	340.19
317.836	362.19
318.065	338.19
318.295	355.19
318.524	348.19
318.753	334.19
318.983	348.19
319.212	351.19
319.441	347.19
319.67	375.19
319.9	341.19
320.129	361.19
320.358	351.19
320.587	347.19
320.816	371.19
321.046	354.19
321.275	370.19
321.504	372.19
321.733	396.19
321.962	385.19
322.191	380.19
322.42	388.19
322.649	412.19
322.878	417.19
323.108	430.19
323.337	476.19
323.566	470.19
323.795	505.19
324.024	538.19
324.253	662.19
324.482	903.19
324.71	1418.19
324.939	2048.19
325.168	1768.19
325.397	935.19
325.626	630.19
325.855	536.19
326.084	514.19
326.313	465.19
326.542	481.19
326.77	525.19
326.999	628.19
327.228	833.19
327.457	1266.19
327.686	1510.19
327.914	1058.19
328.143	690.19
328.372	618.19
328.6	575.19
328.829	543.19
329.058	554.19
329.287	553.19
329.515	513.19
329.744	487.19
329.972	500.19
330.201	504.19
330.43	562.19
330.658	564.19
330.887	605.19
331.115	557.19
331.344	512.19
331.572	462.19
331.801	470.19
332.03	461.19
332.258	454.19
332.486	418.19
332.715	426.19
332.943	417.19
333.172	431.19
333.4	440.19
333.629	431.19
333.857	443.19
334.085	438.19
334.314	466.19
334.542	478.19
334.771	491.19
334.999	448.19
335.227	438.19
335.455	431.19
335.684	419.19
335.912	419.19
336.14	417.19
336.369	414.19
336.597	420.19
336.825	429.19
337.053	423.19
337.281	409.19
337.51	413.19
337.738	430.19
337.966	412.19
338.194	416.19
338.422	394.19
338.65	433.19
338.878	383.19
339.106	388.19
339.334	402.19
339.562	384.19
339.79	411.19
340.018	402.19
340.246	401.19
340.474	399.19
340.702	414.19
340.93	421.19
341.158	394.19
341.386	389.19
341.614	409.19
341.842	415.19
342.07	382.19
342.298	394.19
342.526	405.19
342.754	375.19
342.981	379.19
343.209	386.19
343.437	385.19
343.665	393.19
343.893	390.19
344.12	392.19
344.348	412.19
344.576	410.19
344.804	394.19
345.031	411.19
345.259	430.19
345.487	448.19
345.714	408.19
345.942	395.19
346.17	406.19
346.397	396.19
346.625	406.19
346.853	387.19
347.08	415.19
347.308	423.19
347.535	408.19
347.763	397.19
347.99	390.19
348.218	402.19
348.445	428.19
348.673	420.19
348.9	413.19
349.128	391.19
349.355	393.19
349.583	411.19
349.81	389.19
350.037	407.19
350.265	380.19
350.492	376.19
350.72	374.19
350.947	408.19
351.174	391.19
351.402	413.19
351.629	421.19
351.856	412.19
352.083	418.19
352.311	436.19
352.538	430.19
352.765	424.19
352.992	416.19
353.22	415.19
353.447	386.19
353.674	398.19
353.901	372.19
354.128	406.19
354.355	379.19
354.583	387.19
354.81	381.19
355.037	381.19
355.264	382.19
355.491	374.19
355.718	373.19
355.945	378.19
356.172	362.19
356.399	364.19
356.626	373.19
356.853	380.19
357.08	375.19
357.307	387.19
357.534	365.19
357.761	394.19
357.988	376.19
358.215	358.19
358.441	380.19
358.668	378.19
358.895	378.19
359.122	401.19
359.349	406.19
359.576	424.19
359.802	428.19
360.029	465.19
360.256	459.19
360.483	425.19
360.709	400.19
360.936	426.19
361.163	406.19
361.39	383.19
361.616	394.19
361.843	424.19
362.07	430.19
362.296	380.19
362.523	398.19
362.749	413.19
362.976	396.19
363.203	402.19
363.429	387.19
363.656	404.19
363.882	390.19
364.109	400.19
364.335	398.19
364.562	410.19
364.788	380.19
365.015	393.19
365.241	399.19
365.468	399.19
365.694	421.19
365.92	412.19
366.147	400.19
366.373	428.19
366.599	398.19
366.826	380.19
367.052	396.19
367.278	382.19
367.505	390.19
367.731	400.19
367.957	396.19
368.184	399.19
368.41	423.19
368.636	419.19
368.862	392.19
369.089	410.19
369.315	407.19
369.541	388.19
369.767	386.19
369.993	385.19
370.219	392.19
370.445	392.19
370.672	405.19
370.898	394.19
371.124	382.19
371.35	396.19
371.576	384.19
371.802	399.19
372.028	372.19
372.254	392.19
372.48	381.19
372.706	382.19
372.932	389.19
373.158	406.19
373.384	407.19
373.61	402.19
373.835	396.19
374.061	407.19
374.287	425.19
374.513	412.19
374.739	411.19
374.965	400.19
375.191	395.19
375.416	395.19
375.642	398.19
375.868	410.19
376.094	398.19
376.319	389.19
376.545	396.19
376.771	396.19
376.997	392.19
377.222	392.19
377.448	412.19
377.674	399.19
377.899	390.19
378.125	415.19
378.35	394.19
378.576	404.19
378.802	377.19
379.027	395.19
379.253	392.19
379.478	388.19
379.704	402.19
379.929	388.19
380.155	388.19
380.38	405.19
380.606	414.19
380.831	425.19
381.057	407.19
381.282	403.19
381.507	399.19
381.733	396.19
381.958	415.19
382.184	407.19
382.409	398.19
382.634	408.19
382.86	406.19
383.085	407.19
383.31	427.19
383.535	418.19
383.761	392.19
383.986	422.19
384.211	417.19
384.436	420.19
384.662	426.19
384.887	436.19
385.112	416.19
385.337	425.19
385.562	416.19
385.787	411.19
386.013	435.19
386.238	442.19
386.463	447.19
386.688	437.19
386.913	424.19
387.138	411.19
387.363	438.19
387.588	422.19
387.813	431.19
388.038	435.19
388.263	434.19
388.488	442.19
388.713	440.19
388.938	439.19
389.163	415.19
389.387	413.19
389.612	422.19
389.837	436.19
390.062	422.19
390.287	429.19
390.512	424.19
390.736	424.19
390.961	452.19
391.186	440.19
391.411	435.19
391.636	438.19
391.86	441.19
392.085	452.19
392.31	454.19
392.534	436.19
392.759	467.19
392.984	454.19
393.208	431.19
393.433	447.19
393.658	451.19
393.882	449.19
394.107	438.19
394.331	443.19
394.556	433.19
394.78	442.19
395.005	455.19
395.229	454.19
395.454	427.19
395.678	426.19
395.903	450.19
396.127	473.19
396.352	478.19
396.576	447.19
396.801	475.19
397.025	459.19
397.249	460.19
397.474	445.19
397.698	466.19
397.922	488.19
398.147	481.19
398.371	482.19
398.595	480.19
398.82	508.19
399.044	487.19
399.268	505.19
399.492	511.19
399.717	535.19
399.941	556.19
400.165	604.19
400.389	605.19
400.613	554.19
400.837	533.19
401.062	502.19
401.286	512.19
401.51	492.19
401.734	488.19
401.958	510.19
402.182	481.19
402.406	514.19
402.63	510.19
402.854	513.19
403.078	502.19
403.302	517.19
403.526	503.19
403.75	524.19
403.974	500.19
404.198	517.19
404.422	503.19
404.645	550.19
404.869	524.19
405.093	542.19
405.317	592.19
405.541	604.19
405.765	556.19
405.988	575.19
406.212	566.19
406.436	558.19
406.66	550.19
406.883	558.19
407.107	579.19
407.331	602.19
407.555	681.19
407.778	669.19
408.002	610.19
408.226	582.19
408.449	564.19
408.673	582.19
408.896	576.19
409.12	660.19
409.344	610.19
409.567	562.19
409.791	532.19
410.014	542.19
410.238	513.19
410.461	500.19
410.685	529.19
410.908	556.19
411.132	580.19
411.355	619.19
411.578	588.19
411.802	524.19
412.025	547.19
412.249	539.19
412.472	536.19
412.695	560.19
412.919	565.19
413.142	550.19
413.365	500.19
413.589	520.19
413.812	516.19
414.035	495.19
414.258	480.19
414.482	499.19
414.705	516.19
414.928	487.19
415.151	505.19
415.374	481.19
415.597	490.19
415.821	498.19
416.044	493.19
416.267	505.19
416.49	492.19
416.713	468.19
416.936	479.19
417.159	487.19
417.382	514.19
417.605	487.19
417.828	510.19
418.051	522.19
418.274	505.19
418.497	518.19
418.72	502.19
418.943	504.19
419.166	502.19
419.389	534.19
419.611	517.19
419.834	511.19
420.057	506.19
420.28	523.19
420.503	523.19
420.726	524.19
420.948	549.19
421.171	594.19
421.394	612.19
421.617	567.19
421.839	535.19
422.062	532.19
422.285	557.19
422.507	598.19
422.73	660.19
422.953	640.19
423.175	581.19
423.398	555.19
423.621	558.19
423.843	559.19
424.066	559.19
424.288	575.19
424.511	576.19
424.733	663.19
424.956	698.19
425.178	690.19
425.401	682.19
425.623	697.19
425.846	599.19
426.068	581.19
426.291	582.19
426.513	586.19
426.735	575.19
426.958	620.19
427.18	716.19
427.402	818.19
427.625	869.19
427.847	791.19
428.069	712.19
428.292	638.19
428.514	560.19
428.736	558.19
428.958	571.19
429.181	538.19
429.403	545.19
429.625	530.19
429.847	579.19
430.069	640.19
430.292	634.19
430.514	544.19
430.736	545.19
430.958	533.19
431.18	524.19
431.402	493.19
431.624	517.19
431.846	519.19
432.068	508.19
432.29	499.19
432.512	502.19
432.734	522.19
432.956	515.19
433.178	518.19
433.4	538.19
433.622	515.19
433.844	491.19
434.066	499.19
434.287	499.19
434.509	491.19
434.731	504.19
434.953	519.19
435.175	535.19
435.397	571.19
435.618	574.19
435.84	650.19
436.062	712.19
436.284	784.19
436.505	669.19
436.727	588.19
436.949	566.19
437.17	559.19
437.392	569.19
437.614	569.19
437.835	579.19
438.057	696.19
438.278	782.19
438.5	781.19
438.721	833.19
438.943	801.19
439.165	666.19
439.386	634.19
439.608	612.19
439.829	600.19
440.05	630.19
440.272	653.19
440.493	620.19
440.715	572.19
440.936	552.19
441.158	562.19
441.379	540.19
441.6	546.19
441.822	574.19
442.043	638.19
442.264	726.19
442.486	741.19
442.707	639.19
442.928	602.19
443.149	606.19
443.371	611.19
443.592	670.19
443.813	776.19
444.034	806.19
444.255	666.19
444.476	582.19
444.698	605.19
444.919	551.19
445.14	708.19
445.361	636.19
445.582	614.19
445.803	671.19
446.024	786.19
446.245	801.19
446.466	705.19
446.687	639.19
446.908	583.19
447.129	558.19
447.35	544.19
447.571	525.19
447.792	520.19
448.013	546.19
448.234	575.19
448.455	612.19
448.675	716.19
448.896	826.19
449.117	741.19
449.338	702.19
449.559	775.19
449.779	856.19
450	704.19
450.221	607.19
450.442	537.19
450.662	549.19
450.883	543.19
451.104	569.19
451.324	537.19
451.545	521.19
451.766	526.19
451.986	477.19
452.207	486.19
452.428	486.19
452.648	485.19
452.869	493.19
453.089	501.19
453.31	502.19
453.53	508.19
453.751	478.19
453.971	469.19
454.192	512.19
454.412	488.19
454.633	479.19
454.853	476.19
455.073	484.19
455.294	510.19
455.514	570.19
455.734	553.19
455.955	480.19
456.175	454.19
456.395	475.19
456.616	453.19
456.836	452.19
457.056	438.19
457.276	442.19
457.497	455.19
457.717	447.19
457.937	452.19
458.157	448.19
458.377	472.19
458.598	485.19
458.818	559.19
459.038	634.19
459.258	644.19
459.478	555.19
459.698	514.19
459.918	508.19
460.138	509.19
460.358	475.19
460.578	500.19
460.798	498.19
461.018	506.19
461.238	503.19
461.458	518.19
461.678	512.19
461.898	507.19
462.118	518.19
462.338	495.19
462.558	532.19
462.777	513.19
462.997	532.19
463.217	533.19
463.437	541.19
463.657	545.19
463.876	517.19
464.096	520.19
464.316	535.19
464.536	529.19
464.755	549.19
464.975	522.19
465.195	589.19
465.414	661.19
465.634	586.19
465.854	535.19
466.073	507.19
466.293	483.19
466.512	495.19
466.732	467.19
466.951	495.19
467.171	483.19
467.391	500.19
467.61	502.19
467.829	510.19
468.049	487.19
468.268	504.19
468.488	496.19
468.707	484.19
468.927	480.19
469.146	469.19
469.365	486.19
469.585	495.19
469.804	480.19
470.023	509.19
470.243	494.19
470.462	498.19
470.681	523.19
470.901	524.19
471.12	504.19
471.339	492.19
471.558	496.19
471.777	507.19
471.997	486.19
472.216	499.19
472.435	526.19
472.654	520.19
472.873	486.19
473.092	503.19
473.311	501.19
473.53	489.19
473.749	516.19
473.968	558.19
474.187	672.19
474.406	676.19
474.625	566.19
474.844	522.19
475.063	526.19
475.282	504.19
475.501	492.19
475.72	514.19
475.939	527.19
476.158	516.19
476.377	509.19
476.596	520.19
476.814	515.19
477.033	538.19
477.252	539.19
477.471	542.19
477.69	540.19
477.908	519.19
478.127	562.19
478.346	556.19
478.564	548.19
478.783	564.19
479.002	550.19
479.22	574.19
479.439	585.19
479.658	593.19
479.876	599.19
480.095	592.19
480.313	632.19
480.532	606.19
480.751	623.19
480.969	607.19
481.188	692.19
481.406	702.19
481.624	655.19
481.843	629.19
482.061	614.19
482.28	598.19
482.498	599.19
482.717	604.19
482.935	610.19
483.153	599.19
483.372	575.19
483.59	607.19
483.808	612.19
484.027	578.19
484.245	588.19
484.463	610.19
484.681	615.19
484.9	624.19
485.118	603.19
485.336	595.19
485.554	610.19
485.772	621.19
485.99	622.19
486.209	640.19
486.427	624.19
486.645	637.19
486.863	645.19
487.081	663.19
487.299	640.19
487.517	671.19
487.735	690.19
487.953	654.19
488.171	658.19
488.389	646.19
488.607	671.19
488.825	646.19
489.043	662.19
489.261	657.19
489.479	645.19
489.696	660.19
489.914	676.19
490.132	666.19
490.35	679.19
490.568	664.19
490.786	728.19
491.003	686.19
491.221	719.19
491.439	743.19
491.657	752.19
491.874	738.19
492.092	750.19
492.31	752.19
492.527	763.19
492.745	765.19
492.963	788.19
493.18	747.19
493.398	778.19
493.615	778.19
493.833	793.19
494.05	791.19
494.268	745.19
494.485	788.19
494.703	784.19
494.92	774.19
495.138	750.19
495.355	793.19
495.573	785.19
495.79	775.19
496.008	802.19
496.225	780.19
496.442	795.19
496.66	766.19
496.877	778.19
497.094	775.19
497.312	796.19
497.529	790.19
497.746	818.19
497.963	795.19
498.181	826.19
498.398	839.19
498.615	854.19
498.832	866.19
499.049	840.19
499.267	867.19
499.484	923.19
499.701	911.19
499.918	920.19
500.135	952.19
500.352	991.19
500.569	1010.19
500.786	1030.19
501.003	962.19
501.22	982.19
501.437	964.19
501.654	956.19
501.871	944.19
