Data from 1970.PennyLincolnUp.Lamp.En5.5.200Scan.071719.P1._HRD10591_15-13-15-843.txt Node
Date: Thu Jul 18 15:13:15 EDT 2019
User: cochatt
Spectrometer: HR+D1059
Trigger mode: 1
Integration Time (sec): 1.000000E-1
Scans to average: 1
Electric dark correction enabled: true
Nonlinearity correction enabled: false
Boxcar width: 0
XAxis mode: Wavelengths
Number of Pixels in Spectrum: 2048
>>>>>Begin Spectral Data<<<<<
223.165	-13.44
223.4	-13.44
223.635	-13.44
223.869	-12.44
224.104	-20.44
224.338	-22.44
224.573	-9.44
224.808	-10.44
225.042	7.56
225.277	-8.44
225.511	-11.44
225.746	-4.44
225.98	8.56
226.215	8.56
226.449	14.56
226.683	14.56
226.918	27.56
227.152	31.56
227.387	25.56
227.621	43.56
227.856	38.56
228.09	39.56
228.324	46.56
228.559	52.56
228.793	56.56
229.027	99.56
229.262	94.56
229.496	111.56
229.73	119.56
229.964	137.56
230.199	107.56
230.433	104.56
230.667	110.56
230.901	103.56
231.136	112.56
231.37	100.56
231.604	105.56
231.838	110.56
232.072	114.56
232.306	99.56
232.541	111.56
232.775	103.56
233.009	109.56
233.243	116.56
233.477	102.56
233.711	117.56
233.945	114.56
234.179	109.56
234.413	116.56
234.647	121.56
234.881	102.56
235.115	102.56
235.349	98.56
235.583	101.56
235.817	105.56
236.051	134.56
236.285	110.56
236.519	124.56
236.753	127.56
236.987	134.56
237.221	168.56
237.455	199.56
237.689	178.56
237.922	133.56
238.156	122.56
238.39	136.56
238.624	124.56
238.858	130.56
239.091	114.56
239.325	120.56
239.559	125.56
239.793	105.56
240.027	120.56
240.26	120.56
240.494	147.56
240.728	151.56
240.961	152.56
241.195	140.56
241.429	116.56
241.662	134.56
241.896	112.56
242.13	115.56
242.363	138.56
242.597	130.56
242.83	124.56
243.064	122.56
243.298	130.56
243.531	122.56
243.765	127.56
243.998	130.56
244.232	139.56
244.465	128.56
244.699	128.56
244.932	134.56
245.166	145.56
245.399	116.56
245.633	137.56
245.866	162.56
246.099	137.56
246.333	142.56
246.566	140.56
246.8	141.56
247.033	148.56
247.266	156.56
247.5	154.56
247.733	173.56
247.966	160.56
248.2	184.56
248.433	165.56
248.666	158.56
248.899	186.56
249.133	180.56
249.366	182.56
249.599	171.56
249.832	186.56
250.066	170.56
250.299	161.56
250.532	160.56
250.765	187.56
250.998	216.56
251.231	223.56
251.465	191.56
251.698	190.56
251.931	186.56
252.164	166.56
252.397	202.56
252.63	198.56
252.863	197.56
253.096	213.56
253.329	211.56
253.562	230.56
253.795	216.56
254.028	209.56
254.261	200.56
254.494	205.56
254.727	231.56
254.96	248.56
255.193	251.56
255.426	233.56
255.659	222.56
255.892	222.56
256.124	191.56
256.357	231.56
256.59	214.56
256.823	222.56
257.056	204.56
257.289	182.56
257.521	197.56
257.754	183.56
257.987	182.56
258.22	191.56
258.452	185.56
258.685	196.56
258.918	215.56
259.151	195.56
259.383	202.56
259.616	181.56
259.849	212.56
260.081	209.56
260.314	230.56
260.547	226.56
260.779	196.56
261.012	214.56
261.244	204.56
261.477	194.56
261.71	203.56
261.942	202.56
262.175	201.56
262.407	212.56
262.64	198.56
262.872	183.56
263.105	181.56
263.337	192.56
263.57	191.56
263.802	191.56
264.035	183.56
264.267	188.56
264.499	174.56
264.732	189.56
264.964	196.56
265.197	178.56
265.429	185.56
265.661	182.56
265.894	192.56
266.126	181.56
266.358	178.56
266.591	199.56
266.823	192.56
267.055	183.56
267.287	204.56
267.52	185.56
267.752	176.56
267.984	187.56
268.216	190.56
268.448	197.56
268.681	202.56
268.913	208.56
269.145	228.56
269.377	228.56
269.609	226.56
269.841	225.56
270.073	226.56
270.306	250.56
270.538	270.56
270.77	273.56
271.002	277.56
271.234	244.56
271.466	245.56
271.698	270.56
271.93	267.56
272.162	236.56
272.394	260.56
272.626	249.56
272.858	240.56
273.09	253.56
273.322	248.56
273.553	239.56
273.785	221.56
274.017	211.56
274.249	220.56
274.481	213.56
274.713	198.56
274.945	245.56
275.176	220.56
275.408	213.56
275.64	215.56
275.872	212.56
276.104	228.56
276.335	223.56
276.567	223.56
276.799	229.56
277.031	246.56
277.262	266.56
277.494	273.56
277.726	251.56
277.957	231.56
278.189	221.56
278.421	231.56
278.652	218.56
278.884	225.56
279.115	219.56
279.347	214.56
279.579	237.56
279.81	213.56
280.042	227.56
280.273	225.56
280.505	239.56
280.736	244.56
280.968	212.56
281.199	213.56
281.431	212.56
281.662	222.56
281.894	228.56
282.125	239.56
282.356	226.56
282.588	249.56
282.819	248.56
283.051	221.56
283.282	228.56
283.513	229.56
283.745	214.56
283.976	222.56
284.207	238.56
284.439	226.56
284.67	233.56
284.901	229.56
285.132	229.56
285.364	216.56
285.595	233.56
285.826	219.56
286.057	232.56
286.288	219.56
286.52	219.56
286.751	238.56
286.982	230.56
287.213	215.56
287.444	220.56
287.675	222.56
287.906	234.56
288.138	255.56
288.369	253.56
288.6	245.56
288.831	246.56
289.062	226.56
289.293	250.56
289.524	243.56
289.755	235.56
289.986	226.56
290.217	234.56
290.448	228.56
290.679	228.56
290.91	240.56
291.141	219.56
291.371	264.56
291.602	236.56
291.833	251.56
292.064	207.56
292.295	233.56
292.526	228.56
292.757	242.56
292.987	231.56
293.218	232.56
293.449	231.56
293.68	246.56
293.91	235.56
294.141	246.56
294.372	235.56
294.603	231.56
294.833	251.56
295.064	243.56
295.295	226.56
295.525	253.56
295.756	238.56
295.987	244.56
296.217	270.56
296.448	274.56
296.679	263.56
296.909	242.56
297.14	262.56
297.37	249.56
297.601	236.56
297.831	227.56
298.062	247.56
298.292	238.56
298.523	233.56
298.753	247.56
298.984	261.56
299.214	245.56
299.445	222.56
299.675	253.56
299.905	260.56
300.136	265.56
300.366	243.56
300.597	245.56
300.827	255.56
301.057	268.56
301.288	262.56
301.518	268.56
301.748	259.56
301.979	266.56
302.209	263.56
302.439	254.56
302.669	264.56
302.9	263.56
303.13	246.56
303.36	263.56
303.59	252.56
303.82	266.56
304.051	287.56
304.281	251.56
304.511	256.56
304.741	251.56
304.971	274.56
305.201	263.56
305.431	254.56
305.661	269.56
305.891	251.56
306.121	256.56
306.352	276.56
306.582	262.56
306.812	264.56
307.042	262.56
307.272	263.56
307.502	280.56
307.731	276.56
307.961	253.56
308.191	270.56
308.421	227.56
308.651	288.56
308.881	272.56
309.111	281.56
309.341	271.56
309.571	278.56
309.8	293.56
310.03	286.56
310.26	293.56
310.49	308.56
310.72	286.56
310.949	322.56
311.179	306.56
311.409	292.56
311.639	302.56
311.868	300.56
312.098	290.56
312.328	303.56
312.557	317.56
312.787	320.56
313.017	331.56
313.246	320.56
313.476	285.56
313.706	293.56
313.935	319.56
314.165	302.56
314.394	313.56
314.624	312.56
314.853	309.56
315.083	304.56
315.312	309.56
315.542	308.56
315.771	303.56
316.001	313.56
316.23	294.56
316.46	305.56
316.689	308.56
316.919	315.56
317.148	298.56
317.377	320.56
317.607	314.56
317.836	297.56
318.065	296.56
318.295	304.56
318.524	312.56
318.753	298.56
318.983	316.56
319.212	300.56
319.441	308.56
319.67	321.56
319.9	303.56
320.129	323.56
320.358	307.56
320.587	335.56
320.816	310.56
321.046	308.56
321.275	318.56
321.504	329.56
321.733	326.56
321.962	346.56
322.191	352.56
322.42	353.56
322.649	352.56
322.878	381.56
323.108	380.56
323.337	405.56
323.566	412.56
323.795	416.56
324.024	466.56
324.253	558.56
324.482	735.56
324.71	1120.56
324.939	1594.56
325.168	1394.56
325.397	749.56
325.626	528.56
325.855	434.56
326.084	416.56
326.313	388.56
326.542	408.56
326.77	439.56
326.999	502.56
327.228	683.56
327.457	1002.56
327.686	1226.56
327.914	831.56
328.143	556.56
328.372	483.56
328.6	455.56
328.829	458.56
329.058	438.56
329.287	478.56
329.515	424.56
329.744	412.56
329.972	400.56
330.201	416.56
330.43	419.56
330.658	457.56
330.887	478.56
331.115	456.56
331.344	428.56
331.572	391.56
331.801	384.56
332.03	396.56
332.258	391.56
332.486	382.56
332.715	381.56
332.943	370.56
333.172	348.56
333.4	360.56
333.629	382.56
333.857	372.56
334.085	383.56
334.314	386.56
334.542	408.56
334.771	430.56
334.999	416.56
335.227	383.56
335.455	376.56
335.684	355.56
335.912	370.56
336.14	352.56
336.369	352.56
336.597	379.56
336.825	380.56
337.053	358.56
337.281	358.56
337.51	349.56
337.738	370.56
337.966	363.56
338.194	374.56
338.422	359.56
338.65	370.56
338.878	352.56
339.106	351.56
339.334	355.56
339.562	360.56
339.79	358.56
340.018	339.56
340.246	359.56
340.474	355.56
340.702	366.56
340.93	350.56
341.158	344.56
341.386	346.56
341.614	351.56
341.842	366.56
342.07	339.56
342.298	346.56
342.526	342.56
342.754	363.56
342.981	331.56
343.209	319.56
343.437	342.56
343.665	350.56
343.893	343.56
344.12	357.56
344.348	359.56
344.576	352.56
344.804	371.56
345.031	374.56
345.259	358.56
345.487	373.56
345.714	341.56
345.942	331.56
346.17	346.56
346.397	351.56
346.625	317.56
346.853	340.56
347.08	331.56
347.308	322.56
347.535	346.56
347.763	348.56
347.99	345.56
348.218	366.56
348.445	356.56
348.673	363.56
348.9	354.56
349.128	349.56
349.355	330.56
349.583	344.56
349.81	360.56
350.037	341.56
350.265	343.56
350.492	315.56
350.72	338.56
350.947	345.56
351.174	346.56
351.402	355.56
351.629	351.56
351.856	364.56
352.083	368.56
352.311	374.56
352.538	346.56
352.765	354.56
352.992	355.56
353.22	361.56
353.447	351.56
353.674	332.56
353.901	335.56
354.128	336.56
354.355	337.56
354.583	335.56
354.81	328.56
355.037	311.56
355.264	328.56
355.491	319.56
355.718	326.56
355.945	340.56
356.172	316.56
356.399	326.56
356.626	326.56
356.853	328.56
357.08	316.56
357.307	333.56
357.534	314.56
357.761	298.56
357.988	332.56
358.215	327.56
358.441	337.56
358.668	334.56
358.895	333.56
359.122	342.56
359.349	341.56
359.576	350.56
359.802	378.56
360.029	367.56
360.256	395.56
360.483	401.56
360.709	352.56
360.936	356.56
361.163	347.56
361.39	371.56
361.616	382.56
361.843	363.56
362.07	351.56
362.296	363.56
362.523	358.56
362.749	347.56
362.976	333.56
363.203	342.56
363.429	339.56
363.656	337.56
363.882	344.56
364.109	347.56
364.335	350.56
364.562	351.56
364.788	352.56
365.015	333.56
365.241	344.56
365.468	343.56
365.694	363.56
365.92	342.56
366.147	358.56
366.373	355.56
366.599	338.56
366.826	342.56
367.052	345.56
367.278	334.56
367.505	349.56
367.731	348.56
367.957	339.56
368.184	368.56
368.41	360.56
368.636	361.56
368.862	366.56
369.089	351.56
369.315	352.56
369.541	352.56
369.767	334.56
369.993	346.56
370.219	353.56
370.445	372.56
370.672	358.56
370.898	322.56
371.124	344.56
371.35	351.56
371.576	343.56
371.802	357.56
372.028	356.56
372.254	343.56
372.48	343.56
372.706	355.56
372.932	364.56
373.158	357.56
373.384	370.56
373.61	356.56
373.835	356.56
374.061	355.56
374.287	339.56
374.513	365.56
374.739	338.56
374.965	356.56
375.191	359.56
375.416	366.56
375.642	361.56
375.868	358.56
376.094	348.56
376.319	346.56
376.545	358.56
376.771	348.56
376.997	360.56
377.222	364.56
377.448	354.56
377.674	358.56
377.899	353.56
378.125	376.56
378.35	356.56
378.576	346.56
378.802	334.56
379.027	327.56
379.253	362.56
379.478	349.56
379.704	347.56
379.929	350.56
380.155	374.56
380.38	355.56
380.606	376.56
380.831	358.56
381.057	382.56
381.282	370.56
381.507	361.56
381.733	364.56
381.958	358.56
382.184	349.56
382.409	359.56
382.634	378.56
382.86	376.56
383.085	370.56
383.31	343.56
383.535	363.56
383.761	384.56
383.986	368.56
384.211	372.56
384.436	357.56
384.662	372.56
384.887	398.56
385.112	382.56
385.337	379.56
385.562	357.56
385.787	380.56
386.013	378.56
386.238	409.56
386.463	397.56
386.688	389.56
386.913	380.56
387.138	399.56
387.363	390.56
387.588	387.56
387.813	385.56
388.038	360.56
388.263	372.56
388.488	384.56
388.713	383.56
388.938	395.56
389.163	381.56
389.387	404.56
389.612	396.56
389.837	398.56
390.062	372.56
390.287	395.56
390.512	396.56
390.736	384.56
390.961	396.56
391.186	381.56
391.411	383.56
391.636	371.56
391.86	393.56
392.085	383.56
392.31	398.56
392.534	384.56
392.759	404.56
392.984	408.56
393.208	389.56
393.433	414.56
393.658	421.56
393.882	402.56
394.107	407.56
394.331	361.56
394.556	392.56
394.78	384.56
395.005	380.56
395.229	387.56
395.454	384.56
395.678	411.56
395.903	383.56
396.127	445.56
396.352	407.56
396.576	426.56
396.801	396.56
397.025	423.56
397.249	408.56
397.474	404.56
397.698	417.56
397.922	419.56
398.147	426.56
398.371	428.56
398.595	414.56
398.82	415.56
399.044	454.56
399.268	450.56
399.492	453.56
399.717	474.56
399.941	504.56
400.165	526.56
400.389	543.56
400.613	518.56
400.837	460.56
401.062	435.56
401.286	438.56
401.51	439.56
401.734	417.56
401.958	450.56
402.182	418.56
402.406	441.56
402.63	437.56
402.854	470.56
403.078	459.56
403.302	442.56
403.526	431.56
403.75	447.56
403.974	442.56
404.198	456.56
404.422	468.56
404.645	445.56
404.869	461.56
405.093	490.56
405.317	516.56
405.541	538.56
405.765	501.56
405.988	488.56
406.212	480.56
406.436	510.56
406.66	534.56
406.883	498.56
407.107	502.56
407.331	544.56
407.555	604.56
407.778	587.56
408.002	545.56
408.226	502.56
408.449	523.56
408.673	508.56
408.896	525.56
409.12	575.56
409.344	540.56
409.567	500.56
409.791	481.56
410.014	470.56
410.238	461.56
410.461	474.56
410.685	459.56
410.908	464.56
411.132	494.56
411.355	532.56
411.578	521.56
411.802	477.56
412.025	468.56
412.249	480.56
412.472	503.56
412.695	499.56
412.919	495.56
413.142	462.56
413.365	456.56
413.589	458.56
413.812	453.56
414.035	463.56
414.258	442.56
414.482	431.56
414.705	446.56
414.928	438.56
415.151	421.56
415.374	408.56
415.597	439.56
415.821	445.56
416.044	445.56
416.267	428.56
416.49	422.56
416.713	409.56
416.936	434.56
417.159	422.56
417.382	454.56
417.605	446.56
417.828	456.56
418.051	472.56
418.274	444.56
418.497	452.56
418.72	430.56
418.943	454.56
419.166	452.56
419.389	481.56
419.611	476.56
419.834	450.56
420.057	451.56
420.28	442.56
420.503	458.56
420.726	442.56
420.948	459.56
421.171	514.56
421.394	526.56
421.617	490.56
421.839	472.56
422.062	450.56
422.285	454.56
422.507	519.56
422.73	591.56
422.953	559.56
423.175	515.56
423.398	473.56
423.621	497.56
423.843	504.56
424.066	505.56
424.288	508.56
424.511	503.56
424.733	550.56
424.956	633.56
425.178	606.56
425.401	614.56
425.623	613.56
425.846	540.56
426.068	506.56
426.291	490.56
426.513	494.56
426.735	500.56
426.958	546.56
427.18	591.56
427.402	698.56
427.625	790.56
427.847	696.56
428.069	591.56
428.292	546.56
428.514	499.56
428.736	484.56
428.958	479.56
429.181	448.56
429.403	445.56
429.625	478.56
429.847	485.56
430.069	575.56
430.292	559.56
430.514	508.56
430.736	464.56
430.958	445.56
431.18	465.56
431.402	443.56
431.624	418.56
431.846	440.56
432.068	444.56
432.29	448.56
432.512	438.56
432.734	461.56
432.956	436.56
433.178	463.56
433.4	474.56
433.622	456.56
433.844	429.56
434.066	446.56
434.287	440.56
434.509	448.56
434.731	447.56
434.953	485.56
435.175	485.56
435.397	503.56
435.618	485.56
435.84	556.56
436.062	619.56
436.284	676.56
436.505	568.56
436.727	518.56
436.949	488.56
437.17	480.56
437.392	474.56
437.614	479.56
437.835	532.56
438.057	594.56
438.278	673.56
438.5	693.56
438.721	742.56
438.943	692.56
439.165	590.56
439.386	538.56
439.608	514.56
439.829	526.56
440.05	530.56
440.272	544.56
440.493	532.56
440.715	508.56
440.936	507.56
441.158	450.56
441.379	482.56
441.6	483.56
441.822	520.56
442.043	543.56
442.264	599.56
442.486	640.56
442.707	566.56
442.928	524.56
443.149	534.56
443.371	563.56
443.592	582.56
443.813	644.56
444.034	696.56
444.255	575.56
444.476	524.56
444.698	491.56
444.919	494.56
445.14	632.56
445.361	550.56
445.582	540.56
445.803	564.56
446.024	663.56
446.245	666.56
446.466	634.56
446.687	536.56
446.908	516.56
447.129	489.56
447.35	471.56
447.571	469.56
447.792	472.56
448.013	490.56
448.234	488.56
448.455	538.56
448.675	613.56
448.896	730.56
449.117	652.56
449.338	605.56
449.559	702.56
449.779	742.56
450	629.56
450.221	519.56
450.442	500.56
450.662	477.56
450.883	486.56
451.104	491.56
451.324	495.56
451.545	440.56
451.766	445.56
451.986	421.56
452.207	406.56
452.428	439.56
452.648	414.56
452.869	429.56
453.089	431.56
453.31	435.56
453.53	424.56
453.751	430.56
453.971	424.56
454.192	422.56
454.412	409.56
454.633	413.56
454.853	399.56
455.073	414.56
455.294	449.56
455.514	503.56
455.734	493.56
455.955	427.56
456.175	404.56
456.395	390.56
456.616	400.56
456.836	397.56
457.056	383.56
457.276	382.56
457.497	410.56
457.717	383.56
457.937	418.56
458.157	418.56
458.377	399.56
458.598	432.56
458.818	461.56
459.038	556.56
459.258	558.56
459.478	484.56
459.698	436.56
459.918	425.56
460.138	431.56
460.358	437.56
460.578	431.56
460.798	426.56
461.018	432.56
461.238	443.56
461.458	426.56
461.678	459.56
461.898	458.56
462.118	458.56
462.338	449.56
462.558	459.56
462.777	452.56
462.997	478.56
463.217	467.56
463.437	478.56
463.657	455.56
463.876	477.56
464.096	471.56
464.316	459.56
464.536	468.56
464.755	459.56
464.975	483.56
465.195	515.56
465.414	568.56
465.634	518.56
465.854	471.56
466.073	446.56
466.293	454.56
466.512	445.56
466.732	426.56
466.951	425.56
467.171	438.56
467.391	428.56
467.61	434.56
467.829	441.56
468.049	445.56
468.268	434.56
468.488	445.56
468.707	432.56
468.927	419.56
469.146	409.56
469.365	432.56
469.585	435.56
469.804	416.56
470.023	434.56
470.243	436.56
470.462	450.56
470.681	463.56
470.901	455.56
471.12	448.56
471.339	442.56
471.558	447.56
471.777	436.56
471.997	443.56
472.216	449.56
472.435	473.56
472.654	460.56
472.873	455.56
473.092	429.56
473.311	436.56
473.53	467.56
473.749	454.56
473.968	503.56
474.187	578.56
474.406	582.56
474.625	486.56
474.844	457.56
475.063	459.56
475.282	447.56
475.501	436.56
475.72	450.56
475.939	460.56
476.158	437.56
476.377	456.56
476.596	459.56
476.814	490.56
477.033	476.56
477.252	460.56
477.471	482.56
477.69	463.56
477.908	467.56
478.127	464.56
478.346	474.56
478.564	483.56
478.783	474.56
479.002	483.56
479.22	501.56
479.439	519.56
479.658	526.56
479.876	526.56
480.095	535.56
480.313	543.56
480.532	543.56
480.751	521.56
480.969	534.56
481.188	587.56
481.406	592.56
481.624	570.56
481.843	566.56
482.061	550.56
482.28	526.56
482.498	524.56
482.717	501.56
482.935	517.56
483.153	535.56
483.372	530.56
483.59	526.56
483.808	511.56
484.027	541.56
484.245	527.56
484.463	528.56
484.681	523.56
484.9	553.56
485.118	530.56
485.336	524.56
485.554	535.56
485.772	539.56
485.99	521.56
486.209	547.56
486.427	546.56
486.645	564.56
486.863	562.56
487.081	583.56
487.299	587.56
487.517	566.56
487.735	555.56
487.953	568.56
488.171	565.56
488.389	543.56
488.607	585.56
488.825	570.56
489.043	555.56
489.261	582.56
489.479	596.56
489.696	570.56
489.914	572.56
490.132	608.56
490.35	582.56
490.568	599.56
490.786	601.56
491.003	623.56
491.221	642.56
491.439	658.56
491.657	654.56
491.874	639.56
492.092	639.56
492.31	652.56
492.527	686.56
492.745	672.56
492.963	685.56
493.18	672.56
493.398	644.56
493.615	656.56
493.833	666.56
494.05	657.56
494.268	677.56
494.485	669.56
494.703	675.56
494.92	680.56
495.138	684.56
495.355	691.56
495.573	648.56
495.79	672.56
496.008	690.56
496.225	666.56
496.442	692.56
496.66	699.56
496.877	714.56
497.094	678.56
497.312	697.56
497.529	706.56
497.746	712.56
497.963	699.56
498.181	744.56
498.398	739.56
498.615	746.56
498.832	735.56
499.049	724.56
499.267	776.56
499.484	785.56
499.701	796.56
499.918	842.56
500.135	856.56
500.352	866.56
500.569	899.56
500.786	891.56
501.003	850.56
501.22	888.56
501.437	830.56
501.654	838.56
501.871	835.56
502.088	787.56
