Data from 1970.PennyLincolnUp.Lamp.En5.5.200Scan.071719.P1._HRD10591_15-13-53-843.txt Node
Date: Thu Jul 18 15:13:53 EDT 2019
User: cochatt
Spectrometer: HR+D1059
Trigger mode: 1
Integration Time (sec): 1.000000E-1
Scans to average: 1
Electric dark correction enabled: true
Nonlinearity correction enabled: false
Boxcar width: 0
XAxis mode: Wavelengths
Number of Pixels in Spectrum: 2048
>>>>>Begin Spectral Data<<<<<
223.165	-20.44
223.4	-20.44
223.635	-20.44
223.869	-27.44
224.104	-9.44
224.338	-14.44
224.573	-29.44
224.808	-23.44
225.042	3.56
225.277	-7.44
225.511	-6.44
225.746	22.56
225.98	8.56
226.215	20.56
226.449	12.56
226.683	18.56
226.918	20.56
227.152	31.56
227.387	37.56
227.621	33.56
227.856	42.56
228.09	44.56
228.324	57.56
228.559	48.56
228.793	68.56
229.027	109.56
229.262	94.56
229.496	126.56
229.73	157.56
229.964	168.56
230.199	136.56
230.433	110.56
230.667	120.56
230.901	110.56
231.136	108.56
231.37	114.56
231.604	106.56
231.838	108.56
232.072	104.56
232.306	112.56
232.541	116.56
232.775	117.56
233.009	109.56
233.243	118.56
233.477	106.56
233.711	126.56
233.945	128.56
234.179	105.56
234.413	105.56
234.647	107.56
234.881	110.56
235.115	132.56
235.349	135.56
235.583	122.56
235.817	121.56
236.051	140.56
236.285	128.56
236.519	117.56
236.753	132.56
236.987	138.56
237.221	203.56
237.455	248.56
237.689	195.56
237.922	157.56
238.156	141.56
238.39	143.56
238.624	144.56
238.858	127.56
239.091	123.56
239.325	122.56
239.559	128.56
239.793	138.56
240.027	137.56
240.26	150.56
240.494	156.56
240.728	170.56
240.961	166.56
241.195	148.56
241.429	150.56
241.662	144.56
241.896	140.56
242.13	143.56
242.363	122.56
242.597	135.56
242.83	145.56
243.064	138.56
243.298	148.56
243.531	139.56
243.765	152.56
243.998	143.56
244.232	149.56
244.465	160.56
244.699	167.56
244.932	157.56
245.166	158.56
245.399	136.56
245.633	147.56
245.866	153.56
246.099	142.56
246.333	160.56
246.566	162.56
246.8	154.56
247.033	153.56
247.266	160.56
247.5	169.56
247.733	184.56
247.966	180.56
248.2	163.56
248.433	173.56
248.666	189.56
248.899	202.56
249.133	207.56
249.366	217.56
249.599	205.56
249.832	197.56
250.066	196.56
250.299	178.56
250.532	186.56
250.765	193.56
250.998	228.56
251.231	246.56
251.465	246.56
251.698	228.56
251.931	215.56
252.164	227.56
252.397	210.56
252.63	221.56
252.863	227.56
253.096	244.56
253.329	250.56
253.562	248.56
253.795	243.56
254.028	239.56
254.261	230.56
254.494	224.56
254.727	274.56
254.96	294.56
255.193	286.56
255.426	270.56
255.659	245.56
255.892	248.56
256.124	251.56
256.357	249.56
256.59	243.56
256.823	242.56
257.056	224.56
257.289	224.56
257.521	196.56
257.754	213.56
257.987	216.56
258.22	226.56
258.452	220.56
258.685	223.56
258.918	233.56
259.151	228.56
259.383	232.56
259.616	205.56
259.849	217.56
260.081	252.56
260.314	260.56
260.547	290.56
260.779	263.56
261.012	244.56
261.244	235.56
261.477	232.56
261.71	230.56
261.942	222.56
262.175	224.56
262.407	232.56
262.64	208.56
262.872	218.56
263.105	226.56
263.337	227.56
263.57	232.56
263.802	211.56
264.035	204.56
264.267	205.56
264.499	211.56
264.732	214.56
264.964	207.56
265.197	200.56
265.429	197.56
265.661	209.56
265.894	226.56
266.126	207.56
266.358	206.56
266.591	208.56
266.823	220.56
267.055	220.56
267.287	221.56
267.52	208.56
267.752	207.56
267.984	223.56
268.216	210.56
268.448	221.56
268.681	222.56
268.913	235.56
269.145	258.56
269.377	278.56
269.609	252.56
269.841	277.56
270.073	272.56
270.306	294.56
270.538	300.56
270.77	303.56
271.002	309.56
271.234	310.56
271.466	298.56
271.698	294.56
271.93	335.56
272.162	311.56
272.394	306.56
272.626	307.56
272.858	303.56
273.09	284.56
273.322	282.56
273.553	245.56
273.785	279.56
274.017	254.56
274.249	269.56
274.481	249.56
274.713	265.56
274.945	270.56
275.176	261.56
275.408	250.56
275.64	266.56
275.872	242.56
276.104	265.56
276.335	261.56
276.567	266.56
276.799	280.56
277.031	300.56
277.262	306.56
277.494	317.56
277.726	287.56
277.957	292.56
278.189	282.56
278.421	274.56
278.652	271.56
278.884	258.56
279.115	262.56
279.347	248.56
279.579	252.56
279.81	243.56
280.042	263.56
280.273	248.56
280.505	255.56
280.736	264.56
280.968	240.56
281.199	267.56
281.431	265.56
281.662	256.56
281.894	264.56
282.125	239.56
282.356	256.56
282.588	280.56
282.819	302.56
283.051	220.56
283.282	280.56
283.513	251.56
283.745	268.56
283.976	256.56
284.207	258.56
284.439	268.56
284.67	262.56
284.901	262.56
285.132	277.56
285.364	252.56
285.595	264.56
285.826	267.56
286.057	278.56
286.288	255.56
286.52	265.56
286.751	267.56
286.982	284.56
287.213	247.56
287.444	258.56
287.675	266.56
287.906	279.56
288.138	286.56
288.369	289.56
288.6	292.56
288.831	277.56
289.062	295.56
289.293	288.56
289.524	263.56
289.755	271.56
289.986	269.56
290.217	267.56
290.448	271.56
290.679	261.56
290.91	270.56
291.141	274.56
291.371	273.56
291.602	267.56
291.833	254.56
292.064	258.56
292.295	280.56
292.526	284.56
292.757	259.56
292.987	250.56
293.218	257.56
293.449	281.56
293.68	267.56
293.91	272.56
294.141	266.56
294.372	279.56
294.603	267.56
294.833	273.56
295.064	272.56
295.295	244.56
295.525	258.56
295.756	263.56
295.987	266.56
296.217	322.56
296.448	322.56
296.679	305.56
296.909	285.56
297.14	286.56
297.37	278.56
297.601	275.56
297.831	270.56
298.062	279.56
298.292	280.56
298.523	301.56
298.753	285.56
298.984	268.56
299.214	286.56
299.445	309.56
299.675	284.56
299.905	287.56
300.136	285.56
300.366	279.56
300.597	284.56
300.827	282.56
301.057	308.56
301.288	281.56
301.518	306.56
301.748	310.56
301.979	299.56
302.209	286.56
302.439	304.56
302.669	312.56
302.9	291.56
303.13	310.56
303.36	301.56
303.59	310.56
303.82	315.56
304.051	322.56
304.281	293.56
304.511	311.56
304.741	315.56
304.971	310.56
305.201	293.56
305.431	300.56
305.661	299.56
305.891	319.56
306.121	322.56
306.352	321.56
306.582	313.56
306.812	296.56
307.042	316.56
307.272	301.56
307.502	288.56
307.731	299.56
307.961	290.56
308.191	313.56
308.421	317.56
308.651	307.56
308.881	306.56
309.111	343.56
309.341	328.56
309.571	323.56
309.8	342.56
310.03	324.56
310.26	374.56
310.49	340.56
310.72	341.56
310.949	365.56
311.179	384.56
311.409	358.56
311.639	356.56
311.868	364.56
312.098	371.56
312.328	354.56
312.557	395.56
312.787	402.56
313.017	386.56
313.246	381.56
313.476	351.56
313.706	366.56
313.935	372.56
314.165	376.56
314.394	369.56
314.624	372.56
314.853	370.56
315.083	361.56
315.312	359.56
315.542	349.56
315.771	350.56
316.001	354.56
316.23	335.56
316.46	350.56
316.689	361.56
316.919	375.56
317.148	380.56
317.377	372.56
317.607	373.56
317.836	370.56
318.065	364.56
318.295	357.56
318.524	347.56
318.753	360.56
318.983	362.56
319.212	352.56
319.441	372.56
319.67	372.56
319.9	366.56
320.129	359.56
320.358	367.56
320.587	370.56
320.816	381.56
321.046	376.56
321.275	378.56
321.504	385.56
321.733	408.56
321.962	397.56
322.191	416.56
322.42	429.56
322.649	434.56
322.878	453.56
323.108	459.56
323.337	461.56
323.566	476.56
323.795	507.56
324.024	585.56
324.253	710.56
324.482	974.56
324.71	1483.56
324.939	2125.56
325.168	1828.56
325.397	971.56
325.626	655.56
325.855	560.56
326.084	522.56
326.313	490.56
326.542	497.56
326.77	558.56
326.999	635.56
327.228	878.56
327.457	1336.56
327.686	1614.56
327.914	1104.56
328.143	728.56
328.372	644.56
328.6	606.56
328.829	566.56
329.058	584.56
329.287	603.56
329.515	546.56
329.744	496.56
329.972	506.56
330.201	526.56
330.43	585.56
330.658	620.56
330.887	612.56
331.115	592.56
331.344	516.56
331.572	478.56
331.801	497.56
332.03	485.56
332.258	464.56
332.486	446.56
332.715	410.56
332.943	430.56
333.172	424.56
333.4	418.56
333.629	442.56
333.857	464.56
334.085	467.56
334.314	479.56
334.542	501.56
334.771	527.56
334.999	487.56
335.227	448.56
335.455	442.56
335.684	427.56
335.912	412.56
336.14	408.56
336.369	420.56
336.597	431.56
336.825	426.56
337.053	435.56
337.281	406.56
337.51	427.56
337.738	422.56
337.966	414.56
338.194	422.56
338.422	423.56
338.65	418.56
338.878	414.56
339.106	420.56
339.334	407.56
339.562	408.56
339.79	410.56
340.018	413.56
340.246	406.56
340.474	405.56
340.702	403.56
340.93	412.56
341.158	421.56
341.386	413.56
341.614	395.56
341.842	428.56
342.07	407.56
342.298	386.56
342.526	408.56
342.754	383.56
342.981	368.56
343.209	384.56
343.437	408.56
343.665	399.56
343.893	407.56
344.12	395.56
344.348	422.56
344.576	422.56
344.804	420.56
345.031	423.56
345.259	449.56
345.487	432.56
345.714	410.56
345.942	394.56
346.17	398.56
346.397	416.56
346.625	394.56
346.853	386.56
347.08	399.56
347.308	428.56
347.535	422.56
347.763	423.56
347.99	419.56
348.218	419.56
348.445	416.56
348.673	427.56
348.9	411.56
349.128	411.56
349.355	401.56
349.583	401.56
349.81	373.56
350.037	403.56
350.265	393.56
350.492	390.56
350.72	382.56
350.947	394.56
351.174	412.56
351.402	429.56
351.629	416.56
351.856	427.56
352.083	404.56
352.311	410.56
352.538	421.56
352.765	447.56
352.992	434.56
353.22	418.56
353.447	405.56
353.674	391.56
353.901	374.56
354.128	394.56
354.355	384.56
354.583	365.56
354.81	376.56
355.037	414.56
355.264	376.56
355.491	375.56
355.718	374.56
355.945	380.56
356.172	381.56
356.399	387.56
356.626	368.56
356.853	384.56
357.08	379.56
357.307	379.56
357.534	373.56
357.761	391.56
357.988	382.56
358.215	367.56
358.441	362.56
358.668	372.56
358.895	388.56
359.122	376.56
359.349	392.56
359.576	424.56
359.802	436.56
360.029	458.56
360.256	486.56
360.483	452.56
360.709	443.56
360.936	424.56
361.163	404.56
361.39	416.56
361.616	432.56
361.843	416.56
362.07	422.56
362.296	420.56
362.523	409.56
362.749	398.56
362.976	408.56
363.203	406.56
363.429	399.56
363.656	399.56
363.882	395.56
364.109	395.56
364.335	399.56
364.562	390.56
364.788	386.56
365.015	413.56
365.241	406.56
365.468	399.56
365.694	416.56
365.92	407.56
366.147	393.56
366.373	374.56
366.599	404.56
366.826	397.56
367.052	409.56
367.278	386.56
367.505	398.56
367.731	404.56
367.957	385.56
368.184	426.56
368.41	429.56
368.636	428.56
368.862	416.56
369.089	393.56
369.315	382.56
369.541	392.56
369.767	392.56
369.993	414.56
370.219	386.56
370.445	405.56
370.672	387.56
370.898	386.56
371.124	382.56
371.35	412.56
371.576	390.56
371.802	375.56
372.028	395.56
372.254	386.56
372.48	387.56
372.706	411.56
372.932	390.56
373.158	402.56
373.384	408.56
373.61	401.56
373.835	403.56
374.061	385.56
374.287	394.56
374.513	393.56
374.739	403.56
374.965	407.56
375.191	393.56
375.416	384.56
375.642	386.56
375.868	408.56
376.094	399.56
376.319	412.56
376.545	379.56
376.771	399.56
376.997	391.56
377.222	380.56
377.448	407.56
377.674	396.56
377.899	409.56
378.125	387.56
378.35	393.56
378.576	409.56
378.802	387.56
379.027	421.56
379.253	406.56
379.478	392.56
379.704	388.56
379.929	394.56
380.155	399.56
380.38	407.56
380.606	410.56
380.831	428.56
381.057	404.56
381.282	403.56
381.507	387.56
381.733	398.56
381.958	400.56
382.184	395.56
382.409	409.56
382.634	423.56
382.86	400.56
383.085	422.56
383.31	415.56
383.535	417.56
383.761	407.56
383.986	411.56
384.211	414.56
384.436	405.56
384.662	423.56
384.887	404.56
385.112	419.56
385.337	445.56
385.562	428.56
385.787	408.56
386.013	454.56
386.238	454.56
386.463	443.56
386.688	427.56
386.913	413.56
387.138	415.56
387.363	439.56
387.588	419.56
387.813	432.56
388.038	431.56
388.263	439.56
388.488	438.56
388.713	427.56
388.938	420.56
389.163	425.56
389.387	429.56
389.612	453.56
389.837	420.56
390.062	434.56
390.287	453.56
390.512	437.56
390.736	458.56
390.961	420.56
391.186	425.56
391.411	436.56
391.636	416.56
391.86	446.56
392.085	439.56
392.31	458.56
392.534	434.56
392.759	440.56
392.984	430.56
393.208	448.56
393.433	440.56
393.658	453.56
393.882	450.56
394.107	427.56
394.331	428.56
394.556	454.56
394.78	439.56
395.005	442.56
395.229	434.56
395.454	439.56
395.678	440.56
395.903	478.56
396.127	487.56
396.352	470.56
396.576	456.56
396.801	446.56
397.025	467.56
397.249	473.56
397.474	452.56
397.698	462.56
397.922	483.56
398.147	482.56
398.371	484.56
398.595	477.56
398.82	479.56
399.044	498.56
399.268	513.56
399.492	514.56
399.717	528.56
399.941	553.56
400.165	598.56
400.389	609.56
400.613	550.56
400.837	527.56
401.062	508.56
401.286	513.56
401.51	488.56
401.734	487.56
401.958	499.56
402.182	498.56
402.406	518.56
402.63	492.56
402.854	516.56
403.078	509.56
403.302	512.56
403.526	497.56
403.75	510.56
403.974	505.56
404.198	486.56
404.422	487.56
404.645	541.56
404.869	524.56
405.093	552.56
405.317	594.56
405.541	627.56
405.765	587.56
405.988	542.56
406.212	539.56
406.436	580.56
406.66	576.56
406.883	555.56
407.107	574.56
407.331	592.56
407.555	692.56
407.778	670.56
408.002	626.56
408.226	586.56
408.449	547.56
408.673	564.56
408.896	613.56
409.12	662.56
409.344	598.56
409.567	557.56
409.791	531.56
410.014	509.56
410.238	513.56
410.461	504.56
410.685	505.56
410.908	537.56
411.132	571.56
411.355	602.56
411.578	584.56
411.802	556.56
412.025	524.56
412.249	540.56
412.472	576.56
412.695	598.56
412.919	563.56
413.142	538.56
413.365	517.56
413.589	525.56
413.812	502.56
414.035	493.56
414.258	500.56
414.482	503.56
414.705	479.56
414.928	490.56
415.151	483.56
415.374	499.56
415.597	486.56
415.821	510.56
416.044	505.56
416.267	526.56
416.49	479.56
416.713	493.56
416.936	520.56
417.159	512.56
417.382	496.56
417.605	526.56
417.828	521.56
418.051	530.56
418.274	521.56
418.497	482.56
418.72	510.56
418.943	510.56
419.166	521.56
419.389	529.56
419.611	537.56
419.834	525.56
420.057	526.56
420.28	542.56
420.503	521.56
420.726	536.56
420.948	556.56
421.171	597.56
421.394	610.56
421.617	570.56
421.839	520.56
422.062	531.56
422.285	540.56
422.507	615.56
422.73	692.56
422.953	642.56
423.175	585.56
423.398	551.56
423.621	565.56
423.843	570.56
424.066	569.56
424.288	570.56
424.511	607.56
424.733	636.56
424.956	730.56
425.178	718.56
425.401	720.56
425.623	710.56
425.846	619.56
426.068	621.56
426.291	598.56
426.513	579.56
426.735	595.56
426.958	652.56
427.18	711.56
427.402	840.56
427.625	900.56
427.847	835.56
428.069	707.56
428.292	653.56
428.514	598.56
428.736	568.56
428.958	576.56
429.181	551.56
429.403	562.56
429.625	562.56
429.847	581.56
430.069	646.56
430.292	646.56
430.514	558.56
430.736	538.56
430.958	525.56
431.18	508.56
431.402	504.56
431.624	520.56
431.846	472.56
432.068	517.56
432.29	498.56
432.512	499.56
432.734	522.56
432.956	512.56
433.178	533.56
433.4	542.56
433.622	515.56
433.844	505.56
434.066	495.56
434.287	516.56
434.509	534.56
434.731	530.56
434.953	513.56
435.175	537.56
435.397	578.56
435.618	583.56
435.84	636.56
436.062	718.56
436.284	798.56
436.505	675.56
436.727	625.56
436.949	553.56
437.17	539.56
437.392	550.56
437.614	553.56
437.835	587.56
438.057	697.56
438.278	804.56
438.5	811.56
438.721	859.56
438.943	793.56
439.165	658.56
439.386	602.56
439.608	607.56
439.829	619.56
440.05	648.56
440.272	659.56
440.493	626.56
440.715	598.56
440.936	562.56
441.158	571.56
441.379	530.56
441.6	558.56
441.822	574.56
442.043	618.56
442.264	727.56
442.486	742.56
442.707	653.56
442.928	606.56
443.149	603.56
443.371	618.56
443.592	651.56
443.813	729.56
444.034	796.56
444.255	687.56
444.476	612.56
444.698	602.56
444.919	563.56
445.14	715.56
445.361	646.56
445.582	629.56
445.803	677.56
446.024	795.56
446.245	783.56
446.466	718.56
446.687	640.56
446.908	602.56
447.129	580.56
447.35	552.56
447.571	587.56
447.792	532.56
448.013	547.56
448.234	564.56
448.455	631.56
448.675	717.56
448.896	828.56
449.117	720.56
449.338	675.56
449.559	784.56
449.779	864.56
450	691.56
450.221	615.56
450.442	584.56
450.662	557.56
450.883	541.56
451.104	543.56
451.324	551.56
451.545	537.56
451.766	506.56
451.986	500.56
452.207	482.56
452.428	479.56
452.648	490.56
452.869	469.56
453.089	492.56
453.31	528.56
453.53	505.56
453.751	496.56
453.971	517.56
454.192	522.56
454.412	498.56
454.633	489.56
454.853	494.56
455.073	494.56
455.294	520.56
455.514	560.56
455.734	571.56
455.955	491.56
456.175	449.56
456.395	462.56
456.616	451.56
456.836	470.56
457.056	440.56
457.276	451.56
457.497	451.56
457.717	463.56
457.937	461.56
458.157	441.56
458.377	486.56
458.598	485.56
458.818	568.56
459.038	666.56
459.258	637.56
459.478	570.56
459.698	514.56
459.918	514.56
460.138	507.56
460.358	527.56
460.578	498.56
460.798	512.56
461.018	526.56
461.238	498.56
461.458	477.56
461.678	495.56
461.898	523.56
462.118	487.56
462.338	517.56
462.558	501.56
462.777	506.56
462.997	534.56
463.217	534.56
463.437	506.56
463.657	514.56
463.876	528.56
464.096	539.56
464.316	536.56
464.536	536.56
464.755	523.56
464.975	551.56
465.195	588.56
465.414	683.56
465.634	596.56
465.854	567.56
466.073	507.56
466.293	532.56
466.512	508.56
466.732	499.56
466.951	501.56
467.171	495.56
467.391	529.56
467.61	503.56
467.829	506.56
468.049	517.56
468.268	502.56
468.488	491.56
468.707	506.56
468.927	466.56
469.146	489.56
469.365	498.56
469.585	489.56
469.804	479.56
470.023	519.56
470.243	498.56
470.462	512.56
470.681	543.56
470.901	531.56
471.12	471.56
471.339	528.56
471.558	514.56
471.777	534.56
471.997	487.56
472.216	529.56
472.435	564.56
472.654	532.56
472.873	498.56
473.092	484.56
473.311	508.56
473.53	507.56
473.749	511.56
473.968	547.56
474.187	655.56
474.406	670.56
474.625	577.56
474.844	486.56
475.063	503.56
475.282	522.56
475.501	534.56
475.72	522.56
475.939	516.56
476.158	539.56
476.377	538.56
476.596	548.56
476.814	540.56
477.033	533.56
477.252	543.56
477.471	541.56
477.69	538.56
477.908	555.56
478.127	550.56
478.346	547.56
478.564	559.56
478.783	559.56
479.002	596.56
479.22	610.56
479.439	584.56
479.658	618.56
479.876	602.56
480.095	631.56
480.313	640.56
480.532	633.56
480.751	622.56
480.969	636.56
481.188	705.56
481.406	746.56
481.624	663.56
481.843	616.56
482.061	624.56
482.28	606.56
482.498	602.56
482.717	607.56
482.935	605.56
483.153	607.56
483.372	621.56
483.59	606.56
483.808	574.56
484.027	600.56
484.245	618.56
484.463	613.56
484.681	631.56
484.9	617.56
485.118	607.56
485.336	628.56
485.554	633.56
485.772	627.56
485.99	599.56
486.209	639.56
486.427	653.56
486.645	654.56
486.863	667.56
487.081	655.56
487.299	685.56
487.517	657.56
487.735	654.56
487.953	681.56
488.171	648.56
488.389	656.56
488.607	663.56
488.825	648.56
489.043	642.56
489.261	672.56
489.479	697.56
489.696	690.56
489.914	659.56
490.132	677.56
490.35	721.56
490.568	695.56
490.786	734.56
491.003	713.56
491.221	718.56
491.439	743.56
491.657	757.56
491.874	762.56
492.092	761.56
492.31	769.56
492.527	780.56
492.745	752.56
492.963	784.56
493.18	774.56
493.398	783.56
493.615	784.56
493.833	791.56
494.05	806.56
494.268	800.56
494.485	777.56
494.703	801.56
494.92	780.56
495.138	833.56
495.355	813.56
495.573	792.56
495.79	798.56
496.008	799.56
496.225	795.56
496.442	807.56
496.66	783.56
496.877	802.56
497.094	784.56
497.312	792.56
497.529	791.56
497.746	805.56
497.963	824.56
498.181	850.56
498.398	844.56
498.615	869.56
498.832	867.56
499.049	845.56
499.267	871.56
499.484	909.56
499.701	890.56
499.918	912.56
500.135	962.56
500.352	970.56
500.569	988.56
500.786	1007.56
501.003	967.56
501.22	991.56
501.437	957.56
501.654	971.56
501.871	932.56
