Data from 1970.PennyLincolnUp.Lamp.En5.5.200Scan.071719.P1._HRD10591_15-13-50-843.txt Node
Date: Thu Jul 18 15:13:50 EDT 2019
User: cochatt
Spectrometer: HR+D1059
Trigger mode: 1
Integration Time (sec): 1.000000E-1
Scans to average: 1
Electric dark correction enabled: true
Nonlinearity correction enabled: false
Boxcar width: 0
XAxis mode: Wavelengths
Number of Pixels in Spectrum: 2048
>>>>>Begin Spectral Data<<<<<
223.165	-12.44
223.4	-12.44
223.635	-12.44
223.869	-9.44
224.104	-18.44
224.338	-17.44
224.573	-16.44
224.808	-15.44
225.042	-15.44
225.277	-4.44
225.511	20.56
225.746	0.56
225.98	13.56
226.215	4.56
226.449	14.56
226.683	21.56
226.918	10.56
227.152	23.56
227.387	32.56
227.621	27.56
227.856	35.56
228.09	50.56
228.324	54.56
228.559	45.56
228.793	80.56
229.027	98.56
229.262	117.56
229.496	124.56
229.73	141.56
229.964	177.56
230.199	138.56
230.433	119.56
230.667	126.56
230.901	118.56
231.136	112.56
231.37	116.56
231.604	117.56
231.838	129.56
232.072	107.56
232.306	119.56
232.541	118.56
232.775	114.56
233.009	125.56
233.243	107.56
233.477	117.56
233.711	114.56
233.945	116.56
234.179	118.56
234.413	128.56
234.647	116.56
234.881	109.56
235.115	112.56
235.349	110.56
235.583	125.56
235.817	121.56
236.051	133.56
236.285	129.56
236.519	132.56
236.753	131.56
236.987	147.56
237.221	196.56
237.455	233.56
237.689	201.56
237.922	150.56
238.156	136.56
238.39	134.56
238.624	129.56
238.858	118.56
239.091	122.56
239.325	125.56
239.559	136.56
239.793	131.56
240.027	125.56
240.26	157.56
240.494	148.56
240.728	157.56
240.961	148.56
241.195	144.56
241.429	150.56
241.662	152.56
241.896	126.56
242.13	129.56
242.363	132.56
242.597	135.56
242.83	133.56
243.064	136.56
243.298	154.56
243.531	148.56
243.765	153.56
243.998	141.56
244.232	136.56
244.465	149.56
244.699	132.56
244.932	152.56
245.166	150.56
245.399	153.56
245.633	154.56
245.866	162.56
246.099	157.56
246.333	160.56
246.566	157.56
246.8	160.56
247.033	165.56
247.266	170.56
247.5	168.56
247.733	171.56
247.966	183.56
248.2	168.56
248.433	167.56
248.666	169.56
248.899	189.56
249.133	202.56
249.366	225.56
249.599	209.56
249.832	172.56
250.066	192.56
250.299	203.56
250.532	200.56
250.765	217.56
250.998	231.56
251.231	234.56
251.465	218.56
251.698	224.56
251.931	203.56
252.164	207.56
252.397	197.56
252.63	213.56
252.863	221.56
253.096	240.56
253.329	242.56
253.562	244.56
253.795	216.56
254.028	227.56
254.261	235.56
254.494	233.56
254.727	258.56
254.96	290.56
255.193	297.56
255.426	286.56
255.659	257.56
255.892	260.56
256.124	233.56
256.357	242.56
256.59	234.56
256.823	225.56
257.056	215.56
257.289	224.56
257.521	209.56
257.754	224.56
257.987	212.56
258.22	208.56
258.452	221.56
258.685	212.56
258.918	220.56
259.151	213.56
259.383	219.56
259.616	243.56
259.849	250.56
260.081	233.56
260.314	257.56
260.547	263.56
260.779	269.56
261.012	251.56
261.244	221.56
261.477	234.56
261.71	219.56
261.942	245.56
262.175	235.56
262.407	247.56
262.64	216.56
262.872	225.56
263.105	205.56
263.337	219.56
263.57	217.56
263.802	214.56
264.035	219.56
264.267	222.56
264.499	229.56
264.732	215.56
264.964	201.56
265.197	220.56
265.429	210.56
265.661	216.56
265.894	197.56
266.126	208.56
266.358	215.56
266.591	227.56
266.823	222.56
267.055	235.56
267.287	225.56
267.52	229.56
267.752	234.56
267.984	233.56
268.216	235.56
268.448	228.56
268.681	237.56
268.913	238.56
269.145	255.56
269.377	276.56
269.609	286.56
269.841	267.56
270.073	260.56
270.306	282.56
270.538	304.56
270.77	324.56
271.002	304.56
271.234	286.56
271.466	300.56
271.698	316.56
271.93	322.56
272.162	317.56
272.394	310.56
272.626	290.56
272.858	293.56
273.09	289.56
273.322	271.56
273.553	260.56
273.785	258.56
274.017	255.56
274.249	257.56
274.481	268.56
274.713	258.56
274.945	269.56
275.176	254.56
275.408	255.56
275.64	269.56
275.872	256.56
276.104	280.56
276.335	251.56
276.567	257.56
276.799	275.56
277.031	299.56
277.262	308.56
277.494	308.56
277.726	313.56
277.957	271.56
278.189	273.56
278.421	270.56
278.652	274.56
278.884	268.56
279.115	260.56
279.347	253.56
279.579	250.56
279.81	252.56
280.042	264.56
280.273	285.56
280.505	260.56
280.736	261.56
280.968	263.56
281.199	257.56
281.431	259.56
281.662	261.56
281.894	257.56
282.125	262.56
282.356	270.56
282.588	306.56
282.819	296.56
283.051	282.56
283.282	259.56
283.513	266.56
283.745	271.56
283.976	265.56
284.207	271.56
284.439	278.56
284.67	275.56
284.901	263.56
285.132	280.56
285.364	264.56
285.595	266.56
285.826	258.56
286.057	265.56
286.288	268.56
286.52	265.56
286.751	266.56
286.982	269.56
287.213	265.56
287.444	273.56
287.675	266.56
287.906	267.56
288.138	285.56
288.369	289.56
288.6	286.56
288.831	299.56
289.062	273.56
289.293	287.56
289.524	267.56
289.755	292.56
289.986	283.56
290.217	297.56
290.448	269.56
290.679	282.56
290.91	288.56
291.141	275.56
291.371	266.56
291.602	262.56
291.833	267.56
292.064	279.56
292.295	290.56
292.526	265.56
292.757	268.56
292.987	276.56
293.218	272.56
293.449	284.56
293.68	279.56
293.91	265.56
294.141	264.56
294.372	277.56
294.603	293.56
294.833	289.56
295.064	248.56
295.295	290.56
295.525	292.56
295.756	294.56
295.987	296.56
296.217	312.56
296.448	319.56
296.679	318.56
296.909	290.56
297.14	256.56
297.37	295.56
297.601	280.56
297.831	269.56
298.062	288.56
298.292	284.56
298.523	285.56
298.753	307.56
298.984	314.56
299.214	291.56
299.445	281.56
299.675	284.56
299.905	292.56
300.136	290.56
300.366	292.56
300.597	289.56
300.827	290.56
301.057	297.56
301.288	313.56
301.518	301.56
301.748	304.56
301.979	308.56
302.209	289.56
302.439	318.56
302.669	326.56
302.9	302.56
303.13	294.56
303.36	315.56
303.59	314.56
303.82	315.56
304.051	310.56
304.281	313.56
304.511	320.56
304.741	286.56
304.971	277.56
305.201	313.56
305.431	304.56
305.661	327.56
305.891	309.56
306.121	312.56
306.352	324.56
306.582	325.56
306.812	324.56
307.042	298.56
307.272	307.56
307.502	308.56
307.731	321.56
307.961	321.56
308.191	314.56
308.421	296.56
308.651	343.56
308.881	340.56
309.111	324.56
309.341	326.56
309.571	342.56
309.8	360.56
310.03	336.56
310.26	349.56
310.49	351.56
310.72	368.56
310.949	371.56
311.179	381.56
311.409	369.56
311.639	358.56
311.868	350.56
312.098	360.56
312.328	379.56
312.557	388.56
312.787	380.56
313.017	404.56
313.246	374.56
313.476	361.56
313.706	369.56
313.935	372.56
314.165	374.56
314.394	379.56
314.624	396.56
314.853	378.56
315.083	384.56
315.312	378.56
315.542	357.56
315.771	358.56
316.001	353.56
316.23	368.56
316.46	344.56
316.689	361.56
316.919	357.56
317.148	368.56
317.377	372.56
317.607	361.56
317.836	352.56
318.065	357.56
318.295	366.56
318.524	371.56
318.753	360.56
318.983	363.56
319.212	354.56
319.441	370.56
319.67	365.56
319.9	370.56
320.129	374.56
320.358	354.56
320.587	371.56
320.816	394.56
321.046	396.56
321.275	375.56
321.504	378.56
321.733	384.56
321.962	390.56
322.191	411.56
322.42	428.56
322.649	403.56
322.878	429.56
323.108	473.56
323.337	473.56
323.566	521.56
323.795	528.56
324.024	592.56
324.253	690.56
324.482	967.56
324.71	1511.56
324.939	2152.56
325.168	1873.56
325.397	1014.56
325.626	694.56
325.855	556.56
326.084	522.56
326.313	503.56
326.542	509.56
326.77	566.56
326.999	640.56
327.228	889.56
327.457	1341.56
327.686	1651.56
327.914	1105.56
328.143	737.56
328.372	627.56
328.6	594.56
328.829	579.56
329.058	598.56
329.287	579.56
329.515	560.56
329.744	522.56
329.972	490.56
330.201	526.56
330.43	573.56
330.658	606.56
330.887	627.56
331.115	604.56
331.344	526.56
331.572	474.56
331.801	491.56
332.03	468.56
332.258	459.56
332.486	441.56
332.715	443.56
332.943	438.56
333.172	428.56
333.4	436.56
333.629	462.56
333.857	460.56
334.085	474.56
334.314	504.56
334.542	508.56
334.771	542.56
334.999	489.56
335.227	473.56
335.455	445.56
335.684	434.56
335.912	410.56
336.14	457.56
336.369	425.56
336.597	451.56
336.825	420.56
337.053	419.56
337.281	443.56
337.51	426.56
337.738	452.56
337.966	417.56
338.194	434.56
338.422	431.56
338.65	417.56
338.878	432.56
339.106	415.56
339.334	438.56
339.562	420.56
339.79	395.56
340.018	416.56
340.246	430.56
340.474	429.56
340.702	417.56
340.93	416.56
341.158	405.56
341.386	423.56
341.614	418.56
341.842	429.56
342.07	395.56
342.298	417.56
342.526	404.56
342.754	412.56
342.981	406.56
343.209	411.56
343.437	405.56
343.665	420.56
343.893	419.56
344.12	442.56
344.348	441.56
344.576	430.56
344.804	432.56
345.031	447.56
345.259	428.56
345.487	412.56
345.714	410.56
345.942	429.56
346.17	413.56
346.397	405.56
346.625	414.56
346.853	422.56
347.08	421.56
347.308	415.56
347.535	433.56
347.763	437.56
347.99	427.56
348.218	436.56
348.445	438.56
348.673	426.56
348.9	410.56
349.128	412.56
349.355	405.56
349.583	403.56
349.81	412.56
350.037	400.56
350.265	381.56
350.492	416.56
350.72	388.56
350.947	409.56
351.174	430.56
351.402	410.56
351.629	410.56
351.856	428.56
352.083	436.56
352.311	435.56
352.538	420.56
352.765	426.56
352.992	416.56
353.22	433.56
353.447	407.56
353.674	428.56
353.901	406.56
354.128	393.56
354.355	390.56
354.583	409.56
354.81	394.56
355.037	396.56
355.264	388.56
355.491	386.56
355.718	365.56
355.945	377.56
356.172	373.56
356.399	383.56
356.626	365.56
356.853	378.56
357.08	390.56
357.307	375.56
357.534	378.56
357.761	372.56
357.988	389.56
358.215	376.56
358.441	402.56
358.668	391.56
358.895	397.56
359.122	404.56
359.349	394.56
359.576	398.56
359.802	452.56
360.029	468.56
360.256	483.56
360.483	469.56
360.709	440.56
360.936	418.56
361.163	419.56
361.39	444.56
361.616	430.56
361.843	425.56
362.07	433.56
362.296	432.56
362.523	414.56
362.749	442.56
362.976	410.56
363.203	400.56
363.429	408.56
363.656	428.56
363.882	421.56
364.109	410.56
364.335	394.56
364.562	378.56
364.788	394.56
365.015	410.56
365.241	397.56
365.468	405.56
365.694	420.56
365.92	402.56
366.147	405.56
366.373	394.56
366.599	412.56
366.826	390.56
367.052	416.56
367.278	405.56
367.505	406.56
367.731	409.56
367.957	399.56
368.184	408.56
368.41	413.56
368.636	409.56
368.862	424.56
369.089	420.56
369.315	402.56
369.541	413.56
369.767	403.56
369.993	409.56
370.219	386.56
370.445	401.56
370.672	401.56
370.898	395.56
371.124	404.56
371.35	404.56
371.576	420.56
371.802	393.56
372.028	416.56
372.254	392.56
372.48	405.56
372.706	396.56
372.932	409.56
373.158	397.56
373.384	410.56
373.61	420.56
373.835	409.56
374.061	397.56
374.287	414.56
374.513	432.56
374.739	430.56
374.965	418.56
375.191	412.56
375.416	420.56
375.642	398.56
375.868	423.56
376.094	390.56
376.319	395.56
376.545	423.56
376.771	430.56
376.997	404.56
377.222	416.56
377.448	419.56
377.674	398.56
377.899	395.56
378.125	390.56
378.35	391.56
378.576	402.56
378.802	386.56
379.027	397.56
379.253	417.56
379.478	386.56
379.704	421.56
379.929	417.56
380.155	402.56
380.38	425.56
380.606	415.56
380.831	433.56
381.057	412.56
381.282	417.56
381.507	407.56
381.733	405.56
381.958	416.56
382.184	416.56
382.409	421.56
382.634	421.56
382.86	421.56
383.085	413.56
383.31	408.56
383.535	399.56
383.761	407.56
383.986	412.56
384.211	412.56
384.436	422.56
384.662	439.56
384.887	461.56
385.112	440.56
385.337	435.56
385.562	442.56
385.787	438.56
386.013	445.56
386.238	444.56
386.463	458.56
386.688	438.56
386.913	438.56
387.138	438.56
387.363	453.56
387.588	430.56
387.813	429.56
388.038	445.56
388.263	458.56
388.488	445.56
388.713	453.56
388.938	445.56
389.163	469.56
389.387	450.56
389.612	432.56
389.837	446.56
390.062	454.56
390.287	447.56
390.512	447.56
390.736	418.56
390.961	436.56
391.186	438.56
391.411	437.56
391.636	436.56
391.86	469.56
392.085	457.56
392.31	451.56
392.534	457.56
392.759	459.56
392.984	437.56
393.208	453.56
393.433	484.56
393.658	470.56
393.882	454.56
394.107	440.56
394.331	450.56
394.556	449.56
394.78	436.56
395.005	450.56
395.229	458.56
395.454	452.56
395.678	474.56
395.903	477.56
396.127	483.56
396.352	516.56
396.576	476.56
396.801	454.56
397.025	455.56
397.249	469.56
397.474	464.56
397.698	493.56
397.922	479.56
398.147	493.56
398.371	514.56
398.595	492.56
398.82	492.56
399.044	497.56
399.268	517.56
399.492	520.56
399.717	555.56
399.941	568.56
400.165	601.56
400.389	615.56
400.613	586.56
400.837	548.56
401.062	522.56
401.286	520.56
401.51	515.56
401.734	499.56
401.958	489.56
402.182	489.56
402.406	522.56
402.63	501.56
402.854	519.56
403.078	520.56
403.302	530.56
403.526	540.56
403.75	530.56
403.974	517.56
404.198	524.56
404.422	535.56
404.645	518.56
404.869	538.56
405.093	583.56
405.317	625.56
405.541	633.56
405.765	595.56
405.988	558.56
406.212	611.56
406.436	612.56
406.66	605.56
406.883	587.56
407.107	610.56
407.331	643.56
407.555	708.56
407.778	695.56
408.002	639.56
408.226	635.56
408.449	594.56
408.673	597.56
408.896	603.56
409.12	653.56
409.344	632.56
409.567	567.56
409.791	541.56
410.014	545.56
410.238	540.56
410.461	542.56
410.685	532.56
410.908	552.56
411.132	571.56
411.355	626.56
411.578	590.56
411.802	561.56
412.025	553.56
412.249	557.56
412.472	562.56
412.695	617.56
412.919	600.56
413.142	558.56
413.365	530.56
413.589	511.56
413.812	505.56
414.035	499.56
414.258	494.56
414.482	498.56
414.705	534.56
414.928	519.56
415.151	509.56
415.374	515.56
415.597	511.56
415.821	495.56
416.044	518.56
416.267	502.56
416.49	518.56
416.713	512.56
416.936	498.56
417.159	499.56
417.382	539.56
417.605	511.56
417.828	538.56
418.051	558.56
418.274	525.56
418.497	491.56
418.72	514.56
418.943	503.56
419.166	527.56
419.389	549.56
419.611	552.56
419.834	544.56
420.057	565.56
420.28	547.56
420.503	549.56
420.726	553.56
420.948	538.56
421.171	578.56
421.394	616.56
421.617	561.56
421.839	534.56
422.062	536.56
422.285	555.56
422.507	629.56
422.73	707.56
422.953	660.56
423.175	573.56
423.398	567.56
423.621	557.56
423.843	588.56
424.066	558.56
424.288	576.56
424.511	604.56
424.733	650.56
424.956	726.56
425.178	700.56
425.401	735.56
425.623	731.56
425.846	623.56
426.068	603.56
426.291	587.56
426.513	578.56
426.735	610.56
426.958	667.56
427.18	734.56
427.402	838.56
427.625	956.56
427.847	852.56
428.069	725.56
428.292	642.56
428.514	611.56
428.736	598.56
428.958	561.56
429.181	556.56
429.403	552.56
429.625	555.56
429.847	594.56
430.069	662.56
430.292	642.56
430.514	576.56
430.736	568.56
430.958	519.56
431.18	526.56
431.402	521.56
431.624	516.56
431.846	504.56
432.068	489.56
432.29	534.56
432.512	525.56
432.734	558.56
432.956	530.56
433.178	535.56
433.4	548.56
433.622	517.56
433.844	514.56
434.066	500.56
434.287	521.56
434.509	512.56
434.731	525.56
434.953	521.56
435.175	541.56
435.397	598.56
435.618	580.56
435.84	631.56
436.062	733.56
436.284	805.56
436.505	676.56
436.727	618.56
436.949	560.56
437.17	554.56
437.392	547.56
437.614	560.56
437.835	580.56
438.057	693.56
438.278	841.56
438.5	818.56
438.721	887.56
438.943	843.56
439.165	690.56
439.386	640.56
439.608	622.56
439.829	621.56
440.05	615.56
440.272	674.56
440.493	667.56
440.715	605.56
440.936	575.56
441.158	554.56
441.379	538.56
441.6	579.56
441.822	567.56
442.043	601.56
442.264	727.56
442.486	782.56
442.707	646.56
442.928	624.56
443.149	616.56
443.371	632.56
443.592	665.56
443.813	779.56
444.034	842.56
444.255	703.56
444.476	636.56
444.698	599.56
444.919	589.56
445.14	716.56
445.361	645.56
445.582	624.56
445.803	686.56
446.024	799.56
446.245	798.56
446.466	762.56
446.687	651.56
446.908	588.56
447.129	570.56
447.35	577.56
447.571	555.56
447.792	569.56
448.013	571.56
448.234	584.56
448.455	656.56
448.675	738.56
448.896	850.56
449.117	737.56
449.338	676.56
449.559	824.56
449.779	885.56
450	726.56
450.221	610.56
450.442	577.56
450.662	554.56
450.883	567.56
451.104	581.56
451.324	562.56
451.545	542.56
451.766	516.56
451.986	503.56
452.207	496.56
452.428	483.56
452.648	496.56
452.869	493.56
453.089	508.56
453.31	514.56
453.53	515.56
453.751	504.56
453.971	510.56
454.192	524.56
454.412	531.56
454.633	500.56
454.853	490.56
455.073	499.56
455.294	514.56
455.514	602.56
455.734	562.56
455.955	484.56
456.175	483.56
456.395	477.56
456.616	456.56
456.836	467.56
457.056	467.56
457.276	462.56
457.497	468.56
457.717	470.56
457.937	453.56
458.157	461.56
458.377	461.56
458.598	512.56
458.818	578.56
459.038	667.56
459.258	674.56
459.478	560.56
459.698	533.56
459.918	524.56
460.138	520.56
460.358	518.56
460.578	516.56
460.798	521.56
461.018	526.56
461.238	507.56
461.458	514.56
461.678	512.56
461.898	529.56
462.118	517.56
462.338	526.56
462.558	529.56
462.777	518.56
462.997	553.56
463.217	529.56
463.437	549.56
463.657	554.56
463.876	518.56
464.096	541.56
464.316	551.56
464.536	545.56
464.755	562.56
464.975	556.56
465.195	614.56
465.414	701.56
465.634	612.56
465.854	573.56
466.073	520.56
466.293	522.56
466.512	514.56
466.732	516.56
466.951	504.56
467.171	490.56
467.391	486.56
467.61	516.56
467.829	544.56
468.049	544.56
468.268	510.56
468.488	487.56
468.707	489.56
468.927	490.56
469.146	475.56
469.365	514.56
469.585	512.56
469.804	484.56
470.023	506.56
470.243	498.56
470.462	526.56
470.681	546.56
470.901	527.56
471.12	530.56
471.339	539.56
471.558	528.56
471.777	525.56
471.997	514.56
472.216	516.56
472.435	579.56
472.654	532.56
472.873	521.56
473.092	506.56
473.311	498.56
473.53	492.56
473.749	556.56
473.968	535.56
474.187	658.56
474.406	701.56
474.625	580.56
474.844	523.56
475.063	538.56
475.282	533.56
475.501	530.56
475.72	521.56
475.939	535.56
476.158	526.56
476.377	547.56
476.596	546.56
476.814	524.56
477.033	550.56
477.252	564.56
477.471	560.56
477.69	555.56
477.908	538.56
478.127	534.56
478.346	554.56
478.564	558.56
478.783	586.56
479.002	579.56
479.22	592.56
479.439	596.56
479.658	626.56
479.876	610.56
480.095	632.56
480.313	645.56
480.532	632.56
480.751	645.56
480.969	630.56
481.188	695.56
481.406	756.56
481.624	670.56
481.843	642.56
482.061	638.56
482.28	608.56
482.498	604.56
482.717	604.56
482.935	633.56
483.153	619.56
483.372	602.56
483.59	622.56
483.808	617.56
484.027	634.56
484.245	608.56
484.463	633.56
484.681	620.56
484.9	621.56
485.118	613.56
485.336	634.56
485.554	648.56
485.772	644.56
485.99	642.56
486.209	658.56
486.427	617.56
486.645	674.56
486.863	650.56
487.081	680.56
487.299	680.56
487.517	673.56
487.735	636.56
487.953	688.56
488.171	683.56
488.389	694.56
488.607	674.56
488.825	667.56
489.043	697.56
489.261	684.56
489.479	676.56
489.696	679.56
489.914	696.56
490.132	702.56
490.35	699.56
490.568	708.56
490.786	715.56
491.003	744.56
491.221	745.56
491.439	749.56
491.657	762.56
491.874	787.56
492.092	794.56
492.31	783.56
492.527	818.56
492.745	775.56
492.963	780.56
493.18	774.56
493.398	801.56
493.615	806.56
493.833	820.56
494.05	818.56
494.268	809.56
494.485	800.56
494.703	826.56
494.92	792.56
495.138	804.56
495.355	816.56
495.573	811.56
495.79	837.56
496.008	818.56
496.225	831.56
496.442	819.56
496.66	810.56
496.877	810.56
497.094	833.56
497.312	807.56
497.529	848.56
497.746	828.56
497.963	830.56
498.181	858.56
498.398	861.56
498.615	893.56
498.832	887.56
499.049	873.56
499.267	916.56
499.484	934.56
499.701	914.56
499.918	952.56
500.135	987.56
500.352	1008.56
500.569	1024.56
500.786	1043.56
501.003	1008.56
501.22	1029.56
501.437	968.56
501.654	958.56
501.871	973.56
