Data from 1970.PennyLincolnUp.Lamp.En5.5.200Scan.071719.P1._HRD10591_15-13-34-843.txt Node
Date: Thu Jul 18 15:13:34 EDT 2019
User: cochatt
Spectrometer: HR+D1059
Trigger mode: 1
Integration Time (sec): 1.000000E-1
Scans to average: 1
Electric dark correction enabled: true
Nonlinearity correction enabled: false
Boxcar width: 0
XAxis mode: Wavelengths
Number of Pixels in Spectrum: 2048
>>>>>Begin Spectral Data<<<<<
223.165	-6.19
223.4	-6.19
223.635	-6.19
223.869	-13.19
224.104	-19.19
224.338	-2.19
224.573	-14.19
224.808	-10.19
225.042	-5.19
225.277	-12.19
225.511	-11.19
225.746	-0.19
225.98	11.81
226.215	10.81
226.449	7.81
226.683	6.81
226.918	25.81
227.152	30.81
227.387	25.81
227.621	40.81
227.856	37.81
228.09	40.81
228.324	52.81
228.559	62.81
228.793	59.81
229.027	93.81
229.262	106.81
229.496	116.81
229.73	139.81
229.964	170.81
230.199	124.81
230.433	109.81
230.667	115.81
230.901	105.81
231.136	103.81
231.37	117.81
231.604	117.81
231.838	98.81
232.072	117.81
232.306	120.81
232.541	108.81
232.775	117.81
233.009	106.81
233.243	123.81
233.477	104.81
233.711	119.81
233.945	115.81
234.179	101.81
234.413	109.81
234.647	108.81
234.881	120.81
235.115	120.81
235.349	111.81
235.583	123.81
235.817	116.81
236.051	119.81
236.285	132.81
236.519	123.81
236.753	131.81
236.987	143.81
237.221	172.81
237.455	243.81
237.689	183.81
237.922	165.81
238.156	138.81
238.39	141.81
238.624	128.81
238.858	123.81
239.091	119.81
239.325	113.81
239.559	124.81
239.793	127.81
240.027	137.81
240.26	146.81
240.494	160.81
240.728	154.81
240.961	147.81
241.195	137.81
241.429	153.81
241.662	146.81
241.896	136.81
242.13	145.81
242.363	134.81
242.597	124.81
242.83	137.81
243.064	133.81
243.298	137.81
243.531	127.81
243.765	140.81
243.998	136.81
244.232	154.81
244.465	135.81
244.699	153.81
244.932	145.81
245.166	147.81
245.399	170.81
245.633	149.81
245.866	151.81
246.099	154.81
246.333	131.81
246.566	157.81
246.8	168.81
247.033	169.81
247.266	150.81
247.5	162.81
247.733	160.81
247.966	165.81
248.2	170.81
248.433	179.81
248.666	188.81
248.899	200.81
249.133	200.81
249.366	194.81
249.599	200.81
249.832	196.81
250.066	203.81
250.299	183.81
250.532	200.81
250.765	205.81
250.998	227.81
251.231	245.81
251.465	218.81
251.698	217.81
251.931	209.81
252.164	198.81
252.397	214.81
252.63	202.81
252.863	209.81
253.096	197.81
253.329	215.81
253.562	213.81
253.795	231.81
254.028	215.81
254.261	220.81
254.494	227.81
254.727	265.81
254.96	301.81
255.193	285.81
255.426	240.81
255.659	237.81
255.892	223.81
256.124	232.81
256.357	249.81
256.59	233.81
256.823	215.81
257.056	211.81
257.289	208.81
257.521	211.81
257.754	220.81
257.987	219.81
258.22	220.81
258.452	213.81
258.685	200.81
258.918	220.81
259.151	205.81
259.383	231.81
259.616	227.81
259.849	211.81
260.081	223.81
260.314	230.81
260.547	251.81
260.779	257.81
261.012	215.81
261.244	223.81
261.477	207.81
261.71	216.81
261.942	226.81
262.175	243.81
262.407	213.81
262.64	214.81
262.872	211.81
263.105	203.81
263.337	220.81
263.57	212.81
263.802	209.81
264.035	207.81
264.267	195.81
264.499	190.81
264.732	219.81
264.964	200.81
265.197	202.81
265.429	200.81
265.661	200.81
265.894	206.81
266.126	201.81
266.358	195.81
266.591	195.81
266.823	215.81
267.055	221.81
267.287	235.81
267.52	232.81
267.752	210.81
267.984	225.81
268.216	213.81
268.448	219.81
268.681	233.81
268.913	224.81
269.145	222.81
269.377	253.81
269.609	255.81
269.841	266.81
270.073	257.81
270.306	253.81
270.538	289.81
270.77	283.81
271.002	288.81
271.234	309.81
271.466	296.81
271.698	290.81
271.93	304.81
272.162	307.81
272.394	281.81
272.626	294.81
272.858	267.81
273.09	257.81
273.322	253.81
273.553	245.81
273.785	263.81
274.017	253.81
274.249	235.81
274.481	236.81
274.713	233.81
274.945	247.81
275.176	255.81
275.408	258.81
275.64	254.81
275.872	244.81
276.104	246.81
276.335	240.81
276.567	250.81
276.799	271.81
277.031	298.81
277.262	300.81
277.494	299.81
277.726	277.81
277.957	280.81
278.189	251.81
278.421	273.81
278.652	250.81
278.884	265.81
279.115	243.81
279.347	237.81
279.579	248.81
279.81	257.81
280.042	260.81
280.273	251.81
280.505	254.81
280.736	253.81
280.968	236.81
281.199	240.81
281.431	240.81
281.662	240.81
281.894	251.81
282.125	239.81
282.356	248.81
282.588	268.81
282.819	263.81
283.051	233.81
283.282	225.81
283.513	244.81
283.745	264.81
283.976	259.81
284.207	261.81
284.439	268.81
284.67	257.81
284.901	260.81
285.132	249.81
285.364	261.81
285.595	255.81
285.826	251.81
286.057	244.81
286.288	264.81
286.52	242.81
286.751	235.81
286.982	248.81
287.213	271.81
287.444	248.81
287.675	247.81
287.906	268.81
288.138	273.81
288.369	279.81
288.6	268.81
288.831	289.81
289.062	253.81
289.293	261.81
289.524	268.81
289.755	249.81
289.986	257.81
290.217	241.81
290.448	256.81
290.679	251.81
290.91	257.81
291.141	268.81
291.371	265.81
291.602	269.81
291.833	263.81
292.064	261.81
292.295	241.81
292.526	260.81
292.757	259.81
292.987	259.81
293.218	258.81
293.449	272.81
293.68	255.81
293.91	259.81
294.141	271.81
294.372	278.81
294.603	260.81
294.833	259.81
295.064	263.81
295.295	279.81
295.525	266.81
295.756	264.81
295.987	265.81
296.217	299.81
296.448	303.81
296.679	272.81
296.909	265.81
297.14	264.81
297.37	253.81
297.601	268.81
297.831	272.81
298.062	273.81
298.292	287.81
298.523	271.81
298.753	265.81
298.984	260.81
299.214	265.81
299.445	265.81
299.675	266.81
299.905	284.81
300.136	282.81
300.366	279.81
300.597	287.81
300.827	287.81
301.057	291.81
301.288	288.81
301.518	271.81
301.748	269.81
301.979	298.81
302.209	295.81
302.439	299.81
302.669	296.81
302.9	300.81
303.13	273.81
303.36	282.81
303.59	277.81
303.82	301.81
304.051	295.81
304.281	290.81
304.511	283.81
304.741	303.81
304.971	281.81
305.201	290.81
305.431	293.81
305.661	304.81
305.891	294.81
306.121	291.81
306.352	313.81
306.582	297.81
306.812	309.81
307.042	283.81
307.272	313.81
307.502	305.81
307.731	308.81
307.961	296.81
308.191	284.81
308.421	298.81
308.651	299.81
308.881	313.81
309.111	316.81
309.341	316.81
309.571	305.81
309.8	306.81
310.03	348.81
310.26	339.81
310.49	342.81
310.72	357.81
310.949	358.81
311.179	377.81
311.409	344.81
311.639	330.81
311.868	333.81
312.098	325.81
312.328	357.81
312.557	384.81
312.787	381.81
313.017	356.81
313.246	345.81
313.476	341.81
313.706	352.81
313.935	323.81
314.165	341.81
314.394	375.81
314.624	362.81
314.853	347.81
315.083	334.81
315.312	327.81
315.542	359.81
315.771	332.81
316.001	353.81
316.23	344.81
316.46	339.81
316.689	337.81
316.919	340.81
317.148	347.81
317.377	367.81
317.607	343.81
317.836	349.81
318.065	352.81
318.295	347.81
318.524	353.81
318.753	327.81
318.983	306.81
319.212	333.81
319.441	351.81
319.67	368.81
319.9	343.81
320.129	329.81
320.358	348.81
320.587	340.81
320.816	360.81
321.046	377.81
321.275	379.81
321.504	369.81
321.733	373.81
321.962	370.81
322.191	386.81
322.42	399.81
322.649	412.81
322.878	434.81
323.108	423.81
323.337	445.81
323.566	461.81
323.795	515.81
324.024	550.81
324.253	671.81
324.482	938.81
324.71	1405.81
324.939	2016.81
325.168	1732.81
325.397	923.81
325.626	637.81
325.855	525.81
326.084	479.81
326.313	482.81
326.542	484.81
326.77	528.81
326.999	600.81
327.228	828.81
327.457	1240.81
327.686	1544.81
327.914	1030.81
328.143	711.81
328.372	606.81
328.6	577.81
328.829	539.81
329.058	539.81
329.287	551.81
329.515	516.81
329.744	479.81
329.972	486.81
330.201	486.81
330.43	535.81
330.658	576.81
330.887	611.81
331.115	568.81
331.344	483.81
331.572	463.81
331.801	462.81
332.03	456.81
332.258	439.81
332.486	416.81
332.715	420.81
332.943	421.81
333.172	411.81
333.4	394.81
333.629	423.81
333.857	442.81
334.085	443.81
334.314	447.81
334.542	477.81
334.771	512.81
334.999	463.81
335.227	444.81
335.455	421.81
335.684	411.81
335.912	421.81
336.14	391.81
336.369	396.81
336.597	409.81
336.825	418.81
337.053	433.81
337.281	387.81
337.51	407.81
337.738	399.81
337.966	410.81
338.194	389.81
338.422	417.81
338.65	402.81
338.878	379.81
339.106	389.81
339.334	403.81
339.562	393.81
339.79	396.81
340.018	401.81
340.246	381.81
340.474	396.81
340.702	412.81
340.93	422.81
341.158	383.81
341.386	408.81
341.614	409.81
341.842	398.81
342.07	396.81
342.298	360.81
342.526	385.81
342.754	387.81
342.981	374.81
343.209	379.81
343.437	389.81
343.665	407.81
343.893	400.81
344.12	405.81
344.348	389.81
344.576	408.81
344.804	420.81
345.031	419.81
345.259	403.81
345.487	396.81
345.714	385.81
345.942	383.81
346.17	413.81
346.397	400.81
346.625	393.81
346.853	373.81
347.08	383.81
347.308	378.81
347.535	407.81
347.763	408.81
347.99	411.81
348.218	392.81
348.445	407.81
348.673	423.81
348.9	410.81
349.128	379.81
349.355	364.81
349.583	375.81
349.81	391.81
350.037	390.81
350.265	377.81
350.492	380.81
350.72	372.81
350.947	375.81
351.174	413.81
351.402	397.81
351.629	391.81
351.856	399.81
352.083	397.81
352.311	395.81
352.538	412.81
352.765	412.81
352.992	405.81
353.22	401.81
353.447	373.81
353.674	387.81
353.901	379.81
354.128	373.81
354.355	367.81
354.583	354.81
354.81	355.81
355.037	352.81
355.264	359.81
355.491	348.81
355.718	352.81
355.945	352.81
356.172	371.81
356.399	365.81
356.626	358.81
356.853	363.81
357.08	368.81
357.307	364.81
357.534	373.81
357.761	359.81
357.988	378.81
358.215	381.81
358.441	389.81
358.668	361.81
358.895	376.81
359.122	375.81
359.349	375.81
359.576	403.81
359.802	407.81
360.029	433.81
360.256	457.81
360.483	447.81
360.709	409.81
360.936	385.81
361.163	408.81
361.39	407.81
361.616	404.81
361.843	405.81
362.07	380.81
362.296	407.81
362.523	385.81
362.749	392.81
362.976	380.81
363.203	397.81
363.429	370.81
363.656	391.81
363.882	402.81
364.109	380.81
364.335	383.81
364.562	408.81
364.788	375.81
365.015	369.81
365.241	382.81
365.468	395.81
365.694	366.81
365.92	397.81
366.147	395.81
366.373	401.81
366.599	387.81
366.826	383.81
367.052	379.81
367.278	379.81
367.505	375.81
367.731	392.81
367.957	390.81
368.184	404.81
368.41	401.81
368.636	411.81
368.862	397.81
369.089	377.81
369.315	381.81
369.541	388.81
369.767	389.81
369.993	380.81
370.219	368.81
370.445	373.81
370.672	385.81
370.898	386.81
371.124	375.81
371.35	373.81
371.576	358.81
371.802	368.81
372.028	379.81
372.254	375.81
372.48	386.81
372.706	397.81
372.932	377.81
373.158	388.81
373.384	385.81
373.61	394.81
373.835	391.81
374.061	376.81
374.287	399.81
374.513	397.81
374.739	398.81
374.965	381.81
375.191	387.81
375.416	373.81
375.642	381.81
375.868	401.81
376.094	404.81
376.319	375.81
376.545	391.81
376.771	368.81
376.997	403.81
377.222	408.81
377.448	392.81
377.674	400.81
377.899	385.81
378.125	373.81
378.35	381.81
378.576	377.81
378.802	373.81
379.027	380.81
379.253	372.81
379.478	375.81
379.704	392.81
379.929	393.81
380.155	418.81
380.38	393.81
380.606	393.81
380.831	401.81
381.057	389.81
381.282	391.81
381.507	413.81
381.733	398.81
381.958	419.81
382.184	401.81
382.409	418.81
382.634	419.81
382.86	372.81
383.085	398.81
383.31	394.81
383.535	393.81
383.761	395.81
383.986	424.81
384.211	427.81
384.436	380.81
384.662	389.81
384.887	441.81
385.112	418.81
385.337	407.81
385.562	425.81
385.787	417.81
386.013	424.81
386.238	426.81
386.463	431.81
386.688	435.81
386.913	420.81
387.138	413.81
387.363	409.81
387.588	415.81
387.813	405.81
388.038	416.81
388.263	424.81
388.488	400.81
388.713	406.81
388.938	405.81
389.163	395.81
389.387	407.81
389.612	404.81
389.837	425.81
390.062	426.81
390.287	419.81
390.512	405.81
390.736	395.81
390.961	413.81
391.186	412.81
391.411	433.81
391.636	424.81
391.86	421.81
392.085	411.81
392.31	422.81
392.534	412.81
392.759	439.81
392.984	432.81
393.208	428.81
393.433	451.81
393.658	446.81
393.882	422.81
394.107	405.81
394.331	426.81
394.556	431.81
394.78	403.81
395.005	433.81
395.229	440.81
395.454	442.81
395.678	427.81
395.903	456.81
396.127	462.81
396.352	458.81
396.576	437.81
396.801	457.81
397.025	441.81
397.249	452.81
397.474	437.81
397.698	448.81
397.922	457.81
398.147	469.81
398.371	468.81
398.595	477.81
398.82	484.81
399.044	474.81
399.268	483.81
399.492	521.81
399.717	501.81
399.941	549.81
400.165	583.81
400.389	577.81
400.613	535.81
400.837	520.81
401.062	504.81
401.286	491.81
401.51	497.81
401.734	467.81
401.958	473.81
402.182	491.81
402.406	493.81
402.63	500.81
402.854	493.81
403.078	491.81
403.302	493.81
403.526	485.81
403.75	518.81
403.974	482.81
404.198	500.81
404.422	497.81
404.645	517.81
404.869	501.81
405.093	537.81
405.317	577.81
405.541	607.81
405.765	575.81
405.988	547.81
406.212	542.81
406.436	552.81
406.66	546.81
406.883	559.81
407.107	572.81
407.331	624.81
407.555	679.81
407.778	659.81
408.002	623.81
408.226	596.81
408.449	553.81
408.673	561.81
408.896	569.81
409.12	616.81
409.344	585.81
409.567	529.81
409.791	509.81
410.014	503.81
410.238	526.81
410.461	496.81
410.685	516.81
410.908	533.81
411.132	579.81
411.355	600.81
411.578	565.81
411.802	537.81
412.025	513.81
412.249	519.81
412.472	526.81
412.695	585.81
412.919	557.81
413.142	531.81
413.365	502.81
413.589	508.81
413.812	507.81
414.035	503.81
414.258	460.81
414.482	489.81
414.705	486.81
414.928	480.81
415.151	486.81
415.374	487.81
415.597	475.81
415.821	452.81
416.044	450.81
416.267	493.81
416.49	482.81
416.713	469.81
416.936	475.81
417.159	470.81
417.382	483.81
417.605	514.81
417.828	504.81
418.051	487.81
418.274	503.81
418.497	495.81
418.72	495.81
418.943	492.81
419.166	499.81
419.389	502.81
419.611	501.81
419.834	513.81
420.057	511.81
420.28	538.81
420.503	501.81
420.726	520.81
420.948	524.81
421.171	560.81
421.394	581.81
421.617	532.81
421.839	517.81
422.062	503.81
422.285	543.81
422.507	583.81
422.73	652.81
422.953	641.81
423.175	560.81
423.398	549.81
423.621	541.81
423.843	540.81
424.066	547.81
424.288	553.81
424.511	569.81
424.733	634.81
424.956	699.81
425.178	695.81
425.401	696.81
425.623	679.81
425.846	591.81
426.068	563.81
426.291	579.81
426.513	572.81
426.735	577.81
426.958	629.81
427.18	677.81
427.402	787.81
427.625	905.81
427.847	795.81
428.069	693.81
428.292	594.81
428.514	554.81
428.736	576.81
428.958	537.81
429.181	539.81
429.403	537.81
429.625	545.81
429.847	577.81
430.069	633.81
430.292	619.81
430.514	527.81
430.736	513.81
430.958	514.81
431.18	488.81
431.402	523.81
431.624	489.81
431.846	474.81
432.068	484.81
432.29	498.81
432.512	501.81
432.734	501.81
432.956	492.81
433.178	518.81
433.4	504.81
433.622	490.81
433.844	471.81
434.066	475.81
434.287	468.81
434.509	484.81
434.731	490.81
434.953	527.81
435.175	512.81
435.397	536.81
435.618	553.81
435.84	602.81
436.062	687.81
436.284	764.81
436.505	648.81
436.727	595.81
436.949	537.81
437.17	513.81
437.392	519.81
437.614	541.81
437.835	557.81
438.057	693.81
438.278	750.81
438.5	775.81
438.721	818.81
438.943	797.81
439.165	666.81
439.386	596.81
439.608	585.81
439.829	580.81
440.05	586.81
440.272	625.81
440.493	601.81
440.715	561.81
440.936	559.81
441.158	545.81
441.379	545.81
441.6	543.81
441.822	562.81
442.043	608.81
442.264	676.81
442.486	714.81
442.707	628.81
442.928	580.81
443.149	589.81
443.371	619.81
443.592	665.81
443.813	748.81
444.034	790.81
444.255	659.81
444.476	586.81
444.698	567.81
444.919	571.81
445.14	629.81
445.361	604.81
445.582	628.81
445.803	664.81
446.024	776.81
446.245	804.81
446.466	717.81
446.687	628.81
446.908	596.81
447.129	546.81
447.35	519.81
447.571	525.81
447.792	526.81
448.013	519.81
448.234	555.81
448.455	606.81
448.675	705.81
448.896	799.81
449.117	687.81
449.338	673.81
449.559	767.81
449.779	857.81
450	689.81
450.221	602.81
450.442	557.81
450.662	524.81
450.883	526.81
451.104	541.81
451.324	510.81
451.545	490.81
451.766	487.81
451.986	489.81
452.207	484.81
452.428	464.81
452.648	468.81
452.869	472.81
453.089	483.81
453.31	495.81
453.53	467.81
453.751	474.81
453.971	496.81
454.192	504.81
454.412	462.81
454.633	483.81
454.853	468.81
455.073	457.81
455.294	478.81
455.514	543.81
455.734	569.81
455.955	477.81
456.175	462.81
456.395	443.81
456.616	428.81
456.836	433.81
457.056	425.81
457.276	413.81
457.497	416.81
457.717	452.81
457.937	426.81
458.157	435.81
458.377	444.81
458.598	497.81
458.818	542.81
459.038	605.81
459.258	620.81
459.478	541.81
459.698	520.81
459.918	498.81
460.138	455.81
460.358	471.81
460.578	490.81
460.798	480.81
461.018	497.81
461.238	484.81
461.458	484.81
461.678	489.81
461.898	455.81
462.118	463.81
462.338	498.81
462.558	484.81
462.777	498.81
462.997	515.81
463.217	512.81
463.437	521.81
463.657	498.81
463.876	523.81
464.096	509.81
464.316	505.81
464.536	503.81
464.755	539.81
464.975	544.81
465.195	589.81
465.414	660.81
465.634	577.81
465.854	512.81
466.073	540.81
466.293	476.81
466.512	476.81
466.732	457.81
466.951	477.81
467.171	484.81
467.391	505.81
467.61	507.81
467.829	487.81
468.049	467.81
468.268	484.81
468.488	484.81
468.707	457.81
468.927	449.81
469.146	468.81
469.365	468.81
469.585	480.81
469.804	483.81
470.023	501.81
470.243	482.81
470.462	481.81
470.681	523.81
470.901	485.81
471.12	492.81
471.339	482.81
471.558	487.81
471.777	507.81
471.997	479.81
472.216	499.81
472.435	514.81
472.654	504.81
472.873	506.81
473.092	488.81
473.311	489.81
473.53	509.81
473.749	513.81
473.968	529.81
474.187	637.81
474.406	628.81
474.625	538.81
474.844	483.81
475.063	509.81
475.282	482.81
475.501	501.81
475.72	489.81
475.939	506.81
476.158	523.81
476.377	511.81
476.596	492.81
476.814	511.81
477.033	503.81
477.252	533.81
477.471	527.81
477.69	528.81
477.908	533.81
478.127	531.81
478.346	542.81
478.564	537.81
478.783	559.81
479.002	551.81
479.22	543.81
479.439	575.81
479.658	591.81
479.876	611.81
480.095	609.81
480.313	623.81
480.532	603.81
480.751	612.81
480.969	587.81
481.188	672.81
481.406	682.81
481.624	624.81
481.843	605.81
482.061	606.81
482.28	593.81
482.498	574.81
482.717	551.81
482.935	616.81
483.153	575.81
483.372	585.81
483.59	589.81
483.808	579.81
484.027	567.81
484.245	583.81
484.463	609.81
484.681	612.81
484.9	590.81
485.118	583.81
485.336	597.81
485.554	600.81
485.772	606.81
485.99	600.81
486.209	599.81
486.427	606.81
486.645	602.81
486.863	650.81
487.081	641.81
487.299	635.81
487.517	620.81
487.735	644.81
487.953	645.81
488.171	658.81
488.389	630.81
488.607	647.81
488.825	608.81
489.043	635.81
489.261	659.81
489.479	658.81
489.696	645.81
489.914	654.81
490.132	655.81
490.35	653.81
490.568	673.81
490.786	691.81
491.003	695.81
491.221	720.81
491.439	737.81
491.657	745.81
491.874	732.81
492.092	728.81
492.31	746.81
492.527	767.81
492.745	763.81
492.963	765.81
493.18	735.81
493.398	775.81
493.615	774.81
493.833	775.81
494.05	770.81
494.268	763.81
494.485	768.81
494.703	759.81
494.92	754.81
495.138	765.81
495.355	773.81
495.573	794.81
495.79	760.81
496.008	790.81
496.225	739.81
496.442	757.81
496.66	776.81
496.877	774.81
497.094	778.81
497.312	749.81
497.529	793.81
497.746	797.81
497.963	797.81
498.181	805.81
498.398	808.81
498.615	827.81
498.832	831.81
499.049	849.81
499.267	824.81
499.484	864.81
499.701	884.81
499.918	932.81
500.135	931.81
500.352	955.81
500.569	969.81
500.786	981.81
501.003	964.81
501.22	942.81
501.437	924.81
501.654	918.81
501.871	929.81
