Data from 1970.PennyLincolnUp.Lamp.En5.5.200Scan.071719.P1._HRD10591_15-14-11-842.txt Node
Date: Thu Jul 18 15:14:11 EDT 2019
User: cochatt
Spectrometer: HR+D1059
Trigger mode: 1
Integration Time (sec): 1.000000E-1
Scans to average: 1
Electric dark correction enabled: true
Nonlinearity correction enabled: false
Boxcar width: 0
XAxis mode: Wavelengths
Number of Pixels in Spectrum: 2048
>>>>>Begin Spectral Data<<<<<
223.165	-12.88
223.4	-12.88
223.635	-12.88
223.869	-19.88
224.104	-15.88
224.338	-20.88
224.573	-6.88
224.808	-8.88
225.042	-22.88
225.277	-22.88
225.511	-0.88
225.746	7.12
225.98	-5.88
226.215	23.12
226.449	19.12
226.683	25.12
226.918	28.12
227.152	35.12
227.387	28.12
227.621	56.12
227.856	47.12
228.09	51.12
228.324	52.12
228.559	62.12
228.793	73.12
229.027	106.12
229.262	127.12
229.496	117.12
229.73	153.12
229.964	174.12
230.199	148.12
230.433	143.12
230.667	105.12
230.901	126.12
231.136	135.12
231.37	123.12
231.604	116.12
231.838	119.12
232.072	104.12
232.306	118.12
232.541	117.12
232.775	125.12
233.009	120.12
233.243	97.12
233.477	106.12
233.711	120.12
233.945	121.12
234.179	138.12
234.413	134.12
234.647	123.12
234.881	129.12
235.115	136.12
235.349	136.12
235.583	126.12
235.817	129.12
236.051	139.12
236.285	133.12
236.519	128.12
236.753	143.12
236.987	165.12
237.221	199.12
237.455	262.12
237.689	220.12
237.922	144.12
238.156	155.12
238.39	144.12
238.624	146.12
238.858	139.12
239.091	133.12
239.325	137.12
239.559	143.12
239.793	139.12
240.027	144.12
240.26	150.12
240.494	158.12
240.728	153.12
240.961	159.12
241.195	174.12
241.429	164.12
241.662	140.12
241.896	142.12
242.13	149.12
242.363	129.12
242.597	139.12
242.83	149.12
243.064	146.12
243.298	149.12
243.531	151.12
243.765	137.12
243.998	138.12
244.232	157.12
244.465	155.12
244.699	148.12
244.932	140.12
245.166	148.12
245.399	156.12
245.633	155.12
245.866	155.12
246.099	160.12
246.333	157.12
246.566	170.12
246.8	151.12
247.033	162.12
247.266	168.12
247.5	180.12
247.733	190.12
247.966	196.12
248.2	185.12
248.433	193.12
248.666	189.12
248.899	195.12
249.133	204.12
249.366	209.12
249.599	213.12
249.832	205.12
250.066	204.12
250.299	218.12
250.532	222.12
250.765	223.12
250.998	244.12
251.231	222.12
251.465	230.12
251.698	223.12
251.931	223.12
252.164	221.12
252.397	223.12
252.63	208.12
252.863	220.12
253.096	247.12
253.329	248.12
253.562	250.12
253.795	232.12
254.028	245.12
254.261	238.12
254.494	234.12
254.727	283.12
254.96	312.12
255.193	304.12
255.426	272.12
255.659	252.12
255.892	261.12
256.124	247.12
256.357	255.12
256.59	240.12
256.823	221.12
257.056	233.12
257.289	239.12
257.521	238.12
257.754	221.12
257.987	225.12
258.22	226.12
258.452	227.12
258.685	229.12
258.918	213.12
259.151	227.12
259.383	222.12
259.616	225.12
259.849	228.12
260.081	247.12
260.314	274.12
260.547	279.12
260.779	274.12
261.012	254.12
261.244	234.12
261.477	238.12
261.71	240.12
261.942	238.12
262.175	270.12
262.407	240.12
262.64	227.12
262.872	214.12
263.105	224.12
263.337	236.12
263.57	221.12
263.802	210.12
264.035	224.12
264.267	222.12
264.499	213.12
264.732	235.12
264.964	229.12
265.197	217.12
265.429	231.12
265.661	225.12
265.894	219.12
266.126	229.12
266.358	219.12
266.591	226.12
266.823	233.12
267.055	227.12
267.287	235.12
267.52	222.12
267.752	239.12
267.984	235.12
268.216	230.12
268.448	228.12
268.681	257.12
268.913	238.12
269.145	266.12
269.377	293.12
269.609	286.12
269.841	273.12
270.073	272.12
270.306	309.12
270.538	339.12
270.77	326.12
271.002	324.12
271.234	318.12
271.466	311.12
271.698	311.12
271.93	332.12
272.162	328.12
272.394	316.12
272.626	315.12
272.858	305.12
273.09	286.12
273.322	288.12
273.553	282.12
273.785	273.12
274.017	263.12
274.249	282.12
274.481	248.12
274.713	259.12
274.945	281.12
275.176	271.12
275.408	274.12
275.64	273.12
275.872	273.12
276.104	278.12
276.335	259.12
276.567	287.12
276.799	282.12
277.031	303.12
277.262	335.12
277.494	328.12
277.726	312.12
277.957	291.12
278.189	279.12
278.421	276.12
278.652	264.12
278.884	265.12
279.115	283.12
279.347	261.12
279.579	277.12
279.81	270.12
280.042	270.12
280.273	256.12
280.505	272.12
280.736	255.12
280.968	271.12
281.199	253.12
281.431	259.12
281.662	251.12
281.894	270.12
282.125	252.12
282.356	261.12
282.588	305.12
282.819	302.12
283.051	264.12
283.282	259.12
283.513	255.12
283.745	272.12
283.976	269.12
284.207	280.12
284.439	276.12
284.67	278.12
284.901	271.12
285.132	259.12
285.364	262.12
285.595	261.12
285.826	286.12
286.057	271.12
286.288	252.12
286.52	269.12
286.751	265.12
286.982	275.12
287.213	261.12
287.444	268.12
287.675	277.12
287.906	273.12
288.138	304.12
288.369	293.12
288.6	288.12
288.831	281.12
289.062	298.12
289.293	279.12
289.524	255.12
289.755	273.12
289.986	261.12
290.217	278.12
290.448	287.12
290.679	272.12
290.91	268.12
291.141	272.12
291.371	279.12
291.602	270.12
291.833	272.12
292.064	255.12
292.295	264.12
292.526	263.12
292.757	289.12
292.987	284.12
293.218	285.12
293.449	276.12
293.68	273.12
293.91	264.12
294.141	280.12
294.372	299.12
294.603	277.12
294.833	284.12
295.064	299.12
295.295	265.12
295.525	272.12
295.756	292.12
295.987	295.12
296.217	315.12
296.448	347.12
296.679	299.12
296.909	288.12
297.14	279.12
297.37	295.12
297.601	285.12
297.831	281.12
298.062	280.12
298.292	264.12
298.523	295.12
298.753	292.12
298.984	289.12
299.214	286.12
299.445	271.12
299.675	286.12
299.905	296.12
300.136	292.12
300.366	294.12
300.597	294.12
300.827	311.12
301.057	327.12
301.288	321.12
301.518	318.12
301.748	295.12
301.979	314.12
302.209	309.12
302.439	332.12
302.669	315.12
302.9	322.12
303.13	308.12
303.36	311.12
303.59	334.12
303.82	333.12
304.051	317.12
304.281	310.12
304.511	304.12
304.741	301.12
304.971	288.12
305.201	313.12
305.431	304.12
305.661	317.12
305.891	309.12
306.121	320.12
306.352	329.12
306.582	334.12
306.812	336.12
307.042	319.12
307.272	333.12
307.502	331.12
307.731	329.12
307.961	336.12
308.191	333.12
308.421	312.12
308.651	326.12
308.881	315.12
309.111	345.12
309.341	332.12
309.571	333.12
309.8	337.12
310.03	371.12
310.26	352.12
310.49	353.12
310.72	378.12
310.949	383.12
311.179	401.12
311.409	353.12
311.639	348.12
311.868	361.12
312.098	356.12
312.328	372.12
312.557	405.12
312.787	425.12
313.017	402.12
313.246	389.12
313.476	381.12
313.706	359.12
313.935	391.12
314.165	377.12
314.394	396.12
314.624	406.12
314.853	383.12
315.083	368.12
315.312	348.12
315.542	371.12
315.771	364.12
316.001	361.12
316.23	350.12
316.46	353.12
316.689	392.12
316.919	373.12
317.148	373.12
317.377	362.12
317.607	379.12
317.836	369.12
318.065	375.12
318.295	377.12
318.524	358.12
318.753	361.12
318.983	361.12
319.212	360.12
319.441	382.12
319.67	383.12
319.9	372.12
320.129	371.12
320.358	376.12
320.587	374.12
320.816	386.12
321.046	403.12
321.275	399.12
321.504	389.12
321.733	385.12
321.962	421.12
322.191	413.12
322.42	422.12
322.649	449.12
322.878	460.12
323.108	478.12
323.337	510.12
323.566	525.12
323.795	545.12
324.024	623.12
324.253	765.12
324.482	1009.12
324.71	1605.12
324.939	2282.12
325.168	2019.12
325.397	1056.12
325.626	721.12
325.855	589.12
326.084	532.12
326.313	526.12
326.542	503.12
326.77	571.12
326.999	691.12
327.228	927.12
327.457	1421.12
327.686	1728.12
327.914	1166.12
328.143	787.12
328.372	672.12
328.6	651.12
328.829	592.12
329.058	637.12
329.287	634.12
329.515	583.12
329.744	539.12
329.972	539.12
330.201	558.12
330.43	594.12
330.658	643.12
330.887	634.12
331.115	659.12
331.344	540.12
331.572	521.12
331.801	519.12
332.03	496.12
332.258	479.12
332.486	460.12
332.715	435.12
332.943	450.12
333.172	432.12
333.4	459.12
333.629	460.12
333.857	463.12
334.085	489.12
334.314	502.12
334.542	519.12
334.771	571.12
334.999	506.12
335.227	497.12
335.455	447.12
335.684	475.12
335.912	452.12
336.14	417.12
336.369	439.12
336.597	469.12
336.825	431.12
337.053	432.12
337.281	431.12
337.51	432.12
337.738	444.12
337.966	437.12
338.194	447.12
338.422	446.12
338.65	436.12
338.878	412.12
339.106	436.12
339.334	423.12
339.562	431.12
339.79	415.12
340.018	414.12
340.246	412.12
340.474	423.12
340.702	421.12
340.93	414.12
341.158	427.12
341.386	420.12
341.614	437.12
341.842	427.12
342.07	423.12
342.298	413.12
342.526	408.12
342.754	408.12
342.981	398.12
343.209	428.12
343.437	424.12
343.665	421.12
343.893	432.12
344.12	414.12
344.348	423.12
344.576	432.12
344.804	429.12
345.031	461.12
345.259	461.12
345.487	461.12
345.714	441.12
345.942	413.12
346.17	425.12
346.397	436.12
346.625	427.12
346.853	419.12
347.08	410.12
347.308	429.12
347.535	421.12
347.763	429.12
347.99	450.12
348.218	445.12
348.445	437.12
348.673	448.12
348.9	429.12
349.128	414.12
349.355	404.12
349.583	409.12
349.81	420.12
350.037	393.12
350.265	407.12
350.492	389.12
350.72	400.12
350.947	410.12
351.174	414.12
351.402	425.12
351.629	443.12
351.856	428.12
352.083	442.12
352.311	444.12
352.538	453.12
352.765	444.12
352.992	438.12
353.22	432.12
353.447	408.12
353.674	428.12
353.901	419.12
354.128	385.12
354.355	398.12
354.583	392.12
354.81	387.12
355.037	394.12
355.264	386.12
355.491	395.12
355.718	392.12
355.945	394.12
356.172	364.12
356.399	381.12
356.626	384.12
356.853	396.12
357.08	382.12
357.307	393.12
357.534	382.12
357.761	392.12
357.988	402.12
358.215	409.12
358.441	401.12
358.668	406.12
358.895	407.12
359.122	422.12
359.349	418.12
359.576	439.12
359.802	462.12
360.029	490.12
360.256	504.12
360.483	461.12
360.709	439.12
360.936	441.12
361.163	440.12
361.39	448.12
361.616	428.12
361.843	417.12
362.07	432.12
362.296	424.12
362.523	414.12
362.749	431.12
362.976	424.12
363.203	413.12
363.429	425.12
363.656	400.12
363.882	413.12
364.109	400.12
364.335	414.12
364.562	403.12
364.788	399.12
365.015	416.12
365.241	412.12
365.468	411.12
365.694	431.12
365.92	415.12
366.147	425.12
366.373	410.12
366.599	379.12
366.826	391.12
367.052	409.12
367.278	412.12
367.505	404.12
367.731	421.12
367.957	408.12
368.184	408.12
368.41	433.12
368.636	438.12
368.862	416.12
369.089	414.12
369.315	426.12
369.541	412.12
369.767	414.12
369.993	392.12
370.219	408.12
370.445	391.12
370.672	393.12
370.898	403.12
371.124	423.12
371.35	404.12
371.576	394.12
371.802	402.12
372.028	426.12
372.254	402.12
372.48	396.12
372.706	418.12
372.932	405.12
373.158	406.12
373.384	424.12
373.61	400.12
373.835	394.12
374.061	404.12
374.287	405.12
374.513	417.12
374.739	415.12
374.965	428.12
375.191	389.12
375.416	422.12
375.642	419.12
375.868	410.12
376.094	405.12
376.319	415.12
376.545	413.12
376.771	395.12
376.997	401.12
377.222	405.12
377.448	414.12
377.674	408.12
377.899	404.12
378.125	392.12
378.35	401.12
378.576	410.12
378.802	399.12
379.027	383.12
379.253	389.12
379.478	401.12
379.704	402.12
379.929	412.12
380.155	415.12
380.38	406.12
380.606	410.12
380.831	410.12
381.057	413.12
381.282	423.12
381.507	421.12
381.733	403.12
381.958	399.12
382.184	393.12
382.409	412.12
382.634	412.12
382.86	440.12
383.085	427.12
383.31	423.12
383.535	432.12
383.761	418.12
383.986	420.12
384.211	449.12
384.436	407.12
384.662	431.12
384.887	420.12
385.112	441.12
385.337	430.12
385.562	441.12
385.787	426.12
386.013	441.12
386.238	463.12
386.463	455.12
386.688	437.12
386.913	432.12
387.138	425.12
387.363	424.12
387.588	432.12
387.813	448.12
388.038	439.12
388.263	420.12
388.488	443.12
388.713	451.12
388.938	440.12
389.163	441.12
389.387	445.12
389.612	423.12
389.837	460.12
390.062	437.12
390.287	438.12
390.512	452.12
390.736	439.12
390.961	422.12
391.186	428.12
391.411	429.12
391.636	439.12
391.86	438.12
392.085	444.12
392.31	431.12
392.534	441.12
392.759	440.12
392.984	464.12
393.208	443.12
393.433	455.12
393.658	457.12
393.882	447.12
394.107	464.12
394.331	440.12
394.556	453.12
394.78	423.12
395.005	433.12
395.229	447.12
395.454	484.12
395.678	459.12
395.903	460.12
396.127	509.12
396.352	519.12
396.576	482.12
396.801	465.12
397.025	479.12
397.249	495.12
397.474	471.12
397.698	460.12
397.922	477.12
398.147	494.12
398.371	515.12
398.595	496.12
398.82	499.12
399.044	521.12
399.268	527.12
399.492	512.12
399.717	551.12
399.941	608.12
400.165	616.12
400.389	630.12
400.613	577.12
400.837	519.12
401.062	513.12
401.286	507.12
401.51	508.12
401.734	501.12
401.958	509.12
402.182	512.12
402.406	528.12
402.63	542.12
402.854	516.12
403.078	509.12
403.302	522.12
403.526	511.12
403.75	533.12
403.974	533.12
404.198	533.12
404.422	528.12
404.645	531.12
404.869	520.12
405.093	565.12
405.317	605.12
405.541	638.12
405.765	577.12
405.988	583.12
406.212	558.12
406.436	599.12
406.66	624.12
406.883	573.12
407.107	599.12
407.331	641.12
407.555	689.12
407.778	697.12
408.002	656.12
408.226	613.12
408.449	598.12
408.673	592.12
408.896	606.12
409.12	639.12
409.344	625.12
409.567	564.12
409.791	573.12
410.014	529.12
410.238	542.12
410.461	539.12
410.685	529.12
410.908	541.12
411.132	598.12
411.355	647.12
411.578	585.12
411.802	555.12
412.025	525.12
412.249	552.12
412.472	576.12
412.695	612.12
412.919	584.12
413.142	573.12
413.365	554.12
413.589	521.12
413.812	518.12
414.035	505.12
414.258	523.12
414.482	518.12
414.705	484.12
414.928	480.12
415.151	503.12
415.374	497.12
415.597	517.12
415.821	526.12
416.044	515.12
416.267	525.12
416.49	509.12
416.713	508.12
416.936	513.12
417.159	520.12
417.382	516.12
417.605	529.12
417.828	524.12
418.051	554.12
418.274	533.12
418.497	509.12
418.72	513.12
418.943	512.12
419.166	516.12
419.389	553.12
419.611	544.12
419.834	555.12
420.057	539.12
420.28	549.12
420.503	540.12
420.726	535.12
420.948	547.12
421.171	612.12
421.394	632.12
421.617	579.12
421.839	557.12
422.062	557.12
422.285	546.12
422.507	616.12
422.73	707.12
422.953	655.12
423.175	600.12
423.398	541.12
423.621	565.12
423.843	564.12
424.066	582.12
424.288	574.12
424.511	620.12
424.733	661.12
424.956	746.12
425.178	703.12
425.401	720.12
425.623	740.12
425.846	626.12
426.068	610.12
426.291	593.12
426.513	592.12
426.735	606.12
426.958	652.12
427.18	743.12
427.402	848.12
427.625	916.12
427.847	843.12
428.069	736.12
428.292	683.12
428.514	606.12
428.736	578.12
428.958	580.12
429.181	559.12
429.403	541.12
429.625	579.12
429.847	616.12
430.069	665.12
430.292	667.12
430.514	588.12
430.736	537.12
430.958	541.12
431.18	552.12
431.402	523.12
431.624	499.12
431.846	519.12
432.068	492.12
432.29	517.12
432.512	519.12
432.734	530.12
432.956	522.12
433.178	539.12
433.4	551.12
433.622	528.12
433.844	503.12
434.066	513.12
434.287	526.12
434.509	510.12
434.731	541.12
434.953	537.12
435.175	561.12
435.397	584.12
435.618	616.12
435.84	657.12
436.062	738.12
436.284	811.12
436.505	707.12
436.727	620.12
436.949	606.12
437.17	584.12
437.392	573.12
437.614	577.12
437.835	613.12
438.057	737.12
438.278	825.12
438.5	805.12
438.721	895.12
438.943	853.12
439.165	684.12
439.386	643.12
439.608	636.12
439.829	614.12
440.05	651.12
440.272	698.12
440.493	647.12
440.715	617.12
440.936	583.12
441.158	563.12
441.379	563.12
441.6	576.12
441.822	599.12
442.043	644.12
442.264	727.12
442.486	747.12
442.707	658.12
442.928	638.12
443.149	631.12
443.371	634.12
443.592	699.12
443.813	742.12
444.034	805.12
444.255	693.12
444.476	635.12
444.698	619.12
444.919	579.12
445.14	719.12
445.361	665.12
445.582	666.12
445.803	702.12
446.024	793.12
446.245	833.12
446.466	764.12
446.687	665.12
446.908	610.12
447.129	581.12
447.35	555.12
447.571	568.12
447.792	539.12
448.013	578.12
448.234	604.12
448.455	639.12
448.675	757.12
448.896	837.12
449.117	768.12
449.338	736.12
449.559	800.12
449.779	878.12
450	727.12
450.221	625.12
450.442	569.12
450.662	574.12
450.883	555.12
451.104	560.12
451.324	559.12
451.545	557.12
451.766	524.12
451.986	518.12
452.207	498.12
452.428	515.12
452.648	480.12
452.869	487.12
453.089	541.12
453.31	541.12
453.53	525.12
453.751	494.12
453.971	516.12
454.192	533.12
454.412	503.12
454.633	520.12
454.853	494.12
455.073	510.12
455.294	528.12
455.514	614.12
455.734	601.12
455.955	513.12
456.175	484.12
456.395	483.12
456.616	460.12
456.836	456.12
457.056	468.12
457.276	436.12
457.497	461.12
457.717	464.12
457.937	497.12
458.157	474.12
458.377	504.12
458.598	496.12
458.818	565.12
459.038	675.12
459.258	664.12
459.478	583.12
459.698	529.12
459.918	501.12
460.138	491.12
460.358	502.12
460.578	515.12
460.798	509.12
461.018	514.12
461.238	520.12
461.458	502.12
461.678	480.12
461.898	494.12
462.118	520.12
462.338	511.12
462.558	543.12
462.777	510.12
462.997	545.12
463.217	538.12
463.437	563.12
463.657	531.12
463.876	541.12
464.096	531.12
464.316	551.12
464.536	553.12
464.755	555.12
464.975	548.12
465.195	611.12
465.414	695.12
465.634	607.12
465.854	579.12
466.073	563.12
466.293	528.12
466.512	517.12
466.732	523.12
466.951	509.12
467.171	524.12
467.391	494.12
467.61	533.12
467.829	541.12
468.049	538.12
468.268	521.12
468.488	543.12
468.707	497.12
468.927	503.12
469.146	505.12
469.365	499.12
469.585	510.12
469.804	512.12
470.023	509.12
470.243	515.12
470.462	503.12
470.681	537.12
470.901	536.12
471.12	506.12
471.339	507.12
471.558	510.12
471.777	496.12
471.997	515.12
472.216	528.12
472.435	601.12
472.654	533.12
472.873	536.12
473.092	539.12
473.311	513.12
473.53	524.12
473.749	546.12
473.968	554.12
474.187	664.12
474.406	717.12
474.625	599.12
474.844	533.12
475.063	536.12
475.282	527.12
475.501	539.12
475.72	550.12
475.939	528.12
476.158	509.12
476.377	541.12
476.596	525.12
476.814	548.12
477.033	548.12
477.252	551.12
477.471	572.12
477.69	556.12
477.908	563.12
478.127	549.12
478.346	585.12
478.564	551.12
478.783	567.12
479.002	592.12
479.22	577.12
479.439	590.12
479.658	637.12
479.876	605.12
480.095	625.12
480.313	650.12
480.532	671.12
480.751	645.12
480.969	644.12
481.188	715.12
481.406	800.12
481.624	705.12
481.843	652.12
482.061	618.12
482.28	639.12
482.498	634.12
482.717	644.12
482.935	612.12
483.153	594.12
483.372	606.12
483.59	620.12
483.808	607.12
484.027	601.12
484.245	620.12
484.463	624.12
484.681	634.12
484.9	646.12
485.118	657.12
485.336	630.12
485.554	653.12
485.772	622.12
485.99	634.12
486.209	637.12
486.427	654.12
486.645	645.12
486.863	698.12
487.081	680.12
487.299	680.12
487.517	675.12
487.735	668.12
487.953	657.12
488.171	677.12
488.389	682.12
488.607	664.12
488.825	700.12
489.043	691.12
489.261	688.12
489.479	684.12
489.696	684.12
489.914	696.12
490.132	688.12
490.35	709.12
490.568	709.12
490.786	741.12
491.003	739.12
491.221	745.12
491.439	779.12
491.657	791.12
491.874	795.12
492.092	788.12
492.31	779.12
492.527	783.12
492.745	781.12
492.963	781.12
493.18	808.12
493.398	798.12
493.615	808.12
493.833	814.12
494.05	805.12
494.268	786.12
494.485	812.12
494.703	822.12
494.92	807.12
495.138	810.12
495.355	821.12
495.573	809.12
495.79	812.12
496.008	823.12
496.225	819.12
496.442	815.12
496.66	814.12
496.877	800.12
497.094	816.12
497.312	840.12
497.529	826.12
497.746	816.12
497.963	841.12
498.181	838.12
498.398	863.12
498.615	876.12
498.832	862.12
499.049	871.12
499.267	881.12
499.484	912.12
499.701	942.12
499.918	961.12
500.135	956.12
500.352	986.12
500.569	999.12
500.786	1002.12
501.003	1008.12
501.22	988.12
501.437	977.12
501.654	970.12
501.871	969.12
