Data from 1970.PennyLincolnUp.Lamp.En5.5.200Scan.071719.P1._HRD10591_15-15-40-841.txt Node
Date: Thu Jul 18 15:15:40 EDT 2019
User: cochatt
Spectrometer: HR+D1059
Trigger mode: 1
Integration Time (sec): 1.000000E-1
Scans to average: 1
Electric dark correction enabled: true
Nonlinearity correction enabled: false
Boxcar width: 0
XAxis mode: Wavelengths
Number of Pixels in Spectrum: 2048
>>>>>Begin Spectral Data<<<<<
223.165	0.56
223.4	0.56
223.635	0.56
223.869	-6.44
224.104	-20.44
224.338	-12.44
224.573	3.56
224.808	1.56
225.042	-13.44
225.277	-16.44
225.511	-1.44
225.746	-0.44
225.98	-5.44
226.215	3.56
226.449	4.56
226.683	7.56
226.918	27.56
227.152	27.56
227.387	37.56
227.621	29.56
227.856	43.56
228.09	47.56
228.324	45.56
228.559	55.56
228.793	57.56
229.027	115.56
229.262	117.56
229.496	135.56
229.73	156.56
229.964	175.56
230.199	148.56
230.433	139.56
230.667	109.56
230.901	109.56
231.136	111.56
231.37	120.56
231.604	131.56
231.838	110.56
232.072	111.56
232.306	121.56
232.541	136.56
232.775	108.56
233.009	106.56
233.243	130.56
233.477	109.56
233.711	118.56
233.945	119.56
234.179	117.56
234.413	118.56
234.647	138.56
234.881	133.56
235.115	137.56
235.349	124.56
235.583	110.56
235.817	120.56
236.051	131.56
236.285	133.56
236.519	130.56
236.753	140.56
236.987	164.56
237.221	217.56
237.455	273.56
237.689	228.56
237.922	167.56
238.156	149.56
238.39	131.56
238.624	125.56
238.858	130.56
239.091	141.56
239.325	153.56
239.559	130.56
239.793	139.56
240.027	142.56
240.26	157.56
240.494	163.56
240.728	161.56
240.961	162.56
241.195	149.56
241.429	159.56
241.662	158.56
241.896	151.56
242.13	140.56
242.363	145.56
242.597	150.56
242.83	135.56
243.064	140.56
243.298	150.56
243.531	147.56
243.765	157.56
243.998	149.56
244.232	150.56
244.465	154.56
244.699	162.56
244.932	138.56
245.166	149.56
245.399	145.56
245.633	153.56
245.866	161.56
246.099	163.56
246.333	154.56
246.566	149.56
246.8	168.56
247.033	173.56
247.266	156.56
247.5	183.56
247.733	181.56
247.966	199.56
248.2	183.56
248.433	190.56
248.666	191.56
248.899	199.56
249.133	215.56
249.366	221.56
249.599	211.56
249.832	196.56
250.066	208.56
250.299	195.56
250.532	207.56
250.765	230.56
250.998	255.56
251.231	263.56
251.465	252.56
251.698	219.56
251.931	226.56
252.164	223.56
252.397	228.56
252.63	218.56
252.863	248.56
253.096	249.56
253.329	252.56
253.562	264.56
253.795	239.56
254.028	268.56
254.261	245.56
254.494	263.56
254.727	286.56
254.96	313.56
255.193	291.56
255.426	274.56
255.659	265.56
255.892	274.56
256.124	265.56
256.357	251.56
256.59	270.56
256.823	257.56
257.056	253.56
257.289	242.56
257.521	239.56
257.754	245.56
257.987	243.56
258.22	250.56
258.452	234.56
258.685	241.56
258.918	229.56
259.151	230.56
259.383	224.56
259.616	237.56
259.849	261.56
260.081	254.56
260.314	276.56
260.547	301.56
260.779	294.56
261.012	261.56
261.244	251.56
261.477	242.56
261.71	238.56
261.942	241.56
262.175	269.56
262.407	246.56
262.64	222.56
262.872	227.56
263.105	225.56
263.337	226.56
263.57	211.56
263.802	211.56
264.035	244.56
264.267	234.56
264.499	220.56
264.732	223.56
264.964	219.56
265.197	224.56
265.429	218.56
265.661	229.56
265.894	220.56
266.126	238.56
266.358	234.56
266.591	230.56
266.823	241.56
267.055	251.56
267.287	225.56
267.52	242.56
267.752	257.56
267.984	235.56
268.216	243.56
268.448	267.56
268.681	238.56
268.913	271.56
269.145	277.56
269.377	292.56
269.609	287.56
269.841	294.56
270.073	279.56
270.306	316.56
270.538	349.56
270.77	337.56
271.002	314.56
271.234	335.56
271.466	341.56
271.698	343.56
271.93	334.56
272.162	325.56
272.394	338.56
272.626	328.56
272.858	316.56
273.09	293.56
273.322	291.56
273.553	290.56
273.785	281.56
274.017	281.56
274.249	285.56
274.481	267.56
274.713	269.56
274.945	284.56
275.176	276.56
275.408	290.56
275.64	287.56
275.872	286.56
276.104	281.56
276.335	279.56
276.567	303.56
276.799	294.56
277.031	339.56
277.262	350.56
277.494	328.56
277.726	334.56
277.957	318.56
278.189	301.56
278.421	296.56
278.652	277.56
278.884	278.56
279.115	271.56
279.347	273.56
279.579	271.56
279.81	274.56
280.042	293.56
280.273	289.56
280.505	266.56
280.736	277.56
280.968	276.56
281.199	281.56
281.431	274.56
281.662	284.56
281.894	278.56
282.125	280.56
282.356	288.56
282.588	344.56
282.819	321.56
283.051	281.56
283.282	281.56
283.513	262.56
283.745	291.56
283.976	274.56
284.207	284.56
284.439	293.56
284.67	292.56
284.901	293.56
285.132	279.56
285.364	282.56
285.595	280.56
285.826	291.56
286.057	273.56
286.288	271.56
286.52	286.56
286.751	281.56
286.982	300.56
287.213	278.56
287.444	297.56
287.675	289.56
287.906	310.56
288.138	307.56
288.369	298.56
288.6	306.56
288.831	293.56
289.062	300.56
289.293	306.56
289.524	300.56
289.755	305.56
289.986	310.56
290.217	283.56
290.448	277.56
290.679	292.56
290.91	278.56
291.141	284.56
291.371	283.56
291.602	286.56
291.833	285.56
292.064	291.56
292.295	298.56
292.526	294.56
292.757	296.56
292.987	293.56
293.218	294.56
293.449	270.56
293.68	279.56
293.91	273.56
294.141	284.56
294.372	309.56
294.603	294.56
294.833	293.56
295.064	282.56
295.295	284.56
295.525	283.56
295.756	308.56
295.987	285.56
296.217	335.56
296.448	364.56
296.679	322.56
296.909	302.56
297.14	301.56
297.37	284.56
297.601	299.56
297.831	299.56
298.062	306.56
298.292	314.56
298.523	315.56
298.753	298.56
298.984	291.56
299.214	298.56
299.445	298.56
299.675	298.56
299.905	301.56
300.136	330.56
300.366	312.56
300.597	315.56
300.827	295.56
301.057	317.56
301.288	340.56
301.518	331.56
301.748	336.56
301.979	325.56
302.209	311.56
302.439	318.56
302.669	327.56
302.9	322.56
303.13	331.56
303.36	329.56
303.59	333.56
303.82	340.56
304.051	342.56
304.281	329.56
304.511	311.56
304.741	329.56
304.971	323.56
305.201	346.56
305.431	334.56
305.661	319.56
305.891	315.56
306.121	318.56
306.352	327.56
306.582	342.56
306.812	326.56
307.042	316.56
307.272	319.56
307.502	316.56
307.731	344.56
307.961	327.56
308.191	346.56
308.421	341.56
308.651	347.56
308.881	347.56
309.111	365.56
309.341	331.56
309.571	362.56
309.8	381.56
310.03	379.56
310.26	393.56
310.49	376.56
310.72	393.56
310.949	428.56
311.179	423.56
311.409	392.56
311.639	397.56
311.868	396.56
312.098	398.56
312.328	403.56
312.557	417.56
312.787	445.56
313.017	410.56
313.246	404.56
313.476	387.56
313.706	408.56
313.935	398.56
314.165	414.56
314.394	428.56
314.624	434.56
314.853	400.56
315.083	395.56
315.312	375.56
315.542	376.56
315.771	389.56
316.001	370.56
316.23	385.56
316.46	389.56
316.689	393.56
316.919	405.56
317.148	379.56
317.377	398.56
317.607	387.56
317.836	390.56
318.065	403.56
318.295	395.56
318.524	389.56
318.753	379.56
318.983	395.56
319.212	392.56
319.441	392.56
319.67	429.56
319.9	403.56
320.129	391.56
320.358	372.56
320.587	393.56
320.816	405.56
321.046	430.56
321.275	416.56
321.504	421.56
321.733	420.56
321.962	426.56
322.191	467.56
322.42	456.56
322.649	472.56
322.878	483.56
323.108	497.56
323.337	526.56
323.566	554.56
323.795	596.56
324.024	659.56
324.253	801.56
324.482	1150.56
324.71	1771.56
324.939	2541.56
325.168	2144.56
325.397	1170.56
325.626	758.56
325.855	656.56
326.084	579.56
326.313	567.56
326.542	590.56
326.77	623.56
326.999	724.56
327.228	1026.56
327.457	1545.56
327.686	1854.56
327.914	1286.56
328.143	853.56
328.372	727.56
328.6	699.56
328.829	640.56
329.058	673.56
329.287	645.56
329.515	620.56
329.744	575.56
329.972	596.56
330.201	590.56
330.43	679.56
330.658	691.56
330.887	710.56
331.115	706.56
331.344	602.56
331.572	538.56
331.801	524.56
332.03	541.56
332.258	502.56
332.486	488.56
332.715	477.56
332.943	456.56
333.172	469.56
333.4	463.56
333.629	488.56
333.857	490.56
334.085	517.56
334.314	526.56
334.542	569.56
334.771	625.56
334.999	543.56
335.227	489.56
335.455	491.56
335.684	456.56
335.912	455.56
336.14	453.56
336.369	417.56
336.597	455.56
336.825	475.56
337.053	459.56
337.281	454.56
337.51	463.56
337.738	460.56
337.966	438.56
338.194	456.56
338.422	451.56
338.65	447.56
338.878	444.56
339.106	429.56
339.334	449.56
339.562	451.56
339.79	463.56
340.018	459.56
340.246	467.56
340.474	452.56
340.702	452.56
340.93	447.56
341.158	430.56
341.386	446.56
341.614	453.56
341.842	456.56
342.07	447.56
342.298	444.56
342.526	438.56
342.754	422.56
342.981	416.56
343.209	409.56
343.437	441.56
343.665	431.56
343.893	424.56
344.12	435.56
344.348	453.56
344.576	463.56
344.804	475.56
345.031	463.56
345.259	494.56
345.487	464.56
345.714	457.56
345.942	439.56
346.17	440.56
346.397	428.56
346.625	430.56
346.853	429.56
347.08	440.56
347.308	434.56
347.535	455.56
347.763	464.56
347.99	449.56
348.218	443.56
348.445	475.56
348.673	463.56
348.9	463.56
349.128	429.56
349.355	442.56
349.583	439.56
349.81	419.56
350.037	440.56
350.265	432.56
350.492	408.56
350.72	430.56
350.947	411.56
351.174	445.56
351.402	458.56
351.629	445.56
351.856	429.56
352.083	447.56
352.311	463.56
352.538	461.56
352.765	445.56
352.992	484.56
353.22	455.56
353.447	449.56
353.674	442.56
353.901	401.56
354.128	411.56
354.355	400.56
354.583	429.56
354.81	405.56
355.037	417.56
355.264	420.56
355.491	426.56
355.718	409.56
355.945	399.56
356.172	402.56
356.399	388.56
356.626	389.56
356.853	395.56
357.08	409.56
357.307	425.56
357.534	372.56
357.761	417.56
357.988	411.56
358.215	417.56
358.441	406.56
358.668	419.56
358.895	413.56
359.122	415.56
359.349	431.56
359.576	442.56
359.802	478.56
360.029	491.56
360.256	501.56
360.483	512.56
360.709	462.56
360.936	433.56
361.163	458.56
361.39	449.56
361.616	450.56
361.843	443.56
362.07	446.56
362.296	449.56
362.523	450.56
362.749	467.56
362.976	423.56
363.203	439.56
363.429	438.56
363.656	426.56
363.882	425.56
364.109	395.56
364.335	421.56
364.562	429.56
364.788	445.56
365.015	433.56
365.241	447.56
365.468	420.56
365.694	426.56
365.92	434.56
366.147	428.56
366.373	412.56
366.599	424.56
366.826	433.56
367.052	433.56
367.278	428.56
367.505	414.56
367.731	436.56
367.957	429.56
368.184	433.56
368.41	440.56
368.636	454.56
368.862	456.56
369.089	419.56
369.315	444.56
369.541	419.56
369.767	423.56
369.993	421.56
370.219	412.56
370.445	438.56
370.672	411.56
370.898	429.56
371.124	426.56
371.35	452.56
371.576	417.56
371.802	418.56
372.028	433.56
372.254	418.56
372.48	407.56
372.706	418.56
372.932	399.56
373.158	431.56
373.384	420.56
373.61	427.56
373.835	422.56
374.061	430.56
374.287	423.56
374.513	423.56
374.739	439.56
374.965	434.56
375.191	425.56
375.416	419.56
375.642	407.56
375.868	419.56
376.094	425.56
376.319	405.56
376.545	414.56
376.771	421.56
376.997	415.56
377.222	430.56
377.448	405.56
377.674	431.56
377.899	435.56
378.125	418.56
378.35	411.56
378.576	426.56
378.802	419.56
379.027	435.56
379.253	419.56
379.478	418.56
379.704	420.56
379.929	417.56
380.155	435.56
380.38	436.56
380.606	447.56
380.831	435.56
381.057	425.56
381.282	448.56
381.507	432.56
381.733	438.56
381.958	417.56
382.184	439.56
382.409	451.56
382.634	442.56
382.86	423.56
383.085	421.56
383.31	439.56
383.535	447.56
383.761	433.56
383.986	451.56
384.211	452.56
384.436	450.56
384.662	426.56
384.887	442.56
385.112	437.56
385.337	448.56
385.562	461.56
385.787	431.56
386.013	456.56
386.238	452.56
386.463	472.56
386.688	474.56
386.913	457.56
387.138	441.56
387.363	440.56
387.588	451.56
387.813	449.56
388.038	460.56
388.263	451.56
388.488	457.56
388.713	466.56
388.938	463.56
389.163	453.56
389.387	453.56
389.612	440.56
389.837	453.56
390.062	446.56
390.287	467.56
390.512	463.56
390.736	441.56
390.961	444.56
391.186	454.56
391.411	465.56
391.636	464.56
391.86	474.56
392.085	463.56
392.31	445.56
392.534	472.56
392.759	490.56
392.984	471.56
393.208	449.56
393.433	434.56
393.658	478.56
393.882	437.56
394.107	453.56
394.331	454.56
394.556	458.56
394.78	469.56
395.005	466.56
395.229	459.56
395.454	471.56
395.678	474.56
395.903	497.56
396.127	506.56
396.352	525.56
396.576	490.56
396.801	493.56
397.025	481.56
397.249	490.56
397.474	477.56
397.698	480.56
397.922	515.56
398.147	540.56
398.371	517.56
398.595	495.56
398.82	502.56
399.044	531.56
399.268	532.56
399.492	554.56
399.717	574.56
399.941	623.56
400.165	632.56
400.389	637.56
400.613	612.56
400.837	565.56
401.062	532.56
401.286	534.56
401.51	522.56
401.734	522.56
401.958	514.56
402.182	526.56
402.406	525.56
402.63	535.56
402.854	537.56
403.078	527.56
403.302	535.56
403.526	551.56
403.75	554.56
403.974	545.56
404.198	541.56
404.422	559.56
404.645	559.56
404.869	570.56
405.093	577.56
405.317	622.56
405.541	641.56
405.765	609.56
405.988	595.56
406.212	588.56
406.436	603.56
406.66	627.56
406.883	633.56
407.107	619.56
407.331	668.56
407.555	720.56
407.778	718.56
408.002	685.56
408.226	633.56
408.449	607.56
408.673	602.56
408.896	645.56
409.12	656.56
409.344	664.56
409.567	586.56
409.791	581.56
410.014	572.56
410.238	546.56
410.461	547.56
410.685	557.56
410.908	583.56
411.132	623.56
411.355	655.56
411.578	629.56
411.802	571.56
412.025	555.56
412.249	574.56
412.472	591.56
412.695	635.56
412.919	606.56
413.142	579.56
413.365	554.56
413.589	543.56
413.812	551.56
414.035	542.56
414.258	523.56
414.482	508.56
414.705	519.56
414.928	526.56
415.151	527.56
415.374	510.56
415.597	492.56
415.821	514.56
416.044	517.56
416.267	530.56
416.49	527.56
416.713	503.56
416.936	520.56
417.159	516.56
417.382	530.56
417.605	513.56
417.828	543.56
418.051	561.56
418.274	546.56
418.497	547.56
418.72	542.56
418.943	526.56
419.166	537.56
419.389	552.56
419.611	553.56
419.834	567.56
420.057	579.56
420.28	547.56
420.503	570.56
420.726	586.56
420.948	587.56
421.171	650.56
421.394	662.56
421.617	586.56
421.839	531.56
422.062	599.56
422.285	586.56
422.507	651.56
422.73	715.56
422.953	705.56
423.175	622.56
423.398	603.56
423.621	599.56
423.843	596.56
424.066	606.56
424.288	604.56
424.511	614.56
424.733	673.56
424.956	765.56
425.178	751.56
425.401	732.56
425.623	750.56
425.846	655.56
426.068	634.56
426.291	630.56
426.513	604.56
426.735	644.56
426.958	667.56
427.18	768.56
427.402	899.56
427.625	955.56
427.847	907.56
428.069	807.56
428.292	710.56
428.514	638.56
428.736	599.56
428.958	602.56
429.181	571.56
429.403	573.56
429.625	581.56
429.847	628.56
430.069	697.56
430.292	697.56
430.514	616.56
430.736	577.56
430.958	559.56
431.18	544.56
431.402	554.56
431.624	530.56
431.846	523.56
432.068	530.56
432.29	566.56
432.512	539.56
432.734	558.56
432.956	538.56
433.178	554.56
433.4	567.56
433.622	553.56
433.844	549.56
434.066	542.56
434.287	539.56
434.509	542.56
434.731	569.56
434.953	567.56
435.175	590.56
435.397	597.56
435.618	611.56
435.84	663.56
436.062	767.56
436.284	841.56
436.505	722.56
436.727	621.56
436.949	597.56
437.17	593.56
437.392	603.56
437.614	616.56
437.835	655.56
438.057	762.56
438.278	841.56
438.5	861.56
438.721	921.56
438.943	872.56
439.165	724.56
439.386	645.56
439.608	646.56
439.829	662.56
440.05	663.56
440.272	696.56
440.493	686.56
440.715	647.56
440.936	613.56
441.158	582.56
441.379	586.56
441.6	609.56
441.822	622.56
442.043	671.56
442.264	764.56
442.486	791.56
442.707	683.56
442.928	618.56
443.149	654.56
443.371	688.56
443.592	737.56
443.813	803.56
444.034	863.56
444.255	742.56
444.476	670.56
444.698	597.56
444.919	607.56
445.14	750.56
445.361	682.56
445.582	665.56
445.803	726.56
446.024	863.56
446.245	867.56
446.466	783.56
446.687	680.56
446.908	661.56
447.129	604.56
447.35	589.56
447.571	569.56
447.792	577.56
448.013	590.56
448.234	618.56
448.455	648.56
448.675	788.56
448.896	875.56
449.117	775.56
449.338	757.56
449.559	840.56
449.779	920.56
450	769.56
450.221	671.56
450.442	606.56
450.662	573.56
450.883	577.56
451.104	609.56
451.324	600.56
451.545	552.56
451.766	549.56
451.986	530.56
452.207	525.56
452.428	515.56
452.648	518.56
452.869	530.56
453.089	545.56
453.31	542.56
453.53	539.56
453.751	533.56
453.971	540.56
454.192	566.56
454.412	555.56
454.633	523.56
454.853	520.56
455.073	522.56
455.294	532.56
455.514	622.56
455.734	585.56
455.955	521.56
456.175	482.56
456.395	488.56
456.616	489.56
456.836	494.56
457.056	472.56
457.276	488.56
457.497	493.56
457.717	468.56
457.937	498.56
458.157	493.56
458.377	486.56
458.598	537.56
458.818	607.56
459.038	702.56
459.258	753.56
459.478	592.56
459.698	539.56
459.918	524.56
460.138	543.56
460.358	528.56
460.578	517.56
460.798	547.56
461.018	534.56
461.238	546.56
461.458	541.56
461.678	526.56
461.898	527.56
462.118	516.56
462.338	557.56
462.558	544.56
462.777	541.56
462.997	547.56
463.217	541.56
463.437	586.56
463.657	565.56
463.876	566.56
464.096	558.56
464.316	563.56
464.536	563.56
464.755	582.56
464.975	586.56
465.195	621.56
465.414	746.56
465.634	649.56
465.854	605.56
466.073	565.56
466.293	543.56
466.512	545.56
466.732	546.56
466.951	524.56
467.171	550.56
467.391	543.56
467.61	531.56
467.829	536.56
468.049	559.56
468.268	532.56
468.488	532.56
468.707	533.56
468.927	520.56
469.146	506.56
469.365	515.56
469.585	530.56
469.804	544.56
470.023	523.56
470.243	516.56
470.462	549.56
470.681	566.56
470.901	568.56
471.12	538.56
471.339	531.56
471.558	527.56
471.777	547.56
471.997	545.56
472.216	571.56
472.435	605.56
472.654	572.56
472.873	541.56
473.092	564.56
473.311	532.56
473.53	565.56
473.749	547.56
473.968	614.56
474.187	709.56
474.406	737.56
474.625	599.56
474.844	550.56
475.063	556.56
475.282	531.56
475.501	544.56
475.72	559.56
475.939	573.56
476.158	571.56
476.377	553.56
476.596	558.56
476.814	584.56
477.033	596.56
477.252	558.56
477.471	553.56
477.69	601.56
477.908	590.56
478.127	583.56
478.346	601.56
478.564	597.56
478.783	583.56
479.002	598.56
479.22	629.56
479.439	653.56
479.658	654.56
479.876	678.56
480.095	656.56
480.313	699.56
480.532	669.56
480.751	676.56
480.969	674.56
481.188	784.56
481.406	829.56
481.624	705.56
481.843	681.56
482.061	671.56
482.28	654.56
482.498	661.56
482.717	648.56
482.935	663.56
483.153	643.56
483.372	660.56
483.59	656.56
483.808	652.56
484.027	638.56
484.245	642.56
484.463	645.56
484.681	657.56
484.9	650.56
485.118	645.56
485.336	647.56
485.554	667.56
485.772	662.56
485.99	663.56
486.209	666.56
486.427	648.56
486.645	675.56
486.863	697.56
487.081	721.56
487.299	718.56
487.517	697.56
487.735	689.56
487.953	694.56
488.171	724.56
488.389	705.56
488.607	689.56
488.825	691.56
489.043	708.56
489.261	703.56
489.479	689.56
489.696	717.56
489.914	740.56
490.132	735.56
490.35	734.56
490.568	719.56
490.786	759.56
491.003	787.56
491.221	775.56
491.439	784.56
491.657	815.56
491.874	813.56
492.092	841.56
492.31	816.56
492.527	838.56
492.745	843.56
492.963	842.56
493.18	834.56
493.398	860.56
493.615	870.56
493.833	855.56
494.05	820.56
494.268	863.56
494.485	858.56
494.703	834.56
494.92	853.56
495.138	859.56
495.355	849.56
495.573	856.56
495.79	860.56
496.008	867.56
496.225	828.56
496.442	831.56
496.66	841.56
496.877	863.56
497.094	863.56
497.312	831.56
497.529	879.56
497.746	862.56
497.963	905.56
498.181	884.56
498.398	902.56
498.615	871.56
498.832	907.56
499.049	913.56
499.267	936.56
499.484	949.56
499.701	947.56
499.918	996.56
500.135	993.56
500.352	1033.56
500.569	1034.56
500.786	1043.56
501.003	1049.56
501.22	1014.56
501.437	995.56
501.654	1013.56
501.871	979.56
