Data from 1970.PennyLincolnUp.Lamp.En5.5.200Scan.071719.P1._HRD10591_15-13-27-844.txt Node
Date: Thu Jul 18 15:13:27 EDT 2019
User: cochatt
Spectrometer: HR+D1059
Trigger mode: 1
Integration Time (sec): 1.000000E-1
Scans to average: 1
Electric dark correction enabled: true
Nonlinearity correction enabled: false
Boxcar width: 0
XAxis mode: Wavelengths
Number of Pixels in Spectrum: 2048
>>>>>Begin Spectral Data<<<<<
223.165	-8.5
223.4	-8.5
223.635	-8.5
223.869	-14.5
224.104	-16.5
224.338	-13.5
224.573	-14.5
224.808	-9.5
225.042	-25.5
225.277	-0.5
225.511	-10.5
225.746	7.5
225.98	2.5
226.215	13.5
226.449	9.5
226.683	9.5
226.918	39.5
227.152	31.5
227.387	28.5
227.621	26.5
227.856	41.5
228.09	45.5
228.324	40.5
228.559	59.5
228.793	65.5
229.027	91.5
229.262	95.5
229.496	121.5
229.73	133.5
229.964	154.5
230.199	119.5
230.433	101.5
230.667	113.5
230.901	110.5
231.136	109.5
231.37	98.5
231.604	111.5
231.838	107.5
232.072	117.5
232.306	113.5
232.541	109.5
232.775	133.5
233.009	118.5
233.243	106.5
233.477	122.5
233.711	134.5
233.945	131.5
234.179	108.5
234.413	115.5
234.647	117.5
234.881	114.5
235.115	121.5
235.349	123.5
235.583	109.5
235.817	124.5
236.051	137.5
236.285	128.5
236.519	116.5
236.753	142.5
236.987	149.5
237.221	187.5
237.455	233.5
237.689	204.5
237.922	131.5
238.156	131.5
238.39	122.5
238.624	122.5
238.858	122.5
239.091	121.5
239.325	128.5
239.559	117.5
239.793	137.5
240.027	143.5
240.26	141.5
240.494	173.5
240.728	160.5
240.961	161.5
241.195	130.5
241.429	148.5
241.662	132.5
241.896	139.5
242.13	129.5
242.363	122.5
242.597	138.5
242.83	125.5
243.064	131.5
243.298	131.5
243.531	148.5
243.765	145.5
243.998	141.5
244.232	147.5
244.465	126.5
244.699	124.5
244.932	132.5
245.166	143.5
245.399	135.5
245.633	151.5
245.866	149.5
246.099	143.5
246.333	150.5
246.566	135.5
246.8	150.5
247.033	153.5
247.266	155.5
247.5	159.5
247.733	161.5
247.966	170.5
248.2	168.5
248.433	167.5
248.666	182.5
248.899	183.5
249.133	186.5
249.366	216.5
249.599	214.5
249.832	177.5
250.066	189.5
250.299	199.5
250.532	195.5
250.765	201.5
250.998	206.5
251.231	231.5
251.465	200.5
251.698	193.5
251.931	203.5
252.164	200.5
252.397	191.5
252.63	207.5
252.863	216.5
253.096	229.5
253.329	245.5
253.562	237.5
253.795	219.5
254.028	227.5
254.261	222.5
254.494	228.5
254.727	260.5
254.96	267.5
255.193	285.5
255.426	244.5
255.659	219.5
255.892	228.5
256.124	227.5
256.357	227.5
256.59	230.5
256.823	207.5
257.056	222.5
257.289	206.5
257.521	219.5
257.754	210.5
257.987	212.5
258.22	210.5
258.452	201.5
258.685	210.5
258.918	223.5
259.151	213.5
259.383	215.5
259.616	215.5
259.849	233.5
260.081	229.5
260.314	241.5
260.547	235.5
260.779	248.5
261.012	220.5
261.244	216.5
261.477	219.5
261.71	212.5
261.942	216.5
262.175	244.5
262.407	223.5
262.64	205.5
262.872	217.5
263.105	202.5
263.337	194.5
263.57	210.5
263.802	208.5
264.035	200.5
264.267	193.5
264.499	203.5
264.732	182.5
264.964	196.5
265.197	185.5
265.429	206.5
265.661	204.5
265.894	184.5
266.126	205.5
266.358	198.5
266.591	204.5
266.823	220.5
267.055	205.5
267.287	217.5
267.52	208.5
267.752	210.5
267.984	218.5
268.216	205.5
268.448	203.5
268.681	226.5
268.913	224.5
269.145	232.5
269.377	246.5
269.609	264.5
269.841	259.5
270.073	253.5
270.306	268.5
270.538	294.5
270.77	297.5
271.002	292.5
271.234	274.5
271.466	262.5
271.698	271.5
271.93	271.5
272.162	296.5
272.394	306.5
272.626	273.5
272.858	281.5
273.09	255.5
273.322	253.5
273.553	252.5
273.785	238.5
274.017	238.5
274.249	249.5
274.481	245.5
274.713	238.5
274.945	238.5
275.176	249.5
275.408	260.5
275.64	233.5
275.872	225.5
276.104	256.5
276.335	245.5
276.567	235.5
276.799	251.5
277.031	271.5
277.262	286.5
277.494	258.5
277.726	274.5
277.957	236.5
278.189	260.5
278.421	247.5
278.652	233.5
278.884	235.5
279.115	233.5
279.347	247.5
279.579	246.5
279.81	238.5
280.042	240.5
280.273	235.5
280.505	248.5
280.736	243.5
280.968	222.5
281.199	222.5
281.431	228.5
281.662	243.5
281.894	234.5
282.125	229.5
282.356	258.5
282.588	259.5
282.819	278.5
283.051	267.5
283.282	243.5
283.513	238.5
283.745	251.5
283.976	257.5
284.207	257.5
284.439	250.5
284.67	258.5
284.901	247.5
285.132	241.5
285.364	247.5
285.595	243.5
285.826	250.5
286.057	261.5
286.288	264.5
286.52	253.5
286.751	245.5
286.982	261.5
287.213	250.5
287.444	248.5
287.675	231.5
287.906	252.5
288.138	265.5
288.369	263.5
288.6	268.5
288.831	259.5
289.062	268.5
289.293	261.5
289.524	254.5
289.755	252.5
289.986	248.5
290.217	255.5
290.448	252.5
290.679	254.5
290.91	259.5
291.141	242.5
291.371	246.5
291.602	261.5
291.833	257.5
292.064	249.5
292.295	239.5
292.526	245.5
292.757	253.5
292.987	258.5
293.218	240.5
293.449	246.5
293.68	273.5
293.91	253.5
294.141	261.5
294.372	241.5
294.603	255.5
294.833	252.5
295.064	250.5
295.295	277.5
295.525	259.5
295.756	253.5
295.987	247.5
296.217	289.5
296.448	293.5
296.679	241.5
296.909	261.5
297.14	268.5
297.37	276.5
297.601	269.5
297.831	232.5
298.062	264.5
298.292	250.5
298.523	261.5
298.753	265.5
298.984	271.5
299.214	285.5
299.445	255.5
299.675	266.5
299.905	270.5
300.136	261.5
300.366	277.5
300.597	271.5
300.827	275.5
301.057	299.5
301.288	281.5
301.518	270.5
301.748	298.5
301.979	291.5
302.209	281.5
302.439	287.5
302.669	277.5
302.9	279.5
303.13	274.5
303.36	281.5
303.59	287.5
303.82	280.5
304.051	299.5
304.281	281.5
304.511	264.5
304.741	277.5
304.971	279.5
305.201	309.5
305.431	305.5
305.661	293.5
305.891	259.5
306.121	292.5
306.352	281.5
306.582	285.5
306.812	268.5
307.042	299.5
307.272	288.5
307.502	285.5
307.731	295.5
307.961	289.5
308.191	295.5
308.421	292.5
308.651	286.5
308.881	295.5
309.111	296.5
309.341	298.5
309.571	305.5
309.8	332.5
310.03	316.5
310.26	329.5
310.49	352.5
310.72	327.5
310.949	339.5
311.179	340.5
311.409	324.5
311.639	315.5
311.868	335.5
312.098	329.5
312.328	326.5
312.557	356.5
312.787	375.5
313.017	343.5
313.246	337.5
313.476	328.5
313.706	327.5
313.935	334.5
314.165	337.5
314.394	339.5
314.624	356.5
314.853	333.5
315.083	339.5
315.312	325.5
315.542	331.5
315.771	329.5
316.001	318.5
316.23	319.5
316.46	334.5
316.689	318.5
316.919	330.5
317.148	347.5
317.377	355.5
317.607	344.5
317.836	340.5
318.065	342.5
318.295	324.5
318.524	331.5
318.753	336.5
318.983	321.5
319.212	331.5
319.441	351.5
319.67	346.5
319.9	355.5
320.129	331.5
320.358	352.5
320.587	349.5
320.816	332.5
321.046	370.5
321.275	367.5
321.504	347.5
321.733	362.5
321.962	374.5
322.191	371.5
322.42	376.5
322.649	379.5
322.878	407.5
323.108	398.5
323.337	424.5
323.566	441.5
323.795	466.5
324.024	537.5
324.253	628.5
324.482	855.5
324.71	1313.5
324.939	1919.5
325.168	1620.5
325.397	890.5
325.626	605.5
325.855	497.5
326.084	487.5
326.313	448.5
326.542	449.5
326.77	503.5
326.999	607.5
327.228	781.5
327.457	1205.5
327.686	1415.5
327.914	989.5
328.143	637.5
328.372	585.5
328.6	513.5
328.829	516.5
329.058	519.5
329.287	528.5
329.515	490.5
329.744	457.5
329.972	459.5
330.201	471.5
330.43	496.5
330.658	556.5
330.887	559.5
331.115	529.5
331.344	485.5
331.572	430.5
331.801	439.5
332.03	435.5
332.258	443.5
332.486	412.5
332.715	397.5
332.943	406.5
333.172	374.5
333.4	391.5
333.629	415.5
333.857	393.5
334.085	429.5
334.314	428.5
334.542	450.5
334.771	463.5
334.999	434.5
335.227	407.5
335.455	418.5
335.684	385.5
335.912	395.5
336.14	374.5
336.369	386.5
336.597	409.5
336.825	406.5
337.053	383.5
337.281	385.5
337.51	392.5
337.738	404.5
337.966	399.5
338.194	398.5
338.422	419.5
338.65	379.5
338.878	389.5
339.106	372.5
339.334	384.5
339.562	392.5
339.79	378.5
340.018	388.5
340.246	377.5
340.474	391.5
340.702	380.5
340.93	372.5
341.158	366.5
341.386	391.5
341.614	385.5
341.842	379.5
342.07	378.5
342.298	376.5
342.526	377.5
342.754	356.5
342.981	367.5
343.209	358.5
343.437	359.5
343.665	370.5
343.893	391.5
344.12	396.5
344.348	398.5
344.576	398.5
344.804	395.5
345.031	390.5
345.259	399.5
345.487	404.5
345.714	401.5
345.942	394.5
346.17	394.5
346.397	378.5
346.625	392.5
346.853	365.5
347.08	379.5
347.308	385.5
347.535	380.5
347.763	392.5
347.99	393.5
348.218	395.5
348.445	372.5
348.673	399.5
348.9	387.5
349.128	377.5
349.355	363.5
349.583	370.5
349.81	362.5
350.037	361.5
350.265	370.5
350.492	378.5
350.72	370.5
350.947	389.5
351.174	380.5
351.402	405.5
351.629	381.5
351.856	375.5
352.083	401.5
352.311	380.5
352.538	387.5
352.765	391.5
352.992	386.5
353.22	397.5
353.447	374.5
353.674	374.5
353.901	381.5
354.128	373.5
354.355	377.5
354.583	382.5
354.81	363.5
355.037	352.5
355.264	377.5
355.491	363.5
355.718	353.5
355.945	366.5
356.172	342.5
356.399	338.5
356.626	330.5
356.853	355.5
357.08	356.5
357.307	373.5
357.534	360.5
357.761	367.5
357.988	361.5
358.215	360.5
358.441	361.5
358.668	343.5
358.895	346.5
359.122	356.5
359.349	380.5
359.576	380.5
359.802	397.5
360.029	438.5
360.256	427.5
360.483	432.5
360.709	395.5
360.936	401.5
361.163	397.5
361.39	383.5
361.616	385.5
361.843	407.5
362.07	382.5
362.296	389.5
362.523	373.5
362.749	392.5
362.976	378.5
363.203	370.5
363.429	363.5
363.656	387.5
363.882	370.5
364.109	386.5
364.335	368.5
364.562	373.5
364.788	379.5
365.015	367.5
365.241	355.5
365.468	378.5
365.694	381.5
365.92	377.5
366.147	369.5
366.373	373.5
366.599	358.5
366.826	379.5
367.052	373.5
367.278	372.5
367.505	378.5
367.731	374.5
367.957	356.5
368.184	379.5
368.41	403.5
368.636	383.5
368.862	380.5
369.089	377.5
369.315	391.5
369.541	383.5
369.767	377.5
369.993	363.5
370.219	371.5
370.445	383.5
370.672	380.5
370.898	364.5
371.124	371.5
371.35	364.5
371.576	361.5
371.802	360.5
372.028	365.5
372.254	369.5
372.48	375.5
372.706	383.5
372.932	380.5
373.158	382.5
373.384	383.5
373.61	381.5
373.835	367.5
374.061	387.5
374.287	373.5
374.513	392.5
374.739	380.5
374.965	386.5
375.191	376.5
375.416	379.5
375.642	367.5
375.868	376.5
376.094	369.5
376.319	375.5
376.545	378.5
376.771	380.5
376.997	393.5
377.222	375.5
377.448	365.5
377.674	376.5
377.899	383.5
378.125	386.5
378.35	365.5
378.576	381.5
378.802	373.5
379.027	385.5
379.253	395.5
379.478	384.5
379.704	379.5
379.929	385.5
380.155	385.5
380.38	373.5
380.606	383.5
380.831	389.5
381.057	378.5
381.282	377.5
381.507	372.5
381.733	371.5
381.958	386.5
382.184	386.5
382.409	377.5
382.634	400.5
382.86	383.5
383.085	371.5
383.31	372.5
383.535	406.5
383.761	390.5
383.986	385.5
384.211	395.5
384.436	401.5
384.662	393.5
384.887	402.5
385.112	394.5
385.337	399.5
385.562	397.5
385.787	397.5
386.013	418.5
386.238	427.5
386.463	430.5
386.688	412.5
386.913	415.5
387.138	419.5
387.363	398.5
387.588	397.5
387.813	413.5
388.038	417.5
388.263	403.5
388.488	399.5
388.713	421.5
388.938	398.5
389.163	404.5
389.387	420.5
389.612	407.5
389.837	400.5
390.062	403.5
390.287	407.5
390.512	414.5
390.736	397.5
390.961	394.5
391.186	407.5
391.411	413.5
391.636	401.5
391.86	422.5
392.085	402.5
392.31	422.5
392.534	398.5
392.759	412.5
392.984	403.5
393.208	407.5
393.433	438.5
393.658	430.5
393.882	414.5
394.107	407.5
394.331	403.5
394.556	422.5
394.78	418.5
395.005	421.5
395.229	423.5
395.454	426.5
395.678	424.5
395.903	421.5
396.127	451.5
396.352	451.5
396.576	435.5
396.801	434.5
397.025	435.5
397.249	429.5
397.474	421.5
397.698	446.5
397.922	435.5
398.147	449.5
398.371	455.5
398.595	441.5
398.82	455.5
399.044	456.5
399.268	467.5
399.492	485.5
399.717	522.5
399.941	529.5
400.165	555.5
400.389	550.5
400.613	523.5
400.837	507.5
401.062	484.5
401.286	482.5
401.51	473.5
401.734	457.5
401.958	471.5
402.182	477.5
402.406	486.5
402.63	486.5
402.854	472.5
403.078	476.5
403.302	476.5
403.526	473.5
403.75	471.5
403.974	479.5
404.198	467.5
404.422	482.5
404.645	487.5
404.869	486.5
405.093	522.5
405.317	539.5
405.541	574.5
405.765	533.5
405.988	519.5
406.212	519.5
406.436	522.5
406.66	540.5
406.883	519.5
407.107	563.5
407.331	582.5
407.555	639.5
407.778	647.5
408.002	571.5
408.226	545.5
408.449	576.5
408.673	531.5
408.896	562.5
409.12	590.5
409.344	599.5
409.567	546.5
409.791	507.5
410.014	512.5
410.238	483.5
410.461	484.5
410.685	511.5
410.908	529.5
411.132	558.5
411.355	574.5
411.578	539.5
411.802	497.5
412.025	486.5
412.249	479.5
412.472	538.5
412.695	553.5
412.919	532.5
413.142	489.5
413.365	474.5
413.589	483.5
413.812	482.5
414.035	469.5
414.258	452.5
414.482	451.5
414.705	467.5
414.928	466.5
415.151	487.5
415.374	460.5
415.597	475.5
415.821	468.5
416.044	478.5
416.267	466.5
416.49	466.5
416.713	454.5
416.936	466.5
417.159	466.5
417.382	479.5
417.605	467.5
417.828	478.5
418.051	484.5
418.274	491.5
418.497	469.5
418.72	466.5
418.943	477.5
419.166	490.5
419.389	502.5
419.611	483.5
419.834	493.5
420.057	492.5
420.28	516.5
420.503	498.5
420.726	505.5
420.948	517.5
421.171	529.5
421.394	590.5
421.617	525.5
421.839	486.5
422.062	491.5
422.285	515.5
422.507	577.5
422.73	637.5
422.953	609.5
423.175	537.5
423.398	514.5
423.621	522.5
423.843	518.5
424.066	525.5
424.288	551.5
424.511	554.5
424.733	619.5
424.956	684.5
425.178	628.5
425.401	661.5
425.623	689.5
425.846	574.5
426.068	552.5
426.291	527.5
426.513	517.5
426.735	555.5
426.958	585.5
427.18	681.5
427.402	772.5
427.625	874.5
427.847	750.5
428.069	668.5
428.292	603.5
428.514	533.5
428.736	543.5
428.958	520.5
429.181	532.5
429.403	493.5
429.625	511.5
429.847	547.5
430.069	605.5
430.292	612.5
430.514	530.5
430.736	513.5
430.958	510.5
431.18	476.5
431.402	494.5
431.624	478.5
431.846	450.5
432.068	445.5
432.29	485.5
432.512	481.5
432.734	468.5
432.956	466.5
433.178	489.5
433.4	495.5
433.622	476.5
433.844	487.5
434.066	468.5
434.287	479.5
434.509	481.5
434.731	499.5
434.953	484.5
435.175	515.5
435.397	527.5
435.618	549.5
435.84	573.5
436.062	663.5
436.284	745.5
436.505	633.5
436.727	569.5
436.949	564.5
437.17	511.5
437.392	520.5
437.614	521.5
437.835	573.5
438.057	645.5
438.278	740.5
438.5	731.5
438.721	810.5
438.943	753.5
439.165	622.5
439.386	587.5
439.608	585.5
439.829	555.5
440.05	584.5
440.272	615.5
440.493	587.5
440.715	538.5
440.936	521.5
441.158	543.5
441.379	507.5
441.6	538.5
441.822	551.5
442.043	585.5
442.264	643.5
442.486	710.5
442.707	613.5
442.928	557.5
443.149	573.5
443.371	600.5
443.592	612.5
443.813	709.5
444.034	769.5
444.255	639.5
444.476	564.5
444.698	552.5
444.919	540.5
445.14	642.5
445.361	602.5
445.582	606.5
445.803	638.5
446.024	745.5
446.245	724.5
446.466	687.5
446.687	591.5
446.908	552.5
447.129	525.5
447.35	531.5
447.571	524.5
447.792	504.5
448.013	497.5
448.234	534.5
448.455	584.5
448.675	670.5
448.896	779.5
449.117	664.5
449.338	647.5
449.559	715.5
449.779	804.5
450	689.5
450.221	579.5
450.442	524.5
450.662	525.5
450.883	517.5
451.104	525.5
451.324	512.5
451.545	497.5
451.766	481.5
451.986	475.5
452.207	448.5
452.428	449.5
452.648	445.5
452.869	460.5
453.089	455.5
453.31	489.5
453.53	457.5
453.751	463.5
453.971	454.5
454.192	475.5
454.412	445.5
454.633	450.5
454.853	436.5
455.073	457.5
455.294	465.5
455.514	543.5
455.734	529.5
455.955	473.5
456.175	443.5
456.395	448.5
456.616	426.5
456.836	430.5
457.056	407.5
457.276	418.5
457.497	422.5
457.717	423.5
457.937	414.5
458.157	434.5
458.377	440.5
458.598	453.5
458.818	517.5
459.038	594.5
459.258	593.5
459.478	512.5
459.698	481.5
459.918	479.5
460.138	472.5
460.358	465.5
460.578	450.5
460.798	465.5
461.018	470.5
461.238	485.5
461.458	463.5
461.678	444.5
461.898	482.5
462.118	472.5
462.338	469.5
462.558	469.5
462.777	463.5
462.997	498.5
463.217	515.5
463.437	499.5
463.657	481.5
463.876	497.5
464.096	507.5
464.316	503.5
464.536	506.5
464.755	519.5
464.975	506.5
465.195	555.5
465.414	624.5
465.634	550.5
465.854	513.5
466.073	491.5
466.293	473.5
466.512	471.5
466.732	482.5
466.951	453.5
467.171	457.5
467.391	477.5
467.61	489.5
467.829	492.5
468.049	472.5
468.268	475.5
468.488	460.5
468.707	442.5
468.927	454.5
469.146	464.5
469.365	449.5
469.585	452.5
469.804	472.5
470.023	466.5
470.243	467.5
470.462	483.5
470.681	495.5
470.901	480.5
471.12	456.5
471.339	475.5
471.558	466.5
471.777	452.5
471.997	468.5
472.216	486.5
472.435	503.5
472.654	505.5
472.873	483.5
473.092	480.5
473.311	463.5
473.53	458.5
473.749	498.5
473.968	538.5
474.187	613.5
474.406	627.5
474.625	552.5
474.844	503.5
475.063	485.5
475.282	470.5
475.501	480.5
475.72	496.5
475.939	488.5
476.158	483.5
476.377	495.5
476.596	473.5
476.814	504.5
477.033	499.5
477.252	506.5
477.471	535.5
477.69	502.5
477.908	497.5
478.127	511.5
478.346	527.5
478.564	527.5
478.783	538.5
479.002	546.5
479.22	557.5
479.439	570.5
479.658	564.5
479.876	563.5
480.095	566.5
480.313	594.5
480.532	567.5
480.751	576.5
480.969	591.5
481.188	650.5
481.406	662.5
481.624	599.5
481.843	590.5
482.061	596.5
482.28	577.5
482.498	557.5
482.717	565.5
482.935	564.5
483.153	581.5
483.372	572.5
483.59	581.5
483.808	577.5
484.027	561.5
484.245	559.5
484.463	569.5
484.681	561.5
484.9	556.5
485.118	575.5
485.336	567.5
485.554	568.5
485.772	587.5
485.99	580.5
486.209	594.5
486.427	590.5
486.645	592.5
486.863	617.5
487.081	638.5
487.299	631.5
487.517	601.5
487.735	615.5
487.953	609.5
488.171	627.5
488.389	618.5
488.607	625.5
488.825	612.5
489.043	620.5
489.261	604.5
489.479	628.5
489.696	623.5
489.914	621.5
490.132	630.5
490.35	645.5
490.568	652.5
490.786	654.5
491.003	689.5
491.221	678.5
491.439	675.5
491.657	699.5
491.874	737.5
492.092	719.5
492.31	725.5
492.527	733.5
492.745	720.5
492.963	723.5
493.18	757.5
493.398	719.5
493.615	695.5
493.833	753.5
494.05	734.5
494.268	754.5
494.485	746.5
494.703	731.5
494.92	736.5
495.138	755.5
495.355	741.5
495.573	736.5
495.79	732.5
496.008	740.5
496.225	732.5
496.442	728.5
496.66	738.5
496.877	728.5
497.094	731.5
497.312	733.5
497.529	741.5
497.746	779.5
497.963	773.5
498.181	777.5
498.398	776.5
498.615	800.5
498.832	817.5
499.049	798.5
499.267	823.5
499.484	852.5
499.701	850.5
499.918	859.5
500.135	893.5
500.352	911.5
500.569	926.5
500.786	949.5
501.003	915.5
501.22	871.5
501.437	900.5
501.654	891.5
501.871	889.5
502.088	845.5
502.305	837.5
502.522	807.5
502.739	803.5
502.956	777.5
503.172	774.5
503.389	787.5
503.606	761.5
503.823	750.5
504.04	769.5
504.256	727.5
504.473	721.5
504.69	721.5
504.907	754.5
505.123	724.5
505.34	729.5
505.557	718.5
505.773	716.5
505.99	715.5
506.207	722.5
506.423	715.5
506.64	718.5
506.856	695.5
507.073	684.5
507.289	710.5
507.506	706.5
507.722	710.5
507.939	726.5
508.155	701.5
508.372	716.5
508.588	647.5
508.805	659.5
509.021	661.5
509.238	681.5
509.454	691.5
509.67	699.5
509.887	686.5
510.103	658.5
510.319	676.5
510.536	791.5
510.752	1227.5
510.968	1046.5
511.184	713.5
511.401	665.5
511.617	659.5
511.833	629.5
512.049	629.5
512.265	626.5
512.481	626.5
512.698	625.5
512.914	641.5
513.13	637.5
513.346	644.5
513.562	642.5
513.778	643.5
513.994	658.5
514.21	646.5
514.426	679.5
514.642	755.5
514.858	755.5
515.074	771.5
515.29	922.5
515.506	1303.5
515.721	1122.5
515.937	771.5
516.153	700.5
516.369	696.5
516.585	669.5
516.801	669.5
517.016	639.5
517.232	639.5
517.448	639.5
517.664	652.5
517.879	661.5
518.095	647.5
518.311	638.5
518.527	644.5
518.742	632.5
518.958	639.5
519.173	632.5
519.389	646.5
519.605	643.5
519.82	627.5
