Data from 1970.PennyLincolnUp.Lamp.En5.5.200Scan.071719.P1._HRD10591_15-13-23-843.txt Node
Date: Thu Jul 18 15:13:23 EDT 2019
User: cochatt
Spectrometer: HR+D1059
Trigger mode: 1
Integration Time (sec): 1.000000E-1
Scans to average: 1
Electric dark correction enabled: true
Nonlinearity correction enabled: false
Boxcar width: 0
XAxis mode: Wavelengths
Number of Pixels in Spectrum: 2048
>>>>>Begin Spectral Data<<<<<
223.165	-28.25
223.4	-28.25
223.635	-28.25
223.869	-15.25
224.104	-15.25
224.338	-14.25
224.573	-14.25
224.808	-17.25
225.042	-1.25
225.277	-0.25
225.511	4.75
225.746	5.75
225.98	12.75
226.215	9.75
226.449	6.75
226.683	13.75
226.918	14.75
227.152	37.75
227.387	36.75
227.621	26.75
227.856	50.75
228.09	43.75
228.324	52.75
228.559	58.75
228.793	64.75
229.027	91.75
229.262	98.75
229.496	105.75
229.73	114.75
229.964	142.75
230.199	122.75
230.433	123.75
230.667	104.75
230.901	100.75
231.136	91.75
231.37	115.75
231.604	103.75
231.838	104.75
232.072	109.75
232.306	103.75
232.541	122.75
232.775	110.75
233.009	118.75
233.243	104.75
233.477	109.75
233.711	100.75
233.945	106.75
234.179	94.75
234.413	111.75
234.647	102.75
234.881	101.75
235.115	108.75
235.349	124.75
235.583	116.75
235.817	109.75
236.051	112.75
236.285	120.75
236.519	116.75
236.753	116.75
236.987	147.75
237.221	185.75
237.455	227.75
237.689	178.75
237.922	142.75
238.156	131.75
238.39	118.75
238.624	125.75
238.858	115.75
239.091	123.75
239.325	125.75
239.559	125.75
239.793	96.75
240.027	118.75
240.26	126.75
240.494	132.75
240.728	142.75
240.961	137.75
241.195	134.75
241.429	132.75
241.662	128.75
241.896	134.75
242.13	137.75
242.363	136.75
242.597	123.75
242.83	135.75
243.064	130.75
243.298	135.75
243.531	121.75
243.765	150.75
243.998	143.75
244.232	130.75
244.465	135.75
244.699	137.75
244.932	129.75
245.166	138.75
245.399	159.75
245.633	153.75
245.866	136.75
246.099	149.75
246.333	130.75
246.566	131.75
246.8	152.75
247.033	154.75
247.266	156.75
247.5	168.75
247.733	151.75
247.966	177.75
248.2	164.75
248.433	141.75
248.666	157.75
248.899	186.75
249.133	184.75
249.366	209.75
249.599	192.75
249.832	180.75
250.066	193.75
250.299	182.75
250.532	186.75
250.765	185.75
250.998	203.75
251.231	225.75
251.465	223.75
251.698	219.75
251.931	196.75
252.164	212.75
252.397	197.75
252.63	206.75
252.863	192.75
253.096	225.75
253.329	220.75
253.562	215.75
253.795	207.75
254.028	217.75
254.261	210.75
254.494	219.75
254.727	237.75
254.96	251.75
255.193	244.75
255.426	232.75
255.659	236.75
255.892	219.75
256.124	218.75
256.357	220.75
256.59	219.75
256.823	202.75
257.056	212.75
257.289	203.75
257.521	198.75
257.754	200.75
257.987	193.75
258.22	192.75
258.452	198.75
258.685	181.75
258.918	199.75
259.151	192.75
259.383	189.75
259.616	193.75
259.849	221.75
260.081	226.75
260.314	227.75
260.547	249.75
260.779	241.75
261.012	222.75
261.244	205.75
261.477	224.75
261.71	200.75
261.942	215.75
262.175	202.75
262.407	214.75
262.64	193.75
262.872	200.75
263.105	215.75
263.337	190.75
263.57	205.75
263.802	188.75
264.035	190.75
264.267	186.75
264.499	177.75
264.732	200.75
264.964	191.75
265.197	195.75
265.429	197.75
265.661	195.75
265.894	194.75
266.126	196.75
266.358	194.75
266.591	208.75
266.823	192.75
267.055	216.75
267.287	216.75
267.52	212.75
267.752	203.75
267.984	213.75
268.216	192.75
268.448	206.75
268.681	197.75
268.913	205.75
269.145	230.75
269.377	244.75
269.609	247.75
269.841	247.75
270.073	261.75
270.306	251.75
270.538	276.75
270.77	275.75
271.002	252.75
271.234	246.75
271.466	273.75
271.698	281.75
271.93	277.75
272.162	278.75
272.394	275.75
272.626	274.75
272.858	264.75
273.09	243.75
273.322	249.75
273.553	230.75
273.785	226.75
274.017	230.75
274.249	244.75
274.481	244.75
274.713	231.75
274.945	223.75
275.176	225.75
275.408	246.75
275.64	241.75
275.872	223.75
276.104	221.75
276.335	222.75
276.567	222.75
276.799	216.75
277.031	255.75
277.262	277.75
277.494	278.75
277.726	260.75
277.957	260.75
278.189	240.75
278.421	228.75
278.652	238.75
278.884	225.75
279.115	244.75
279.347	219.75
279.579	229.75
279.81	231.75
280.042	226.75
280.273	235.75
280.505	223.75
280.736	227.75
280.968	222.75
281.199	232.75
281.431	212.75
281.662	227.75
281.894	225.75
282.125	221.75
282.356	238.75
282.588	268.75
282.819	252.75
283.051	239.75
283.282	217.75
283.513	221.75
283.745	229.75
283.976	243.75
284.207	242.75
284.439	229.75
284.67	241.75
284.901	236.75
285.132	231.75
285.364	221.75
285.595	236.75
285.826	230.75
286.057	214.75
286.288	216.75
286.52	234.75
286.751	242.75
286.982	248.75
287.213	216.75
287.444	236.75
287.675	229.75
287.906	239.75
288.138	229.75
288.369	232.75
288.6	255.75
288.831	244.75
289.062	257.75
289.293	234.75
289.524	252.75
289.755	235.75
289.986	234.75
290.217	246.75
290.448	260.75
290.679	241.75
290.91	242.75
291.141	242.75
291.371	241.75
291.602	236.75
291.833	244.75
292.064	235.75
292.295	255.75
292.526	240.75
292.757	240.75
292.987	233.75
293.218	243.75
293.449	249.75
293.68	249.75
293.91	237.75
294.141	245.75
294.372	245.75
294.603	235.75
294.833	228.75
295.064	222.75
295.295	230.75
295.525	235.75
295.756	268.75
295.987	268.75
296.217	263.75
296.448	276.75
296.679	267.75
296.909	240.75
297.14	241.75
297.37	247.75
297.601	237.75
297.831	260.75
298.062	237.75
298.292	249.75
298.523	250.75
298.753	235.75
298.984	247.75
299.214	260.75
299.445	260.75
299.675	252.75
299.905	273.75
300.136	262.75
300.366	263.75
300.597	262.75
300.827	253.75
301.057	254.75
301.288	287.75
301.518	274.75
301.748	278.75
301.979	265.75
302.209	271.75
302.439	275.75
302.669	265.75
302.9	276.75
303.13	273.75
303.36	277.75
303.59	263.75
303.82	275.75
304.051	268.75
304.281	256.75
304.511	268.75
304.741	267.75
304.971	269.75
305.201	262.75
305.431	256.75
305.661	256.75
305.891	255.75
306.121	265.75
306.352	287.75
306.582	306.75
306.812	269.75
307.042	285.75
307.272	276.75
307.502	285.75
307.731	280.75
307.961	280.75
308.191	268.75
308.421	256.75
308.651	280.75
308.881	274.75
309.111	290.75
309.341	278.75
309.571	275.75
309.8	307.75
310.03	307.75
310.26	317.75
310.49	311.75
310.72	308.75
310.949	336.75
311.179	319.75
311.409	326.75
311.639	318.75
311.868	318.75
312.098	317.75
312.328	318.75
312.557	328.75
312.787	308.75
313.017	328.75
313.246	330.75
313.476	309.75
313.706	308.75
313.935	317.75
314.165	341.75
314.394	320.75
314.624	316.75
314.853	326.75
315.083	307.75
315.312	329.75
315.542	308.75
315.771	310.75
316.001	313.75
316.23	327.75
316.46	299.75
316.689	326.75
316.919	308.75
317.148	323.75
317.377	333.75
317.607	333.75
317.836	314.75
318.065	317.75
318.295	286.75
318.524	308.75
318.753	305.75
318.983	315.75
319.212	316.75
319.441	332.75
319.67	326.75
319.9	324.75
320.129	312.75
320.358	326.75
320.587	320.75
320.816	304.75
321.046	316.75
321.275	336.75
321.504	320.75
321.733	330.75
321.962	334.75
322.191	356.75
322.42	352.75
322.649	365.75
322.878	369.75
323.108	396.75
323.337	428.75
323.566	420.75
323.795	465.75
324.024	499.75
324.253	585.75
324.482	841.75
324.71	1256.75
324.939	1760.75
325.168	1566.75
325.397	835.75
325.626	578.75
325.855	460.75
326.084	446.75
326.313	425.75
326.542	427.75
326.77	474.75
326.999	548.75
327.228	780.75
327.457	1131.75
327.686	1354.75
327.914	949.75
328.143	631.75
328.372	556.75
328.6	498.75
328.829	494.75
329.058	504.75
329.287	504.75
329.515	440.75
329.744	427.75
329.972	428.75
330.201	446.75
330.43	469.75
330.658	486.75
330.887	522.75
331.115	501.75
331.344	427.75
331.572	426.75
331.801	412.75
332.03	421.75
332.258	393.75
332.486	371.75
332.715	390.75
332.943	364.75
333.172	371.75
333.4	402.75
333.629	392.75
333.857	402.75
334.085	407.75
334.314	397.75
334.542	432.75
334.771	447.75
334.999	437.75
335.227	397.75
335.455	388.75
335.684	381.75
335.912	372.75
336.14	368.75
336.369	368.75
336.597	375.75
336.825	380.75
337.053	371.75
337.281	383.75
337.51	369.75
337.738	362.75
337.966	380.75
338.194	375.75
338.422	373.75
338.65	377.75
338.878	376.75
339.106	375.75
339.334	366.75
339.562	363.75
339.79	356.75
340.018	364.75
340.246	364.75
340.474	361.75
340.702	388.75
340.93	348.75
341.158	353.75
341.386	368.75
341.614	353.75
341.842	344.75
342.07	359.75
342.298	350.75
342.526	338.75
342.754	348.75
342.981	351.75
343.209	370.75
343.437	344.75
343.665	358.75
343.893	365.75
344.12	365.75
344.348	364.75
344.576	373.75
344.804	377.75
345.031	365.75
345.259	396.75
345.487	379.75
345.714	358.75
345.942	370.75
346.17	352.75
346.397	342.75
346.625	357.75
346.853	342.75
347.08	361.75
347.308	361.75
347.535	378.75
347.763	354.75
347.99	359.75
348.218	359.75
348.445	371.75
348.673	361.75
348.9	369.75
349.128	344.75
349.355	334.75
349.583	369.75
349.81	352.75
350.037	364.75
350.265	341.75
350.492	355.75
350.72	346.75
350.947	373.75
351.174	368.75
351.402	376.75
351.629	368.75
351.856	364.75
352.083	362.75
352.311	400.75
352.538	373.75
352.765	364.75
352.992	349.75
353.22	366.75
353.447	363.75
353.674	366.75
353.901	351.75
354.128	336.75
354.355	351.75
354.583	351.75
354.81	340.75
355.037	354.75
355.264	340.75
355.491	344.75
355.718	342.75
355.945	338.75
356.172	373.75
356.399	345.75
356.626	332.75
356.853	335.75
357.08	337.75
357.307	336.75
357.534	342.75
357.761	357.75
357.988	355.75
358.215	347.75
358.441	330.75
358.668	346.75
358.895	334.75
359.122	359.75
359.349	350.75
359.576	375.75
359.802	387.75
360.029	414.75
360.256	432.75
360.483	411.75
360.709	346.75
360.936	351.75
361.163	372.75
361.39	374.75
361.616	379.75
361.843	368.75
362.07	373.75
362.296	371.75
362.523	366.75
362.749	376.75
362.976	381.75
363.203	364.75
363.429	389.75
363.656	383.75
363.882	369.75
364.109	353.75
364.335	364.75
364.562	349.75
364.788	340.75
365.015	355.75
365.241	350.75
365.468	370.75
365.694	340.75
365.92	357.75
366.147	343.75
366.373	350.75
366.599	356.75
366.826	356.75
367.052	352.75
367.278	349.75
367.505	364.75
367.731	355.75
367.957	367.75
368.184	378.75
368.41	348.75
368.636	354.75
368.862	365.75
369.089	363.75
369.315	367.75
369.541	364.75
369.767	349.75
369.993	378.75
370.219	350.75
370.445	348.75
370.672	366.75
370.898	352.75
371.124	334.75
371.35	356.75
371.576	375.75
371.802	348.75
372.028	347.75
372.254	354.75
372.48	358.75
372.706	354.75
372.932	357.75
373.158	374.75
373.384	370.75
373.61	361.75
373.835	344.75
374.061	353.75
374.287	365.75
374.513	345.75
374.739	375.75
374.965	369.75
375.191	360.75
375.416	351.75
375.642	369.75
375.868	376.75
376.094	378.75
376.319	363.75
376.545	353.75
376.771	361.75
376.997	358.75
377.222	353.75
377.448	361.75
377.674	353.75
377.899	365.75
378.125	350.75
378.35	363.75
378.576	355.75
378.802	371.75
379.027	350.75
379.253	377.75
379.478	371.75
379.704	356.75
379.929	364.75
380.155	352.75
380.38	359.75
380.606	370.75
380.831	391.75
381.057	372.75
381.282	373.75
381.507	348.75
381.733	365.75
381.958	358.75
382.184	376.75
382.409	375.75
382.634	385.75
382.86	384.75
383.085	386.75
383.31	378.75
383.535	377.75
383.761	367.75
383.986	375.75
384.211	370.75
384.436	387.75
384.662	381.75
384.887	393.75
385.112	376.75
385.337	379.75
385.562	383.75
385.787	387.75
386.013	383.75
386.238	390.75
386.463	392.75
386.688	397.75
386.913	368.75
387.138	366.75
387.363	384.75
387.588	395.75
387.813	393.75
388.038	382.75
388.263	389.75
388.488	380.75
388.713	392.75
388.938	392.75
389.163	386.75
389.387	375.75
389.612	370.75
389.837	372.75
390.062	404.75
390.287	392.75
390.512	395.75
390.736	382.75
390.961	382.75
391.186	395.75
391.411	389.75
391.636	382.75
391.86	384.75
392.085	377.75
392.31	412.75
392.534	402.75
392.759	405.75
392.984	397.75
393.208	397.75
393.433	426.75
393.658	421.75
393.882	416.75
394.107	397.75
394.331	386.75
394.556	374.75
394.78	401.75
395.005	386.75
395.229	391.75
395.454	410.75
395.678	391.75
395.903	406.75
396.127	410.75
396.352	424.75
396.576	414.75
396.801	397.75
397.025	410.75
397.249	428.75
397.474	434.75
397.698	402.75
397.922	432.75
398.147	429.75
398.371	438.75
398.595	427.75
398.82	416.75
399.044	454.75
399.268	440.75
399.492	466.75
399.717	470.75
399.941	513.75
400.165	529.75
400.389	525.75
400.613	490.75
400.837	464.75
401.062	435.75
401.286	463.75
401.51	447.75
401.734	426.75
401.958	443.75
402.182	455.75
402.406	462.75
402.63	446.75
402.854	435.75
403.078	461.75
403.302	451.75
403.526	456.75
403.75	456.75
403.974	446.75
404.198	458.75
404.422	467.75
404.645	470.75
404.869	459.75
405.093	480.75
405.317	514.75
405.541	562.75
405.765	486.75
405.988	491.75
406.212	480.75
406.436	524.75
406.66	534.75
406.883	505.75
407.107	524.75
407.331	543.75
407.555	614.75
407.778	589.75
408.002	571.75
408.226	542.75
408.449	517.75
408.673	510.75
408.896	544.75
409.12	567.75
409.344	535.75
409.567	503.75
409.791	469.75
410.014	466.75
410.238	462.75
410.461	486.75
410.685	461.75
410.908	473.75
411.132	516.75
411.355	532.75
411.578	525.75
411.802	483.75
412.025	477.75
412.249	461.75
412.472	488.75
412.695	522.75
412.919	521.75
413.142	472.75
413.365	468.75
413.589	433.75
413.812	444.75
414.035	442.75
414.258	458.75
414.482	440.75
414.705	467.75
414.928	449.75
415.151	440.75
415.374	438.75
415.597	434.75
415.821	424.75
416.044	439.75
416.267	434.75
416.49	468.75
416.713	453.75
416.936	455.75
417.159	421.75
417.382	460.75
417.605	440.75
417.828	471.75
418.051	465.75
418.274	452.75
418.497	452.75
418.72	444.75
418.943	427.75
419.166	464.75
419.389	490.75
419.611	491.75
419.834	453.75
420.057	461.75
420.28	479.75
420.503	467.75
420.726	458.75
420.948	485.75
421.171	507.75
421.394	552.75
421.617	484.75
421.839	470.75
422.062	469.75
422.285	501.75
422.507	548.75
422.73	608.75
422.953	572.75
423.175	508.75
423.398	521.75
423.621	478.75
423.843	489.75
424.066	503.75
424.288	478.75
424.511	536.75
424.733	594.75
424.956	637.75
425.178	615.75
425.401	615.75
425.623	648.75
425.846	554.75
426.068	531.75
426.291	525.75
426.513	520.75
426.735	526.75
426.958	571.75
427.18	626.75
427.402	706.75
427.625	782.75
427.847	724.75
428.069	636.75
428.292	584.75
428.514	538.75
428.736	484.75
428.958	491.75
429.181	470.75
429.403	477.75
429.625	482.75
429.847	515.75
430.069	566.75
430.292	572.75
430.514	500.75
430.736	483.75
430.958	491.75
431.18	465.75
431.402	464.75
431.624	453.75
431.846	433.75
432.068	426.75
432.29	444.75
432.512	450.75
432.734	460.75
432.956	454.75
433.178	470.75
433.4	478.75
433.622	466.75
433.844	448.75
434.066	437.75
434.287	461.75
434.509	460.75
434.731	466.75
434.953	481.75
435.175	481.75
435.397	499.75
435.618	520.75
435.84	560.75
436.062	627.75
436.284	703.75
436.505	614.75
436.727	529.75
436.949	490.75
437.17	496.75
437.392	485.75
437.614	496.75
437.835	507.75
438.057	615.75
438.278	714.75
438.5	696.75
438.721	744.75
438.943	729.75
439.165	575.75
439.386	524.75
439.608	515.75
439.829	534.75
440.05	566.75
440.272	598.75
440.493	555.75
440.715	515.75
440.936	511.75
441.158	486.75
441.379	501.75
441.6	511.75
441.822	520.75
442.043	564.75
442.264	638.75
442.486	666.75
442.707	591.75
442.928	528.75
443.149	548.75
443.371	546.75
443.592	594.75
443.813	670.75
444.034	722.75
444.255	621.75
444.476	542.75
444.698	515.75
444.919	517.75
445.14	636.75
445.361	572.75
445.582	539.75
445.803	613.75
446.024	685.75
446.245	688.75
446.466	664.75
446.687	587.75
446.908	516.75
447.129	510.75
447.35	520.75
447.571	509.75
447.792	490.75
448.013	484.75
448.234	517.75
448.455	574.75
448.675	641.75
448.896	752.75
449.117	649.75
449.338	626.75
449.559	716.75
449.779	777.75
450	627.75
450.221	543.75
450.442	510.75
450.662	482.75
450.883	473.75
451.104	490.75
451.324	477.75
451.545	463.75
451.766	456.75
451.986	449.75
452.207	438.75
452.428	438.75
452.648	416.75
452.869	456.75
453.089	429.75
453.31	448.75
453.53	442.75
453.751	430.75
453.971	425.75
454.192	466.75
454.412	452.75
454.633	440.75
454.853	429.75
455.073	417.75
455.294	460.75
455.514	531.75
455.734	520.75
455.955	452.75
456.175	413.75
456.395	416.75
456.616	429.75
456.836	390.75
457.056	418.75
457.276	382.75
457.497	407.75
457.717	400.75
457.937	407.75
458.157	401.75
458.377	422.75
458.598	449.75
458.818	497.75
459.038	539.75
459.258	565.75
459.478	483.75
459.698	462.75
459.918	452.75
460.138	426.75
460.358	409.75
460.578	425.75
460.798	438.75
461.018	456.75
461.238	467.75
461.458	440.75
461.678	459.75
461.898	461.75
462.118	466.75
462.338	444.75
462.558	453.75
462.777	475.75
462.997	478.75
463.217	457.75
463.437	491.75
463.657	478.75
463.876	463.75
464.096	469.75
464.316	483.75
464.536	471.75
464.755	472.75
464.975	488.75
465.195	528.75
465.414	590.75
465.634	536.75
465.854	497.75
466.073	469.75
466.293	466.75
466.512	446.75
466.732	442.75
466.951	444.75
467.171	426.75
467.391	427.75
467.61	450.75
467.829	450.75
468.049	449.75
468.268	455.75
468.488	429.75
468.707	437.75
468.927	430.75
469.146	424.75
469.365	416.75
469.585	434.75
469.804	418.75
470.023	442.75
470.243	451.75
470.462	459.75
470.681	458.75
470.901	478.75
471.12	467.75
471.339	437.75
471.558	456.75
471.777	441.75
471.997	442.75
472.216	450.75
472.435	476.75
472.654	465.75
472.873	452.75
473.092	443.75
473.311	438.75
473.53	454.75
473.749	456.75
473.968	475.75
474.187	570.75
474.406	618.75
474.625	520.75
474.844	481.75
475.063	479.75
475.282	442.75
475.501	459.75
475.72	448.75
475.939	446.75
476.158	468.75
476.377	462.75
476.596	476.75
476.814	472.75
477.033	479.75
477.252	485.75
477.471	501.75
477.69	467.75
477.908	480.75
478.127	476.75
478.346	496.75
478.564	489.75
478.783	512.75
479.002	506.75
479.22	521.75
479.439	536.75
479.658	546.75
479.876	542.75
480.095	561.75
480.313	571.75
480.532	560.75
480.751	557.75
480.969	540.75
481.188	594.75
481.406	649.75
481.624	584.75
481.843	557.75
482.061	562.75
482.28	575.75
482.498	534.75
482.717	538.75
482.935	537.75
483.153	545.75
483.372	541.75
483.59	521.75
483.808	532.75
484.027	538.75
484.245	549.75
484.463	539.75
484.681	548.75
484.9	553.75
485.118	544.75
485.336	531.75
485.554	555.75
485.772	539.75
485.99	563.75
486.209	566.75
486.427	553.75
486.645	584.75
486.863	598.75
487.081	597.75
487.299	594.75
487.517	576.75
487.735	578.75
487.953	589.75
488.171	585.75
488.389	566.75
488.607	582.75
488.825	590.75
489.043	589.75
489.261	601.75
489.479	595.75
489.696	591.75
489.914	586.75
490.132	624.75
490.35	624.75
490.568	620.75
490.786	634.75
491.003	643.75
491.221	648.75
491.439	670.75
491.657	645.75
491.874	689.75
492.092	658.75
492.31	664.75
492.527	714.75
492.745	701.75
492.963	673.75
493.18	679.75
493.398	678.75
493.615	672.75
493.833	692.75
494.05	704.75
494.268	700.75
494.485	712.75
494.703	692.75
494.92	716.75
495.138	709.75
495.355	716.75
495.573	704.75
495.79	683.75
496.008	690.75
496.225	710.75
496.442	704.75
496.66	702.75
496.877	708.75
497.094	718.75
497.312	718.75
497.529	723.75
497.746	725.75
497.963	743.75
498.181	715.75
498.398	763.75
498.615	759.75
498.832	749.75
499.049	773.75
499.267	769.75
499.484	788.75
499.701	797.75
499.918	862.75
500.135	843.75
500.352	877.75
500.569	862.75
500.786	881.75
501.003	891.75
501.22	853.75
501.437	854.75
501.654	862.75
501.871	847.75
502.088	836.75
