Data from 1970.PennyLincolnUp.Lamp.En5.5.200Scan.071719.P1._HRD10591_15-15-32-841.txt Node
Date: Thu Jul 18 15:15:32 EDT 2019
User: cochatt
Spectrometer: HR+D1059
Trigger mode: 1
Integration Time (sec): 1.000000E-1
Scans to average: 1
Electric dark correction enabled: true
Nonlinearity correction enabled: false
Boxcar width: 0
XAxis mode: Wavelengths
Number of Pixels in Spectrum: 2048
>>>>>Begin Spectral Data<<<<<
223.165	-21.19
223.4	-21.19
223.635	-21.19
223.869	-20.19
224.104	-7.19
224.338	-10.19
224.573	-16.19
224.808	-11.19
225.042	-4.19
225.277	-16.19
225.511	-2.19
225.746	5.81
225.98	-0.19
226.215	5.81
226.449	30.81
226.683	9.81
226.918	33.81
227.152	22.81
227.387	38.81
227.621	22.81
227.856	36.81
228.09	41.81
228.324	52.81
228.559	61.81
228.793	98.81
229.027	114.81
229.262	115.81
229.496	126.81
229.73	160.81
229.964	192.81
230.199	147.81
230.433	114.81
230.667	118.81
230.901	106.81
231.136	109.81
231.37	131.81
231.604	111.81
231.838	126.81
232.072	129.81
232.306	133.81
232.541	116.81
232.775	121.81
233.009	119.81
233.243	117.81
233.477	134.81
233.711	126.81
233.945	128.81
234.179	127.81
234.413	123.81
234.647	124.81
234.881	133.81
235.115	128.81
235.349	120.81
235.583	120.81
235.817	130.81
236.051	123.81
236.285	142.81
236.519	148.81
236.753	138.81
236.987	158.81
237.221	201.81
237.455	285.81
237.689	219.81
237.922	178.81
238.156	146.81
238.39	159.81
238.624	142.81
238.858	128.81
239.091	144.81
239.325	145.81
239.559	140.81
239.793	151.81
240.027	152.81
240.26	162.81
240.494	196.81
240.728	180.81
240.961	172.81
241.195	169.81
241.429	154.81
241.662	138.81
241.896	148.81
242.13	148.81
242.363	148.81
242.597	138.81
242.83	151.81
243.064	139.81
243.298	153.81
243.531	157.81
243.765	150.81
243.998	152.81
244.232	144.81
244.465	144.81
244.699	176.81
244.932	164.81
245.166	143.81
245.399	154.81
245.633	166.81
245.866	175.81
246.099	143.81
246.333	160.81
246.566	170.81
246.8	161.81
247.033	177.81
247.266	171.81
247.5	184.81
247.733	194.81
247.966	191.81
248.2	174.81
248.433	189.81
248.666	182.81
248.899	199.81
249.133	219.81
249.366	226.81
249.599	215.81
249.832	215.81
250.066	207.81
250.299	201.81
250.532	227.81
250.765	236.81
250.998	268.81
251.231	267.81
251.465	237.81
251.698	231.81
251.931	229.81
252.164	242.81
252.397	213.81
252.63	237.81
252.863	225.81
253.096	223.81
253.329	256.81
253.562	277.81
253.795	259.81
254.028	255.81
254.261	242.81
254.494	260.81
254.727	283.81
254.96	318.81
255.193	325.81
255.426	291.81
255.659	276.81
255.892	280.81
256.124	268.81
256.357	249.81
256.59	251.81
256.823	250.81
257.056	236.81
257.289	236.81
257.521	231.81
257.754	234.81
257.987	230.81
258.22	234.81
258.452	230.81
258.685	229.81
258.918	249.81
259.151	225.81
259.383	240.81
259.616	228.81
259.849	243.81
260.081	254.81
260.314	264.81
260.547	276.81
260.779	286.81
261.012	254.81
261.244	249.81
261.477	222.81
261.71	230.81
261.942	258.81
262.175	261.81
262.407	249.81
262.64	230.81
262.872	222.81
263.105	226.81
263.337	215.81
263.57	246.81
263.802	230.81
264.035	227.81
264.267	228.81
264.499	216.81
264.732	226.81
264.964	233.81
265.197	235.81
265.429	228.81
265.661	223.81
265.894	231.81
266.126	235.81
266.358	232.81
266.591	228.81
266.823	243.81
267.055	236.81
267.287	249.81
267.52	232.81
267.752	216.81
267.984	229.81
268.216	253.81
268.448	253.81
268.681	258.81
268.913	265.81
269.145	265.81
269.377	308.81
269.609	294.81
269.841	286.81
270.073	288.81
270.306	316.81
270.538	338.81
270.77	351.81
271.002	341.81
271.234	320.81
271.466	332.81
271.698	356.81
271.93	335.81
272.162	334.81
272.394	341.81
272.626	334.81
272.858	307.81
273.09	303.81
273.322	294.81
273.553	272.81
273.785	284.81
274.017	258.81
274.249	284.81
274.481	276.81
274.713	272.81
274.945	301.81
275.176	265.81
275.408	291.81
275.64	261.81
275.872	275.81
276.104	279.81
276.335	276.81
276.567	297.81
276.799	293.81
277.031	324.81
277.262	348.81
277.494	343.81
277.726	326.81
277.957	316.81
278.189	299.81
278.421	289.81
278.652	280.81
278.884	260.81
279.115	277.81
279.347	272.81
279.579	274.81
279.81	273.81
280.042	260.81
280.273	263.81
280.505	289.81
280.736	282.81
280.968	270.81
281.199	271.81
281.431	269.81
281.662	275.81
281.894	274.81
282.125	288.81
282.356	298.81
282.588	312.81
282.819	329.81
283.051	287.81
283.282	277.81
283.513	270.81
283.745	271.81
283.976	307.81
284.207	289.81
284.439	280.81
284.67	292.81
284.901	288.81
285.132	274.81
285.364	283.81
285.595	283.81
285.826	281.81
286.057	277.81
286.288	285.81
286.52	270.81
286.751	293.81
286.982	283.81
287.213	285.81
287.444	290.81
287.675	301.81
287.906	282.81
288.138	292.81
288.369	304.81
288.6	309.81
288.831	306.81
289.062	301.81
289.293	308.81
289.524	292.81
289.755	275.81
289.986	286.81
290.217	297.81
290.448	284.81
290.679	289.81
290.91	277.81
291.141	280.81
291.371	270.81
291.602	283.81
291.833	284.81
292.064	290.81
292.295	292.81
292.526	293.81
292.757	269.81
292.987	300.81
293.218	271.81
293.449	294.81
293.68	287.81
293.91	290.81
294.141	293.81
294.372	303.81
294.603	285.81
294.833	284.81
295.064	300.81
295.295	283.81
295.525	292.81
295.756	296.81
295.987	294.81
296.217	329.81
296.448	344.81
296.679	303.81
296.909	294.81
297.14	310.81
297.37	317.81
297.601	312.81
297.831	310.81
298.062	312.81
298.292	310.81
298.523	311.81
298.753	306.81
298.984	283.81
299.214	320.81
299.445	314.81
299.675	314.81
299.905	303.81
300.136	330.81
300.366	333.81
300.597	314.81
300.827	295.81
301.057	310.81
301.288	330.81
301.518	330.81
301.748	334.81
301.979	312.81
302.209	332.81
302.439	320.81
302.669	345.81
302.9	313.81
303.13	331.81
303.36	327.81
303.59	327.81
303.82	342.81
304.051	339.81
304.281	311.81
304.511	325.81
304.741	322.81
304.971	341.81
305.201	358.81
305.431	326.81
305.661	342.81
305.891	320.81
306.121	325.81
306.352	334.81
306.582	355.81
306.812	343.81
307.042	323.81
307.272	323.81
307.502	342.81
307.731	324.81
307.961	327.81
308.191	327.81
308.421	319.81
308.651	348.81
308.881	348.81
309.111	345.81
309.341	351.81
309.571	360.81
309.8	388.81
310.03	380.81
310.26	374.81
310.49	385.81
310.72	421.81
310.949	424.81
311.179	441.81
311.409	404.81
311.639	402.81
311.868	391.81
312.098	396.81
312.328	405.81
312.557	412.81
312.787	445.81
313.017	425.81
313.246	438.81
313.476	400.81
313.706	386.81
313.935	406.81
314.165	398.81
314.394	428.81
314.624	404.81
314.853	409.81
315.083	387.81
315.312	399.81
315.542	424.81
315.771	386.81
316.001	382.81
316.23	402.81
316.46	405.81
316.689	403.81
316.919	394.81
317.148	401.81
317.377	398.81
317.607	420.81
317.836	414.81
318.065	390.81
318.295	390.81
318.524	409.81
318.753	372.81
318.983	388.81
319.212	391.81
319.441	412.81
319.67	398.81
319.9	401.81
320.129	383.81
320.358	406.81
320.587	398.81
320.816	397.81
321.046	437.81
321.275	421.81
321.504	404.81
321.733	444.81
321.962	441.81
322.191	442.81
322.42	450.81
322.649	481.81
322.878	507.81
323.108	502.81
323.337	526.81
323.566	558.81
323.795	589.81
324.024	663.81
324.253	826.81
324.482	1175.81
324.71	1809.81
324.939	2512.81
325.168	2178.81
325.397	1174.81
325.626	764.81
325.855	658.81
326.084	572.81
326.313	554.81
326.542	569.81
326.77	631.81
326.999	774.81
327.228	1026.81
327.457	1567.81
327.686	1914.81
327.914	1294.81
328.143	864.81
328.372	764.81
328.6	703.81
328.829	651.81
329.058	654.81
329.287	676.81
329.515	602.81
329.744	594.81
329.972	593.81
330.201	607.81
330.43	649.81
330.658	679.81
330.887	710.81
331.115	686.81
331.344	591.81
331.572	538.81
331.801	552.81
332.03	520.81
332.258	489.81
332.486	458.81
332.715	462.81
332.943	477.81
333.172	470.81
333.4	462.81
333.629	471.81
333.857	513.81
334.085	522.81
334.314	545.81
334.542	575.81
334.771	596.81
334.999	524.81
335.227	494.81
335.455	448.81
335.684	460.81
335.912	469.81
336.14	478.81
336.369	492.81
336.597	462.81
336.825	476.81
337.053	460.81
337.281	452.81
337.51	445.81
337.738	456.81
337.966	446.81
338.194	462.81
338.422	477.81
338.65	443.81
338.878	442.81
339.106	436.81
339.334	434.81
339.562	438.81
339.79	449.81
340.018	444.81
340.246	436.81
340.474	452.81
340.702	438.81
340.93	450.81
341.158	429.81
341.386	451.81
341.614	469.81
341.842	456.81
342.07	437.81
342.298	438.81
342.526	412.81
342.754	422.81
342.981	416.81
343.209	424.81
343.437	430.81
343.665	441.81
343.893	447.81
344.12	443.81
344.348	434.81
344.576	442.81
344.804	469.81
345.031	458.81
345.259	465.81
345.487	457.81
345.714	454.81
345.942	453.81
346.17	423.81
346.397	427.81
346.625	441.81
346.853	445.81
347.08	434.81
347.308	452.81
347.535	431.81
347.763	463.81
347.99	441.81
348.218	436.81
348.445	451.81
348.673	451.81
348.9	468.81
349.128	437.81
349.355	416.81
349.583	427.81
349.81	434.81
350.037	408.81
350.265	411.81
350.492	431.81
350.72	431.81
350.947	432.81
351.174	455.81
351.402	457.81
351.629	447.81
351.856	449.81
352.083	462.81
352.311	472.81
352.538	444.81
352.765	498.81
352.992	475.81
353.22	454.81
353.447	455.81
353.674	424.81
353.901	421.81
354.128	415.81
354.355	424.81
354.583	422.81
354.81	419.81
355.037	421.81
355.264	391.81
355.491	422.81
355.718	392.81
355.945	403.81
356.172	412.81
356.399	394.81
356.626	400.81
356.853	408.81
357.08	400.81
357.307	397.81
357.534	419.81
357.761	416.81
357.988	410.81
358.215	425.81
358.441	423.81
358.668	413.81
358.895	417.81
359.122	422.81
359.349	428.81
359.576	455.81
359.802	464.81
360.029	498.81
360.256	536.81
360.483	503.81
360.709	471.81
360.936	440.81
361.163	461.81
361.39	458.81
361.616	458.81
361.843	432.81
362.07	439.81
362.296	459.81
362.523	457.81
362.749	454.81
362.976	430.81
363.203	457.81
363.429	421.81
363.656	430.81
363.882	429.81
364.109	432.81
364.335	423.81
364.562	421.81
364.788	425.81
365.015	428.81
365.241	411.81
365.468	435.81
365.694	438.81
365.92	424.81
366.147	420.81
366.373	410.81
366.599	409.81
366.826	418.81
367.052	416.81
367.278	424.81
367.505	411.81
367.731	427.81
367.957	432.81
368.184	429.81
368.41	447.81
368.636	430.81
368.862	428.81
369.089	428.81
369.315	408.81
369.541	422.81
369.767	426.81
369.993	416.81
370.219	423.81
370.445	423.81
370.672	408.81
370.898	412.81
371.124	400.81
371.35	395.81
371.576	436.81
371.802	408.81
372.028	419.81
372.254	424.81
372.48	428.81
372.706	429.81
372.932	431.81
373.158	405.81
373.384	407.81
373.61	409.81
373.835	412.81
374.061	412.81
374.287	432.81
374.513	422.81
374.739	440.81
374.965	436.81
375.191	425.81
375.416	430.81
375.642	413.81
375.868	423.81
376.094	435.81
376.319	407.81
376.545	434.81
376.771	424.81
376.997	420.81
377.222	423.81
377.448	419.81
377.674	408.81
377.899	412.81
378.125	400.81
378.35	400.81
378.576	404.81
378.802	409.81
379.027	415.81
379.253	424.81
379.478	401.81
379.704	411.81
379.929	423.81
380.155	407.81
380.38	420.81
380.606	427.81
380.831	426.81
381.057	461.81
381.282	426.81
381.507	429.81
381.733	408.81
381.958	430.81
382.184	425.81
382.409	437.81
382.634	439.81
382.86	420.81
383.085	447.81
383.31	435.81
383.535	429.81
383.761	453.81
383.986	456.81
384.211	445.81
384.436	438.81
384.662	431.81
384.887	412.81
385.112	424.81
385.337	436.81
385.562	427.81
385.787	455.81
386.013	480.81
386.238	487.81
386.463	451.81
386.688	460.81
386.913	456.81
387.138	453.81
387.363	445.81
387.588	458.81
387.813	440.81
388.038	436.81
388.263	449.81
388.488	452.81
388.713	453.81
388.938	459.81
389.163	467.81
389.387	465.81
389.612	446.81
389.837	446.81
390.062	453.81
390.287	431.81
390.512	436.81
390.736	437.81
390.961	456.81
391.186	460.81
391.411	443.81
391.636	460.81
391.86	460.81
392.085	469.81
392.31	461.81
392.534	443.81
392.759	464.81
392.984	459.81
393.208	439.81
393.433	464.81
393.658	467.81
393.882	435.81
394.107	471.81
394.331	462.81
394.556	444.81
394.78	459.81
395.005	460.81
395.229	443.81
395.454	447.81
395.678	467.81
395.903	474.81
396.127	520.81
396.352	534.81
396.576	494.81
396.801	471.81
397.025	462.81
397.249	476.81
397.474	484.81
397.698	483.81
397.922	498.81
398.147	509.81
398.371	511.81
398.595	504.81
398.82	520.81
399.044	490.81
399.268	508.81
399.492	538.81
399.717	578.81
399.941	585.81
400.165	631.81
400.389	621.81
400.613	558.81
400.837	562.81
401.062	542.81
401.286	551.81
401.51	514.81
401.734	531.81
401.958	524.81
402.182	538.81
402.406	540.81
402.63	554.81
402.854	537.81
403.078	544.81
403.302	529.81
403.526	561.81
403.75	566.81
403.974	535.81
404.198	563.81
404.422	566.81
404.645	555.81
404.869	548.81
405.093	594.81
405.317	627.81
405.541	650.81
405.765	618.81
405.988	596.81
406.212	624.81
406.436	590.81
406.66	639.81
406.883	598.81
407.107	628.81
407.331	664.81
407.555	722.81
407.778	709.81
408.002	673.81
408.226	620.81
408.449	626.81
408.673	606.81
408.896	644.81
409.12	696.81
409.344	644.81
409.567	591.81
409.791	589.81
410.014	564.81
410.238	543.81
410.461	545.81
410.685	564.81
410.908	568.81
411.132	611.81
411.355	644.81
411.578	603.81
411.802	566.81
412.025	553.81
412.249	571.81
412.472	592.81
412.695	634.81
412.919	613.81
413.142	568.81
413.365	552.81
413.589	555.81
413.812	542.81
414.035	531.81
414.258	514.81
414.482	498.81
414.705	527.81
414.928	508.81
415.151	507.81
415.374	518.81
415.597	536.81
415.821	529.81
416.044	540.81
416.267	523.81
416.49	522.81
416.713	529.81
416.936	522.81
417.159	529.81
417.382	539.81
417.605	538.81
417.828	535.81
418.051	558.81
418.274	556.81
418.497	550.81
418.72	518.81
418.943	520.81
419.166	526.81
419.389	554.81
419.611	538.81
419.834	549.81
420.057	562.81
420.28	571.81
420.503	551.81
420.726	575.81
420.948	581.81
421.171	634.81
421.394	650.81
421.617	612.81
421.839	583.81
422.062	590.81
422.285	584.81
422.507	628.81
422.73	739.81
422.953	681.81
423.175	619.81
423.398	574.81
423.621	575.81
423.843	612.81
424.066	639.81
424.288	623.81
424.511	646.81
424.733	692.81
424.956	790.81
425.178	747.81
425.401	731.81
425.623	774.81
425.846	652.81
426.068	618.81
426.291	622.81
426.513	612.81
426.735	619.81
426.958	681.81
427.18	754.81
427.402	904.81
427.625	976.81
427.847	895.81
428.069	794.81
428.292	705.81
428.514	651.81
428.736	646.81
428.958	604.81
429.181	589.81
429.403	599.81
429.625	564.81
429.847	626.81
430.069	699.81
430.292	697.81
430.514	605.81
430.736	574.81
430.958	576.81
431.18	542.81
431.402	553.81
431.624	529.81
431.846	532.81
432.068	537.81
432.29	538.81
432.512	526.81
432.734	538.81
432.956	570.81
433.178	535.81
433.4	536.81
433.622	545.81
433.844	550.81
434.066	550.81
434.287	518.81
434.509	539.81
434.731	563.81
434.953	553.81
435.175	560.81
435.397	575.81
435.618	603.81
435.84	683.81
436.062	759.81
436.284	831.81
436.505	712.81
436.727	655.81
436.949	598.81
437.17	598.81
437.392	573.81
437.614	604.81
437.835	652.81
438.057	765.81
438.278	857.81
438.5	856.81
438.721	920.81
438.943	873.81
439.165	719.81
439.386	665.81
439.608	666.81
439.829	635.81
440.05	674.81
440.272	742.81
440.493	676.81
440.715	643.81
440.936	607.81
441.158	611.81
441.379	589.81
441.6	571.81
441.822	627.81
442.043	666.81
442.264	781.81
442.486	800.81
442.707	706.81
442.928	650.81
443.149	655.81
443.371	665.81
443.592	733.81
443.813	818.81
444.034	875.81
444.255	721.81
444.476	623.81
444.698	624.81
444.919	615.81
445.14	742.81
445.361	702.81
445.582	682.81
445.803	754.81
446.024	853.81
446.245	869.81
446.466	778.81
446.687	692.81
446.908	622.81
447.129	596.81
447.35	594.81
447.571	576.81
447.792	565.81
448.013	583.81
448.234	587.81
448.455	674.81
448.675	802.81
448.896	885.81
449.117	756.81
449.338	724.81
449.559	840.81
449.779	935.81
450	786.81
450.221	644.81
450.442	591.81
450.662	622.81
450.883	597.81
451.104	614.81
451.324	590.81
451.545	576.81
451.766	546.81
451.986	536.81
452.207	502.81
452.428	528.81
452.648	536.81
452.869	537.81
453.089	531.81
453.31	538.81
453.53	533.81
453.751	543.81
453.971	523.81
454.192	583.81
454.412	537.81
454.633	532.81
454.853	523.81
455.073	530.81
455.294	561.81
455.514	656.81
455.734	613.81
455.955	538.81
456.175	498.81
456.395	487.81
456.616	491.81
456.836	500.81
457.056	483.81
457.276	461.81
457.497	484.81
457.717	474.81
457.937	487.81
458.157	492.81
458.377	512.81
458.598	542.81
458.818	608.81
459.038	746.81
459.258	714.81
459.478	612.81
459.698	554.81
459.918	537.81
460.138	529.81
460.358	523.81
460.578	530.81
460.798	540.81
461.018	538.81
461.238	545.81
461.458	514.81
461.678	499.81
461.898	560.81
462.118	540.81
462.338	541.81
462.558	532.81
462.777	522.81
462.997	567.81
463.217	546.81
463.437	546.81
463.657	549.81
463.876	531.81
464.096	535.81
464.316	551.81
464.536	565.81
464.755	551.81
464.975	607.81
465.195	644.81
465.414	756.81
465.634	676.81
465.854	602.81
466.073	589.81
466.293	569.81
466.512	526.81
466.732	535.81
466.951	539.81
467.171	529.81
467.391	538.81
467.61	546.81
467.829	556.81
468.049	553.81
468.268	541.81
468.488	533.81
468.707	507.81
468.927	513.81
469.146	490.81
469.365	520.81
469.585	510.81
469.804	526.81
470.023	536.81
470.243	548.81
470.462	555.81
470.681	581.81
470.901	543.81
471.12	559.81
471.339	534.81
471.558	535.81
471.777	540.81
471.997	552.81
472.216	562.81
472.435	598.81
472.654	579.81
472.873	519.81
473.092	531.81
473.311	526.81
473.53	526.81
473.749	555.81
473.968	607.81
474.187	713.81
474.406	756.81
474.625	640.81
474.844	547.81
475.063	550.81
475.282	542.81
475.501	523.81
475.72	559.81
475.939	573.81
476.158	564.81
476.377	557.81
476.596	550.81
476.814	568.81
477.033	612.81
477.252	587.81
477.471	590.81
477.69	572.81
477.908	576.81
478.127	604.81
478.346	580.81
478.564	581.81
478.783	589.81
479.002	610.81
479.22	592.81
479.439	628.81
479.658	657.81
479.876	678.81
480.095	657.81
480.313	685.81
480.532	686.81
480.751	666.81
480.969	671.81
481.188	782.81
481.406	826.81
481.624	706.81
481.843	656.81
482.061	667.81
482.28	645.81
482.498	648.81
482.717	666.81
482.935	659.81
483.153	622.81
483.372	644.81
483.59	638.81
483.808	642.81
484.027	626.81
484.245	626.81
484.463	633.81
484.681	670.81
484.9	638.81
485.118	655.81
485.336	676.81
485.554	659.81
485.772	663.81
485.99	671.81
486.209	656.81
486.427	691.81
486.645	669.81
486.863	725.81
487.081	718.81
487.299	712.81
487.517	714.81
487.735	678.81
487.953	684.81
488.171	717.81
488.389	738.81
488.607	729.81
488.825	720.81
489.043	692.81
489.261	699.81
489.479	739.81
489.696	712.81
489.914	708.81
490.132	736.81
490.35	717.81
490.568	760.81
490.786	759.81
491.003	792.81
491.221	765.81
491.439	805.81
491.657	825.81
491.874	855.81
492.092	824.81
492.31	823.81
492.527	828.81
492.745	852.81
492.963	835.81
493.18	849.81
493.398	855.81
493.615	850.81
493.833	855.81
494.05	849.81
494.268	829.81
494.485	862.81
494.703	858.81
494.92	887.81
495.138	849.81
495.355	854.81
495.573	850.81
495.79	846.81
496.008	858.81
496.225	843.81
496.442	856.81
496.66	851.81
496.877	831.81
497.094	862.81
497.312	854.81
497.529	892.81
497.746	890.81
497.963	887.81
498.181	920.81
498.398	879.81
498.615	894.81
498.832	900.81
499.049	900.81
499.267	897.81
499.484	957.81
499.701	977.81
499.918	955.81
500.135	994.81
500.352	1029.81
500.569	1058.81
500.786	1048.81
501.003	1018.81
501.22	1001.81
501.437	1030.81
501.654	1016.81
501.871	997.81
