Data from 1970.PennyLincolnUp.Lamp.En5.5.200Scan.071719.P1._HRD10591_15-13-59-842.txt Node
Date: Thu Jul 18 15:13:59 EDT 2019
User: cochatt
Spectrometer: HR+D1059
Trigger mode: 1
Integration Time (sec): 1.000000E-1
Scans to average: 1
Electric dark correction enabled: true
Nonlinearity correction enabled: false
Boxcar width: 0
XAxis mode: Wavelengths
Number of Pixels in Spectrum: 2048
>>>>>Begin Spectral Data<<<<<
223.165	-23.81
223.4	-23.81
223.635	-23.81
223.869	-21.81
224.104	-16.81
224.338	0.19
224.573	-10.81
224.808	-15.81
225.042	-6.81
225.277	5.19
225.511	9.19
225.746	-7.81
225.98	0.19
226.215	18.19
226.449	12.19
226.683	7.19
226.918	20.19
227.152	31.19
227.387	35.19
227.621	35.19
227.856	58.19
228.09	35.19
228.324	47.19
228.559	67.19
228.793	64.19
229.027	105.19
229.262	115.19
229.496	115.19
229.73	141.19
229.964	162.19
230.199	147.19
230.433	133.19
230.667	121.19
230.901	112.19
231.136	123.19
231.37	126.19
231.604	114.19
231.838	121.19
232.072	125.19
232.306	103.19
232.541	113.19
232.775	124.19
233.009	123.19
233.243	121.19
233.477	125.19
233.711	127.19
233.945	121.19
234.179	108.19
234.413	120.19
234.647	124.19
234.881	112.19
235.115	129.19
235.349	121.19
235.583	131.19
235.817	127.19
236.051	139.19
236.285	129.19
236.519	133.19
236.753	151.19
236.987	154.19
237.221	208.19
237.455	227.19
237.689	210.19
237.922	153.19
238.156	129.19
238.39	135.19
238.624	124.19
238.858	140.19
239.091	127.19
239.325	128.19
239.559	127.19
239.793	143.19
240.027	139.19
240.26	139.19
240.494	151.19
240.728	171.19
240.961	161.19
241.195	149.19
241.429	159.19
241.662	138.19
241.896	138.19
242.13	136.19
242.363	132.19
242.597	147.19
242.83	133.19
243.064	128.19
243.298	168.19
243.531	150.19
243.765	142.19
243.998	152.19
244.232	133.19
244.465	154.19
244.699	139.19
244.932	145.19
245.166	145.19
245.399	154.19
245.633	135.19
245.866	143.19
246.099	154.19
246.333	164.19
246.566	167.19
246.8	153.19
247.033	153.19
247.266	182.19
247.5	165.19
247.733	178.19
247.966	199.19
248.2	187.19
248.433	183.19
248.666	201.19
248.899	194.19
249.133	226.19
249.366	232.19
249.599	217.19
249.832	194.19
250.066	193.19
250.299	219.19
250.532	209.19
250.765	215.19
250.998	229.19
251.231	239.19
251.465	230.19
251.698	219.19
251.931	216.19
252.164	214.19
252.397	217.19
252.63	241.19
252.863	222.19
253.096	224.19
253.329	247.19
253.562	225.19
253.795	235.19
254.028	225.19
254.261	238.19
254.494	246.19
254.727	263.19
254.96	293.19
255.193	287.19
255.426	279.19
255.659	267.19
255.892	249.19
256.124	260.19
256.357	238.19
256.59	238.19
256.823	233.19
257.056	226.19
257.289	232.19
257.521	198.19
257.754	211.19
257.987	219.19
258.22	220.19
258.452	220.19
258.685	224.19
258.918	221.19
259.151	224.19
259.383	218.19
259.616	222.19
259.849	233.19
260.081	239.19
260.314	265.19
260.547	273.19
260.779	266.19
261.012	251.19
261.244	239.19
261.477	231.19
261.71	229.19
261.942	237.19
262.175	236.19
262.407	244.19
262.64	228.19
262.872	220.19
263.105	225.19
263.337	239.19
263.57	231.19
263.802	230.19
264.035	199.19
264.267	222.19
264.499	221.19
264.732	218.19
264.964	211.19
265.197	205.19
265.429	232.19
265.661	210.19
265.894	197.19
266.126	231.19
266.358	215.19
266.591	220.19
266.823	212.19
267.055	220.19
267.287	219.19
267.52	218.19
267.752	217.19
267.984	221.19
268.216	211.19
268.448	233.19
268.681	232.19
268.913	242.19
269.145	260.19
269.377	276.19
269.609	271.19
269.841	273.19
270.073	275.19
270.306	290.19
270.538	289.19
270.77	318.19
271.002	300.19
271.234	300.19
271.466	303.19
271.698	302.19
271.93	312.19
272.162	319.19
272.394	312.19
272.626	315.19
272.858	283.19
273.09	281.19
273.322	293.19
273.553	280.19
273.785	268.19
274.017	268.19
274.249	266.19
274.481	271.19
274.713	262.19
274.945	267.19
275.176	258.19
275.408	249.19
275.64	263.19
275.872	251.19
276.104	272.19
276.335	263.19
276.567	254.19
276.799	288.19
277.031	301.19
277.262	339.19
277.494	308.19
277.726	279.19
277.957	285.19
278.189	280.19
278.421	273.19
278.652	263.19
278.884	257.19
279.115	253.19
279.347	261.19
279.579	246.19
279.81	263.19
280.042	241.19
280.273	252.19
280.505	254.19
280.736	241.19
280.968	265.19
281.199	254.19
281.431	260.19
281.662	254.19
281.894	265.19
282.125	261.19
282.356	275.19
282.588	307.19
282.819	295.19
283.051	266.19
283.282	278.19
283.513	251.19
283.745	266.19
283.976	245.19
284.207	251.19
284.439	259.19
284.67	269.19
284.901	253.19
285.132	270.19
285.364	265.19
285.595	271.19
285.826	266.19
286.057	263.19
286.288	277.19
286.52	255.19
286.751	265.19
286.982	249.19
287.213	282.19
287.444	274.19
287.675	270.19
287.906	276.19
288.138	293.19
288.369	251.19
288.6	290.19
288.831	280.19
289.062	253.19
289.293	288.19
289.524	291.19
289.755	284.19
289.986	257.19
290.217	269.19
290.448	282.19
290.679	281.19
290.91	265.19
291.141	265.19
291.371	261.19
291.602	262.19
291.833	275.19
292.064	282.19
292.295	278.19
292.526	273.19
292.757	279.19
292.987	273.19
293.218	271.19
293.449	271.19
293.68	270.19
293.91	252.19
294.141	279.19
294.372	273.19
294.603	279.19
294.833	264.19
295.064	267.19
295.295	286.19
295.525	269.19
295.756	279.19
295.987	300.19
296.217	287.19
296.448	311.19
296.679	287.19
296.909	274.19
297.14	305.19
297.37	285.19
297.601	278.19
297.831	287.19
298.062	275.19
298.292	277.19
298.523	285.19
298.753	281.19
298.984	288.19
299.214	289.19
299.445	291.19
299.675	297.19
299.905	294.19
300.136	305.19
300.366	308.19
300.597	289.19
300.827	281.19
301.057	327.19
301.288	314.19
301.518	291.19
301.748	283.19
301.979	313.19
302.209	307.19
302.439	297.19
302.669	288.19
302.9	315.19
303.13	296.19
303.36	320.19
303.59	314.19
303.82	317.19
304.051	321.19
304.281	307.19
304.511	297.19
304.741	305.19
304.971	304.19
305.201	308.19
305.431	298.19
305.661	303.19
305.891	305.19
306.121	304.19
306.352	333.19
306.582	303.19
306.812	317.19
307.042	312.19
307.272	314.19
307.502	322.19
307.731	318.19
307.961	318.19
308.191	314.19
308.421	325.19
308.651	333.19
308.881	318.19
309.111	318.19
309.341	321.19
309.571	350.19
309.8	334.19
310.03	338.19
310.26	358.19
310.49	346.19
310.72	361.19
310.949	385.19
311.179	397.19
311.409	382.19
311.639	339.19
311.868	379.19
312.098	361.19
312.328	365.19
312.557	379.19
312.787	377.19
313.017	390.19
313.246	368.19
313.476	347.19
313.706	362.19
313.935	364.19
314.165	377.19
314.394	397.19
314.624	394.19
314.853	365.19
315.083	372.19
315.312	349.19
315.542	377.19
315.771	345.19
316.001	353.19
316.23	335.19
316.46	333.19
316.689	363.19
316.919	347.19
317.148	338.19
317.377	367.19
317.607	359.19
317.836	352.19
318.065	374.19
318.295	371.19
318.524	364.19
318.753	358.19
318.983	354.19
319.212	358.19
319.441	367.19
319.67	380.19
319.9	362.19
320.129	355.19
320.358	377.19
320.587	368.19
320.816	376.19
321.046	394.19
321.275	364.19
321.504	381.19
321.733	383.19
321.962	406.19
322.191	410.19
322.42	409.19
322.649	440.19
322.878	430.19
323.108	441.19
323.337	463.19
323.566	480.19
323.795	509.19
324.024	569.19
324.253	713.19
324.482	963.19
324.71	1470.19
324.939	2086.19
325.168	1753.19
325.397	975.19
325.626	659.19
325.855	555.19
326.084	506.19
326.313	484.19
326.542	503.19
326.77	542.19
326.999	640.19
327.228	859.19
327.457	1298.19
327.686	1591.19
327.914	1086.19
328.143	739.19
328.372	629.19
328.6	603.19
328.829	557.19
329.058	607.19
329.287	572.19
329.515	541.19
329.744	524.19
329.972	509.19
330.201	518.19
330.43	568.19
330.658	597.19
330.887	623.19
331.115	621.19
331.344	524.19
331.572	476.19
331.801	485.19
332.03	491.19
332.258	453.19
332.486	435.19
332.715	446.19
332.943	431.19
333.172	441.19
333.4	437.19
333.629	456.19
333.857	447.19
334.085	482.19
334.314	475.19
334.542	523.19
334.771	550.19
334.999	476.19
335.227	464.19
335.455	433.19
335.684	444.19
335.912	434.19
336.14	435.19
336.369	430.19
336.597	439.19
336.825	432.19
337.053	427.19
337.281	416.19
337.51	401.19
337.738	418.19
337.966	412.19
338.194	412.19
338.422	410.19
338.65	425.19
338.878	423.19
339.106	425.19
339.334	404.19
339.562	401.19
339.79	399.19
340.018	406.19
340.246	407.19
340.474	407.19
340.702	413.19
340.93	415.19
341.158	412.19
341.386	405.19
341.614	402.19
341.842	405.19
342.07	421.19
342.298	391.19
342.526	415.19
342.754	389.19
342.981	391.19
343.209	394.19
343.437	390.19
343.665	399.19
343.893	404.19
344.12	402.19
344.348	433.19
344.576	431.19
344.804	411.19
345.031	424.19
345.259	442.19
345.487	404.19
345.714	413.19
345.942	408.19
346.17	415.19
346.397	408.19
346.625	398.19
346.853	408.19
347.08	387.19
347.308	411.19
347.535	406.19
347.763	438.19
347.99	418.19
348.218	441.19
348.445	441.19
348.673	427.19
348.9	390.19
349.128	403.19
349.355	383.19
349.583	400.19
349.81	380.19
350.037	403.19
350.265	408.19
350.492	391.19
350.72	402.19
350.947	399.19
351.174	401.19
351.402	414.19
351.629	419.19
351.856	404.19
352.083	417.19
352.311	410.19
352.538	418.19
352.765	424.19
352.992	412.19
353.22	415.19
353.447	409.19
353.674	398.19
353.901	384.19
354.128	388.19
354.355	392.19
354.583	386.19
354.81	392.19
355.037	381.19
355.264	386.19
355.491	380.19
355.718	363.19
355.945	381.19
356.172	385.19
356.399	394.19
356.626	360.19
356.853	361.19
357.08	377.19
357.307	377.19
357.534	377.19
357.761	389.19
357.988	395.19
358.215	390.19
358.441	396.19
358.668	377.19
358.895	385.19
359.122	401.19
359.349	418.19
359.576	405.19
359.802	423.19
360.029	460.19
360.256	475.19
360.483	461.19
360.709	421.19
360.936	413.19
361.163	426.19
361.39	417.19
361.616	414.19
361.843	414.19
362.07	414.19
362.296	424.19
362.523	415.19
362.749	421.19
362.976	402.19
363.203	380.19
363.429	383.19
363.656	399.19
363.882	384.19
364.109	385.19
364.335	383.19
364.562	407.19
364.788	380.19
365.015	399.19
365.241	386.19
365.468	404.19
365.694	429.19
365.92	400.19
366.147	388.19
366.373	390.19
366.599	399.19
366.826	389.19
367.052	392.19
367.278	381.19
367.505	389.19
367.731	401.19
367.957	404.19
368.184	393.19
368.41	403.19
368.636	397.19
368.862	415.19
369.089	415.19
369.315	399.19
369.541	394.19
369.767	396.19
369.993	391.19
370.219	393.19
370.445	401.19
370.672	386.19
370.898	381.19
371.124	385.19
371.35	379.19
371.576	394.19
371.802	401.19
372.028	385.19
372.254	392.19
372.48	392.19
372.706	406.19
372.932	391.19
373.158	424.19
373.384	396.19
373.61	400.19
373.835	408.19
374.061	417.19
374.287	404.19
374.513	401.19
374.739	407.19
374.965	399.19
375.191	405.19
375.416	399.19
375.642	387.19
375.868	387.19
376.094	391.19
376.319	395.19
376.545	398.19
376.771	412.19
376.997	401.19
377.222	387.19
377.448	415.19
377.674	379.19
377.899	398.19
378.125	386.19
378.35	402.19
378.576	397.19
378.802	400.19
379.027	407.19
379.253	402.19
379.478	411.19
379.704	389.19
379.929	387.19
380.155	395.19
380.38	395.19
380.606	406.19
380.831	402.19
381.057	415.19
381.282	397.19
381.507	395.19
381.733	413.19
381.958	405.19
382.184	406.19
382.409	418.19
382.634	389.19
382.86	410.19
383.085	411.19
383.31	401.19
383.535	395.19
383.761	426.19
383.986	387.19
384.211	427.19
384.436	412.19
384.662	418.19
384.887	415.19
385.112	422.19
385.337	430.19
385.562	427.19
385.787	411.19
386.013	425.19
386.238	435.19
386.463	417.19
386.688	434.19
386.913	447.19
387.138	424.19
387.363	421.19
387.588	446.19
387.813	423.19
388.038	413.19
388.263	438.19
388.488	434.19
388.713	430.19
388.938	415.19
389.163	438.19
389.387	422.19
389.612	419.19
389.837	427.19
390.062	440.19
390.287	443.19
390.512	434.19
390.736	425.19
390.961	426.19
391.186	441.19
391.411	420.19
391.636	433.19
391.86	437.19
392.085	431.19
392.31	433.19
392.534	441.19
392.759	447.19
392.984	437.19
393.208	421.19
393.433	455.19
393.658	451.19
393.882	442.19
394.107	422.19
394.331	426.19
394.556	432.19
394.78	427.19
395.005	433.19
395.229	437.19
395.454	457.19
395.678	440.19
395.903	450.19
396.127	467.19
396.352	504.19
396.576	461.19
396.801	453.19
397.025	465.19
397.249	468.19
397.474	474.19
397.698	482.19
397.922	471.19
398.147	492.19
398.371	482.19
398.595	474.19
398.82	487.19
399.044	485.19
399.268	510.19
399.492	506.19
399.717	513.19
399.941	566.19
400.165	572.19
400.389	593.19
400.613	543.19
400.837	527.19
401.062	522.19
401.286	510.19
401.51	498.19
401.734	498.19
401.958	499.19
402.182	486.19
402.406	502.19
402.63	515.19
402.854	511.19
403.078	520.19
403.302	501.19
403.526	502.19
403.75	517.19
403.974	501.19
404.198	508.19
404.422	527.19
404.645	527.19
404.869	543.19
405.093	569.19
405.317	578.19
405.541	611.19
405.765	569.19
405.988	560.19
406.212	569.19
406.436	555.19
406.66	605.19
406.883	577.19
407.107	599.19
407.331	620.19
407.555	679.19
407.778	653.19
408.002	634.19
408.226	575.19
408.449	578.19
408.673	577.19
408.896	592.19
409.12	614.19
409.344	583.19
409.567	557.19
409.791	549.19
410.014	521.19
410.238	520.19
410.461	525.19
410.685	527.19
410.908	528.19
411.132	577.19
411.355	612.19
411.578	583.19
411.802	539.19
412.025	533.19
412.249	546.19
412.472	554.19
412.695	601.19
412.919	598.19
413.142	527.19
413.365	525.19
413.589	520.19
413.812	487.19
414.035	502.19
414.258	496.19
414.482	509.19
414.705	498.19
414.928	506.19
415.151	523.19
415.374	491.19
415.597	488.19
415.821	491.19
416.044	491.19
416.267	497.19
416.49	503.19
416.713	482.19
416.936	496.19
417.159	485.19
417.382	494.19
417.605	491.19
417.828	493.19
418.051	543.19
418.274	525.19
418.497	521.19
418.72	502.19
418.943	501.19
419.166	512.19
419.389	525.19
419.611	540.19
419.834	525.19
420.057	513.19
420.28	542.19
420.503	495.19
420.726	496.19
420.948	544.19
421.171	591.19
421.394	610.19
421.617	541.19
421.839	539.19
422.062	522.19
422.285	539.19
422.507	590.19
422.73	677.19
422.953	667.19
423.175	585.19
423.398	550.19
423.621	551.19
423.843	586.19
424.066	580.19
424.288	582.19
424.511	602.19
424.733	640.19
424.956	706.19
425.178	682.19
425.401	695.19
425.623	713.19
425.846	629.19
426.068	597.19
426.291	603.19
426.513	559.19
426.735	571.19
426.958	616.19
427.18	705.19
427.402	842.19
427.625	898.19
427.847	821.19
428.069	729.19
428.292	643.19
428.514	595.19
428.736	557.19
428.958	569.19
429.181	537.19
429.403	547.19
429.625	549.19
429.847	575.19
430.069	629.19
430.292	644.19
430.514	577.19
430.736	549.19
430.958	529.19
431.18	526.19
431.402	515.19
431.624	485.19
431.846	497.19
432.068	480.19
432.29	532.19
432.512	533.19
432.734	519.19
432.956	516.19
433.178	498.19
433.4	528.19
433.622	517.19
433.844	502.19
434.066	506.19
434.287	519.19
434.509	498.19
434.731	533.19
434.953	523.19
435.175	537.19
435.397	569.19
435.618	586.19
435.84	634.19
436.062	696.19
436.284	754.19
436.505	674.19
436.727	606.19
436.949	553.19
437.17	560.19
437.392	547.19
437.614	560.19
437.835	601.19
438.057	697.19
438.278	794.19
438.5	799.19
438.721	829.19
438.943	803.19
439.165	663.19
439.386	618.19
439.608	596.19
439.829	617.19
440.05	624.19
440.272	666.19
440.493	635.19
440.715	590.19
440.936	567.19
441.158	559.19
441.379	549.19
441.6	557.19
441.822	581.19
442.043	601.19
442.264	685.19
442.486	727.19
442.707	662.19
442.928	632.19
443.149	606.19
443.371	624.19
443.592	666.19
443.813	743.19
444.034	763.19
444.255	675.19
444.476	601.19
444.698	587.19
444.919	600.19
445.14	678.19
445.361	641.19
445.582	633.19
445.803	689.19
446.024	762.19
446.245	784.19
446.466	728.19
446.687	635.19
446.908	608.19
447.129	551.19
447.35	552.19
447.571	553.19
447.792	552.19
448.013	567.19
448.234	593.19
448.455	604.19
448.675	746.19
448.896	829.19
449.117	697.19
449.338	679.19
449.559	790.19
449.779	847.19
450	707.19
450.221	627.19
450.442	571.19
450.662	543.19
450.883	547.19
451.104	583.19
451.324	561.19
451.545	539.19
451.766	486.19
451.986	463.19
452.207	485.19
452.428	498.19
452.648	477.19
452.869	465.19
453.089	484.19
453.31	497.19
453.53	497.19
453.751	487.19
453.971	507.19
454.192	523.19
454.412	504.19
454.633	479.19
454.853	482.19
455.073	481.19
455.294	530.19
455.514	569.19
455.734	562.19
455.955	486.19
456.175	430.19
456.395	474.19
456.616	453.19
456.836	477.19
457.056	454.19
457.276	439.19
457.497	455.19
457.717	445.19
457.937	461.19
458.157	451.19
458.377	480.19
458.598	497.19
458.818	592.19
459.038	643.19
459.258	641.19
459.478	556.19
459.698	521.19
459.918	503.19
460.138	511.19
460.358	514.19
460.578	498.19
460.798	497.19
461.018	509.19
461.238	509.19
461.458	505.19
461.678	496.19
461.898	495.19
462.118	503.19
462.338	519.19
462.558	494.19
462.777	533.19
462.997	545.19
463.217	538.19
463.437	561.19
463.657	524.19
463.876	533.19
464.096	531.19
464.316	509.19
464.536	523.19
464.755	553.19
464.975	552.19
465.195	601.19
465.414	661.19
465.634	602.19
465.854	559.19
466.073	535.19
466.293	508.19
466.512	525.19
466.732	479.19
466.951	493.19
467.171	492.19
467.391	519.19
467.61	502.19
467.829	527.19
468.049	512.19
468.268	498.19
468.488	476.19
468.707	472.19
468.927	486.19
469.146	477.19
469.365	460.19
469.585	477.19
469.804	484.19
470.023	519.19
470.243	498.19
470.462	505.19
470.681	537.19
470.901	498.19
471.12	507.19
471.339	517.19
471.558	510.19
471.777	508.19
471.997	501.19
472.216	498.19
472.435	537.19
472.654	535.19
472.873	521.19
473.092	508.19
473.311	517.19
473.53	519.19
473.749	509.19
473.968	549.19
474.187	637.19
474.406	699.19
474.625	575.19
474.844	522.19
475.063	528.19
475.282	511.19
475.501	515.19
475.72	505.19
475.939	504.19
476.158	511.19
476.377	521.19
476.596	490.19
476.814	539.19
477.033	525.19
477.252	536.19
477.471	544.19
477.69	549.19
477.908	561.19
478.127	556.19
478.346	569.19
478.564	555.19
478.783	592.19
479.002	595.19
479.22	576.19
479.439	594.19
479.658	595.19
479.876	614.19
480.095	637.19
480.313	665.19
480.532	653.19
480.751	623.19
480.969	618.19
481.188	681.19
481.406	732.19
481.624	653.19
481.843	631.19
482.061	615.19
482.28	608.19
482.498	598.19
482.717	601.19
482.935	613.19
483.153	614.19
483.372	603.19
483.59	623.19
483.808	630.19
484.027	611.19
484.245	614.19
484.463	589.19
484.681	617.19
484.9	618.19
485.118	604.19
485.336	617.19
485.554	635.19
485.772	641.19
485.99	632.19
486.209	642.19
486.427	629.19
486.645	636.19
486.863	666.19
487.081	654.19
487.299	645.19
487.517	657.19
487.735	660.19
487.953	643.19
488.171	642.19
488.389	667.19
488.607	637.19
488.825	653.19
489.043	648.19
489.261	632.19
489.479	679.19
489.696	677.19
489.914	684.19
490.132	671.19
490.35	704.19
490.568	714.19
490.786	692.19
491.003	736.19
491.221	721.19
491.439	751.19
491.657	742.19
491.874	794.19
492.092	770.19
492.31	778.19
492.527	766.19
492.745	755.19
492.963	759.19
493.18	791.19
493.398	783.19
493.615	789.19
493.833	798.19
494.05	791.19
494.268	772.19
494.485	774.19
494.703	757.19
494.92	807.19
495.138	803.19
495.355	805.19
495.573	793.19
495.79	786.19
496.008	817.19
496.225	780.19
496.442	784.19
496.66	779.19
496.877	803.19
497.094	814.19
497.312	807.19
497.529	829.19
497.746	825.19
497.963	783.19
498.181	826.19
498.398	812.19
498.615	830.19
498.832	840.19
499.049	854.19
499.267	879.19
499.484	866.19
499.701	916.19
499.918	927.19
500.135	950.19
500.352	970.19
500.569	992.19
500.786	966.19
501.003	950.19
501.22	979.19
501.437	953.19
501.654	930.19
501.871	927.19
