Data from 1970.PennyLincolnUp.Lamp.En5.5.200Scan.071719.P1._HRD10591_15-14-51-842.txt Node
Date: Thu Jul 18 15:14:51 EDT 2019
User: cochatt
Spectrometer: HR+D1059
Trigger mode: 1
Integration Time (sec): 1.000000E-1
Scans to average: 1
Electric dark correction enabled: true
Nonlinearity correction enabled: false
Boxcar width: 0
XAxis mode: Wavelengths
Number of Pixels in Spectrum: 2048
>>>>>Begin Spectral Data<<<<<
223.165	-19.75
223.4	-19.75
223.635	-19.75
223.869	-18.75
224.104	-15.75
224.338	-6.75
224.573	-11.75
224.808	-4.75
225.042	-7.75
225.277	-13.75
225.511	2.25
225.746	19.25
225.98	3.25
226.215	21.25
226.449	12.25
226.683	7.25
226.918	3.25
227.152	30.25
227.387	28.25
227.621	41.25
227.856	39.25
228.09	53.25
228.324	60.25
228.559	58.25
228.793	75.25
229.027	108.25
229.262	118.25
229.496	135.25
229.73	137.25
229.964	182.25
230.199	142.25
230.433	117.25
230.667	108.25
230.901	130.25
231.136	114.25
231.37	125.25
231.604	128.25
231.838	123.25
232.072	122.25
232.306	126.25
232.541	124.25
232.775	115.25
233.009	127.25
233.243	110.25
233.477	112.25
233.711	115.25
233.945	128.25
234.179	116.25
234.413	128.25
234.647	106.25
234.881	118.25
235.115	120.25
235.349	136.25
235.583	122.25
235.817	121.25
236.051	132.25
236.285	125.25
236.519	137.25
236.753	128.25
236.987	153.25
237.221	206.25
237.455	259.25
237.689	198.25
237.922	165.25
238.156	142.25
238.39	152.25
238.624	130.25
238.858	140.25
239.091	147.25
239.325	142.25
239.559	136.25
239.793	128.25
240.027	154.25
240.26	149.25
240.494	171.25
240.728	158.25
240.961	179.25
241.195	164.25
241.429	144.25
241.662	138.25
241.896	149.25
242.13	143.25
242.363	148.25
242.597	123.25
242.83	131.25
243.064	173.25
243.298	160.25
243.531	163.25
243.765	139.25
243.998	138.25
244.232	148.25
244.465	158.25
244.699	152.25
244.932	152.25
245.166	158.25
245.399	145.25
245.633	144.25
245.866	160.25
246.099	154.25
246.333	159.25
246.566	168.25
246.8	165.25
247.033	157.25
247.266	171.25
247.5	193.25
247.733	192.25
247.966	167.25
248.2	207.25
248.433	191.25
248.666	201.25
248.899	183.25
249.133	227.25
249.366	216.25
249.599	218.25
249.832	186.25
250.066	191.25
250.299	195.25
250.532	212.25
250.765	209.25
250.998	237.25
251.231	264.25
251.465	233.25
251.698	228.25
251.931	203.25
252.164	218.25
252.397	204.25
252.63	217.25
252.863	229.25
253.096	240.25
253.329	269.25
253.562	246.25
253.795	227.25
254.028	256.25
254.261	245.25
254.494	272.25
254.727	274.25
254.96	315.25
255.193	298.25
255.426	292.25
255.659	280.25
255.892	259.25
256.124	265.25
256.357	268.25
256.59	245.25
256.823	248.25
257.056	227.25
257.289	239.25
257.521	236.25
257.754	240.25
257.987	229.25
258.22	248.25
258.452	231.25
258.685	210.25
258.918	220.25
259.151	234.25
259.383	245.25
259.616	236.25
259.849	244.25
260.081	252.25
260.314	271.25
260.547	311.25
260.779	266.25
261.012	248.25
261.244	230.25
261.477	223.25
261.71	251.25
261.942	246.25
262.175	268.25
262.407	264.25
262.64	239.25
262.872	223.25
263.105	233.25
263.337	228.25
263.57	243.25
263.802	224.25
264.035	220.25
264.267	229.25
264.499	214.25
264.732	219.25
264.964	223.25
265.197	222.25
265.429	222.25
265.661	227.25
265.894	213.25
266.126	222.25
266.358	220.25
266.591	240.25
266.823	235.25
267.055	244.25
267.287	234.25
267.52	242.25
267.752	247.25
267.984	238.25
268.216	234.25
268.448	240.25
268.681	248.25
268.913	262.25
269.145	264.25
269.377	300.25
269.609	287.25
269.841	302.25
270.073	312.25
270.306	315.25
270.538	326.25
270.77	335.25
271.002	331.25
271.234	323.25
271.466	329.25
271.698	352.25
271.93	338.25
272.162	327.25
272.394	346.25
272.626	322.25
272.858	320.25
273.09	321.25
273.322	278.25
273.553	270.25
273.785	272.25
274.017	278.25
274.249	280.25
274.481	272.25
274.713	276.25
274.945	263.25
275.176	265.25
275.408	263.25
275.64	287.25
275.872	267.25
276.104	264.25
276.335	283.25
276.567	297.25
276.799	290.25
277.031	320.25
277.262	328.25
277.494	326.25
277.726	322.25
277.957	295.25
278.189	306.25
278.421	284.25
278.652	280.25
278.884	258.25
279.115	284.25
279.347	274.25
279.579	284.25
279.81	279.25
280.042	270.25
280.273	264.25
280.505	284.25
280.736	271.25
280.968	240.25
281.199	258.25
281.431	274.25
281.662	260.25
281.894	283.25
282.125	284.25
282.356	304.25
282.588	311.25
282.819	316.25
283.051	290.25
283.282	278.25
283.513	281.25
283.745	288.25
283.976	262.25
284.207	270.25
284.439	286.25
284.67	271.25
284.901	274.25
285.132	277.25
285.364	276.25
285.595	286.25
285.826	279.25
286.057	292.25
286.288	293.25
286.52	281.25
286.751	265.25
286.982	287.25
287.213	293.25
287.444	298.25
287.675	299.25
287.906	294.25
288.138	302.25
288.369	311.25
288.6	307.25
288.831	291.25
289.062	297.25
289.293	331.25
289.524	298.25
289.755	295.25
289.986	293.25
290.217	291.25
290.448	291.25
290.679	293.25
290.91	286.25
291.141	299.25
291.371	297.25
291.602	281.25
291.833	293.25
292.064	290.25
292.295	292.25
292.526	279.25
292.757	280.25
292.987	277.25
293.218	286.25
293.449	298.25
293.68	280.25
293.91	288.25
294.141	300.25
294.372	282.25
294.603	285.25
294.833	280.25
295.064	297.25
295.295	302.25
295.525	292.25
295.756	299.25
295.987	307.25
296.217	346.25
296.448	346.25
296.679	301.25
296.909	301.25
297.14	270.25
297.37	298.25
297.601	312.25
297.831	310.25
298.062	300.25
298.292	298.25
298.523	293.25
298.753	296.25
298.984	293.25
299.214	312.25
299.445	308.25
299.675	295.25
299.905	305.25
300.136	302.25
300.366	298.25
300.597	300.25
300.827	308.25
301.057	322.25
301.288	331.25
301.518	308.25
301.748	314.25
301.979	330.25
302.209	316.25
302.439	323.25
302.669	318.25
302.9	324.25
303.13	320.25
303.36	326.25
303.59	326.25
303.82	335.25
304.051	349.25
304.281	301.25
304.511	322.25
304.741	326.25
304.971	322.25
305.201	309.25
305.431	309.25
305.661	324.25
305.891	335.25
306.121	337.25
306.352	326.25
306.582	340.25
306.812	358.25
307.042	339.25
307.272	330.25
307.502	354.25
307.731	345.25
307.961	332.25
308.191	334.25
308.421	337.25
308.651	333.25
308.881	326.25
309.111	339.25
309.341	355.25
309.571	360.25
309.8	376.25
310.03	384.25
310.26	379.25
310.49	388.25
310.72	392.25
310.949	414.25
311.179	410.25
311.409	387.25
311.639	393.25
311.868	378.25
312.098	392.25
312.328	390.25
312.557	408.25
312.787	428.25
313.017	429.25
313.246	401.25
313.476	395.25
313.706	387.25
313.935	379.25
314.165	427.25
314.394	411.25
314.624	404.25
314.853	394.25
315.083	422.25
315.312	378.25
315.542	380.25
315.771	376.25
316.001	385.25
316.23	388.25
316.46	397.25
316.689	398.25
316.919	404.25
317.148	398.25
317.377	407.25
317.607	406.25
317.836	402.25
318.065	373.25
318.295	360.25
318.524	377.25
318.753	376.25
318.983	393.25
319.212	385.25
319.441	393.25
319.67	399.25
319.9	387.25
320.129	388.25
320.358	396.25
320.587	395.25
320.816	389.25
321.046	412.25
321.275	410.25
321.504	408.25
321.733	416.25
321.962	416.25
322.191	440.25
322.42	465.25
322.649	469.25
322.878	485.25
323.108	477.25
323.337	539.25
323.566	536.25
323.795	587.25
324.024	660.25
324.253	776.25
324.482	1123.25
324.71	1716.25
324.939	2430.25
325.168	2094.25
325.397	1135.25
325.626	769.25
325.855	638.25
326.084	548.25
326.313	560.25
326.542	563.25
326.77	607.25
326.999	726.25
327.228	986.25
327.457	1507.25
327.686	1801.25
327.914	1263.25
328.143	851.25
328.372	744.25
328.6	657.25
328.829	632.25
329.058	653.25
329.287	669.25
329.515	601.25
329.744	576.25
329.972	581.25
330.201	613.25
330.43	639.25
330.658	646.25
330.887	701.25
331.115	668.25
331.344	579.25
331.572	516.25
331.801	530.25
332.03	539.25
332.258	500.25
332.486	460.25
332.715	490.25
332.943	468.25
333.172	474.25
333.4	465.25
333.629	470.25
333.857	506.25
334.085	488.25
334.314	532.25
334.542	549.25
334.771	597.25
334.999	531.25
335.227	502.25
335.455	466.25
335.684	466.25
335.912	467.25
336.14	446.25
336.369	456.25
336.597	463.25
336.825	459.25
337.053	465.25
337.281	438.25
337.51	450.25
337.738	452.25
337.966	450.25
338.194	427.25
338.422	444.25
338.65	460.25
338.878	453.25
339.106	427.25
339.334	453.25
339.562	436.25
339.79	429.25
340.018	464.25
340.246	456.25
340.474	462.25
340.702	460.25
340.93	456.25
341.158	428.25
341.386	444.25
341.614	434.25
341.842	425.25
342.07	416.25
342.298	432.25
342.526	438.25
342.754	443.25
342.981	436.25
343.209	429.25
343.437	427.25
343.665	407.25
343.893	431.25
344.12	430.25
344.348	446.25
344.576	453.25
344.804	450.25
345.031	459.25
345.259	471.25
345.487	455.25
345.714	463.25
345.942	449.25
346.17	444.25
346.397	438.25
346.625	442.25
346.853	434.25
347.08	426.25
347.308	448.25
347.535	458.25
347.763	446.25
347.99	466.25
348.218	447.25
348.445	460.25
348.673	462.25
348.9	421.25
349.128	436.25
349.355	415.25
349.583	447.25
349.81	418.25
350.037	428.25
350.265	420.25
350.492	413.25
350.72	415.25
350.947	419.25
351.174	439.25
351.402	447.25
351.629	444.25
351.856	455.25
352.083	452.25
352.311	451.25
352.538	448.25
352.765	455.25
352.992	440.25
353.22	447.25
353.447	418.25
353.674	428.25
353.901	428.25
354.128	418.25
354.355	406.25
354.583	411.25
354.81	395.25
355.037	399.25
355.264	419.25
355.491	412.25
355.718	424.25
355.945	406.25
356.172	378.25
356.399	413.25
356.626	407.25
356.853	416.25
357.08	404.25
357.307	419.25
357.534	404.25
357.761	403.25
357.988	411.25
358.215	401.25
358.441	420.25
358.668	410.25
358.895	414.25
359.122	408.25
359.349	415.25
359.576	442.25
359.802	472.25
360.029	512.25
360.256	525.25
360.483	497.25
360.709	468.25
360.936	437.25
361.163	453.25
361.39	432.25
361.616	446.25
361.843	442.25
362.07	434.25
362.296	451.25
362.523	441.25
362.749	451.25
362.976	424.25
363.203	448.25
363.429	422.25
363.656	434.25
363.882	426.25
364.109	410.25
364.335	444.25
364.562	446.25
364.788	411.25
365.015	436.25
365.241	422.25
365.468	437.25
365.694	452.25
365.92	428.25
366.147	420.25
366.373	446.25
366.599	418.25
366.826	424.25
367.052	416.25
367.278	426.25
367.505	413.25
367.731	450.25
367.957	443.25
368.184	439.25
368.41	457.25
368.636	425.25
368.862	458.25
369.089	450.25
369.315	443.25
369.541	404.25
369.767	420.25
369.993	435.25
370.219	437.25
370.445	446.25
370.672	402.25
370.898	423.25
371.124	442.25
371.35	436.25
371.576	404.25
371.802	418.25
372.028	406.25
372.254	415.25
372.48	440.25
372.706	402.25
372.932	413.25
373.158	407.25
373.384	423.25
373.61	414.25
373.835	426.25
374.061	423.25
374.287	442.25
374.513	420.25
374.739	439.25
374.965	415.25
375.191	428.25
375.416	426.25
375.642	424.25
375.868	424.25
376.094	423.25
376.319	427.25
376.545	428.25
376.771	436.25
376.997	402.25
377.222	436.25
377.448	436.25
377.674	409.25
377.899	421.25
378.125	406.25
378.35	412.25
378.576	411.25
378.802	409.25
379.027	440.25
379.253	428.25
379.478	433.25
379.704	410.25
379.929	424.25
380.155	436.25
380.38	439.25
380.606	427.25
380.831	407.25
381.057	411.25
381.282	403.25
381.507	429.25
381.733	428.25
381.958	433.25
382.184	439.25
382.409	437.25
382.634	438.25
382.86	439.25
383.085	458.25
383.31	449.25
383.535	441.25
383.761	423.25
383.986	431.25
384.211	439.25
384.436	455.25
384.662	445.25
384.887	450.25
385.112	442.25
385.337	459.25
385.562	475.25
385.787	461.25
386.013	454.25
386.238	478.25
386.463	482.25
386.688	477.25
386.913	440.25
387.138	468.25
387.363	454.25
387.588	438.25
387.813	470.25
388.038	447.25
388.263	436.25
388.488	443.25
388.713	459.25
388.938	472.25
389.163	461.25
389.387	463.25
389.612	458.25
389.837	453.25
390.062	454.25
390.287	447.25
390.512	449.25
390.736	456.25
390.961	467.25
391.186	468.25
391.411	469.25
391.636	448.25
391.86	462.25
392.085	474.25
392.31	452.25
392.534	454.25
392.759	477.25
392.984	472.25
393.208	454.25
393.433	487.25
393.658	469.25
393.882	454.25
394.107	462.25
394.331	463.25
394.556	452.25
394.78	477.25
395.005	472.25
395.229	468.25
395.454	491.25
395.678	502.25
395.903	482.25
396.127	518.25
396.352	494.25
396.576	494.25
396.801	499.25
397.025	465.25
397.249	473.25
397.474	503.25
397.698	490.25
397.922	508.25
398.147	504.25
398.371	548.25
398.595	506.25
398.82	546.25
399.044	526.25
399.268	547.25
399.492	549.25
399.717	585.25
399.941	628.25
400.165	638.25
400.389	649.25
400.613	594.25
400.837	562.25
401.062	535.25
401.286	548.25
401.51	533.25
401.734	537.25
401.958	510.25
402.182	533.25
402.406	544.25
402.63	543.25
402.854	551.25
403.078	529.25
403.302	549.25
403.526	563.25
403.75	538.25
403.974	551.25
404.198	508.25
404.422	541.25
404.645	576.25
404.869	578.25
405.093	614.25
405.317	669.25
405.541	691.25
405.765	615.25
405.988	602.25
406.212	591.25
406.436	622.25
406.66	644.25
406.883	634.25
407.107	619.25
407.331	653.25
407.555	750.25
407.778	707.25
408.002	663.25
408.226	616.25
408.449	630.25
408.673	616.25
408.896	639.25
409.12	685.25
409.344	652.25
409.567	590.25
409.791	570.25
410.014	576.25
410.238	566.25
410.461	541.25
410.685	565.25
410.908	588.25
411.132	612.25
411.355	667.25
411.578	617.25
411.802	570.25
412.025	571.25
412.249	566.25
412.472	599.25
412.695	655.25
412.919	642.25
413.142	576.25
413.365	564.25
413.589	554.25
413.812	552.25
414.035	528.25
414.258	528.25
414.482	506.25
414.705	502.25
414.928	501.25
415.151	503.25
415.374	509.25
415.597	527.25
415.821	523.25
416.044	535.25
416.267	534.25
416.49	515.25
416.713	534.25
416.936	538.25
417.159	524.25
417.382	539.25
417.605	559.25
417.828	579.25
418.051	555.25
418.274	574.25
418.497	554.25
418.72	532.25
418.943	507.25
419.166	527.25
419.389	584.25
419.611	574.25
419.834	572.25
420.057	569.25
420.28	581.25
420.503	563.25
420.726	568.25
420.948	574.25
421.171	626.25
421.394	651.25
421.617	593.25
421.839	568.25
422.062	579.25
422.285	572.25
422.507	641.25
422.73	740.25
422.953	715.25
423.175	624.25
423.398	577.25
423.621	595.25
423.843	622.25
424.066	620.25
424.288	590.25
424.511	642.25
424.733	697.25
424.956	789.25
425.178	754.25
425.401	743.25
425.623	776.25
425.846	672.25
426.068	611.25
426.291	629.25
426.513	621.25
426.735	642.25
426.958	664.25
427.18	738.25
427.402	881.25
427.625	998.25
427.847	913.25
428.069	791.25
428.292	683.25
428.514	650.25
428.736	612.25
428.958	631.25
429.181	583.25
429.403	591.25
429.625	613.25
429.847	618.25
430.069	706.25
430.292	718.25
430.514	622.25
430.736	575.25
430.958	564.25
431.18	562.25
431.402	552.25
431.624	535.25
431.846	532.25
432.068	539.25
432.29	515.25
432.512	548.25
432.734	559.25
432.956	566.25
433.178	557.25
433.4	562.25
433.622	531.25
433.844	551.25
434.066	543.25
434.287	561.25
434.509	524.25
434.731	559.25
434.953	568.25
435.175	576.25
435.397	628.25
435.618	614.25
435.84	672.25
436.062	793.25
436.284	831.25
436.505	718.25
436.727	670.25
436.949	633.25
437.17	627.25
437.392	571.25
437.614	617.25
437.835	657.25
438.057	756.25
438.278	887.25
438.5	859.25
438.721	898.25
438.943	875.25
439.165	750.25
439.386	663.25
439.608	664.25
439.829	643.25
440.05	663.25
440.272	712.25
440.493	667.25
440.715	619.25
440.936	619.25
441.158	584.25
441.379	590.25
441.6	607.25
441.822	626.25
442.043	673.25
442.264	772.25
442.486	802.25
442.707	699.25
442.928	650.25
443.149	640.25
443.371	686.25
443.592	727.25
443.813	788.25
444.034	869.25
444.255	716.25
444.476	672.25
444.698	629.25
444.919	616.25
445.14	716.25
445.361	692.25
445.582	686.25
445.803	774.25
446.024	837.25
446.245	846.25
446.466	767.25
446.687	703.25
446.908	650.25
447.129	617.25
447.35	607.25
447.571	577.25
447.792	598.25
448.013	566.25
448.234	606.25
448.455	679.25
448.675	807.25
448.896	871.25
449.117	773.25
449.338	743.25
449.559	838.25
449.779	913.25
450	767.25
450.221	654.25
450.442	636.25
450.662	596.25
450.883	600.25
451.104	602.25
451.324	600.25
451.545	554.25
451.766	554.25
451.986	550.25
452.207	509.25
452.428	513.25
452.648	525.25
452.869	527.25
453.089	548.25
453.31	562.25
453.53	523.25
453.751	522.25
453.971	518.25
454.192	572.25
454.412	544.25
454.633	538.25
454.853	524.25
455.073	504.25
455.294	542.25
455.514	625.25
455.734	604.25
455.955	520.25
456.175	499.25
456.395	491.25
456.616	485.25
456.836	490.25
457.056	481.25
457.276	460.25
457.497	478.25
457.717	485.25
457.937	502.25
458.157	500.25
458.377	520.25
458.598	534.25
458.818	623.25
459.038	693.25
459.258	710.25
459.478	607.25
459.698	583.25
459.918	522.25
460.138	527.25
460.358	559.25
460.578	533.25
460.798	527.25
461.018	541.25
461.238	527.25
461.458	536.25
461.678	541.25
461.898	520.25
462.118	542.25
462.338	564.25
462.558	558.25
462.777	546.25
462.997	550.25
463.217	536.25
463.437	583.25
463.657	584.25
463.876	576.25
464.096	565.25
464.316	565.25
464.536	598.25
464.755	563.25
464.975	588.25
465.195	630.25
465.414	736.25
465.634	674.25
465.854	593.25
466.073	590.25
466.293	540.25
466.512	520.25
466.732	552.25
466.951	539.25
467.171	542.25
467.391	540.25
467.61	547.25
467.829	582.25
468.049	554.25
468.268	536.25
468.488	508.25
468.707	519.25
468.927	533.25
469.146	518.25
469.365	536.25
469.585	503.25
469.804	532.25
470.023	551.25
470.243	540.25
470.462	560.25
470.681	573.25
470.901	566.25
471.12	528.25
471.339	535.25
471.558	530.25
471.777	521.25
471.997	535.25
472.216	564.25
472.435	619.25
472.654	596.25
472.873	551.25
473.092	556.25
473.311	552.25
473.53	553.25
473.749	540.25
473.968	595.25
474.187	719.25
474.406	741.25
474.625	618.25
474.844	554.25
475.063	542.25
475.282	563.25
475.501	551.25
475.72	551.25
475.939	552.25
476.158	573.25
476.377	562.25
476.596	548.25
476.814	582.25
477.033	563.25
477.252	581.25
477.471	574.25
477.69	582.25
477.908	601.25
478.127	588.25
478.346	596.25
478.564	594.25
478.783	591.25
479.002	619.25
479.22	621.25
479.439	649.25
479.658	638.25
479.876	671.25
480.095	660.25
480.313	679.25
480.532	673.25
480.751	664.25
480.969	683.25
481.188	751.25
481.406	790.25
481.624	741.25
481.843	671.25
482.061	690.25
482.28	668.25
482.498	654.25
482.717	657.25
482.935	654.25
483.153	653.25
483.372	642.25
483.59	622.25
483.808	660.25
484.027	648.25
484.245	663.25
484.463	633.25
484.681	685.25
484.9	645.25
485.118	671.25
485.336	664.25
485.554	672.25
485.772	653.25
485.99	660.25
486.209	666.25
486.427	678.25
486.645	681.25
486.863	739.25
487.081	708.25
487.299	717.25
487.517	719.25
487.735	700.25
487.953	692.25
488.171	727.25
488.389	675.25
488.607	692.25
488.825	711.25
489.043	694.25
489.261	728.25
489.479	735.25
489.696	717.25
489.914	734.25
490.132	747.25
490.35	766.25
490.568	735.25
490.786	747.25
491.003	794.25
491.221	778.25
491.439	791.25
491.657	799.25
491.874	802.25
492.092	822.25
492.31	828.25
492.527	853.25
492.745	826.25
492.963	835.25
493.18	877.25
493.398	842.25
493.615	849.25
493.833	836.25
494.05	852.25
494.268	845.25
494.485	848.25
494.703	819.25
494.92	866.25
495.138	849.25
495.355	853.25
495.573	877.25
495.79	851.25
496.008	852.25
496.225	873.25
496.442	857.25
496.66	855.25
496.877	854.25
497.094	846.25
497.312	868.25
497.529	886.25
497.746	877.25
497.963	868.25
498.181	910.25
498.398	894.25
498.615	896.25
498.832	913.25
499.049	916.25
499.267	924.25
499.484	960.25
499.701	985.25
499.918	975.25
500.135	1031.25
500.352	1032.25
500.569	1068.25
500.786	1079.25
501.003	1015.25
501.22	1043.25
501.437	1010.25
501.654	1010.25
501.871	997.25
