Data from 1970.PennyLincolnUp.Lamp.En5.5.200Scan.071719.P1._HRD10591_15-16-07-841.txt Node
Date: Thu Jul 18 15:16:07 EDT 2019
User: cochatt
Spectrometer: HR+D1059
Trigger mode: 1
Integration Time (sec): 1.000000E-1
Scans to average: 1
Electric dark correction enabled: true
Nonlinearity correction enabled: false
Boxcar width: 0
XAxis mode: Wavelengths
Number of Pixels in Spectrum: 2048
>>>>>Begin Spectral Data<<<<<
223.165	-27.62
223.4	-27.62
223.635	-27.62
223.869	-24.62
224.104	-14.62
224.338	1.38
224.573	-16.62
224.808	-13.62
225.042	-0.62
225.277	-14.62
225.511	10.38
225.746	-0.62
225.98	2.38
226.215	7.38
226.449	9.38
226.683	13.38
226.918	34.38
227.152	34.38
227.387	40.38
227.621	49.38
227.856	49.38
228.09	53.38
228.324	49.38
228.559	47.38
228.793	66.38
229.027	109.38
229.262	107.38
229.496	124.38
229.73	146.38
229.964	173.38
230.199	158.38
230.433	131.38
230.667	119.38
230.901	121.38
231.136	120.38
231.37	123.38
231.604	121.38
231.838	136.38
232.072	112.38
232.306	122.38
232.541	117.38
232.775	109.38
233.009	120.38
233.243	107.38
233.477	128.38
233.711	121.38
233.945	117.38
234.179	119.38
234.413	124.38
234.647	134.38
234.881	131.38
235.115	115.38
235.349	116.38
235.583	132.38
235.817	133.38
236.051	135.38
236.285	136.38
236.519	133.38
236.753	148.38
236.987	170.38
237.221	200.38
237.455	278.38
237.689	220.38
237.922	144.38
238.156	139.38
238.39	148.38
238.624	149.38
238.858	126.38
239.091	126.38
239.325	126.38
239.559	135.38
239.793	139.38
240.027	152.38
240.26	158.38
240.494	179.38
240.728	172.38
240.961	172.38
241.195	149.38
241.429	155.38
241.662	151.38
241.896	149.38
242.13	152.38
242.363	138.38
242.597	137.38
242.83	145.38
243.064	139.38
243.298	159.38
243.531	160.38
243.765	151.38
243.998	135.38
244.232	154.38
244.465	159.38
244.699	167.38
244.932	168.38
245.166	179.38
245.399	157.38
245.633	159.38
245.866	163.38
246.099	156.38
246.333	168.38
246.566	163.38
246.8	176.38
247.033	179.38
247.266	162.38
247.5	179.38
247.733	171.38
247.966	168.38
248.2	199.38
248.433	192.38
248.666	197.38
248.899	200.38
249.133	229.38
249.366	239.38
249.599	231.38
249.832	214.38
250.066	210.38
250.299	207.38
250.532	213.38
250.765	219.38
250.998	252.38
251.231	259.38
251.465	241.38
251.698	218.38
251.931	225.38
252.164	239.38
252.397	230.38
252.63	210.38
252.863	223.38
253.096	244.38
253.329	262.38
253.562	262.38
253.795	244.38
254.028	234.38
254.261	237.38
254.494	253.38
254.727	306.38
254.96	336.38
255.193	316.38
255.426	288.38
255.659	271.38
255.892	277.38
256.124	261.38
256.357	263.38
256.59	251.38
256.823	244.38
257.056	240.38
257.289	236.38
257.521	244.38
257.754	248.38
257.987	226.38
258.22	224.38
258.452	228.38
258.685	247.38
258.918	243.38
259.151	243.38
259.383	236.38
259.616	250.38
259.849	241.38
260.081	246.38
260.314	269.38
260.547	273.38
260.779	258.38
261.012	268.38
261.244	230.38
261.477	260.38
261.71	229.38
261.942	253.38
262.175	268.38
262.407	249.38
262.64	248.38
262.872	225.38
263.105	240.38
263.337	231.38
263.57	221.38
263.802	231.38
264.035	219.38
264.267	214.38
264.499	234.38
264.732	237.38
264.964	243.38
265.197	228.38
265.429	224.38
265.661	214.38
265.894	243.38
266.126	221.38
266.358	245.38
266.591	223.38
266.823	242.38
267.055	241.38
267.287	249.38
267.52	246.38
267.752	265.38
267.984	250.38
268.216	253.38
268.448	234.38
268.681	250.38
268.913	260.38
269.145	287.38
269.377	283.38
269.609	294.38
269.841	287.38
270.073	291.38
270.306	329.38
270.538	335.38
270.77	351.38
271.002	330.38
271.234	317.38
271.466	309.38
271.698	341.38
271.93	355.38
272.162	347.38
272.394	351.38
272.626	325.38
272.858	334.38
273.09	281.38
273.322	292.38
273.553	297.38
273.785	294.38
274.017	289.38
274.249	288.38
274.481	288.38
274.713	285.38
274.945	281.38
275.176	284.38
275.408	273.38
275.64	295.38
275.872	291.38
276.104	278.38
276.335	285.38
276.567	290.38
276.799	317.38
277.031	327.38
277.262	364.38
277.494	336.38
277.726	334.38
277.957	297.38
278.189	307.38
278.421	292.38
278.652	307.38
278.884	272.38
279.115	276.38
279.347	273.38
279.579	296.38
279.81	271.38
280.042	267.38
280.273	280.38
280.505	272.38
280.736	270.38
280.968	298.38
281.199	264.38
281.431	293.38
281.662	274.38
281.894	256.38
282.125	284.38
282.356	281.38
282.588	313.38
282.819	331.38
283.051	290.38
283.282	288.38
283.513	309.38
283.745	279.38
283.976	279.38
284.207	279.38
284.439	296.38
284.67	288.38
284.901	300.38
285.132	288.38
285.364	289.38
285.595	276.38
285.826	286.38
286.057	278.38
286.288	270.38
286.52	281.38
286.751	290.38
286.982	267.38
287.213	279.38
287.444	289.38
287.675	292.38
287.906	299.38
288.138	315.38
288.369	324.38
288.6	315.38
288.831	284.38
289.062	291.38
289.293	306.38
289.524	307.38
289.755	300.38
289.986	294.38
290.217	294.38
290.448	292.38
290.679	290.38
290.91	285.38
291.141	274.38
291.371	299.38
291.602	287.38
291.833	294.38
292.064	300.38
292.295	301.38
292.526	284.38
292.757	286.38
292.987	279.38
293.218	271.38
293.449	293.38
293.68	299.38
293.91	272.38
294.141	283.38
294.372	284.38
294.603	291.38
294.833	277.38
295.064	281.38
295.295	307.38
295.525	295.38
295.756	298.38
295.987	303.38
296.217	335.38
296.448	344.38
296.679	302.38
296.909	310.38
297.14	309.38
297.37	300.38
297.601	300.38
297.831	284.38
298.062	290.38
298.292	312.38
298.523	311.38
298.753	296.38
298.984	292.38
299.214	310.38
299.445	309.38
299.675	332.38
299.905	309.38
300.136	318.38
300.366	311.38
300.597	307.38
300.827	303.38
301.057	310.38
301.288	343.38
301.518	338.38
301.748	323.38
301.979	324.38
302.209	349.38
302.439	344.38
302.669	331.38
302.9	321.38
303.13	318.38
303.36	315.38
303.59	341.38
303.82	343.38
304.051	333.38
304.281	325.38
304.511	306.38
304.741	310.38
304.971	334.38
305.201	313.38
305.431	329.38
305.661	326.38
305.891	350.38
306.121	318.38
306.352	326.38
306.582	343.38
306.812	346.38
307.042	322.38
307.272	349.38
307.502	348.38
307.731	361.38
307.961	349.38
308.191	333.38
308.421	335.38
308.651	353.38
308.881	343.38
309.111	365.38
309.341	343.38
309.571	349.38
309.8	385.38
310.03	393.38
310.26	404.38
310.49	395.38
310.72	413.38
310.949	400.38
311.179	430.38
311.409	408.38
311.639	404.38
311.868	394.38
312.098	405.38
312.328	396.38
312.557	440.38
312.787	425.38
313.017	420.38
313.246	407.38
313.476	377.38
313.706	390.38
313.935	405.38
314.165	402.38
314.394	435.38
314.624	428.38
314.853	396.38
315.083	389.38
315.312	389.38
315.542	365.38
315.771	391.38
316.001	393.38
316.23	387.38
316.46	380.38
316.689	396.38
316.919	387.38
317.148	408.38
317.377	410.38
317.607	384.38
317.836	397.38
318.065	402.38
318.295	385.38
318.524	385.38
318.753	382.38
318.983	389.38
319.212	387.38
319.441	397.38
319.67	408.38
319.9	406.38
320.129	408.38
320.358	391.38
320.587	396.38
320.816	415.38
321.046	425.38
321.275	427.38
321.504	419.38
321.733	431.38
321.962	442.38
322.191	461.38
322.42	447.38
322.649	475.38
322.878	484.38
323.108	507.38
323.337	553.38
323.566	561.38
323.795	600.38
324.024	653.38
324.253	838.38
324.482	1199.38
324.71	1839.38
324.939	2562.38
325.168	2231.38
325.397	1168.38
325.626	809.38
325.855	667.38
326.084	580.38
326.313	555.38
326.542	597.38
326.77	620.38
326.999	748.38
327.228	1083.38
327.457	1584.38
327.686	1955.38
327.914	1304.38
328.143	883.38
328.372	759.38
328.6	690.38
328.829	651.38
329.058	681.38
329.287	679.38
329.515	620.38
329.744	602.38
329.972	590.38
330.201	619.38
330.43	664.38
330.658	707.38
330.887	727.38
331.115	708.38
331.344	604.38
331.572	553.38
331.801	548.38
332.03	545.38
332.258	510.38
332.486	515.38
332.715	490.38
332.943	486.38
333.172	492.38
333.4	494.38
333.629	485.38
333.857	511.38
334.085	534.38
334.314	567.38
334.542	587.38
334.771	607.38
334.999	541.38
335.227	503.38
335.455	491.38
335.684	459.38
335.912	479.38
336.14	461.38
336.369	474.38
336.597	488.38
336.825	485.38
337.053	450.38
337.281	469.38
337.51	469.38
337.738	461.38
337.966	461.38
338.194	467.38
338.422	455.38
338.65	433.38
338.878	445.38
339.106	440.38
339.334	447.38
339.562	438.38
339.79	442.38
340.018	424.38
340.246	457.38
340.474	461.38
340.702	458.38
340.93	443.38
341.158	444.38
341.386	448.38
341.614	426.38
341.842	449.38
342.07	438.38
342.298	443.38
342.526	445.38
342.754	448.38
342.981	423.38
343.209	418.38
343.437	453.38
343.665	441.38
343.893	437.38
344.12	444.38
344.348	438.38
344.576	459.38
344.804	464.38
345.031	454.38
345.259	463.38
345.487	480.38
345.714	467.38
345.942	453.38
346.17	450.38
346.397	433.38
346.625	421.38
346.853	459.38
347.08	452.38
347.308	447.38
347.535	447.38
347.763	454.38
347.99	465.38
348.218	456.38
348.445	478.38
348.673	469.38
348.9	448.38
349.128	460.38
349.355	439.38
349.583	429.38
349.81	444.38
350.037	448.38
350.265	409.38
350.492	424.38
350.72	420.38
350.947	421.38
351.174	456.38
351.402	445.38
351.629	454.38
351.856	439.38
352.083	483.38
352.311	463.38
352.538	495.38
352.765	502.38
352.992	466.38
353.22	475.38
353.447	463.38
353.674	436.38
353.901	425.38
354.128	434.38
354.355	383.38
354.583	413.38
354.81	424.38
355.037	399.38
355.264	413.38
355.491	389.38
355.718	415.38
355.945	414.38
356.172	402.38
356.399	398.38
356.626	401.38
356.853	396.38
357.08	411.38
357.307	412.38
357.534	409.38
357.761	407.38
357.988	417.38
358.215	407.38
358.441	422.38
358.668	431.38
358.895	410.38
359.122	438.38
359.349	445.38
359.576	458.38
359.802	498.38
360.029	539.38
360.256	531.38
360.483	520.38
360.709	465.38
360.936	447.38
361.163	459.38
361.39	441.38
361.616	470.38
361.843	469.38
362.07	457.38
362.296	461.38
362.523	456.38
362.749	460.38
362.976	428.38
363.203	433.38
363.429	422.38
363.656	424.38
363.882	431.38
364.109	431.38
364.335	426.38
364.562	418.38
364.788	430.38
365.015	422.38
365.241	428.38
365.468	427.38
365.694	439.38
365.92	434.38
366.147	439.38
366.373	441.38
366.599	441.38
366.826	432.38
367.052	420.38
367.278	394.38
367.505	411.38
367.731	439.38
367.957	414.38
368.184	418.38
368.41	445.38
368.636	437.38
368.862	462.38
369.089	443.38
369.315	423.38
369.541	446.38
369.767	428.38
369.993	406.38
370.219	425.38
370.445	433.38
370.672	454.38
370.898	433.38
371.124	414.38
371.35	414.38
371.576	441.38
371.802	421.38
372.028	424.38
372.254	416.38
372.48	397.38
372.706	403.38
372.932	407.38
373.158	415.38
373.384	433.38
373.61	423.38
373.835	428.38
374.061	409.38
374.287	444.38
374.513	447.38
374.739	408.38
374.965	429.38
375.191	402.38
375.416	410.38
375.642	414.38
375.868	432.38
376.094	426.38
376.319	424.38
376.545	417.38
376.771	414.38
376.997	425.38
377.222	424.38
377.448	446.38
377.674	449.38
377.899	417.38
378.125	419.38
378.35	415.38
378.576	419.38
378.802	412.38
379.027	398.38
379.253	420.38
379.478	412.38
379.704	408.38
379.929	425.38
380.155	429.38
380.38	417.38
380.606	432.38
380.831	435.38
381.057	448.38
381.282	415.38
381.507	451.38
381.733	437.38
381.958	432.38
382.184	423.38
382.409	458.38
382.634	422.38
382.86	414.38
383.085	427.38
383.31	448.38
383.535	433.38
383.761	447.38
383.986	437.38
384.211	434.38
384.436	428.38
384.662	439.38
384.887	467.38
385.112	465.38
385.337	462.38
385.562	455.38
385.787	454.38
386.013	471.38
386.238	467.38
386.463	470.38
386.688	461.38
386.913	443.38
387.138	470.38
387.363	446.38
387.588	444.38
387.813	473.38
388.038	448.38
388.263	464.38
388.488	447.38
388.713	467.38
388.938	462.38
389.163	453.38
389.387	453.38
389.612	441.38
389.837	448.38
390.062	458.38
390.287	453.38
390.512	473.38
390.736	449.38
390.961	449.38
391.186	457.38
391.411	456.38
391.636	460.38
391.86	461.38
392.085	468.38
392.31	442.38
392.534	451.38
392.759	466.38
392.984	475.38
393.208	475.38
393.433	469.38
393.658	477.38
393.882	476.38
394.107	477.38
394.331	467.38
394.556	452.38
394.78	449.38
395.005	456.38
395.229	437.38
395.454	456.38
395.678	456.38
395.903	486.38
396.127	497.38
396.352	509.38
396.576	488.38
396.801	469.38
397.025	470.38
397.249	465.38
397.474	478.38
397.698	497.38
397.922	499.38
398.147	481.38
398.371	536.38
398.595	521.38
398.82	527.38
399.044	520.38
399.268	541.38
399.492	558.38
399.717	570.38
399.941	593.38
400.165	622.38
400.389	627.38
400.613	577.38
400.837	539.38
401.062	545.38
401.286	553.38
401.51	543.38
401.734	541.38
401.958	534.38
402.182	527.38
402.406	551.38
402.63	530.38
402.854	527.38
403.078	534.38
403.302	545.38
403.526	543.38
403.75	553.38
403.974	556.38
404.198	566.38
404.422	571.38
404.645	536.38
404.869	565.38
405.093	593.38
405.317	624.38
405.541	671.38
405.765	620.38
405.988	597.38
406.212	568.38
406.436	634.38
406.66	656.38
406.883	607.38
407.107	609.38
407.331	636.38
407.555	742.38
407.778	752.38
408.002	649.38
408.226	635.38
408.449	599.38
408.673	601.38
408.896	623.38
409.12	681.38
409.344	648.38
409.567	589.38
409.791	595.38
410.014	538.38
410.238	537.38
410.461	561.38
410.685	585.38
410.908	576.38
411.132	602.38
411.355	640.38
411.578	635.38
411.802	579.38
412.025	530.38
412.249	556.38
412.472	596.38
412.695	643.38
412.919	643.38
413.142	584.38
413.365	558.38
413.589	544.38
413.812	538.38
414.035	529.38
414.258	511.38
414.482	523.38
414.705	500.38
414.928	522.38
415.151	527.38
415.374	525.38
415.597	500.38
415.821	509.38
416.044	528.38
416.267	533.38
416.49	516.38
416.713	515.38
416.936	535.38
417.159	502.38
417.382	530.38
417.605	532.38
417.828	564.38
418.051	544.38
418.274	541.38
418.497	537.38
418.72	533.38
418.943	518.38
419.166	539.38
419.389	563.38
419.611	579.38
419.834	568.38
420.057	595.38
420.28	554.38
420.503	549.38
420.726	557.38
420.948	566.38
421.171	630.38
421.394	644.38
421.617	605.38
421.839	543.38
422.062	569.38
422.285	601.38
422.507	659.38
422.73	693.38
422.953	706.38
423.175	635.38
423.398	597.38
423.621	582.38
423.843	604.38
424.066	622.38
424.288	614.38
424.511	628.38
424.733	696.38
424.956	772.38
425.178	737.38
425.401	765.38
425.623	751.38
425.846	678.38
426.068	631.38
426.291	605.38
426.513	600.38
426.735	635.38
426.958	655.38
427.18	776.38
427.402	907.38
427.625	1001.38
427.847	904.38
428.069	772.38
428.292	691.38
428.514	663.38
428.736	612.38
428.958	595.38
429.181	583.38
429.403	596.38
429.625	619.38
429.847	638.38
430.069	709.38
430.292	692.38
430.514	601.38
430.736	603.38
430.958	581.38
431.18	557.38
431.402	561.38
431.624	513.38
431.846	556.38
432.068	521.38
432.29	527.38
432.512	543.38
432.734	578.38
432.956	565.38
433.178	556.38
433.4	565.38
433.622	548.38
433.844	529.38
434.066	533.38
434.287	532.38
434.509	566.38
434.731	545.38
434.953	539.38
435.175	611.38
435.397	622.38
435.618	596.38
435.84	668.38
436.062	777.38
436.284	847.38
436.505	701.38
436.727	657.38
436.949	581.38
437.17	577.38
437.392	568.38
437.614	593.38
437.835	659.38
438.057	744.38
438.278	856.38
438.5	867.38
438.721	961.38
438.943	868.38
439.165	715.38
439.386	671.38
439.608	657.38
439.829	677.38
440.05	670.38
440.272	724.38
440.493	677.38
440.715	639.38
440.936	592.38
441.158	588.38
441.379	601.38
441.6	599.38
441.822	605.38
442.043	658.38
442.264	761.38
442.486	837.38
442.707	697.38
442.928	640.38
443.149	635.38
443.371	684.38
443.592	716.38
443.813	791.38
444.034	858.38
444.255	726.38
444.476	643.38
444.698	634.38
444.919	599.38
445.14	745.38
445.361	686.38
445.582	695.38
445.803	751.38
446.024	861.38
446.245	857.38
446.466	827.38
446.687	690.38
446.908	644.38
447.129	604.38
447.35	584.38
447.571	578.38
447.792	545.38
448.013	585.38
448.234	609.38
448.455	691.38
448.675	806.38
448.896	889.38
449.117	786.38
449.338	761.38
449.559	855.38
449.779	908.38
450	795.38
450.221	626.38
450.442	583.38
450.662	588.38
450.883	614.38
451.104	622.38
451.324	614.38
451.545	556.38
451.766	572.38
451.986	521.38
452.207	531.38
452.428	518.38
452.648	515.38
452.869	527.38
453.089	526.38
453.31	541.38
453.53	539.38
453.751	550.38
453.971	533.38
454.192	559.38
454.412	561.38
454.633	550.38
454.853	519.38
455.073	512.38
455.294	539.38
455.514	636.38
455.734	619.38
455.955	522.38
456.175	492.38
456.395	489.38
456.616	493.38
456.836	491.38
457.056	491.38
457.276	478.38
457.497	465.38
457.717	496.38
457.937	488.38
458.157	518.38
458.377	512.38
458.598	541.38
458.818	609.38
459.038	696.38
459.258	715.38
459.478	604.38
459.698	557.38
459.918	529.38
460.138	527.38
460.358	538.38
460.578	513.38
460.798	526.38
461.018	541.38
461.238	533.38
461.458	545.38
461.678	529.38
461.898	506.38
462.118	530.38
462.338	557.38
462.558	548.38
462.777	523.38
462.997	560.38
463.217	573.38
463.437	547.38
463.657	541.38
463.876	566.38
464.096	549.38
464.316	571.38
464.536	550.38
464.755	553.38
464.975	561.38
465.195	608.38
465.414	769.38
465.634	667.38
465.854	594.38
466.073	572.38
466.293	565.38
466.512	528.38
466.732	527.38
466.951	518.38
467.171	523.38
467.391	535.38
467.61	525.38
467.829	553.38
468.049	567.38
468.268	520.38
468.488	554.38
468.707	514.38
468.927	490.38
469.146	510.38
469.365	523.38
469.585	537.38
469.804	537.38
470.023	558.38
470.243	543.38
470.462	543.38
470.681	580.38
470.901	561.38
471.12	561.38
471.339	529.38
471.558	548.38
471.777	544.38
471.997	533.38
472.216	547.38
472.435	611.38
472.654	579.38
472.873	567.38
473.092	549.38
473.311	539.38
473.53	520.38
473.749	552.38
473.968	631.38
474.187	703.38
474.406	747.38
474.625	612.38
474.844	555.38
475.063	519.38
475.282	554.38
475.501	565.38
475.72	565.38
475.939	555.38
476.158	561.38
476.377	554.38
476.596	541.38
476.814	545.38
477.033	573.38
477.252	590.38
477.471	576.38
477.69	570.38
477.908	600.38
478.127	614.38
478.346	585.38
478.564	581.38
478.783	608.38
479.002	631.38
479.22	613.38
479.439	646.38
479.658	657.38
479.876	635.38
480.095	652.38
480.313	709.38
480.532	685.38
480.751	665.38
480.969	670.38
481.188	766.38
481.406	853.38
481.624	719.38
481.843	697.38
482.061	654.38
482.28	647.38
482.498	645.38
482.717	652.38
482.935	647.38
483.153	645.38
483.372	635.38
483.59	649.38
483.808	652.38
484.027	656.38
484.245	631.38
484.463	661.38
484.681	662.38
484.9	656.38
485.118	663.38
485.336	655.38
485.554	665.38
485.772	691.38
485.99	665.38
486.209	669.38
486.427	663.38
486.645	700.38
486.863	707.38
487.081	704.38
487.299	721.38
487.517	694.38
487.735	692.38
487.953	681.38
488.171	664.38
488.389	696.38
488.607	702.38
488.825	706.38
489.043	697.38
489.261	717.38
489.479	701.38
489.696	719.38
489.914	741.38
490.132	727.38
490.35	727.38
490.568	746.38
490.786	761.38
491.003	764.38
491.221	775.38
491.439	818.38
491.657	828.38
491.874	841.38
492.092	824.38
492.31	828.38
492.527	818.38
492.745	859.38
492.963	844.38
493.18	848.38
493.398	836.38
493.615	838.38
493.833	862.38
494.05	883.38
494.268	872.38
494.485	848.38
494.703	837.38
494.92	862.38
495.138	841.38
495.355	866.38
495.573	849.38
495.79	828.38
496.008	871.38
496.225	836.38
496.442	860.38
496.66	884.38
496.877	854.38
497.094	872.38
497.312	846.38
497.529	857.38
497.746	885.38
497.963	871.38
498.181	868.38
498.398	890.38
498.615	899.38
498.832	912.38
499.049	917.38
499.267	917.38
499.484	942.38
499.701	959.38
499.918	984.38
500.135	981.38
500.352	1044.38
500.569	1051.38
500.786	1063.38
501.003	1045.38
501.22	1043.38
501.437	1013.38
501.654	991.38
501.871	1015.38
