Data from 1970.PennyLincolnUp.Lamp.En5.5.200Scan.071719.P1._HRD10591_15-15-34-842.txt Node
Date: Thu Jul 18 15:15:34 EDT 2019
User: cochatt
Spectrometer: HR+D1059
Trigger mode: 1
Integration Time (sec): 1.000000E-1
Scans to average: 1
Electric dark correction enabled: true
Nonlinearity correction enabled: false
Boxcar width: 0
XAxis mode: Wavelengths
Number of Pixels in Spectrum: 2048
>>>>>Begin Spectral Data<<<<<
223.165	-7.25
223.4	-7.25
223.635	-7.25
223.869	-25.25
224.104	-11.25
224.338	-4.25
224.573	-1.25
224.808	-32.25
225.042	-20.25
225.277	-20.25
225.511	-10.25
225.746	5.75
225.98	12.75
226.215	3.75
226.449	12.75
226.683	32.75
226.918	27.75
227.152	36.75
227.387	28.75
227.621	35.75
227.856	35.75
228.09	44.75
228.324	51.75
228.559	63.75
228.793	56.75
229.027	98.75
229.262	123.75
229.496	119.75
229.73	152.75
229.964	170.75
230.199	150.75
230.433	123.75
230.667	106.75
230.901	115.75
231.136	119.75
231.37	121.75
231.604	118.75
231.838	108.75
232.072	116.75
232.306	127.75
232.541	122.75
232.775	115.75
233.009	115.75
233.243	117.75
233.477	122.75
233.711	124.75
233.945	115.75
234.179	111.75
234.413	137.75
234.647	127.75
234.881	128.75
235.115	120.75
235.349	125.75
235.583	117.75
235.817	123.75
236.051	132.75
236.285	137.75
236.519	136.75
236.753	141.75
236.987	146.75
237.221	211.75
237.455	259.75
237.689	227.75
237.922	163.75
238.156	163.75
238.39	158.75
238.624	137.75
238.858	147.75
239.091	137.75
239.325	119.75
239.559	128.75
239.793	125.75
240.027	132.75
240.26	153.75
240.494	175.75
240.728	168.75
240.961	166.75
241.195	152.75
241.429	149.75
241.662	146.75
241.896	140.75
242.13	146.75
242.363	129.75
242.597	154.75
242.83	141.75
243.064	152.75
243.298	145.75
243.531	131.75
243.765	141.75
243.998	150.75
244.232	140.75
244.465	152.75
244.699	166.75
244.932	158.75
245.166	137.75
245.399	152.75
245.633	159.75
245.866	166.75
246.099	148.75
246.333	159.75
246.566	173.75
246.8	176.75
247.033	166.75
247.266	177.75
247.5	165.75
247.733	197.75
247.966	182.75
248.2	204.75
248.433	190.75
248.666	185.75
248.899	215.75
249.133	213.75
249.366	243.75
249.599	218.75
249.832	208.75
250.066	199.75
250.299	181.75
250.532	219.75
250.765	234.75
250.998	257.75
251.231	248.75
251.465	244.75
251.698	223.75
251.931	219.75
252.164	220.75
252.397	205.75
252.63	224.75
252.863	226.75
253.096	243.75
253.329	253.75
253.562	257.75
253.795	260.75
254.028	237.75
254.261	243.75
254.494	252.75
254.727	283.75
254.96	304.75
255.193	319.75
255.426	292.75
255.659	242.75
255.892	243.75
256.124	269.75
256.357	264.75
256.59	255.75
256.823	252.75
257.056	234.75
257.289	228.75
257.521	218.75
257.754	223.75
257.987	249.75
258.22	240.75
258.452	225.75
258.685	212.75
258.918	215.75
259.151	225.75
259.383	242.75
259.616	236.75
259.849	244.75
260.081	249.75
260.314	287.75
260.547	291.75
260.779	271.75
261.012	264.75
261.244	259.75
261.477	253.75
261.71	232.75
261.942	255.75
262.175	262.75
262.407	251.75
262.64	224.75
262.872	231.75
263.105	222.75
263.337	229.75
263.57	229.75
263.802	235.75
264.035	209.75
264.267	218.75
264.499	223.75
264.732	230.75
264.964	240.75
265.197	225.75
265.429	212.75
265.661	226.75
265.894	217.75
266.126	233.75
266.358	232.75
266.591	223.75
266.823	238.75
267.055	245.75
267.287	235.75
267.52	239.75
267.752	233.75
267.984	233.75
268.216	246.75
268.448	251.75
268.681	240.75
268.913	253.75
269.145	283.75
269.377	281.75
269.609	287.75
269.841	288.75
270.073	302.75
270.306	317.75
270.538	343.75
270.77	344.75
271.002	337.75
271.234	319.75
271.466	341.75
271.698	343.75
271.93	339.75
272.162	327.75
272.394	327.75
272.626	305.75
272.858	321.75
273.09	293.75
273.322	293.75
273.553	287.75
273.785	288.75
274.017	280.75
274.249	275.75
274.481	280.75
274.713	271.75
274.945	278.75
275.176	290.75
275.408	275.75
275.64	263.75
275.872	245.75
276.104	271.75
276.335	279.75
276.567	297.75
276.799	307.75
277.031	345.75
277.262	353.75
277.494	335.75
277.726	309.75
277.957	287.75
278.189	301.75
278.421	289.75
278.652	271.75
278.884	281.75
279.115	276.75
279.347	272.75
279.579	258.75
279.81	264.75
280.042	257.75
280.273	249.75
280.505	267.75
280.736	271.75
280.968	255.75
281.199	263.75
281.431	256.75
281.662	274.75
281.894	269.75
282.125	267.75
282.356	289.75
282.588	301.75
282.819	313.75
283.051	293.75
283.282	263.75
283.513	271.75
283.745	276.75
283.976	263.75
284.207	286.75
284.439	273.75
284.67	283.75
284.901	266.75
285.132	273.75
285.364	262.75
285.595	266.75
285.826	275.75
286.057	270.75
286.288	280.75
286.52	267.75
286.751	281.75
286.982	272.75
287.213	285.75
287.444	287.75
287.675	279.75
287.906	300.75
288.138	303.75
288.369	301.75
288.6	299.75
288.831	308.75
289.062	293.75
289.293	294.75
289.524	289.75
289.755	290.75
289.986	292.75
290.217	294.75
290.448	294.75
290.679	293.75
290.91	281.75
291.141	299.75
291.371	277.75
291.602	287.75
291.833	283.75
292.064	282.75
292.295	280.75
292.526	283.75
292.757	265.75
292.987	287.75
293.218	290.75
293.449	285.75
293.68	283.75
293.91	273.75
294.141	279.75
294.372	275.75
294.603	272.75
294.833	265.75
295.064	289.75
295.295	292.75
295.525	280.75
295.756	295.75
295.987	295.75
296.217	319.75
296.448	328.75
296.679	311.75
296.909	292.75
297.14	287.75
297.37	300.75
297.601	293.75
297.831	294.75
298.062	290.75
298.292	296.75
298.523	300.75
298.753	321.75
298.984	285.75
299.214	304.75
299.445	310.75
299.675	305.75
299.905	294.75
300.136	307.75
300.366	298.75
300.597	289.75
300.827	305.75
301.057	307.75
301.288	320.75
301.518	336.75
301.748	307.75
301.979	303.75
302.209	307.75
302.439	329.75
302.669	321.75
302.9	327.75
303.13	318.75
303.36	301.75
303.59	327.75
303.82	342.75
304.051	319.75
304.281	322.75
304.511	326.75
304.741	311.75
304.971	313.75
305.201	312.75
305.431	324.75
305.661	337.75
305.891	320.75
306.121	318.75
306.352	327.75
306.582	354.75
306.812	337.75
307.042	322.75
307.272	323.75
307.502	338.75
307.731	331.75
307.961	326.75
308.191	332.75
308.421	328.75
308.651	349.75
308.881	342.75
309.111	359.75
309.341	351.75
309.571	345.75
309.8	363.75
310.03	366.75
310.26	396.75
310.49	371.75
310.72	375.75
310.949	412.75
311.179	413.75
311.409	397.75
311.639	381.75
311.868	378.75
312.098	374.75
312.328	403.75
312.557	423.75
312.787	421.75
313.017	409.75
313.246	383.75
313.476	381.75
313.706	373.75
313.935	403.75
314.165	414.75
314.394	412.75
314.624	400.75
314.853	403.75
315.083	397.75
315.312	390.75
315.542	368.75
315.771	371.75
316.001	392.75
316.23	384.75
316.46	383.75
316.689	374.75
316.919	389.75
317.148	386.75
317.377	392.75
317.607	386.75
317.836	371.75
318.065	377.75
318.295	380.75
318.524	382.75
318.753	371.75
318.983	381.75
319.212	399.75
319.441	389.75
319.67	393.75
319.9	398.75
320.129	407.75
320.358	397.75
320.587	404.75
320.816	398.75
321.046	409.75
321.275	409.75
321.504	404.75
321.733	406.75
321.962	411.75
322.191	448.75
322.42	442.75
322.649	472.75
322.878	492.75
323.108	504.75
323.337	527.75
323.566	553.75
323.795	607.75
324.024	640.75
324.253	806.75
324.482	1192.75
324.71	1795.75
324.939	2565.75
325.168	2213.75
325.397	1168.75
325.626	788.75
325.855	627.75
326.084	557.75
326.313	569.75
326.542	575.75
326.77	629.75
326.999	736.75
327.228	1035.75
327.457	1571.75
327.686	1957.75
327.914	1310.75
328.143	868.75
328.372	753.75
328.6	649.75
328.829	636.75
329.058	651.75
329.287	653.75
329.515	632.75
329.744	584.75
329.972	564.75
330.201	605.75
330.43	648.75
330.658	684.75
330.887	720.75
331.115	677.75
331.344	598.75
331.572	561.75
331.801	535.75
332.03	549.75
332.258	505.75
332.486	488.75
332.715	453.75
332.943	474.75
333.172	464.75
333.4	465.75
333.629	464.75
333.857	465.75
334.085	518.75
334.314	531.75
334.542	584.75
334.771	599.75
334.999	536.75
335.227	495.75
335.455	460.75
335.684	458.75
335.912	443.75
336.14	445.75
336.369	455.75
336.597	474.75
336.825	461.75
337.053	444.75
337.281	425.75
337.51	445.75
337.738	426.75
337.966	441.75
338.194	459.75
338.422	464.75
338.65	454.75
338.878	463.75
339.106	433.75
339.334	447.75
339.562	434.75
339.79	421.75
340.018	427.75
340.246	434.75
340.474	446.75
340.702	446.75
340.93	426.75
341.158	439.75
341.386	452.75
341.614	441.75
341.842	415.75
342.07	414.75
342.298	423.75
342.526	420.75
342.754	424.75
342.981	403.75
343.209	420.75
343.437	433.75
343.665	416.75
343.893	430.75
344.12	436.75
344.348	426.75
344.576	438.75
344.804	472.75
345.031	473.75
345.259	474.75
345.487	457.75
345.714	452.75
345.942	437.75
346.17	416.75
346.397	419.75
346.625	440.75
346.853	454.75
347.08	440.75
347.308	447.75
347.535	466.75
347.763	468.75
347.99	457.75
348.218	440.75
348.445	451.75
348.673	451.75
348.9	424.75
349.128	407.75
349.355	387.75
349.583	418.75
349.81	419.75
350.037	410.75
350.265	409.75
350.492	428.75
350.72	432.75
350.947	444.75
351.174	416.75
351.402	460.75
351.629	450.75
351.856	451.75
352.083	445.75
352.311	469.75
352.538	470.75
352.765	456.75
352.992	468.75
353.22	448.75
353.447	444.75
353.674	428.75
353.901	410.75
354.128	426.75
354.355	419.75
354.583	401.75
354.81	395.75
355.037	391.75
355.264	376.75
355.491	397.75
355.718	395.75
355.945	384.75
356.172	390.75
356.399	402.75
356.626	377.75
356.853	401.75
357.08	388.75
357.307	392.75
357.534	403.75
357.761	409.75
357.988	391.75
358.215	398.75
358.441	394.75
358.668	408.75
358.895	392.75
359.122	409.75
359.349	428.75
359.576	453.75
359.802	473.75
360.029	496.75
360.256	533.75
360.483	477.75
360.709	453.75
360.936	444.75
361.163	437.75
361.39	441.75
361.616	460.75
361.843	426.75
362.07	440.75
362.296	432.75
362.523	440.75
362.749	443.75
362.976	456.75
363.203	459.75
363.429	421.75
363.656	422.75
363.882	419.75
364.109	410.75
364.335	430.75
364.562	449.75
364.788	402.75
365.015	407.75
365.241	405.75
365.468	427.75
365.694	439.75
365.92	435.75
366.147	418.75
366.373	408.75
366.599	407.75
366.826	404.75
367.052	404.75
367.278	425.75
367.505	405.75
367.731	413.75
367.957	419.75
368.184	425.75
368.41	422.75
368.636	446.75
368.862	456.75
369.089	439.75
369.315	424.75
369.541	423.75
369.767	415.75
369.993	435.75
370.219	421.75
370.445	418.75
370.672	412.75
370.898	412.75
371.124	403.75
371.35	423.75
371.576	399.75
371.802	404.75
372.028	402.75
372.254	394.75
372.48	406.75
372.706	423.75
372.932	413.75
373.158	411.75
373.384	403.75
373.61	410.75
373.835	433.75
374.061	405.75
374.287	416.75
374.513	403.75
374.739	443.75
374.965	425.75
375.191	421.75
375.416	435.75
375.642	410.75
375.868	414.75
376.094	394.75
376.319	429.75
376.545	424.75
376.771	422.75
376.997	408.75
377.222	436.75
377.448	397.75
377.674	423.75
377.899	397.75
378.125	418.75
378.35	423.75
378.576	411.75
378.802	418.75
379.027	411.75
379.253	405.75
379.478	397.75
379.704	408.75
379.929	411.75
380.155	393.75
380.38	424.75
380.606	417.75
380.831	420.75
381.057	411.75
381.282	424.75
381.507	398.75
381.733	427.75
381.958	421.75
382.184	411.75
382.409	419.75
382.634	417.75
382.86	413.75
383.085	394.75
383.31	417.75
383.535	430.75
383.761	405.75
383.986	405.75
384.211	415.75
384.436	436.75
384.662	438.75
384.887	423.75
385.112	427.75
385.337	438.75
385.562	442.75
385.787	439.75
386.013	465.75
386.238	456.75
386.463	444.75
386.688	447.75
386.913	437.75
387.138	445.75
387.363	436.75
387.588	443.75
387.813	435.75
388.038	449.75
388.263	438.75
388.488	444.75
388.713	450.75
388.938	433.75
389.163	445.75
389.387	459.75
389.612	443.75
389.837	435.75
390.062	433.75
390.287	457.75
390.512	443.75
390.736	433.75
390.961	441.75
391.186	444.75
391.411	446.75
391.636	446.75
391.86	444.75
392.085	452.75
392.31	444.75
392.534	446.75
392.759	443.75
392.984	453.75
393.208	465.75
393.433	442.75
393.658	455.75
393.882	434.75
394.107	456.75
394.331	443.75
394.556	423.75
394.78	450.75
395.005	447.75
395.229	448.75
395.454	485.75
395.678	468.75
395.903	460.75
396.127	508.75
396.352	479.75
396.576	452.75
396.801	457.75
397.025	479.75
397.249	476.75
397.474	456.75
397.698	486.75
397.922	483.75
398.147	490.75
398.371	486.75
398.595	479.75
398.82	487.75
399.044	508.75
399.268	491.75
399.492	539.75
399.717	544.75
399.941	570.75
400.165	609.75
400.389	659.75
400.613	589.75
400.837	535.75
401.062	536.75
401.286	518.75
401.51	521.75
401.734	526.75
401.958	529.75
402.182	514.75
402.406	519.75
402.63	543.75
402.854	533.75
403.078	531.75
403.302	521.75
403.526	529.75
403.75	535.75
403.974	530.75
404.198	533.75
404.422	544.75
404.645	556.75
404.869	568.75
405.093	602.75
405.317	617.75
405.541	650.75
405.765	588.75
405.988	578.75
406.212	602.75
406.436	613.75
406.66	618.75
406.883	581.75
407.107	620.75
407.331	646.75
407.555	715.75
407.778	728.75
408.002	636.75
408.226	592.75
408.449	583.75
408.673	588.75
408.896	623.75
409.12	650.75
409.344	630.75
409.567	570.75
409.791	563.75
410.014	537.75
410.238	513.75
410.461	525.75
410.685	557.75
410.908	573.75
411.132	593.75
411.355	613.75
411.578	603.75
411.802	551.75
412.025	524.75
412.249	561.75
412.472	610.75
412.695	630.75
412.919	602.75
413.142	563.75
413.365	547.75
413.589	526.75
413.812	510.75
414.035	518.75
414.258	511.75
414.482	514.75
414.705	517.75
414.928	518.75
415.151	503.75
415.374	476.75
415.597	503.75
415.821	502.75
416.044	536.75
416.267	512.75
416.49	505.75
416.713	477.75
416.936	500.75
417.159	508.75
417.382	521.75
417.605	539.75
417.828	537.75
418.051	550.75
418.274	564.75
418.497	517.75
418.72	512.75
418.943	506.75
419.166	539.75
419.389	524.75
419.611	529.75
419.834	553.75
420.057	554.75
420.28	556.75
420.503	575.75
420.726	561.75
420.948	582.75
421.171	621.75
421.394	620.75
421.617	574.75
421.839	538.75
422.062	563.75
422.285	551.75
422.507	610.75
422.73	685.75
422.953	675.75
423.175	609.75
423.398	579.75
423.621	582.75
423.843	589.75
424.066	592.75
424.288	597.75
424.511	615.75
424.733	665.75
424.956	769.75
425.178	740.75
425.401	726.75
425.623	734.75
425.846	673.75
426.068	640.75
426.291	603.75
426.513	610.75
426.735	623.75
426.958	652.75
427.18	752.75
427.402	891.75
427.625	991.75
427.847	901.75
428.069	795.75
428.292	703.75
428.514	653.75
428.736	595.75
428.958	589.75
429.181	592.75
429.403	559.75
429.625	591.75
429.847	619.75
430.069	694.75
430.292	661.75
430.514	592.75
430.736	544.75
430.958	547.75
431.18	538.75
431.402	536.75
431.624	501.75
431.846	509.75
432.068	500.75
432.29	529.75
432.512	519.75
432.734	541.75
432.956	540.75
433.178	542.75
433.4	564.75
433.622	540.75
433.844	521.75
434.066	524.75
434.287	520.75
434.509	540.75
434.731	529.75
434.953	548.75
435.175	564.75
435.397	595.75
435.618	610.75
435.84	648.75
436.062	747.75
436.284	805.75
436.505	709.75
436.727	637.75
436.949	598.75
437.17	583.75
437.392	557.75
437.614	595.75
437.835	624.75
438.057	748.75
438.278	845.75
438.5	848.75
438.721	901.75
438.943	858.75
439.165	721.75
439.386	663.75
439.608	651.75
439.829	628.75
440.05	673.75
440.272	724.75
440.493	673.75
440.715	629.75
440.936	597.75
441.158	572.75
441.379	577.75
441.6	570.75
441.822	612.75
442.043	642.75
442.264	744.75
442.486	790.75
442.707	681.75
442.928	644.75
443.149	658.75
443.371	697.75
443.592	723.75
443.813	805.75
444.034	856.75
444.255	728.75
444.476	671.75
444.698	634.75
444.919	605.75
445.14	743.75
445.361	679.75
445.582	681.75
445.803	764.75
446.024	843.75
446.245	843.75
446.466	759.75
446.687	696.75
446.908	650.75
447.129	603.75
447.35	586.75
447.571	571.75
447.792	572.75
448.013	595.75
448.234	597.75
448.455	666.75
448.675	783.75
448.896	887.75
449.117	765.75
449.338	727.75
449.559	822.75
449.779	920.75
450	771.75
450.221	644.75
450.442	612.75
450.662	588.75
450.883	586.75
451.104	585.75
451.324	585.75
451.545	565.75
451.766	530.75
451.986	532.75
452.207	499.75
452.428	503.75
452.648	503.75
452.869	521.75
453.089	517.75
453.31	554.75
453.53	519.75
453.751	502.75
453.971	512.75
454.192	518.75
454.412	543.75
454.633	528.75
454.853	489.75
455.073	520.75
455.294	541.75
455.514	610.75
455.734	620.75
455.955	524.75
456.175	497.75
456.395	476.75
456.616	466.75
456.836	476.75
457.056	507.75
457.276	471.75
457.497	471.75
457.717	487.75
457.937	485.75
458.157	484.75
458.377	530.75
458.598	532.75
458.818	593.75
459.038	687.75
459.258	699.75
459.478	594.75
459.698	525.75
459.918	541.75
460.138	513.75
460.358	522.75
460.578	525.75
460.798	519.75
461.018	530.75
461.238	513.75
461.458	536.75
461.678	517.75
461.898	495.75
462.118	508.75
462.338	517.75
462.558	531.75
462.777	535.75
462.997	558.75
463.217	552.75
463.437	544.75
463.657	521.75
463.876	532.75
464.096	549.75
464.316	524.75
464.536	563.75
464.755	571.75
464.975	535.75
465.195	627.75
465.414	710.75
465.634	657.75
465.854	590.75
466.073	565.75
466.293	558.75
466.512	530.75
466.732	520.75
466.951	516.75
467.171	514.75
467.391	513.75
467.61	533.75
467.829	534.75
468.049	548.75
468.268	546.75
468.488	538.75
468.707	517.75
468.927	513.75
469.146	478.75
469.365	515.75
469.585	495.75
469.804	496.75
470.023	518.75
470.243	541.75
470.462	531.75
470.681	538.75
470.901	547.75
471.12	520.75
471.339	538.75
471.558	532.75
471.777	517.75
471.997	524.75
472.216	540.75
472.435	576.75
472.654	560.75
472.873	524.75
473.092	534.75
473.311	545.75
473.53	517.75
473.749	545.75
473.968	601.75
474.187	715.75
474.406	733.75
474.625	600.75
474.844	584.75
475.063	553.75
475.282	529.75
475.501	549.75
475.72	548.75
475.939	532.75
476.158	523.75
476.377	561.75
476.596	522.75
476.814	562.75
477.033	554.75
477.252	551.75
477.471	556.75
477.69	564.75
477.908	560.75
478.127	592.75
478.346	572.75
478.564	584.75
478.783	588.75
479.002	591.75
479.22	606.75
479.439	632.75
479.658	631.75
479.876	636.75
480.095	623.75
480.313	673.75
480.532	668.75
480.751	640.75
480.969	675.75
481.188	756.75
481.406	799.75
481.624	719.75
481.843	679.75
482.061	642.75
482.28	643.75
482.498	617.75
482.717	631.75
482.935	627.75
483.153	625.75
483.372	645.75
483.59	632.75
483.808	641.75
484.027	628.75
484.245	631.75
484.463	626.75
484.681	657.75
484.9	638.75
485.118	637.75
485.336	631.75
485.554	633.75
485.772	660.75
485.99	640.75
486.209	649.75
486.427	661.75
486.645	660.75
486.863	687.75
487.081	704.75
487.299	692.75
487.517	689.75
487.735	662.75
487.953	683.75
488.171	692.75
488.389	706.75
488.607	705.75
488.825	709.75
489.043	676.75
489.261	701.75
489.479	706.75
489.696	721.75
489.914	724.75
490.132	722.75
490.35	738.75
490.568	753.75
490.786	732.75
491.003	745.75
491.221	771.75
491.439	754.75
491.657	798.75
491.874	806.75
492.092	823.75
492.31	826.75
492.527	829.75
492.745	802.75
492.963	813.75
493.18	822.75
493.398	851.75
493.615	834.75
493.833	859.75
494.05	837.75
494.268	842.75
494.485	825.75
494.703	840.75
494.92	840.75
495.138	852.75
495.355	836.75
495.573	852.75
495.79	845.75
496.008	822.75
496.225	838.75
496.442	819.75
496.66	848.75
496.877	825.75
497.094	848.75
497.312	842.75
497.529	851.75
497.746	838.75
497.963	856.75
498.181	876.75
498.398	895.75
498.615	889.75
498.832	900.75
499.049	881.75
499.267	908.75
499.484	889.75
499.701	948.75
499.918	947.75
500.135	969.75
500.352	1009.75
500.569	1009.75
500.786	1020.75
501.003	1013.75
501.22	987.75
501.437	984.75
501.654	971.75
501.871	980.75
