Data from 1970.PennyLincolnUp.Lamp.En5.5.200Scan.071719.P1._HRD10591_15-15-42-842.txt Node
Date: Thu Jul 18 15:15:42 EDT 2019
User: cochatt
Spectrometer: HR+D1059
Trigger mode: 1
Integration Time (sec): 1.000000E-1
Scans to average: 1
Electric dark correction enabled: true
Nonlinearity correction enabled: false
Boxcar width: 0
XAxis mode: Wavelengths
Number of Pixels in Spectrum: 2048
>>>>>Begin Spectral Data<<<<<
223.165	0.19
223.4	0.19
223.635	0.19
223.869	-18.81
224.104	-11.81
224.338	-15.81
224.573	-5.81
224.808	-15.81
225.042	-7.81
225.277	-17.81
225.511	-7.81
225.746	6.19
225.98	12.19
226.215	10.19
226.449	1.19
226.683	13.19
226.918	24.19
227.152	34.19
227.387	31.19
227.621	25.19
227.856	32.19
228.09	48.19
228.324	61.19
228.559	61.19
228.793	74.19
229.027	105.19
229.262	123.19
229.496	122.19
229.73	137.19
229.964	171.19
230.199	144.19
230.433	121.19
230.667	120.19
230.901	133.19
231.136	124.19
231.37	117.19
231.604	105.19
231.838	106.19
232.072	118.19
232.306	114.19
232.541	122.19
232.775	137.19
233.009	109.19
233.243	124.19
233.477	120.19
233.711	132.19
233.945	113.19
234.179	118.19
234.413	133.19
234.647	132.19
234.881	124.19
235.115	147.19
235.349	146.19
235.583	146.19
235.817	125.19
236.051	125.19
236.285	140.19
236.519	136.19
236.753	147.19
236.987	150.19
237.221	220.19
237.455	236.19
237.689	219.19
237.922	131.19
238.156	141.19
238.39	145.19
238.624	132.19
238.858	150.19
239.091	136.19
239.325	135.19
239.559	133.19
239.793	138.19
240.027	128.19
240.26	149.19
240.494	177.19
240.728	174.19
240.961	157.19
241.195	153.19
241.429	161.19
241.662	142.19
241.896	132.19
242.13	152.19
242.363	146.19
242.597	147.19
242.83	142.19
243.064	146.19
243.298	156.19
243.531	145.19
243.765	148.19
243.998	152.19
244.232	129.19
244.465	177.19
244.699	146.19
244.932	150.19
245.166	164.19
245.399	167.19
245.633	157.19
245.866	147.19
246.099	172.19
246.333	171.19
246.566	157.19
246.8	148.19
247.033	153.19
247.266	162.19
247.5	176.19
247.733	190.19
247.966	179.19
248.2	183.19
248.433	189.19
248.666	204.19
248.899	187.19
249.133	218.19
249.366	233.19
249.599	219.19
249.832	225.19
250.066	206.19
250.299	192.19
250.532	210.19
250.765	230.19
250.998	237.19
251.231	260.19
251.465	244.19
251.698	228.19
251.931	219.19
252.164	204.19
252.397	218.19
252.63	223.19
252.863	242.19
253.096	245.19
253.329	250.19
253.562	252.19
253.795	245.19
254.028	245.19
254.261	239.19
254.494	240.19
254.727	285.19
254.96	318.19
255.193	322.19
255.426	294.19
255.659	262.19
255.892	262.19
256.124	266.19
256.357	264.19
256.59	252.19
256.823	240.19
257.056	234.19
257.289	217.19
257.521	241.19
257.754	222.19
257.987	206.19
258.22	228.19
258.452	232.19
258.685	217.19
258.918	228.19
259.151	227.19
259.383	241.19
259.616	235.19
259.849	219.19
260.081	268.19
260.314	287.19
260.547	306.19
260.779	278.19
261.012	263.19
261.244	270.19
261.477	221.19
261.71	250.19
261.942	258.19
262.175	250.19
262.407	256.19
262.64	241.19
262.872	237.19
263.105	225.19
263.337	232.19
263.57	216.19
263.802	226.19
264.035	205.19
264.267	225.19
264.499	218.19
264.732	233.19
264.964	219.19
265.197	221.19
265.429	211.19
265.661	226.19
265.894	216.19
266.126	217.19
266.358	216.19
266.591	225.19
266.823	233.19
267.055	245.19
267.287	260.19
267.52	226.19
267.752	251.19
267.984	224.19
268.216	218.19
268.448	236.19
268.681	258.19
268.913	260.19
269.145	285.19
269.377	299.19
269.609	306.19
269.841	283.19
270.073	292.19
270.306	320.19
270.538	343.19
270.77	337.19
271.002	330.19
271.234	310.19
271.466	317.19
271.698	323.19
271.93	343.19
272.162	341.19
272.394	333.19
272.626	315.19
272.858	314.19
273.09	307.19
273.322	305.19
273.553	291.19
273.785	287.19
274.017	299.19
274.249	291.19
274.481	274.19
274.713	282.19
274.945	298.19
275.176	288.19
275.408	269.19
275.64	278.19
275.872	267.19
276.104	270.19
276.335	272.19
276.567	288.19
276.799	305.19
277.031	320.19
277.262	345.19
277.494	328.19
277.726	334.19
277.957	317.19
278.189	294.19
278.421	290.19
278.652	278.19
278.884	273.19
279.115	274.19
279.347	265.19
279.579	261.19
279.81	273.19
280.042	270.19
280.273	272.19
280.505	260.19
280.736	266.19
280.968	301.19
281.199	285.19
281.431	264.19
281.662	266.19
281.894	280.19
282.125	269.19
282.356	285.19
282.588	293.19
282.819	295.19
283.051	258.19
283.282	266.19
283.513	275.19
283.745	283.19
283.976	288.19
284.207	271.19
284.439	296.19
284.67	288.19
284.901	272.19
285.132	264.19
285.364	280.19
285.595	261.19
285.826	272.19
286.057	289.19
286.288	288.19
286.52	265.19
286.751	269.19
286.982	277.19
287.213	269.19
287.444	278.19
287.675	297.19
287.906	299.19
288.138	307.19
288.369	309.19
288.6	320.19
288.831	296.19
289.062	304.19
289.293	288.19
289.524	289.19
289.755	291.19
289.986	286.19
290.217	290.19
290.448	290.19
290.679	284.19
290.91	284.19
291.141	286.19
291.371	277.19
291.602	301.19
291.833	288.19
292.064	280.19
292.295	283.19
292.526	299.19
292.757	297.19
292.987	292.19
293.218	285.19
293.449	290.19
293.68	290.19
293.91	284.19
294.141	285.19
294.372	287.19
294.603	299.19
294.833	274.19
295.064	296.19
295.295	304.19
295.525	290.19
295.756	299.19
295.987	306.19
296.217	317.19
296.448	342.19
296.679	299.19
296.909	299.19
297.14	291.19
297.37	294.19
297.601	301.19
297.831	295.19
298.062	284.19
298.292	287.19
298.523	307.19
298.753	295.19
298.984	299.19
299.214	313.19
299.445	309.19
299.675	313.19
299.905	328.19
300.136	313.19
300.366	291.19
300.597	306.19
300.827	302.19
301.057	314.19
301.288	322.19
301.518	341.19
301.748	322.19
301.979	312.19
302.209	328.19
302.439	331.19
302.669	336.19
302.9	317.19
303.13	322.19
303.36	341.19
303.59	334.19
303.82	335.19
304.051	344.19
304.281	345.19
304.511	333.19
304.741	312.19
304.971	329.19
305.201	322.19
305.431	330.19
305.661	316.19
305.891	312.19
306.121	315.19
306.352	352.19
306.582	331.19
306.812	352.19
307.042	340.19
307.272	318.19
307.502	343.19
307.731	346.19
307.961	327.19
308.191	336.19
308.421	328.19
308.651	342.19
308.881	348.19
309.111	324.19
309.341	346.19
309.571	364.19
309.8	358.19
310.03	380.19
310.26	394.19
310.49	404.19
310.72	427.19
310.949	418.19
311.179	430.19
311.409	392.19
311.639	378.19
311.868	394.19
312.098	395.19
312.328	408.19
312.557	416.19
312.787	413.19
313.017	437.19
313.246	406.19
313.476	369.19
313.706	402.19
313.935	387.19
314.165	409.19
314.394	400.19
314.624	435.19
314.853	397.19
315.083	393.19
315.312	403.19
315.542	370.19
315.771	379.19
316.001	388.19
316.23	396.19
316.46	380.19
316.689	388.19
316.919	389.19
317.148	395.19
317.377	396.19
317.607	393.19
317.836	384.19
318.065	384.19
318.295	385.19
318.524	383.19
318.753	384.19
318.983	382.19
319.212	394.19
319.441	405.19
319.67	394.19
319.9	394.19
320.129	396.19
320.358	398.19
320.587	405.19
320.816	392.19
321.046	425.19
321.275	403.19
321.504	409.19
321.733	410.19
321.962	442.19
322.191	460.19
322.42	454.19
322.649	473.19
322.878	500.19
323.108	512.19
323.337	518.19
323.566	541.19
323.795	625.19
324.024	680.19
324.253	783.19
324.482	1143.19
324.71	1759.19
324.939	2517.19
325.168	2183.19
325.397	1179.19
325.626	765.19
325.855	629.19
326.084	573.19
326.313	560.19
326.542	578.19
326.77	636.19
326.999	729.19
327.228	1037.19
327.457	1561.19
327.686	1924.19
327.914	1293.19
328.143	873.19
328.372	754.19
328.6	668.19
328.829	654.19
329.058	654.19
329.287	686.19
329.515	634.19
329.744	572.19
329.972	589.19
330.201	597.19
330.43	633.19
330.658	674.19
330.887	699.19
331.115	673.19
331.344	582.19
331.572	558.19
331.801	548.19
332.03	558.19
332.258	491.19
332.486	473.19
332.715	476.19
332.943	475.19
333.172	458.19
333.4	476.19
333.629	478.19
333.857	498.19
334.085	512.19
334.314	548.19
334.542	600.19
334.771	617.19
334.999	545.19
335.227	503.19
335.455	474.19
335.684	485.19
335.912	450.19
336.14	453.19
336.369	461.19
336.597	468.19
336.825	488.19
337.053	470.19
337.281	452.19
337.51	436.19
337.738	469.19
337.966	452.19
338.194	449.19
338.422	459.19
338.65	436.19
338.878	455.19
339.106	459.19
339.334	419.19
339.562	446.19
339.79	435.19
340.018	448.19
340.246	449.19
340.474	449.19
340.702	475.19
340.93	438.19
341.158	450.19
341.386	456.19
341.614	449.19
341.842	441.19
342.07	445.19
342.298	442.19
342.526	432.19
342.754	421.19
342.981	419.19
343.209	424.19
343.437	434.19
343.665	440.19
343.893	416.19
344.12	440.19
344.348	452.19
344.576	452.19
344.804	446.19
345.031	464.19
345.259	481.19
345.487	464.19
345.714	442.19
345.942	437.19
346.17	446.19
346.397	455.19
346.625	434.19
346.853	434.19
347.08	430.19
347.308	456.19
347.535	439.19
347.763	461.19
347.99	444.19
348.218	452.19
348.445	467.19
348.673	476.19
348.9	452.19
349.128	459.19
349.355	427.19
349.583	406.19
349.81	411.19
350.037	420.19
350.265	417.19
350.492	422.19
350.72	432.19
350.947	438.19
351.174	458.19
351.402	473.19
351.629	461.19
351.856	443.19
352.083	472.19
352.311	458.19
352.538	472.19
352.765	464.19
352.992	475.19
353.22	473.19
353.447	442.19
353.674	438.19
353.901	423.19
354.128	401.19
354.355	436.19
354.583	422.19
354.81	416.19
355.037	407.19
355.264	406.19
355.491	394.19
355.718	420.19
355.945	387.19
356.172	406.19
356.399	402.19
356.626	405.19
356.853	413.19
357.08	412.19
357.307	406.19
357.534	405.19
357.761	411.19
357.988	429.19
358.215	420.19
358.441	406.19
358.668	413.19
358.895	424.19
359.122	404.19
359.349	435.19
359.576	445.19
359.802	460.19
360.029	511.19
360.256	511.19
360.483	517.19
360.709	483.19
360.936	464.19
361.163	440.19
361.39	435.19
361.616	450.19
361.843	441.19
362.07	429.19
362.296	441.19
362.523	432.19
362.749	454.19
362.976	450.19
363.203	440.19
363.429	439.19
363.656	427.19
363.882	428.19
364.109	429.19
364.335	416.19
364.562	424.19
364.788	436.19
365.015	421.19
365.241	420.19
365.468	429.19
365.694	437.19
365.92	444.19
366.147	429.19
366.373	416.19
366.599	413.19
366.826	417.19
367.052	403.19
367.278	407.19
367.505	421.19
367.731	432.19
367.957	406.19
368.184	433.19
368.41	432.19
368.636	430.19
368.862	442.19
369.089	426.19
369.315	413.19
369.541	427.19
369.767	416.19
369.993	437.19
370.219	411.19
370.445	420.19
370.672	415.19
370.898	415.19
371.124	415.19
371.35	419.19
371.576	434.19
371.802	416.19
372.028	402.19
372.254	408.19
372.48	409.19
372.706	405.19
372.932	421.19
373.158	419.19
373.384	434.19
373.61	417.19
373.835	425.19
374.061	429.19
374.287	438.19
374.513	416.19
374.739	425.19
374.965	446.19
375.191	446.19
375.416	419.19
375.642	451.19
375.868	398.19
376.094	416.19
376.319	423.19
376.545	410.19
376.771	425.19
376.997	425.19
377.222	415.19
377.448	442.19
377.674	410.19
377.899	414.19
378.125	436.19
378.35	414.19
378.576	399.19
378.802	415.19
379.027	406.19
379.253	417.19
379.478	425.19
379.704	397.19
379.929	398.19
380.155	428.19
380.38	434.19
380.606	420.19
380.831	411.19
381.057	430.19
381.282	436.19
381.507	440.19
381.733	419.19
381.958	399.19
382.184	425.19
382.409	444.19
382.634	454.19
382.86	424.19
383.085	440.19
383.31	422.19
383.535	424.19
383.761	440.19
383.986	427.19
384.211	438.19
384.436	439.19
384.662	449.19
384.887	452.19
385.112	465.19
385.337	458.19
385.562	434.19
385.787	453.19
386.013	466.19
386.238	463.19
386.463	460.19
386.688	481.19
386.913	438.19
387.138	457.19
387.363	445.19
387.588	457.19
387.813	446.19
388.038	445.19
388.263	458.19
388.488	462.19
388.713	434.19
388.938	430.19
389.163	463.19
389.387	458.19
389.612	462.19
389.837	458.19
390.062	459.19
390.287	463.19
390.512	448.19
390.736	424.19
390.961	453.19
391.186	458.19
391.411	495.19
391.636	472.19
391.86	478.19
392.085	446.19
392.31	453.19
392.534	475.19
392.759	460.19
392.984	444.19
393.208	459.19
393.433	467.19
393.658	462.19
393.882	465.19
394.107	462.19
394.331	458.19
394.556	455.19
394.78	445.19
395.005	451.19
395.229	437.19
395.454	473.19
395.678	473.19
395.903	485.19
396.127	513.19
396.352	492.19
396.576	473.19
396.801	470.19
397.025	473.19
397.249	494.19
397.474	462.19
397.698	475.19
397.922	500.19
398.147	514.19
398.371	514.19
398.595	517.19
398.82	503.19
399.044	486.19
399.268	509.19
399.492	534.19
399.717	570.19
399.941	609.19
400.165	607.19
400.389	640.19
400.613	582.19
400.837	547.19
401.062	547.19
401.286	542.19
401.51	516.19
401.734	488.19
401.958	508.19
402.182	540.19
402.406	540.19
402.63	542.19
402.854	526.19
403.078	522.19
403.302	542.19
403.526	577.19
403.75	544.19
403.974	528.19
404.198	532.19
404.422	554.19
404.645	551.19
404.869	568.19
405.093	609.19
405.317	648.19
405.541	677.19
405.765	605.19
405.988	572.19
406.212	600.19
406.436	584.19
406.66	637.19
406.883	619.19
407.107	636.19
407.331	642.19
407.555	729.19
407.778	741.19
408.002	665.19
408.226	622.19
408.449	600.19
408.673	611.19
408.896	636.19
409.12	681.19
409.344	671.19
409.567	572.19
409.791	570.19
410.014	567.19
410.238	554.19
410.461	563.19
410.685	546.19
410.908	563.19
411.132	617.19
411.355	635.19
411.578	644.19
411.802	561.19
412.025	573.19
412.249	558.19
412.472	602.19
412.695	645.19
412.919	646.19
413.142	564.19
413.365	549.19
413.589	533.19
413.812	549.19
414.035	533.19
414.258	505.19
414.482	514.19
414.705	518.19
414.928	524.19
415.151	530.19
415.374	530.19
415.597	520.19
415.821	519.19
416.044	531.19
416.267	524.19
416.49	541.19
416.713	518.19
416.936	514.19
417.159	504.19
417.382	518.19
417.605	513.19
417.828	544.19
418.051	555.19
418.274	557.19
418.497	514.19
418.72	541.19
418.943	516.19
419.166	536.19
419.389	588.19
419.611	551.19
419.834	563.19
420.057	560.19
420.28	548.19
420.503	589.19
420.726	570.19
420.948	589.19
421.171	623.19
421.394	656.19
421.617	605.19
421.839	558.19
422.062	574.19
422.285	594.19
422.507	638.19
422.73	713.19
422.953	704.19
423.175	633.19
423.398	596.19
423.621	592.19
423.843	591.19
424.066	611.19
424.288	609.19
424.511	613.19
424.733	688.19
424.956	768.19
425.178	748.19
425.401	754.19
425.623	776.19
425.846	667.19
426.068	601.19
426.291	614.19
426.513	622.19
426.735	635.19
426.958	668.19
427.18	740.19
427.402	880.19
427.625	987.19
427.847	891.19
428.069	779.19
428.292	685.19
428.514	613.19
428.736	623.19
428.958	590.19
429.181	582.19
429.403	576.19
429.625	605.19
429.847	630.19
430.069	703.19
430.292	697.19
430.514	605.19
430.736	563.19
430.958	571.19
431.18	544.19
431.402	574.19
431.624	532.19
431.846	538.19
432.068	526.19
432.29	541.19
432.512	556.19
432.734	567.19
432.956	547.19
433.178	549.19
433.4	558.19
433.622	532.19
433.844	548.19
434.066	549.19
434.287	548.19
434.509	527.19
434.731	547.19
434.953	546.19
435.175	573.19
435.397	601.19
435.618	629.19
435.84	655.19
436.062	762.19
436.284	832.19
436.505	725.19
436.727	650.19
436.949	604.19
437.17	595.19
437.392	558.19
437.614	596.19
437.835	647.19
438.057	780.19
438.278	877.19
438.5	843.19
438.721	907.19
438.943	877.19
439.165	697.19
439.386	664.19
439.608	626.19
439.829	647.19
440.05	665.19
440.272	716.19
440.493	654.19
440.715	647.19
440.936	595.19
441.158	572.19
441.379	592.19
441.6	600.19
441.822	619.19
442.043	636.19
442.264	748.19
442.486	814.19
442.707	694.19
442.928	640.19
443.149	636.19
443.371	672.19
443.592	736.19
443.813	793.19
444.034	835.19
444.255	727.19
444.476	638.19
444.698	620.19
444.919	616.19
445.14	726.19
445.361	704.19
445.582	674.19
445.803	745.19
446.024	881.19
446.245	848.19
446.466	781.19
446.687	679.19
446.908	642.19
447.129	619.19
447.35	593.19
447.571	566.19
447.792	570.19
448.013	594.19
448.234	606.19
448.455	658.19
448.675	797.19
448.896	907.19
449.117	770.19
449.338	698.19
449.559	860.19
449.779	925.19
450	776.19
450.221	651.19
450.442	592.19
450.662	586.19
450.883	587.19
451.104	604.19
451.324	599.19
451.545	563.19
451.766	538.19
451.986	552.19
452.207	517.19
452.428	520.19
452.648	491.19
452.869	499.19
453.089	535.19
453.31	554.19
453.53	540.19
453.751	523.19
453.971	541.19
454.192	537.19
454.412	546.19
454.633	529.19
454.853	524.19
455.073	508.19
455.294	539.19
455.514	646.19
455.734	619.19
455.955	532.19
456.175	509.19
456.395	480.19
456.616	461.19
456.836	473.19
457.056	501.19
457.276	486.19
457.497	478.19
457.717	471.19
457.937	491.19
458.157	492.19
458.377	497.19
458.598	532.19
458.818	620.19
459.038	698.19
459.258	722.19
459.478	591.19
459.698	550.19
459.918	552.19
460.138	548.19
460.358	538.19
460.578	527.19
460.798	510.19
461.018	524.19
461.238	530.19
461.458	534.19
461.678	538.19
461.898	495.19
462.118	557.19
462.338	513.19
462.558	550.19
462.777	537.19
462.997	572.19
463.217	564.19
463.437	580.19
463.657	550.19
463.876	538.19
464.096	548.19
464.316	549.19
464.536	567.19
464.755	594.19
464.975	572.19
465.195	651.19
465.414	743.19
465.634	657.19
465.854	627.19
466.073	577.19
466.293	538.19
466.512	551.19
466.732	540.19
466.951	523.19
467.171	536.19
467.391	504.19
467.61	547.19
467.829	532.19
468.049	530.19
468.268	543.19
468.488	525.19
468.707	501.19
468.927	509.19
469.146	503.19
469.365	506.19
469.585	512.19
469.804	525.19
470.023	540.19
470.243	520.19
470.462	544.19
470.681	578.19
470.901	563.19
471.12	526.19
471.339	534.19
471.558	561.19
471.777	536.19
471.997	546.19
472.216	556.19
472.435	574.19
472.654	577.19
472.873	538.19
473.092	550.19
473.311	534.19
473.53	548.19
473.749	581.19
473.968	609.19
474.187	710.19
474.406	762.19
474.625	624.19
474.844	568.19
475.063	548.19
475.282	544.19
475.501	547.19
475.72	553.19
475.939	572.19
476.158	574.19
476.377	560.19
476.596	533.19
476.814	566.19
477.033	585.19
477.252	563.19
477.471	573.19
477.69	586.19
477.908	582.19
478.127	583.19
478.346	575.19
478.564	577.19
478.783	605.19
479.002	608.19
479.22	588.19
479.439	628.19
479.658	639.19
479.876	655.19
480.095	638.19
480.313	692.19
480.532	641.19
480.751	645.19
480.969	653.19
481.188	768.19
481.406	818.19
481.624	741.19
481.843	666.19
482.061	670.19
482.28	660.19
482.498	660.19
482.717	638.19
482.935	662.19
483.153	630.19
483.372	662.19
483.59	651.19
483.808	666.19
484.027	626.19
484.245	624.19
484.463	636.19
484.681	660.19
484.9	665.19
485.118	666.19
485.336	638.19
485.554	664.19
485.772	652.19
485.99	688.19
486.209	663.19
486.427	702.19
486.645	705.19
486.863	715.19
487.081	701.19
487.299	722.19
487.517	675.19
487.735	699.19
487.953	691.19
488.171	696.19
488.389	700.19
488.607	688.19
488.825	697.19
489.043	708.19
489.261	706.19
489.479	720.19
489.696	693.19
489.914	710.19
490.132	717.19
490.35	758.19
490.568	747.19
490.786	749.19
491.003	744.19
491.221	766.19
491.439	797.19
491.657	765.19
491.874	803.19
492.092	819.19
492.31	827.19
492.527	845.19
492.745	840.19
492.963	834.19
493.18	840.19
493.398	848.19
493.615	872.19
493.833	893.19
494.05	835.19
494.268	847.19
494.485	868.19
494.703	854.19
494.92	855.19
495.138	845.19
495.355	845.19
495.573	838.19
495.79	869.19
496.008	837.19
496.225	853.19
496.442	869.19
496.66	848.19
496.877	862.19
497.094	843.19
497.312	863.19
497.529	845.19
497.746	860.19
497.963	892.19
498.181	922.19
498.398	897.19
498.615	894.19
498.832	926.19
499.049	919.19
499.267	921.19
499.484	953.19
499.701	958.19
499.918	999.19
500.135	1016.19
500.352	1003.19
500.569	1038.19
500.786	1047.19
501.003	1042.19
501.22	1045.19
501.437	1001.19
501.654	982.19
501.871	1039.19
