Data from 1970.PennyLincolnUp.Lamp.En5.5.200Scan.071719.P1._HRD10591_15-14-12-842.txt Node
Date: Thu Jul 18 15:14:12 EDT 2019
User: cochatt
Spectrometer: HR+D1059
Trigger mode: 1
Integration Time (sec): 1.000000E-1
Scans to average: 1
Electric dark correction enabled: true
Nonlinearity correction enabled: false
Boxcar width: 0
XAxis mode: Wavelengths
Number of Pixels in Spectrum: 2048
>>>>>Begin Spectral Data<<<<<
223.165	-14.31
223.4	-14.31
223.635	-14.31
223.869	-13.31
224.104	-22.31
224.338	-7.31
224.573	-8.31
224.808	-10.31
225.042	-12.31
225.277	-4.31
225.511	1.69
225.746	7.69
225.98	3.69
226.215	15.69
226.449	17.69
226.683	9.69
226.918	12.69
227.152	23.69
227.387	29.69
227.621	27.69
227.856	41.69
228.09	57.69
228.324	37.69
228.559	57.69
228.793	61.69
229.027	107.69
229.262	106.69
229.496	113.69
229.73	148.69
229.964	141.69
230.199	131.69
230.433	117.69
230.667	114.69
230.901	101.69
231.136	109.69
231.37	98.69
231.604	116.69
231.838	103.69
232.072	114.69
232.306	109.69
232.541	113.69
232.775	120.69
233.009	114.69
233.243	104.69
233.477	117.69
233.711	102.69
233.945	105.69
234.179	118.69
234.413	122.69
234.647	115.69
234.881	125.69
235.115	119.69
235.349	117.69
235.583	130.69
235.817	126.69
236.051	136.69
236.285	139.69
236.519	129.69
236.753	145.69
236.987	155.69
237.221	201.69
237.455	255.69
237.689	201.69
237.922	123.69
238.156	132.69
238.39	126.69
238.624	112.69
238.858	118.69
239.091	122.69
239.325	129.69
239.559	133.69
239.793	142.69
240.027	143.69
240.26	153.69
240.494	166.69
240.728	164.69
240.961	147.69
241.195	143.69
241.429	136.69
241.662	147.69
241.896	142.69
242.13	138.69
242.363	130.69
242.597	145.69
242.83	144.69
243.064	140.69
243.298	134.69
243.531	136.69
243.765	141.69
243.998	155.69
244.232	144.69
244.465	152.69
244.699	149.69
244.932	143.69
245.166	159.69
245.399	158.69
245.633	161.69
245.866	155.69
246.099	138.69
246.333	159.69
246.566	147.69
246.8	148.69
247.033	169.69
247.266	166.69
247.5	157.69
247.733	183.69
247.966	185.69
248.2	183.69
248.433	181.69
248.666	186.69
248.899	211.69
249.133	226.69
249.366	232.69
249.599	222.69
249.832	194.69
250.066	186.69
250.299	186.69
250.532	213.69
250.765	230.69
250.998	225.69
251.231	240.69
251.465	240.69
251.698	217.69
251.931	218.69
252.164	214.69
252.397	210.69
252.63	218.69
252.863	213.69
253.096	233.69
253.329	246.69
253.562	241.69
253.795	233.69
254.028	242.69
254.261	239.69
254.494	241.69
254.727	252.69
254.96	296.69
255.193	292.69
255.426	265.69
255.659	251.69
255.892	246.69
256.124	241.69
256.357	239.69
256.59	236.69
256.823	238.69
257.056	214.69
257.289	233.69
257.521	228.69
257.754	222.69
257.987	215.69
258.22	218.69
258.452	203.69
258.685	214.69
258.918	216.69
259.151	207.69
259.383	225.69
259.616	226.69
259.849	225.69
260.081	242.69
260.314	252.69
260.547	275.69
260.779	241.69
261.012	250.69
261.244	252.69
261.477	240.69
261.71	252.69
261.942	219.69
262.175	242.69
262.407	230.69
262.64	227.69
262.872	227.69
263.105	223.69
263.337	189.69
263.57	212.69
263.802	221.69
264.035	213.69
264.267	205.69
264.499	209.69
264.732	203.69
264.964	195.69
265.197	206.69
265.429	218.69
265.661	206.69
265.894	209.69
266.126	211.69
266.358	220.69
266.591	212.69
266.823	215.69
267.055	204.69
267.287	221.69
267.52	222.69
267.752	233.69
267.984	226.69
268.216	226.69
268.448	255.69
268.681	228.69
268.913	216.69
269.145	266.69
269.377	261.69
269.609	287.69
269.841	290.69
270.073	275.69
270.306	288.69
270.538	322.69
270.77	332.69
271.002	330.69
271.234	318.69
271.466	299.69
271.698	337.69
271.93	328.69
272.162	320.69
272.394	302.69
272.626	298.69
272.858	305.69
273.09	280.69
273.322	270.69
273.553	293.69
273.785	280.69
274.017	276.69
274.249	259.69
274.481	255.69
274.713	269.69
274.945	279.69
275.176	270.69
275.408	275.69
275.64	261.69
275.872	263.69
276.104	264.69
276.335	269.69
276.567	272.69
276.799	263.69
277.031	314.69
277.262	333.69
277.494	313.69
277.726	297.69
277.957	296.69
278.189	273.69
278.421	269.69
278.652	265.69
278.884	272.69
279.115	258.69
279.347	245.69
279.579	256.69
279.81	260.69
280.042	265.69
280.273	269.69
280.505	271.69
280.736	254.69
280.968	266.69
281.199	262.69
281.431	262.69
281.662	272.69
281.894	266.69
282.125	259.69
282.356	282.69
282.588	289.69
282.819	303.69
283.051	274.69
283.282	267.69
283.513	248.69
283.745	281.69
283.976	256.69
284.207	262.69
284.439	258.69
284.67	251.69
284.901	257.69
285.132	251.69
285.364	258.69
285.595	264.69
285.826	259.69
286.057	266.69
286.288	248.69
286.52	250.69
286.751	255.69
286.982	274.69
287.213	258.69
287.444	279.69
287.675	265.69
287.906	287.69
288.138	299.69
288.369	307.69
288.6	296.69
288.831	286.69
289.062	286.69
289.293	294.69
289.524	281.69
289.755	281.69
289.986	285.69
290.217	285.69
290.448	278.69
290.679	267.69
290.91	289.69
291.141	266.69
291.371	281.69
291.602	260.69
291.833	265.69
292.064	283.69
292.295	262.69
292.526	276.69
292.757	271.69
292.987	289.69
293.218	259.69
293.449	292.69
293.68	294.69
293.91	276.69
294.141	262.69
294.372	268.69
294.603	283.69
294.833	281.69
295.064	291.69
295.295	269.69
295.525	278.69
295.756	286.69
295.987	290.69
296.217	321.69
296.448	338.69
296.679	289.69
296.909	287.69
297.14	281.69
297.37	288.69
297.601	278.69
297.831	291.69
298.062	282.69
298.292	283.69
298.523	299.69
298.753	278.69
298.984	295.69
299.214	286.69
299.445	290.69
299.675	303.69
299.905	302.69
300.136	293.69
300.366	288.69
300.597	299.69
300.827	303.69
301.057	299.69
301.288	326.69
301.518	321.69
301.748	306.69
301.979	293.69
302.209	317.69
302.439	309.69
302.669	305.69
302.9	312.69
303.13	296.69
303.36	310.69
303.59	316.69
303.82	329.69
304.051	319.69
304.281	298.69
304.511	321.69
304.741	286.69
304.971	308.69
305.201	303.69
305.431	317.69
305.661	317.69
305.891	308.69
306.121	310.69
306.352	315.69
306.582	336.69
306.812	323.69
307.042	324.69
307.272	314.69
307.502	330.69
307.731	319.69
307.961	310.69
308.191	341.69
308.421	327.69
308.651	319.69
308.881	321.69
309.111	342.69
309.341	336.69
309.571	337.69
309.8	343.69
310.03	343.69
310.26	376.69
310.49	357.69
310.72	373.69
310.949	396.69
311.179	386.69
311.409	361.69
311.639	359.69
311.868	365.69
312.098	366.69
312.328	356.69
312.557	391.69
312.787	396.69
313.017	409.69
313.246	401.69
313.476	366.69
313.706	368.69
313.935	366.69
314.165	375.69
314.394	381.69
314.624	395.69
314.853	382.69
315.083	381.69
315.312	345.69
315.542	378.69
315.771	377.69
316.001	354.69
316.23	350.69
316.46	369.69
316.689	366.69
316.919	367.69
317.148	396.69
317.377	395.69
317.607	382.69
317.836	385.69
318.065	378.69
318.295	376.69
318.524	360.69
318.753	375.69
318.983	369.69
319.212	341.69
319.441	368.69
319.67	381.69
319.9	371.69
320.129	385.69
320.358	396.69
320.587	374.69
320.816	405.69
321.046	401.69
321.275	398.69
321.504	379.69
321.733	381.69
321.962	413.69
322.191	416.69
322.42	424.69
322.649	446.69
322.878	473.69
323.108	477.69
323.337	502.69
323.566	493.69
323.795	559.69
324.024	592.69
324.253	733.69
324.482	1056.69
324.71	1613.69
324.939	2293.69
325.168	1985.69
325.397	1042.69
325.626	699.69
325.855	598.69
326.084	539.69
326.313	520.69
326.542	517.69
326.77	579.69
326.999	693.69
327.228	897.69
327.457	1411.69
327.686	1727.69
327.914	1194.69
328.143	783.69
328.372	699.69
328.6	598.69
328.829	581.69
329.058	603.69
329.287	625.69
329.515	600.69
329.744	543.69
329.972	557.69
330.201	570.69
330.43	600.69
330.658	649.69
330.887	668.69
331.115	616.69
331.344	527.69
331.572	488.69
331.801	496.69
332.03	487.69
332.258	471.69
332.486	442.69
332.715	457.69
332.943	445.69
333.172	460.69
333.4	453.69
333.629	441.69
333.857	458.69
334.085	487.69
334.314	499.69
334.542	541.69
334.771	567.69
334.999	517.69
335.227	465.69
335.455	445.69
335.684	456.69
335.912	432.69
336.14	440.69
336.369	438.69
336.597	448.69
336.825	475.69
337.053	424.69
337.281	430.69
337.51	417.69
337.738	411.69
337.966	437.69
338.194	441.69
338.422	446.69
338.65	450.69
338.878	420.69
339.106	395.69
339.334	425.69
339.562	419.69
339.79	414.69
340.018	436.69
340.246	427.69
340.474	425.69
340.702	423.69
340.93	416.69
341.158	408.69
341.386	409.69
341.614	418.69
341.842	434.69
342.07	435.69
342.298	441.69
342.526	409.69
342.754	396.69
342.981	388.69
343.209	413.69
343.437	408.69
343.665	430.69
343.893	407.69
344.12	438.69
344.348	442.69
344.576	406.69
344.804	427.69
345.031	440.69
345.259	448.69
345.487	460.69
345.714	432.69
345.942	418.69
346.17	397.69
346.397	433.69
346.625	406.69
346.853	421.69
347.08	423.69
347.308	418.69
347.535	435.69
347.763	435.69
347.99	435.69
348.218	436.69
348.445	432.69
348.673	436.69
348.9	432.69
349.128	438.69
349.355	403.69
349.583	410.69
349.81	417.69
350.037	389.69
350.265	387.69
350.492	390.69
350.72	415.69
350.947	418.69
351.174	433.69
351.402	436.69
351.629	438.69
351.856	431.69
352.083	438.69
352.311	448.69
352.538	451.69
352.765	448.69
352.992	453.69
353.22	421.69
353.447	418.69
353.674	424.69
353.901	420.69
354.128	402.69
354.355	395.69
354.583	408.69
354.81	420.69
355.037	379.69
355.264	380.69
355.491	363.69
355.718	347.69
355.945	389.69
356.172	408.69
356.399	375.69
356.626	386.69
356.853	392.69
357.08	377.69
357.307	374.69
357.534	388.69
357.761	396.69
357.988	409.69
358.215	405.69
358.441	399.69
358.668	406.69
358.895	394.69
359.122	413.69
359.349	426.69
359.576	426.69
359.802	450.69
360.029	471.69
360.256	495.69
360.483	490.69
360.709	441.69
360.936	437.69
361.163	432.69
361.39	432.69
361.616	456.69
361.843	416.69
362.07	423.69
362.296	429.69
362.523	417.69
362.749	432.69
362.976	422.69
363.203	431.69
363.429	408.69
363.656	431.69
363.882	410.69
364.109	400.69
364.335	396.69
364.562	404.69
364.788	394.69
365.015	417.69
365.241	431.69
365.468	431.69
365.694	426.69
365.92	420.69
366.147	412.69
366.373	402.69
366.599	431.69
366.826	397.69
367.052	395.69
367.278	403.69
367.505	405.69
367.731	414.69
367.957	404.69
368.184	415.69
368.41	407.69
368.636	416.69
368.862	438.69
369.089	411.69
369.315	393.69
369.541	407.69
369.767	416.69
369.993	401.69
370.219	403.69
370.445	407.69
370.672	402.69
370.898	404.69
371.124	407.69
371.35	413.69
371.576	403.69
371.802	398.69
372.028	381.69
372.254	409.69
372.48	414.69
372.706	405.69
372.932	427.69
373.158	417.69
373.384	396.69
373.61	406.69
373.835	415.69
374.061	408.69
374.287	374.69
374.513	407.69
374.739	410.69
374.965	422.69
375.191	416.69
375.416	397.69
375.642	400.69
375.868	393.69
376.094	398.69
376.319	419.69
376.545	395.69
376.771	406.69
376.997	419.69
377.222	390.69
377.448	399.69
377.674	397.69
377.899	410.69
378.125	402.69
378.35	412.69
378.576	406.69
378.802	423.69
379.027	410.69
379.253	405.69
379.478	406.69
379.704	416.69
379.929	401.69
380.155	404.69
380.38	407.69
380.606	410.69
380.831	399.69
381.057	430.69
381.282	404.69
381.507	409.69
381.733	417.69
381.958	414.69
382.184	418.69
382.409	431.69
382.634	422.69
382.86	388.69
383.085	405.69
383.31	427.69
383.535	420.69
383.761	452.69
383.986	417.69
384.211	412.69
384.436	436.69
384.662	440.69
384.887	439.69
385.112	433.69
385.337	431.69
385.562	423.69
385.787	433.69
386.013	431.69
386.238	453.69
386.463	453.69
386.688	451.69
386.913	433.69
387.138	409.69
387.363	426.69
387.588	440.69
387.813	443.69
388.038	429.69
388.263	431.69
388.488	457.69
388.713	424.69
388.938	439.69
389.163	437.69
389.387	450.69
389.612	435.69
389.837	431.69
390.062	426.69
390.287	437.69
390.512	427.69
390.736	418.69
390.961	444.69
391.186	457.69
391.411	445.69
391.636	427.69
391.86	458.69
392.085	454.69
392.31	453.69
392.534	475.69
392.759	480.69
392.984	438.69
393.208	420.69
393.433	451.69
393.658	457.69
393.882	455.69
394.107	445.69
394.331	436.69
394.556	441.69
394.78	416.69
395.005	441.69
395.229	439.69
395.454	448.69
395.678	457.69
395.903	486.69
396.127	490.69
396.352	482.69
396.576	458.69
396.801	430.69
397.025	476.69
397.249	449.69
397.474	459.69
397.698	467.69
397.922	480.69
398.147	518.69
398.371	493.69
398.595	495.69
398.82	491.69
399.044	487.69
399.268	532.69
399.492	537.69
399.717	541.69
399.941	581.69
400.165	609.69
400.389	592.69
400.613	568.69
400.837	527.69
401.062	520.69
401.286	527.69
401.51	495.69
401.734	496.69
401.958	516.69
402.182	501.69
402.406	517.69
402.63	549.69
402.854	513.69
403.078	505.69
403.302	528.69
403.526	531.69
403.75	536.69
403.974	528.69
404.198	516.69
404.422	525.69
404.645	529.69
404.869	558.69
405.093	562.69
405.317	603.69
405.541	632.69
405.765	599.69
405.988	561.69
406.212	548.69
406.436	589.69
406.66	601.69
406.883	591.69
407.107	606.69
407.331	623.69
407.555	687.69
407.778	726.69
408.002	652.69
408.226	590.69
408.449	589.69
408.673	585.69
408.896	610.69
409.12	639.69
409.344	634.69
409.567	576.69
409.791	551.69
410.014	550.69
410.238	509.69
410.461	554.69
410.685	540.69
410.908	559.69
411.132	582.69
411.355	598.69
411.578	597.69
411.802	555.69
412.025	530.69
412.249	530.69
412.472	557.69
412.695	613.69
412.919	577.69
413.142	542.69
413.365	531.69
413.589	548.69
413.812	503.69
414.035	500.69
414.258	519.69
414.482	498.69
414.705	515.69
414.928	478.69
415.151	507.69
415.374	519.69
415.597	510.69
415.821	494.69
416.044	509.69
416.267	491.69
416.49	532.69
416.713	502.69
416.936	534.69
417.159	515.69
417.382	510.69
417.605	515.69
417.828	535.69
418.051	530.69
418.274	517.69
418.497	510.69
418.72	510.69
418.943	501.69
419.166	518.69
419.389	582.69
419.611	541.69
419.834	529.69
420.057	554.69
420.28	539.69
420.503	543.69
420.726	543.69
420.948	547.69
421.171	602.69
421.394	625.69
421.617	569.69
421.839	527.69
422.062	543.69
422.285	543.69
422.507	618.69
422.73	699.69
422.953	695.69
423.175	601.69
423.398	555.69
423.621	554.69
423.843	582.69
424.066	600.69
424.288	559.69
424.511	614.69
424.733	672.69
424.956	750.69
425.178	722.69
425.401	728.69
425.623	722.69
425.846	625.69
426.068	578.69
426.291	565.69
426.513	586.69
426.735	595.69
426.958	651.69
427.18	716.69
427.402	862.69
427.625	958.69
427.847	853.69
428.069	742.69
428.292	685.69
428.514	622.69
428.736	605.69
428.958	571.69
429.181	546.69
429.403	563.69
429.625	581.69
429.847	607.69
430.069	682.69
430.292	649.69
430.514	590.69
430.736	557.69
430.958	534.69
431.18	536.69
431.402	518.69
431.624	499.69
431.846	509.69
432.068	528.69
432.29	528.69
432.512	521.69
432.734	546.69
432.956	535.69
433.178	536.69
433.4	561.69
433.622	521.69
433.844	506.69
434.066	524.69
434.287	510.69
434.509	517.69
434.731	528.69
434.953	542.69
435.175	542.69
435.397	570.69
435.618	587.69
435.84	641.69
436.062	728.69
436.284	779.69
436.505	701.69
436.727	614.69
436.949	554.69
437.17	551.69
437.392	571.69
437.614	574.69
437.835	598.69
438.057	715.69
438.278	810.69
438.5	785.69
438.721	859.69
438.943	838.69
439.165	673.69
439.386	629.69
439.608	585.69
439.829	609.69
440.05	641.69
440.272	685.69
440.493	666.69
440.715	617.69
440.936	603.69
441.158	557.69
441.379	562.69
441.6	589.69
441.822	616.69
442.043	650.69
442.264	739.69
442.486	789.69
442.707	665.69
442.928	599.69
443.149	618.69
443.371	617.69
443.592	652.69
443.813	797.69
444.034	815.69
444.255	712.69
444.476	632.69
444.698	590.69
444.919	571.69
445.14	690.69
445.361	670.69
445.582	657.69
445.803	708.69
446.024	813.69
446.245	825.69
446.466	729.69
446.687	668.69
446.908	601.69
447.129	569.69
447.35	562.69
447.571	559.69
447.792	582.69
448.013	576.69
448.234	565.69
448.455	655.69
448.675	742.69
448.896	858.69
449.117	737.69
449.338	722.69
449.559	809.69
449.779	875.69
450	754.69
450.221	626.69
450.442	583.69
450.662	540.69
450.883	573.69
451.104	595.69
451.324	551.69
451.545	530.69
451.766	508.69
451.986	500.69
452.207	486.69
452.428	484.69
452.648	503.69
452.869	484.69
453.089	505.69
453.31	518.69
453.53	505.69
453.751	504.69
453.971	510.69
454.192	530.69
454.412	499.69
454.633	483.69
454.853	494.69
455.073	482.69
455.294	543.69
455.514	594.69
455.734	609.69
455.955	518.69
456.175	466.69
456.395	477.69
456.616	463.69
456.836	458.69
457.056	465.69
457.276	465.69
457.497	486.69
457.717	484.69
457.937	469.69
458.157	480.69
458.377	481.69
458.598	523.69
458.818	578.69
459.038	667.69
459.258	659.69
459.478	594.69
459.698	547.69
459.918	506.69
460.138	515.69
460.358	507.69
460.578	509.69
460.798	511.69
461.018	518.69
461.238	507.69
461.458	499.69
461.678	520.69
461.898	525.69
462.118	511.69
462.338	494.69
462.558	527.69
462.777	538.69
462.997	527.69
463.217	557.69
463.437	522.69
463.657	535.69
463.876	544.69
464.096	534.69
464.316	532.69
464.536	547.69
464.755	535.69
464.975	569.69
465.195	609.69
465.414	701.69
465.634	636.69
465.854	574.69
466.073	546.69
466.293	521.69
466.512	486.69
466.732	498.69
466.951	519.69
467.171	497.69
467.391	514.69
467.61	519.69
467.829	520.69
468.049	533.69
468.268	522.69
468.488	486.69
468.707	489.69
468.927	465.69
469.146	509.69
469.365	484.69
469.585	496.69
469.804	504.69
470.023	512.69
470.243	543.69
470.462	513.69
470.681	541.69
470.901	529.69
471.12	513.69
471.339	522.69
471.558	529.69
471.777	532.69
471.997	518.69
472.216	501.69
472.435	567.69
472.654	536.69
472.873	521.69
473.092	503.69
473.311	513.69
473.53	517.69
473.749	530.69
473.968	586.69
474.187	689.69
474.406	697.69
474.625	584.69
474.844	520.69
475.063	517.69
475.282	514.69
475.501	531.69
475.72	552.69
475.939	529.69
476.158	526.69
476.377	551.69
476.596	558.69
476.814	554.69
477.033	534.69
477.252	535.69
477.471	551.69
477.69	560.69
477.908	565.69
478.127	552.69
478.346	575.69
478.564	541.69
478.783	565.69
479.002	578.69
479.22	586.69
479.439	613.69
479.658	610.69
479.876	632.69
480.095	616.69
480.313	652.69
480.532	639.69
480.751	615.69
480.969	643.69
481.188	708.69
481.406	778.69
481.624	659.69
481.843	639.69
482.061	629.69
482.28	625.69
482.498	630.69
482.717	602.69
482.935	593.69
483.153	580.69
483.372	624.69
483.59	603.69
483.808	621.69
484.027	595.69
484.245	609.69
484.463	626.69
484.681	631.69
484.9	636.69
485.118	638.69
485.336	663.69
485.554	635.69
485.772	643.69
485.99	635.69
486.209	655.69
486.427	669.69
486.645	681.69
486.863	696.69
487.081	695.69
487.299	660.69
487.517	671.69
487.735	657.69
487.953	673.69
488.171	696.69
488.389	667.69
488.607	673.69
488.825	643.69
489.043	678.69
489.261	701.69
489.479	691.69
489.696	705.69
489.914	694.69
490.132	687.69
490.35	690.69
490.568	743.69
490.786	713.69
491.003	749.69
491.221	765.69
491.439	746.69
491.657	757.69
491.874	773.69
492.092	769.69
492.31	807.69
492.527	794.69
492.745	795.69
492.963	820.69
493.18	809.69
493.398	818.69
493.615	811.69
493.833	810.69
494.05	801.69
494.268	798.69
494.485	800.69
494.703	797.69
494.92	784.69
495.138	800.69
495.355	803.69
495.573	844.69
495.79	779.69
496.008	812.69
496.225	816.69
496.442	814.69
496.66	792.69
496.877	822.69
497.094	831.69
497.312	834.69
497.529	815.69
497.746	811.69
497.963	821.69
498.181	839.69
498.398	871.69
498.615	842.69
498.832	864.69
499.049	886.69
499.267	897.69
499.484	895.69
499.701	908.69
499.918	952.69
500.135	986.69
500.352	997.69
500.569	1025.69
500.786	1012.69
501.003	1018.69
501.22	991.69
501.437	991.69
501.654	961.69
501.871	952.69
