Data from 1970.PennyLincolnUp.Lamp.En5.5.200Scan.071719.P1._HRD10591_15-13-03-844.txt Node
Date: Thu Jul 18 15:13:03 EDT 2019
User: cochatt
Spectrometer: HR+D1059
Trigger mode: 1
Integration Time (sec): 1.000000E-1
Scans to average: 1
Electric dark correction enabled: true
Nonlinearity correction enabled: false
Boxcar width: 0
XAxis mode: Wavelengths
Number of Pixels in Spectrum: 2048
>>>>>Begin Spectral Data<<<<<
223.165	-28.62
223.4	-28.62
223.635	-28.62
223.869	-22.62
224.104	-16.62
224.338	-19.62
224.573	-10.62
224.808	-7.62
225.042	-11.62
225.277	-3.62
225.511	-0.62
225.746	2.38
225.98	18.38
226.215	15.38
226.449	10.38
226.683	24.38
226.918	21.38
227.152	29.38
227.387	25.38
227.621	31.38
227.856	57.38
228.09	46.38
228.324	49.38
228.559	69.38
228.793	57.38
229.027	94.38
229.262	94.38
229.496	104.38
229.73	124.38
229.964	134.38
230.199	106.38
230.433	124.38
230.667	115.38
230.901	110.38
231.136	108.38
231.37	98.38
231.604	95.38
231.838	95.38
232.072	104.38
232.306	105.38
232.541	118.38
232.775	101.38
233.009	104.38
233.243	99.38
233.477	98.38
233.711	100.38
233.945	118.38
234.179	110.38
234.413	110.38
234.647	111.38
234.881	114.38
235.115	106.38
235.349	103.38
235.583	114.38
235.817	105.38
236.051	108.38
236.285	118.38
236.519	110.38
236.753	127.38
236.987	138.38
237.221	168.38
237.455	191.38
237.689	180.38
237.922	127.38
238.156	130.38
238.39	124.38
238.624	123.38
238.858	119.38
239.091	117.38
239.325	113.38
239.559	110.38
239.793	100.38
240.027	131.38
240.26	138.38
240.494	140.38
240.728	144.38
240.961	123.38
241.195	116.38
241.429	128.38
241.662	128.38
241.896	122.38
242.13	122.38
242.363	121.38
242.597	131.38
242.83	143.38
243.064	116.38
243.298	130.38
243.531	126.38
243.765	140.38
243.998	142.38
244.232	147.38
244.465	138.38
244.699	128.38
244.932	142.38
245.166	131.38
245.399	130.38
245.633	137.38
245.866	133.38
246.099	158.38
246.333	140.38
246.566	130.38
246.8	150.38
247.033	151.38
247.266	150.38
247.5	132.38
247.733	148.38
247.966	155.38
248.2	168.38
248.433	150.38
248.666	153.38
248.899	164.38
249.133	183.38
249.366	182.38
249.599	170.38
249.832	156.38
250.066	159.38
250.299	145.38
250.532	157.38
250.765	183.38
250.998	189.38
251.231	195.38
251.465	182.38
251.698	204.38
251.931	174.38
252.164	173.38
252.397	175.38
252.63	177.38
252.863	180.38
253.096	194.38
253.329	188.38
253.562	180.38
253.795	190.38
254.028	201.38
254.261	194.38
254.494	205.38
254.727	223.38
254.96	241.38
255.193	221.38
255.426	207.38
255.659	191.38
255.892	201.38
256.124	192.38
256.357	179.38
256.59	208.38
256.823	183.38
257.056	200.38
257.289	201.38
257.521	189.38
257.754	191.38
257.987	187.38
258.22	188.38
258.452	172.38
258.685	187.38
258.918	164.38
259.151	193.38
259.383	182.38
259.616	189.38
259.849	199.38
260.081	206.38
260.314	215.38
260.547	224.38
260.779	219.38
261.012	197.38
261.244	212.38
261.477	201.38
261.71	186.38
261.942	194.38
262.175	193.38
262.407	188.38
262.64	194.38
262.872	180.38
263.105	194.38
263.337	178.38
263.57	188.38
263.802	186.38
264.035	182.38
264.267	190.38
264.499	185.38
264.732	167.38
264.964	168.38
265.197	180.38
265.429	189.38
265.661	184.38
265.894	191.38
266.126	178.38
266.358	173.38
266.591	182.38
266.823	178.38
267.055	181.38
267.287	181.38
267.52	187.38
267.752	197.38
267.984	180.38
268.216	184.38
268.448	195.38
268.681	188.38
268.913	183.38
269.145	205.38
269.377	216.38
269.609	215.38
269.841	229.38
270.073	195.38
270.306	220.38
270.538	252.38
270.77	253.38
271.002	260.38
271.234	227.38
271.466	250.38
271.698	246.38
271.93	252.38
272.162	250.38
272.394	254.38
272.626	236.38
272.858	242.38
273.09	218.38
273.322	236.38
273.553	219.38
273.785	208.38
274.017	231.38
274.249	207.38
274.481	224.38
274.713	227.38
274.945	211.38
275.176	233.38
275.408	216.38
275.64	208.38
275.872	214.38
276.104	215.38
276.335	211.38
276.567	225.38
276.799	229.38
277.031	239.38
277.262	249.38
277.494	248.38
277.726	234.38
277.957	227.38
278.189	204.38
278.421	224.38
278.652	224.38
278.884	215.38
279.115	215.38
279.347	218.38
279.579	223.38
279.81	239.38
280.042	223.38
280.273	207.38
280.505	238.38
280.736	217.38
280.968	219.38
281.199	213.38
281.431	218.38
281.662	205.38
281.894	218.38
282.125	213.38
282.356	251.38
282.588	232.38
282.819	235.38
283.051	229.38
283.282	215.38
283.513	207.38
283.745	225.38
283.976	212.38
284.207	209.38
284.439	227.38
284.67	231.38
284.901	226.38
285.132	226.38
285.364	229.38
285.595	222.38
285.826	215.38
286.057	225.38
286.288	240.38
286.52	229.38
286.751	219.38
286.982	220.38
287.213	227.38
287.444	230.38
287.675	219.38
287.906	232.38
288.138	221.38
288.369	246.38
288.6	232.38
288.831	224.38
289.062	224.38
289.293	196.38
289.524	219.38
289.755	218.38
289.986	220.38
290.217	230.38
290.448	231.38
290.679	231.38
290.91	218.38
291.141	224.38
291.371	228.38
291.602	218.38
291.833	231.38
292.064	219.38
292.295	211.38
292.526	235.38
292.757	223.38
292.987	227.38
293.218	224.38
293.449	219.38
293.68	236.38
293.91	217.38
294.141	236.38
294.372	227.38
294.603	230.38
294.833	230.38
295.064	239.38
295.295	235.38
295.525	238.38
295.756	227.38
295.987	231.38
296.217	234.38
296.448	253.38
296.679	237.38
296.909	250.38
297.14	234.38
297.37	237.38
297.601	237.38
297.831	259.38
298.062	265.38
298.292	240.38
298.523	228.38
298.753	231.38
298.984	232.38
299.214	229.38
299.445	235.38
299.675	242.38
299.905	249.38
300.136	219.38
300.366	243.38
300.597	238.38
300.827	240.38
301.057	237.38
301.288	245.38
301.518	261.38
301.748	242.38
301.979	258.38
302.209	232.38
302.439	260.38
302.669	219.38
302.9	253.38
303.13	237.38
303.36	252.38
303.59	250.38
303.82	248.38
304.051	248.38
304.281	251.38
304.511	265.38
304.741	250.38
304.971	246.38
305.201	243.38
305.431	246.38
305.661	263.38
305.891	262.38
306.121	260.38
306.352	262.38
306.582	266.38
306.812	272.38
307.042	258.38
307.272	249.38
307.502	254.38
307.731	261.38
307.961	255.38
308.191	258.38
308.421	243.38
308.651	245.38
308.881	269.38
309.111	260.38
309.341	264.38
309.571	278.38
309.8	285.38
310.03	281.38
310.26	282.38
310.49	270.38
310.72	272.38
310.949	284.38
311.179	294.38
311.409	303.38
311.639	293.38
311.868	273.38
312.098	270.38
312.328	294.38
312.557	282.38
312.787	297.38
313.017	303.38
313.246	280.38
313.476	286.38
313.706	282.38
313.935	299.38
314.165	293.38
314.394	314.38
314.624	302.38
314.853	296.38
315.083	288.38
315.312	281.38
315.542	300.38
315.771	271.38
316.001	302.38
316.23	289.38
316.46	294.38
316.689	296.38
316.919	302.38
317.148	295.38
317.377	307.38
317.607	302.38
317.836	301.38
318.065	314.38
318.295	301.38
318.524	284.38
318.753	294.38
318.983	281.38
319.212	293.38
319.441	307.38
319.67	295.38
319.9	288.38
320.129	302.38
320.358	299.38
320.587	308.38
320.816	304.38
321.046	301.38
321.275	330.38
321.504	314.38
321.733	313.38
321.962	310.38
322.191	324.38
322.42	304.38
322.649	322.38
322.878	358.38
323.108	353.38
323.337	352.38
323.566	378.38
323.795	380.38
324.024	424.38
324.253	485.38
324.482	671.38
324.71	1018.38
324.939	1486.38
325.168	1272.38
325.397	673.38
325.626	446.38
325.855	402.38
326.084	377.38
326.313	374.38
326.542	382.38
326.77	410.38
326.999	459.38
327.228	615.38
327.457	930.38
327.686	1099.38
327.914	733.38
328.143	504.38
328.372	448.38
328.6	407.38
328.829	410.38
329.058	384.38
329.287	404.38
329.515	392.38
329.744	377.38
329.972	369.38
330.201	372.38
330.43	408.38
330.658	427.38
330.887	458.38
331.115	428.38
331.344	373.38
331.572	347.38
331.801	370.38
332.03	362.38
332.258	344.38
332.486	351.38
332.715	320.38
332.943	343.38
333.172	355.38
333.4	341.38
333.629	349.38
333.857	344.38
334.085	372.38
334.314	345.38
334.542	366.38
334.771	386.38
334.999	393.38
335.227	353.38
335.455	359.38
335.684	347.38
335.912	349.38
336.14	336.38
336.369	335.38
336.597	349.38
336.825	340.38
337.053	345.38
337.281	331.38
337.51	336.38
337.738	340.38
337.966	350.38
338.194	336.38
338.422	342.38
338.65	347.38
338.878	332.38
339.106	321.38
339.334	338.38
339.562	315.38
339.79	339.38
340.018	325.38
340.246	341.38
340.474	327.38
340.702	355.38
340.93	330.38
341.158	331.38
341.386	323.38
341.614	352.38
341.842	350.38
342.07	339.38
342.298	342.38
342.526	352.38
342.754	310.38
342.981	329.38
343.209	306.38
343.437	325.38
343.665	334.38
343.893	346.38
344.12	350.38
344.348	341.38
344.576	339.38
344.804	344.38
345.031	360.38
345.259	349.38
345.487	355.38
345.714	347.38
345.942	330.38
346.17	326.38
346.397	350.38
346.625	336.38
346.853	318.38
347.08	340.38
347.308	311.38
347.535	342.38
347.763	342.38
347.99	352.38
348.218	332.38
348.445	329.38
348.673	336.38
348.9	331.38
349.128	350.38
349.355	317.38
349.583	317.38
349.81	314.38
350.037	332.38
350.265	327.38
350.492	335.38
350.72	326.38
350.947	325.38
351.174	309.38
351.402	357.38
351.629	346.38
351.856	322.38
352.083	336.38
352.311	314.38
352.538	354.38
352.765	342.38
352.992	333.38
353.22	331.38
353.447	330.38
353.674	331.38
353.901	325.38
354.128	329.38
354.355	336.38
354.583	307.38
354.81	334.38
355.037	336.38
355.264	306.38
355.491	313.38
355.718	310.38
355.945	318.38
356.172	322.38
356.399	328.38
356.626	310.38
356.853	317.38
357.08	323.38
357.307	324.38
357.534	329.38
357.761	323.38
357.988	340.38
358.215	319.38
358.441	329.38
358.668	339.38
358.895	316.38
359.122	326.38
359.349	334.38
359.576	325.38
359.802	356.38
360.029	362.38
360.256	367.38
360.483	346.38
360.709	354.38
360.936	338.38
361.163	339.38
361.39	332.38
361.616	344.38
361.843	334.38
362.07	320.38
362.296	336.38
362.523	342.38
362.749	360.38
362.976	340.38
363.203	322.38
363.429	333.38
363.656	326.38
363.882	347.38
364.109	333.38
364.335	328.38
364.562	318.38
364.788	328.38
365.015	336.38
365.241	331.38
365.468	350.38
365.694	316.38
365.92	352.38
366.147	339.38
366.373	324.38
366.599	347.38
366.826	324.38
367.052	332.38
367.278	339.38
367.505	338.38
367.731	329.38
367.957	324.38
368.184	313.38
368.41	347.38
368.636	346.38
368.862	354.38
369.089	328.38
369.315	327.38
369.541	336.38
369.767	350.38
369.993	349.38
370.219	329.38
370.445	330.38
370.672	329.38
370.898	344.38
371.124	337.38
371.35	344.38
371.576	340.38
371.802	353.38
372.028	346.38
372.254	330.38
372.48	323.38
372.706	337.38
372.932	344.38
373.158	324.38
373.384	326.38
373.61	355.38
373.835	372.38
374.061	359.38
374.287	353.38
374.513	361.38
374.739	356.38
374.965	347.38
375.191	339.38
375.416	351.38
375.642	339.38
375.868	341.38
376.094	355.38
376.319	355.38
376.545	336.38
376.771	334.38
376.997	347.38
377.222	337.38
377.448	346.38
377.674	339.38
377.899	351.38
378.125	331.38
378.35	340.38
378.576	334.38
378.802	323.38
379.027	347.38
379.253	326.38
379.478	345.38
379.704	342.38
379.929	335.38
380.155	345.38
380.38	340.38
380.606	333.38
380.831	358.38
381.057	352.38
381.282	354.38
381.507	322.38
381.733	335.38
381.958	365.38
382.184	360.38
382.409	380.38
382.634	363.38
382.86	361.38
383.085	374.38
383.31	363.38
383.535	372.38
383.761	363.38
383.986	362.38
384.211	363.38
384.436	361.38
384.662	370.38
384.887	380.38
385.112	378.38
385.337	370.38
385.562	376.38
385.787	386.38
386.013	383.38
386.238	410.38
386.463	386.38
386.688	388.38
386.913	363.38
387.138	397.38
387.363	382.38
387.588	372.38
387.813	387.38
388.038	390.38
388.263	389.38
388.488	400.38
388.713	371.38
388.938	356.38
389.163	368.38
389.387	366.38
389.612	376.38
389.837	373.38
390.062	372.38
390.287	394.38
390.512	378.38
390.736	374.38
390.961	389.38
391.186	361.38
391.411	366.38
391.636	395.38
391.86	376.38
392.085	380.38
392.31	378.38
392.534	383.38
392.759	378.38
392.984	398.38
393.208	459.38
393.433	566.38
393.658	599.38
393.882	438.38
394.107	405.38
394.331	394.38
394.556	396.38
394.78	387.38
395.005	397.38
395.229	387.38
395.454	389.38
395.678	381.38
395.903	388.38
396.127	421.38
396.352	449.38
396.576	434.38
396.801	476.38
397.025	531.38
397.249	476.38
397.474	413.38
397.698	427.38
397.922	412.38
398.147	429.38
398.371	430.38
398.595	413.38
398.82	418.38
399.044	432.38
399.268	443.38
399.492	446.38
399.717	479.38
399.941	505.38
400.165	523.38
400.389	510.38
400.613	475.38
400.837	439.38
401.062	442.38
401.286	429.38
401.51	428.38
401.734	438.38
401.958	413.38
402.182	428.38
402.406	450.38
402.63	452.38
402.854	416.38
403.078	408.38
403.302	436.38
403.526	445.38
403.75	440.38
403.974	442.38
404.198	444.38
404.422	430.38
404.645	452.38
404.869	439.38
405.093	472.38
405.317	503.38
405.541	510.38
405.765	486.38
405.988	462.38
406.212	457.38
406.436	486.38
406.66	498.38
406.883	468.38
407.107	503.38
407.331	531.38
407.555	585.38
407.778	580.38
408.002	554.38
408.226	498.38
408.449	476.38
408.673	475.38
408.896	491.38
409.12	554.38
409.344	512.38
409.567	471.38
409.791	460.38
410.014	463.38
410.238	447.38
410.461	458.38
410.685	467.38
410.908	481.38
411.132	486.38
411.355	522.38
411.578	486.38
411.802	464.38
412.025	438.38
412.249	454.38
412.472	480.38
412.695	487.38
412.919	463.38
413.142	448.38
413.365	417.38
413.589	447.38
413.812	432.38
414.035	441.38
414.258	424.38
414.482	417.38
414.705	418.38
414.928	455.38
415.151	425.38
415.374	418.38
415.597	418.38
415.821	425.38
416.044	418.38
416.267	441.38
416.49	440.38
416.713	434.38
416.936	438.38
417.159	419.38
417.382	438.38
417.605	436.38
417.828	452.38
418.051	457.38
418.274	434.38
418.497	427.38
418.72	436.38
418.943	427.38
419.166	435.38
419.389	474.38
419.611	472.38
419.834	463.38
420.057	442.38
420.28	451.38
420.503	446.38
420.726	443.38
420.948	470.38
421.171	466.38
421.394	507.38
421.617	486.38
421.839	458.38
422.062	440.38
422.285	476.38
422.507	508.38
422.73	584.38
422.953	594.38
423.175	503.38
423.398	484.38
423.621	472.38
423.843	475.38
424.066	488.38
424.288	484.38
424.511	485.38
424.733	545.38
424.956	605.38
425.178	594.38
425.401	593.38
425.623	605.38
425.846	525.38
426.068	491.38
426.291	497.38
426.513	491.38
426.735	516.38
426.958	520.38
427.18	569.38
427.402	697.38
427.625	747.38
427.847	664.38
428.069	568.38
428.292	524.38
428.514	468.38
428.736	471.38
428.958	472.38
429.181	447.38
429.403	460.38
429.625	471.38
429.847	495.38
430.069	525.38
430.292	550.38
430.514	486.38
430.736	452.38
430.958	454.38
431.18	435.38
431.402	436.38
431.624	445.38
431.846	425.38
432.068	413.38
432.29	422.38
432.512	446.38
432.734	448.38
432.956	442.38
433.178	450.38
433.4	445.38
433.622	473.38
433.844	428.38
434.066	424.38
434.287	430.38
434.509	444.38
434.731	446.38
434.953	437.38
435.175	454.38
435.397	479.38
435.618	492.38
435.84	540.38
436.062	604.38
436.284	659.38
436.505	566.38
436.727	493.38
436.949	472.38
437.17	444.38
437.392	448.38
437.614	472.38
437.835	494.38
438.057	558.38
438.278	671.38
438.5	665.38
438.721	708.38
438.943	682.38
439.165	578.38
439.386	501.38
439.608	494.38
439.829	489.38
440.05	533.38
440.272	540.38
440.493	516.38
440.715	481.38
440.936	460.38
441.158	474.38
441.379	450.38
441.6	493.38
441.822	487.38
442.043	525.38
442.264	583.38
442.486	611.38
442.707	537.38
442.928	507.38
443.149	503.38
443.371	516.38
443.592	542.38
443.813	618.38
444.034	651.38
444.255	588.38
444.476	503.38
444.698	517.38
444.919	489.38
445.14	581.38
445.361	547.38
445.582	527.38
445.803	560.38
446.024	642.38
446.245	632.38
446.466	591.38
446.687	524.38
446.908	487.38
447.129	476.38
447.35	474.38
447.571	452.38
447.792	458.38
448.013	459.38
448.234	494.38
448.455	490.38
448.675	589.38
448.896	679.38
449.117	598.38
449.338	580.38
449.559	632.38
449.779	695.38
450	595.38
450.221	496.38
450.442	478.38
450.662	447.38
450.883	458.38
451.104	442.38
451.324	437.38
451.545	430.38
451.766	440.38
451.986	414.38
452.207	409.38
452.428	416.38
452.648	408.38
452.869	401.38
453.089	407.38
453.31	403.38
453.53	443.38
453.751	428.38
453.971	404.38
454.192	439.38
454.412	408.38
454.633	388.38
454.853	399.38
455.073	409.38
455.294	442.38
455.514	484.38
455.734	453.38
455.955	406.38
456.175	390.38
456.395	375.38
456.616	394.38
456.836	389.38
457.056	395.38
457.276	376.38
457.497	399.38
457.717	379.38
457.937	370.38
458.157	392.38
458.377	394.38
458.598	416.38
458.818	460.38
459.038	527.38
459.258	539.38
459.478	471.38
459.698	449.38
459.918	447.38
460.138	416.38
460.358	418.38
460.578	436.38
460.798	441.38
461.018	436.38
461.238	418.38
461.458	425.38
461.678	428.38
461.898	453.38
462.118	452.38
462.338	445.38
462.558	450.38
462.777	462.38
462.997	460.38
463.217	462.38
463.437	485.38
463.657	454.38
463.876	453.38
464.096	457.38
464.316	460.38
464.536	472.38
464.755	470.38
464.975	484.38
465.195	468.38
465.414	537.38
465.634	493.38
465.854	474.38
466.073	458.38
466.293	438.38
466.512	429.38
466.732	417.38
466.951	418.38
467.171	446.38
467.391	428.38
467.61	438.38
467.829	446.38
468.049	434.38
468.268	424.38
468.488	412.38
468.707	405.38
468.927	391.38
469.146	414.38
469.365	428.38
469.585	407.38
469.804	411.38
470.023	447.38
470.243	412.38
470.462	427.38
470.681	445.38
470.901	461.38
471.12	423.38
471.339	444.38
471.558	451.38
471.777	440.38
471.997	405.38
472.216	415.38
472.435	428.38
472.654	424.38
472.873	429.38
473.092	412.38
473.311	407.38
473.53	435.38
473.749	443.38
473.968	481.38
474.187	542.38
474.406	568.38
474.625	473.38
474.844	452.38
475.063	430.38
475.282	419.38
475.501	431.38
475.72	463.38
475.939	458.38
476.158	444.38
476.377	442.38
476.596	445.38
476.814	445.38
477.033	465.38
477.252	442.38
477.471	460.38
477.69	451.38
477.908	487.38
478.127	473.38
478.346	467.38
478.564	474.38
478.783	474.38
479.002	511.38
479.22	497.38
479.439	512.38
479.658	529.38
479.876	517.38
480.095	518.38
480.313	528.38
480.532	538.38
480.751	538.38
480.969	536.38
481.188	538.38
481.406	563.38
481.624	534.38
481.843	505.38
482.061	509.38
482.28	507.38
482.498	510.38
482.717	527.38
482.935	534.38
483.153	532.38
483.372	512.38
483.59	523.38
483.808	520.38
484.027	530.38
484.245	504.38
484.463	516.38
484.681	525.38
484.9	532.38
485.118	557.38
485.336	510.38
485.554	542.38
485.772	548.38
485.99	522.38
486.209	534.38
486.427	532.38
486.645	547.38
486.863	537.38
487.081	571.38
487.299	536.38
487.517	547.38
487.735	543.38
487.953	580.38
488.171	540.38
488.389	539.38
488.607	569.38
488.825	557.38
489.043	566.38
489.261	553.38
489.479	583.38
489.696	562.38
489.914	586.38
490.132	582.38
490.35	594.38
490.568	565.38
490.786	603.38
491.003	604.38
491.221	616.38
491.439	595.38
491.657	618.38
491.874	626.38
492.092	618.38
492.31	640.38
492.527	674.38
492.745	656.38
492.963	643.38
493.18	642.38
493.398	630.38
493.615	654.38
493.833	643.38
494.05	652.38
494.268	651.38
494.485	631.38
494.703	661.38
494.92	664.38
495.138	655.38
495.355	650.38
495.573	644.38
495.79	655.38
496.008	669.38
496.225	669.38
496.442	659.38
496.66	678.38
496.877	680.38
497.094	694.38
497.312	674.38
497.529	666.38
497.746	716.38
497.963	677.38
498.181	703.38
498.398	741.38
498.615	713.38
498.832	714.38
499.049	744.38
499.267	758.38
499.484	750.38
499.701	796.38
499.918	805.38
500.135	812.38
500.352	886.38
500.569	840.38
500.786	887.38
501.003	860.38
501.22	857.38
501.437	842.38
501.654	820.38
501.871	796.38
502.088	778.38
