Data from 1970.PennyLincolnUp.Lamp.En5.5.200Scan.071719.P1._HRD10591_15-15-04-842.txt Node
Date: Thu Jul 18 15:15:04 EDT 2019
User: cochatt
Spectrometer: HR+D1059
Trigger mode: 1
Integration Time (sec): 1.000000E-1
Scans to average: 1
Electric dark correction enabled: true
Nonlinearity correction enabled: false
Boxcar width: 0
XAxis mode: Wavelengths
Number of Pixels in Spectrum: 2048
>>>>>Begin Spectral Data<<<<<
223.165	-13.38
223.4	-13.38
223.635	-13.38
223.869	-14.38
224.104	1.62
224.338	-13.38
224.573	-24.38
224.808	-9.38
225.042	-13.38
225.277	0.62
225.511	0.62
225.746	12.62
225.98	0.62
226.215	9.62
226.449	9.62
226.683	15.62
226.918	25.62
227.152	11.62
227.387	26.62
227.621	30.62
227.856	53.62
228.09	37.62
228.324	33.62
228.559	50.62
228.793	66.62
229.027	112.62
229.262	102.62
229.496	118.62
229.73	146.62
229.964	169.62
230.199	147.62
230.433	131.62
230.667	104.62
230.901	128.62
231.136	120.62
231.37	107.62
231.604	128.62
231.838	132.62
232.072	117.62
232.306	129.62
232.541	119.62
232.775	105.62
233.009	119.62
233.243	112.62
233.477	129.62
233.711	114.62
233.945	125.62
234.179	140.62
234.413	116.62
234.647	115.62
234.881	117.62
235.115	122.62
235.349	127.62
235.583	116.62
235.817	124.62
236.051	117.62
236.285	124.62
236.519	117.62
236.753	145.62
236.987	153.62
237.221	180.62
237.455	252.62
237.689	215.62
237.922	154.62
238.156	143.62
238.39	143.62
238.624	133.62
238.858	133.62
239.091	139.62
239.325	122.62
239.559	121.62
239.793	121.62
240.027	137.62
240.26	162.62
240.494	169.62
240.728	160.62
240.961	149.62
241.195	143.62
241.429	144.62
241.662	125.62
241.896	152.62
242.13	155.62
242.363	133.62
242.597	155.62
242.83	151.62
243.064	152.62
243.298	154.62
243.531	149.62
243.765	163.62
243.998	130.62
244.232	154.62
244.465	142.62
244.699	153.62
244.932	149.62
245.166	160.62
245.399	150.62
245.633	156.62
245.866	146.62
246.099	159.62
246.333	172.62
246.566	164.62
246.8	158.62
247.033	174.62
247.266	162.62
247.5	169.62
247.733	178.62
247.966	180.62
248.2	158.62
248.433	201.62
248.666	183.62
248.899	194.62
249.133	221.62
249.366	226.62
249.599	227.62
249.832	205.62
250.066	212.62
250.299	202.62
250.532	192.62
250.765	221.62
250.998	238.62
251.231	244.62
251.465	229.62
251.698	229.62
251.931	215.62
252.164	209.62
252.397	217.62
252.63	211.62
252.863	218.62
253.096	242.62
253.329	255.62
253.562	238.62
253.795	234.62
254.028	209.62
254.261	229.62
254.494	248.62
254.727	281.62
254.96	309.62
255.193	315.62
255.426	299.62
255.659	257.62
255.892	259.62
256.124	262.62
256.357	258.62
256.59	258.62
256.823	231.62
257.056	224.62
257.289	234.62
257.521	240.62
257.754	227.62
257.987	236.62
258.22	222.62
258.452	227.62
258.685	232.62
258.918	224.62
259.151	232.62
259.383	216.62
259.616	227.62
259.849	258.62
260.081	240.62
260.314	270.62
260.547	280.62
260.779	264.62
261.012	262.62
261.244	255.62
261.477	225.62
261.71	230.62
261.942	231.62
262.175	246.62
262.407	255.62
262.64	225.62
262.872	233.62
263.105	235.62
263.337	210.62
263.57	219.62
263.802	247.62
264.035	218.62
264.267	225.62
264.499	221.62
264.732	222.62
264.964	220.62
265.197	216.62
265.429	216.62
265.661	217.62
265.894	216.62
266.126	220.62
266.358	240.62
266.591	237.62
266.823	237.62
267.055	234.62
267.287	234.62
267.52	236.62
267.752	217.62
267.984	227.62
268.216	225.62
268.448	251.62
268.681	254.62
268.913	256.62
269.145	278.62
269.377	293.62
269.609	283.62
269.841	290.62
270.073	285.62
270.306	328.62
270.538	323.62
270.77	340.62
271.002	337.62
271.234	313.62
271.466	317.62
271.698	330.62
271.93	319.62
272.162	333.62
272.394	331.62
272.626	312.62
272.858	312.62
273.09	280.62
273.322	293.62
273.553	276.62
273.785	282.62
274.017	267.62
274.249	281.62
274.481	281.62
274.713	262.62
274.945	291.62
275.176	268.62
275.408	276.62
275.64	270.62
275.872	281.62
276.104	289.62
276.335	283.62
276.567	261.62
276.799	305.62
277.031	314.62
277.262	341.62
277.494	344.62
277.726	301.62
277.957	299.62
278.189	298.62
278.421	272.62
278.652	270.62
278.884	288.62
279.115	261.62
279.347	264.62
279.579	274.62
279.81	280.62
280.042	265.62
280.273	265.62
280.505	255.62
280.736	272.62
280.968	261.62
281.199	274.62
281.431	271.62
281.662	260.62
281.894	261.62
282.125	277.62
282.356	286.62
282.588	323.62
282.819	309.62
283.051	276.62
283.282	259.62
283.513	277.62
283.745	246.62
283.976	257.62
284.207	280.62
284.439	270.62
284.67	281.62
284.901	282.62
285.132	280.62
285.364	257.62
285.595	280.62
285.826	268.62
286.057	280.62
286.288	281.62
286.52	264.62
286.751	274.62
286.982	290.62
287.213	292.62
287.444	267.62
287.675	293.62
287.906	299.62
288.138	294.62
288.369	290.62
288.6	283.62
288.831	272.62
289.062	288.62
289.293	282.62
289.524	280.62
289.755	275.62
289.986	293.62
290.217	295.62
290.448	270.62
290.679	283.62
290.91	286.62
291.141	265.62
291.371	298.62
291.602	277.62
291.833	268.62
292.064	299.62
292.295	280.62
292.526	263.62
292.757	291.62
292.987	294.62
293.218	294.62
293.449	301.62
293.68	297.62
293.91	265.62
294.141	290.62
294.372	280.62
294.603	276.62
294.833	289.62
295.064	277.62
295.295	285.62
295.525	279.62
295.756	279.62
295.987	306.62
296.217	328.62
296.448	352.62
296.679	297.62
296.909	280.62
297.14	293.62
297.37	295.62
297.601	304.62
297.831	273.62
298.062	286.62
298.292	289.62
298.523	303.62
298.753	295.62
298.984	285.62
299.214	275.62
299.445	278.62
299.675	301.62
299.905	304.62
300.136	318.62
300.366	304.62
300.597	304.62
300.827	306.62
301.057	324.62
301.288	334.62
301.518	306.62
301.748	309.62
301.979	336.62
302.209	328.62
302.439	309.62
302.669	329.62
302.9	322.62
303.13	316.62
303.36	321.62
303.59	324.62
303.82	337.62
304.051	352.62
304.281	340.62
304.511	301.62
304.741	318.62
304.971	310.62
305.201	307.62
305.431	324.62
305.661	315.62
305.891	314.62
306.121	316.62
306.352	312.62
306.582	314.62
306.812	320.62
307.042	323.62
307.272	333.62
307.502	330.62
307.731	319.62
307.961	338.62
308.191	325.62
308.421	337.62
308.651	331.62
308.881	327.62
309.111	336.62
309.341	348.62
309.571	350.62
309.8	358.62
310.03	374.62
310.26	384.62
310.49	375.62
310.72	387.62
310.949	378.62
311.179	392.62
311.409	388.62
311.639	390.62
311.868	368.62
312.098	402.62
312.328	395.62
312.557	414.62
312.787	448.62
313.017	408.62
313.246	388.62
313.476	381.62
313.706	377.62
313.935	363.62
314.165	400.62
314.394	419.62
314.624	404.62
314.853	379.62
315.083	384.62
315.312	375.62
315.542	366.62
315.771	375.62
316.001	360.62
316.23	375.62
316.46	360.62
316.689	377.62
316.919	382.62
317.148	386.62
317.377	409.62
317.607	358.62
317.836	384.62
318.065	375.62
318.295	378.62
318.524	369.62
318.753	352.62
318.983	373.62
319.212	352.62
319.441	400.62
319.67	416.62
319.9	392.62
320.129	378.62
320.358	379.62
320.587	396.62
320.816	395.62
321.046	398.62
321.275	405.62
321.504	399.62
321.733	396.62
321.962	421.62
322.191	426.62
322.42	434.62
322.649	450.62
322.878	468.62
323.108	491.62
323.337	513.62
323.566	538.62
323.795	606.62
324.024	636.62
324.253	764.62
324.482	1122.62
324.71	1689.62
324.939	2404.62
325.168	2094.62
325.397	1124.62
325.626	771.62
325.855	602.62
326.084	548.62
326.313	556.62
326.542	541.62
326.77	588.62
326.999	722.62
327.228	995.62
327.457	1489.62
327.686	1828.62
327.914	1262.62
328.143	843.62
328.372	714.62
328.6	681.62
328.829	629.62
329.058	650.62
329.287	652.62
329.515	619.62
329.744	558.62
329.972	553.62
330.201	609.62
330.43	653.62
330.658	659.62
330.887	671.62
331.115	662.62
331.344	555.62
331.572	521.62
331.801	522.62
332.03	538.62
332.258	516.62
332.486	468.62
332.715	458.62
332.943	469.62
333.172	469.62
333.4	459.62
333.629	483.62
333.857	497.62
334.085	489.62
334.314	523.62
334.542	561.62
334.771	566.62
334.999	544.62
335.227	485.62
335.455	472.62
335.684	462.62
335.912	462.62
336.14	454.62
336.369	452.62
336.597	462.62
336.825	475.62
337.053	448.62
337.281	439.62
337.51	466.62
337.738	432.62
337.966	429.62
338.194	445.62
338.422	457.62
338.65	461.62
338.878	445.62
339.106	414.62
339.334	433.62
339.562	437.62
339.79	413.62
340.018	440.62
340.246	452.62
340.474	452.62
340.702	426.62
340.93	429.62
341.158	428.62
341.386	439.62
341.614	436.62
341.842	425.62
342.07	420.62
342.298	429.62
342.526	437.62
342.754	417.62
342.981	403.62
343.209	394.62
343.437	409.62
343.665	425.62
343.893	408.62
344.12	438.62
344.348	445.62
344.576	434.62
344.804	442.62
345.031	461.62
345.259	453.62
345.487	455.62
345.714	475.62
345.942	444.62
346.17	436.62
346.397	423.62
346.625	417.62
346.853	424.62
347.08	434.62
347.308	439.62
347.535	430.62
347.763	438.62
347.99	425.62
348.218	422.62
348.445	451.62
348.673	445.62
348.9	435.62
349.128	435.62
349.355	414.62
349.583	420.62
349.81	406.62
350.037	412.62
350.265	394.62
350.492	422.62
350.72	432.62
350.947	426.62
351.174	457.62
351.402	439.62
351.629	449.62
351.856	448.62
352.083	453.62
352.311	462.62
352.538	446.62
352.765	463.62
352.992	463.62
353.22	436.62
353.447	445.62
353.674	428.62
353.901	428.62
354.128	396.62
354.355	381.62
354.583	412.62
354.81	404.62
355.037	414.62
355.264	398.62
355.491	380.62
355.718	388.62
355.945	413.62
356.172	408.62
356.399	390.62
356.626	399.62
356.853	378.62
357.08	376.62
357.307	402.62
357.534	387.62
357.761	385.62
357.988	408.62
358.215	384.62
358.441	427.62
358.668	416.62
358.895	390.62
359.122	411.62
359.349	426.62
359.576	442.62
359.802	473.62
360.029	487.62
360.256	529.62
360.483	487.62
360.709	454.62
360.936	434.62
361.163	440.62
361.39	445.62
361.616	445.62
361.843	432.62
362.07	443.62
362.296	453.62
362.523	440.62
362.749	443.62
362.976	409.62
363.203	415.62
363.429	425.62
363.656	418.62
363.882	409.62
364.109	416.62
364.335	426.62
364.562	420.62
364.788	431.62
365.015	422.62
365.241	426.62
365.468	412.62
365.694	407.62
365.92	419.62
366.147	402.62
366.373	413.62
366.599	426.62
366.826	440.62
367.052	406.62
367.278	420.62
367.505	424.62
367.731	415.62
367.957	411.62
368.184	423.62
368.41	406.62
368.636	428.62
368.862	441.62
369.089	447.62
369.315	400.62
369.541	404.62
369.767	405.62
369.993	440.62
370.219	407.62
370.445	408.62
370.672	392.62
370.898	378.62
371.124	393.62
371.35	405.62
371.576	398.62
371.802	396.62
372.028	408.62
372.254	430.62
372.48	402.62
372.706	398.62
372.932	406.62
373.158	409.62
373.384	406.62
373.61	403.62
373.835	394.62
374.061	406.62
374.287	428.62
374.513	419.62
374.739	430.62
374.965	423.62
375.191	414.62
375.416	408.62
375.642	404.62
375.868	412.62
376.094	421.62
376.319	413.62
376.545	414.62
376.771	425.62
376.997	411.62
377.222	398.62
377.448	387.62
377.674	394.62
377.899	393.62
378.125	408.62
378.35	417.62
378.576	409.62
378.802	399.62
379.027	377.62
379.253	404.62
379.478	384.62
379.704	402.62
379.929	397.62
380.155	418.62
380.38	412.62
380.606	414.62
380.831	402.62
381.057	420.62
381.282	411.62
381.507	416.62
381.733	412.62
381.958	413.62
382.184	411.62
382.409	437.62
382.634	431.62
382.86	413.62
383.085	417.62
383.31	412.62
383.535	427.62
383.761	445.62
383.986	436.62
384.211	419.62
384.436	430.62
384.662	421.62
384.887	440.62
385.112	417.62
385.337	441.62
385.562	428.62
385.787	436.62
386.013	442.62
386.238	469.62
386.463	450.62
386.688	453.62
386.913	443.62
387.138	459.62
387.363	437.62
387.588	430.62
387.813	434.62
388.038	427.62
388.263	457.62
388.488	444.62
388.713	440.62
388.938	442.62
389.163	427.62
389.387	436.62
389.612	437.62
389.837	443.62
390.062	447.62
390.287	457.62
390.512	446.62
390.736	463.62
390.961	476.62
391.186	455.62
391.411	440.62
391.636	451.62
391.86	435.62
392.085	453.62
392.31	443.62
392.534	444.62
392.759	452.62
392.984	461.62
393.208	456.62
393.433	444.62
393.658	455.62
393.882	438.62
394.107	445.62
394.331	474.62
394.556	445.62
394.78	456.62
395.005	438.62
395.229	443.62
395.454	456.62
395.678	471.62
395.903	438.62
396.127	508.62
396.352	516.62
396.576	477.62
396.801	458.62
397.025	438.62
397.249	460.62
397.474	457.62
397.698	497.62
397.922	491.62
398.147	488.62
398.371	502.62
398.595	513.62
398.82	505.62
399.044	517.62
399.268	501.62
399.492	527.62
399.717	539.62
399.941	582.62
400.165	597.62
400.389	616.62
400.613	564.62
400.837	547.62
401.062	515.62
401.286	520.62
401.51	530.62
401.734	523.62
401.958	510.62
402.182	516.62
402.406	540.62
402.63	540.62
402.854	527.62
403.078	506.62
403.302	522.62
403.526	524.62
403.75	523.62
403.974	523.62
404.198	530.62
404.422	516.62
404.645	540.62
404.869	537.62
405.093	588.62
405.317	638.62
405.541	652.62
405.765	602.62
405.988	581.62
406.212	594.62
406.436	607.62
406.66	633.62
406.883	601.62
407.107	605.62
407.331	638.62
407.555	700.62
407.778	720.62
408.002	654.62
408.226	614.62
408.449	599.62
408.673	605.62
408.896	613.62
409.12	651.62
409.344	624.62
409.567	563.62
409.791	553.62
410.014	544.62
410.238	543.62
410.461	527.62
410.685	546.62
410.908	572.62
411.132	592.62
411.355	635.62
411.578	606.62
411.802	533.62
412.025	518.62
412.249	553.62
412.472	566.62
412.695	624.62
412.919	626.62
413.142	546.62
413.365	538.62
413.589	534.62
413.812	504.62
414.035	523.62
414.258	525.62
414.482	518.62
414.705	501.62
414.928	496.62
415.151	496.62
415.374	497.62
415.597	496.62
415.821	497.62
416.044	497.62
416.267	501.62
416.49	505.62
416.713	513.62
416.936	531.62
417.159	484.62
417.382	522.62
417.605	526.62
417.828	527.62
418.051	522.62
418.274	556.62
418.497	563.62
418.72	522.62
418.943	509.62
419.166	529.62
419.389	550.62
419.611	542.62
419.834	550.62
420.057	568.62
420.28	525.62
420.503	544.62
420.726	564.62
420.948	600.62
421.171	615.62
421.394	615.62
421.617	564.62
421.839	533.62
422.062	542.62
422.285	578.62
422.507	626.62
422.73	697.62
422.953	651.62
423.175	602.62
423.398	578.62
423.621	561.62
423.843	568.62
424.066	590.62
424.288	587.62
424.511	600.62
424.733	686.62
424.956	776.62
425.178	744.62
425.401	737.62
425.623	750.62
425.846	654.62
426.068	632.62
426.291	594.62
426.513	585.62
426.735	631.62
426.958	674.62
427.18	725.62
427.402	889.62
427.625	970.62
427.847	881.62
428.069	739.62
428.292	712.62
428.514	633.62
428.736	605.62
428.958	584.62
429.181	585.62
429.403	570.62
429.625	579.62
429.847	614.62
430.069	677.62
430.292	658.62
430.514	602.62
430.736	567.62
430.958	544.62
431.18	522.62
431.402	536.62
431.624	534.62
431.846	498.62
432.068	518.62
432.29	524.62
432.512	542.62
432.734	557.62
432.956	534.62
433.178	550.62
433.4	540.62
433.622	534.62
433.844	526.62
434.066	522.62
434.287	531.62
434.509	524.62
434.731	506.62
434.953	536.62
435.175	564.62
435.397	588.62
435.618	615.62
435.84	645.62
436.062	767.62
436.284	804.62
436.505	719.62
436.727	636.62
436.949	594.62
437.17	560.62
437.392	585.62
437.614	587.62
437.835	629.62
438.057	732.62
438.278	856.62
438.5	809.62
438.721	873.62
438.943	841.62
439.165	704.62
439.386	650.62
439.608	645.62
439.829	613.62
440.05	650.62
440.272	702.62
440.493	664.62
440.715	596.62
440.936	579.62
441.158	588.62
441.379	578.62
441.6	593.62
441.822	598.62
442.043	667.62
442.264	747.62
442.486	793.62
442.707	669.62
442.928	628.62
443.149	632.62
443.371	645.62
443.592	700.62
443.813	824.62
444.034	852.62
444.255	729.62
444.476	614.62
444.698	605.62
444.919	606.62
445.14	709.62
445.361	688.62
445.582	647.62
445.803	711.62
446.024	830.62
446.245	833.62
446.466	754.62
446.687	668.62
446.908	639.62
447.129	608.62
447.35	578.62
447.571	558.62
447.792	561.62
448.013	560.62
448.234	604.62
448.455	653.62
448.675	767.62
448.896	864.62
449.117	763.62
449.338	714.62
449.559	814.62
449.779	907.62
450	757.62
450.221	642.62
450.442	608.62
450.662	559.62
450.883	580.62
451.104	579.62
451.324	579.62
451.545	557.62
451.766	525.62
451.986	500.62
452.207	497.62
452.428	500.62
452.648	514.62
452.869	497.62
453.089	524.62
453.31	537.62
453.53	523.62
453.751	510.62
453.971	511.62
454.192	537.62
454.412	514.62
454.633	516.62
454.853	517.62
455.073	532.62
455.294	542.62
455.514	641.62
455.734	607.62
455.955	508.62
456.175	474.62
456.395	453.62
456.616	470.62
456.836	472.62
457.056	446.62
457.276	469.62
457.497	476.62
457.717	460.62
457.937	471.62
458.157	484.62
458.377	488.62
458.598	515.62
458.818	572.62
459.038	679.62
459.258	718.62
459.478	598.62
459.698	536.62
459.918	534.62
460.138	490.62
460.358	526.62
460.578	484.62
460.798	499.62
461.018	517.62
461.238	501.62
461.458	516.62
461.678	521.62
461.898	508.62
462.118	517.62
462.338	512.62
462.558	534.62
462.777	531.62
462.997	537.62
463.217	538.62
463.437	559.62
463.657	558.62
463.876	522.62
464.096	561.62
464.316	537.62
464.536	546.62
464.755	566.62
464.975	565.62
465.195	630.62
465.414	718.62
465.634	650.62
465.854	591.62
466.073	566.62
466.293	499.62
466.512	525.62
466.732	522.62
466.951	519.62
467.171	505.62
467.391	529.62
467.61	539.62
467.829	552.62
468.049	540.62
468.268	532.62
468.488	521.62
468.707	501.62
468.927	502.62
469.146	496.62
469.365	504.62
469.585	480.62
469.804	479.62
470.023	539.62
470.243	526.62
470.462	531.62
470.681	564.62
470.901	554.62
471.12	538.62
471.339	523.62
471.558	522.62
471.777	524.62
471.997	507.62
472.216	529.62
472.435	598.62
472.654	562.62
472.873	549.62
473.092	511.62
473.311	517.62
473.53	525.62
473.749	548.62
473.968	579.62
474.187	691.62
474.406	719.62
474.625	602.62
474.844	556.62
475.063	511.62
475.282	536.62
475.501	560.62
475.72	548.62
475.939	533.62
476.158	552.62
476.377	543.62
476.596	542.62
476.814	536.62
477.033	548.62
477.252	583.62
477.471	561.62
477.69	546.62
477.908	565.62
478.127	566.62
478.346	570.62
478.564	585.62
478.783	561.62
479.002	589.62
479.22	579.62
479.439	625.62
479.658	644.62
479.876	630.62
480.095	646.62
480.313	674.62
480.532	660.62
480.751	642.62
480.969	666.62
481.188	724.62
481.406	779.62
481.624	690.62
481.843	650.62
482.061	660.62
482.28	637.62
482.498	654.62
482.717	625.62
482.935	642.62
483.153	645.62
483.372	636.62
483.59	643.62
483.808	625.62
484.027	636.62
484.245	642.62
484.463	630.62
484.681	651.62
484.9	638.62
485.118	631.62
485.336	629.62
485.554	644.62
485.772	666.62
485.99	628.62
486.209	667.62
486.427	646.62
486.645	688.62
486.863	691.62
487.081	698.62
487.299	703.62
487.517	672.62
487.735	672.62
487.953	677.62
488.171	664.62
488.389	671.62
488.607	685.62
488.825	686.62
489.043	679.62
489.261	695.62
489.479	714.62
489.696	689.62
489.914	704.62
490.132	713.62
490.35	712.62
490.568	699.62
490.786	720.62
491.003	761.62
491.221	794.62
491.439	772.62
491.657	794.62
491.874	789.62
492.092	802.62
492.31	835.62
492.527	816.62
492.745	808.62
492.963	807.62
493.18	837.62
493.398	807.62
493.615	820.62
493.833	825.62
494.05	833.62
494.268	835.62
494.485	836.62
494.703	830.62
494.92	826.62
495.138	842.62
495.355	838.62
495.573	836.62
495.79	806.62
496.008	845.62
496.225	807.62
496.442	829.62
496.66	839.62
496.877	815.62
497.094	837.62
497.312	813.62
497.529	841.62
497.746	834.62
497.963	853.62
498.181	846.62
498.398	864.62
498.615	902.62
498.832	885.62
499.049	893.62
499.267	918.62
499.484	945.62
499.701	957.62
499.918	961.62
500.135	977.62
500.352	991.62
500.569	989.62
500.786	1025.62
501.003	1015.62
501.22	992.62
501.437	998.62
501.654	992.62
501.871	985.62
