Data from 1970.PennyLincolnUp.Lamp.En5.5.200Scan.071719.P1._HRD10591_15-15-43-842.txt Node
Date: Thu Jul 18 15:15:43 EDT 2019
User: cochatt
Spectrometer: HR+D1059
Trigger mode: 1
Integration Time (sec): 1.000000E-1
Scans to average: 1
Electric dark correction enabled: true
Nonlinearity correction enabled: false
Boxcar width: 0
XAxis mode: Wavelengths
Number of Pixels in Spectrum: 2048
>>>>>Begin Spectral Data<<<<<
223.165	-26.75
223.4	-26.75
223.635	-26.75
223.869	-16.75
224.104	-23.75
224.338	-4.75
224.573	3.25
224.808	-23.75
225.042	-2.75
225.277	-11.75
225.511	-9.75
225.746	1.25
225.98	5.25
226.215	8.25
226.449	21.25
226.683	13.25
226.918	24.25
227.152	43.25
227.387	34.25
227.621	44.25
227.856	48.25
228.09	19.25
228.324	43.25
228.559	54.25
228.793	80.25
229.027	113.25
229.262	118.25
229.496	131.25
229.73	152.25
229.964	192.25
230.199	146.25
230.433	129.25
230.667	141.25
230.901	117.25
231.136	101.25
231.37	122.25
231.604	113.25
231.838	122.25
232.072	119.25
232.306	129.25
232.541	118.25
232.775	117.25
233.009	117.25
233.243	121.25
233.477	116.25
233.711	122.25
233.945	126.25
234.179	113.25
234.413	134.25
234.647	133.25
234.881	137.25
235.115	123.25
235.349	138.25
235.583	124.25
235.817	129.25
236.051	135.25
236.285	118.25
236.519	147.25
236.753	143.25
236.987	164.25
237.221	212.25
237.455	274.25
237.689	225.25
237.922	149.25
238.156	155.25
238.39	137.25
238.624	146.25
238.858	129.25
239.091	150.25
239.325	144.25
239.559	129.25
239.793	164.25
240.027	141.25
240.26	163.25
240.494	162.25
240.728	171.25
240.961	157.25
241.195	157.25
241.429	151.25
241.662	166.25
241.896	141.25
242.13	141.25
242.363	154.25
242.597	146.25
242.83	152.25
243.064	158.25
243.298	153.25
243.531	147.25
243.765	161.25
243.998	154.25
244.232	146.25
244.465	152.25
244.699	153.25
244.932	154.25
245.166	151.25
245.399	184.25
245.633	157.25
245.866	158.25
246.099	170.25
246.333	183.25
246.566	160.25
246.8	161.25
247.033	181.25
247.266	182.25
247.5	185.25
247.733	172.25
247.966	192.25
248.2	196.25
248.433	193.25
248.666	199.25
248.899	212.25
249.133	229.25
249.366	241.25
249.599	231.25
249.832	181.25
250.066	206.25
250.299	218.25
250.532	215.25
250.765	224.25
250.998	265.25
251.231	244.25
251.465	261.25
251.698	242.25
251.931	243.25
252.164	223.25
252.397	227.25
252.63	221.25
252.863	219.25
253.096	247.25
253.329	265.25
253.562	258.25
253.795	253.25
254.028	245.25
254.261	269.25
254.494	271.25
254.727	300.25
254.96	309.25
255.193	332.25
255.426	307.25
255.659	289.25
255.892	277.25
256.124	280.25
256.357	261.25
256.59	278.25
256.823	268.25
257.056	244.25
257.289	235.25
257.521	230.25
257.754	239.25
257.987	226.25
258.22	242.25
258.452	218.25
258.685	229.25
258.918	244.25
259.151	225.25
259.383	245.25
259.616	248.25
259.849	266.25
260.081	273.25
260.314	279.25
260.547	284.25
260.779	293.25
261.012	278.25
261.244	272.25
261.477	268.25
261.71	228.25
261.942	249.25
262.175	248.25
262.407	231.25
262.64	229.25
262.872	239.25
263.105	221.25
263.337	234.25
263.57	234.25
263.802	227.25
264.035	225.25
264.267	216.25
264.499	226.25
264.732	228.25
264.964	220.25
265.197	215.25
265.429	233.25
265.661	226.25
265.894	232.25
266.126	223.25
266.358	218.25
266.591	219.25
266.823	229.25
267.055	234.25
267.287	231.25
267.52	240.25
267.752	246.25
267.984	237.25
268.216	246.25
268.448	257.25
268.681	241.25
268.913	251.25
269.145	284.25
269.377	307.25
269.609	292.25
269.841	286.25
270.073	301.25
270.306	330.25
270.538	335.25
270.77	362.25
271.002	333.25
271.234	317.25
271.466	336.25
271.698	349.25
271.93	349.25
272.162	357.25
272.394	343.25
272.626	336.25
272.858	327.25
273.09	306.25
273.322	314.25
273.553	292.25
273.785	279.25
274.017	269.25
274.249	290.25
274.481	281.25
274.713	258.25
274.945	287.25
275.176	278.25
275.408	275.25
275.64	259.25
275.872	277.25
276.104	295.25
276.335	274.25
276.567	283.25
276.799	286.25
277.031	328.25
277.262	346.25
277.494	340.25
277.726	325.25
277.957	305.25
278.189	314.25
278.421	299.25
278.652	293.25
278.884	278.25
279.115	279.25
279.347	263.25
279.579	277.25
279.81	277.25
280.042	274.25
280.273	281.25
280.505	284.25
280.736	277.25
280.968	281.25
281.199	270.25
281.431	260.25
281.662	279.25
281.894	270.25
282.125	273.25
282.356	279.25
282.588	321.25
282.819	344.25
283.051	301.25
283.282	275.25
283.513	289.25
283.745	283.25
283.976	273.25
284.207	292.25
284.439	286.25
284.67	280.25
284.901	271.25
285.132	274.25
285.364	279.25
285.595	289.25
285.826	267.25
286.057	267.25
286.288	271.25
286.52	286.25
286.751	268.25
286.982	288.25
287.213	272.25
287.444	285.25
287.675	292.25
287.906	289.25
288.138	297.25
288.369	309.25
288.6	299.25
288.831	317.25
289.062	299.25
289.293	302.25
289.524	293.25
289.755	295.25
289.986	283.25
290.217	272.25
290.448	272.25
290.679	301.25
290.91	281.25
291.141	285.25
291.371	276.25
291.602	290.25
291.833	288.25
292.064	303.25
292.295	293.25
292.526	292.25
292.757	292.25
292.987	294.25
293.218	293.25
293.449	300.25
293.68	298.25
293.91	291.25
294.141	298.25
294.372	280.25
294.603	282.25
294.833	281.25
295.064	289.25
295.295	286.25
295.525	287.25
295.756	293.25
295.987	318.25
296.217	330.25
296.448	357.25
296.679	305.25
296.909	306.25
297.14	318.25
297.37	306.25
297.601	291.25
297.831	310.25
298.062	309.25
298.292	311.25
298.523	322.25
298.753	307.25
298.984	294.25
299.214	325.25
299.445	319.25
299.675	319.25
299.905	303.25
300.136	302.25
300.366	317.25
300.597	311.25
300.827	293.25
301.057	312.25
301.288	328.25
301.518	316.25
301.748	319.25
301.979	330.25
302.209	319.25
302.439	344.25
302.669	334.25
302.9	318.25
303.13	321.25
303.36	335.25
303.59	334.25
303.82	339.25
304.051	343.25
304.281	332.25
304.511	327.25
304.741	329.25
304.971	320.25
305.201	314.25
305.431	319.25
305.661	325.25
305.891	318.25
306.121	331.25
306.352	340.25
306.582	352.25
306.812	344.25
307.042	322.25
307.272	347.25
307.502	317.25
307.731	340.25
307.961	337.25
308.191	339.25
308.421	349.25
308.651	349.25
308.881	346.25
309.111	335.25
309.341	343.25
309.571	354.25
309.8	371.25
310.03	381.25
310.26	391.25
310.49	389.25
310.72	400.25
310.949	406.25
311.179	424.25
311.409	390.25
311.639	385.25
311.868	412.25
312.098	392.25
312.328	406.25
312.557	431.25
312.787	424.25
313.017	441.25
313.246	398.25
313.476	369.25
313.706	389.25
313.935	402.25
314.165	401.25
314.394	426.25
314.624	422.25
314.853	407.25
315.083	394.25
315.312	372.25
315.542	393.25
315.771	382.25
316.001	373.25
316.23	382.25
316.46	383.25
316.689	391.25
316.919	404.25
317.148	373.25
317.377	392.25
317.607	415.25
317.836	405.25
318.065	386.25
318.295	398.25
318.524	380.25
318.753	375.25
318.983	377.25
319.212	399.25
319.441	403.25
319.67	422.25
319.9	387.25
320.129	390.25
320.358	396.25
320.587	397.25
320.816	414.25
321.046	423.25
321.275	410.25
321.504	429.25
321.733	433.25
321.962	440.25
322.191	440.25
322.42	460.25
322.649	476.25
322.878	486.25
323.108	495.25
323.337	524.25
323.566	561.25
323.795	603.25
324.024	653.25
324.253	813.25
324.482	1151.25
324.71	1793.25
324.939	2540.25
325.168	2189.25
325.397	1162.25
325.626	776.25
325.855	614.25
326.084	591.25
326.313	571.25
326.542	562.25
326.77	617.25
326.999	744.25
327.228	1050.25
327.457	1594.25
327.686	1912.25
327.914	1317.25
328.143	871.25
328.372	738.25
328.6	668.25
328.829	659.25
329.058	661.25
329.287	676.25
329.515	626.25
329.744	591.25
329.972	587.25
330.201	619.25
330.43	647.25
330.658	665.25
330.887	671.25
331.115	669.25
331.344	580.25
331.572	539.25
331.801	552.25
332.03	550.25
332.258	501.25
332.486	484.25
332.715	491.25
332.943	473.25
333.172	474.25
333.4	465.25
333.629	477.25
333.857	500.25
334.085	525.25
334.314	515.25
334.542	587.25
334.771	626.25
334.999	547.25
335.227	505.25
335.455	499.25
335.684	487.25
335.912	463.25
336.14	483.25
336.369	461.25
336.597	473.25
336.825	471.25
337.053	473.25
337.281	443.25
337.51	440.25
337.738	457.25
337.966	464.25
338.194	463.25
338.422	451.25
338.65	457.25
338.878	433.25
339.106	430.25
339.334	459.25
339.562	439.25
339.79	426.25
340.018	451.25
340.246	440.25
340.474	437.25
340.702	439.25
340.93	444.25
341.158	448.25
341.386	455.25
341.614	447.25
341.842	452.25
342.07	450.25
342.298	439.25
342.526	431.25
342.754	430.25
342.981	421.25
343.209	422.25
343.437	442.25
343.665	420.25
343.893	457.25
344.12	450.25
344.348	439.25
344.576	435.25
344.804	456.25
345.031	460.25
345.259	470.25
345.487	467.25
345.714	470.25
345.942	454.25
346.17	455.25
346.397	424.25
346.625	453.25
346.853	447.25
347.08	448.25
347.308	464.25
347.535	451.25
347.763	454.25
347.99	470.25
348.218	465.25
348.445	459.25
348.673	441.25
348.9	445.25
349.128	436.25
349.355	419.25
349.583	397.25
349.81	434.25
350.037	428.25
350.265	418.25
350.492	423.25
350.72	433.25
350.947	433.25
351.174	457.25
351.402	468.25
351.629	447.25
351.856	450.25
352.083	459.25
352.311	449.25
352.538	489.25
352.765	455.25
352.992	458.25
353.22	441.25
353.447	458.25
353.674	436.25
353.901	433.25
354.128	443.25
354.355	398.25
354.583	406.25
354.81	420.25
355.037	390.25
355.264	392.25
355.491	412.25
355.718	394.25
355.945	399.25
356.172	418.25
356.399	421.25
356.626	401.25
356.853	397.25
357.08	399.25
357.307	413.25
357.534	412.25
357.761	397.25
357.988	400.25
358.215	405.25
358.441	421.25
358.668	435.25
358.895	418.25
359.122	424.25
359.349	429.25
359.576	440.25
359.802	476.25
360.029	525.25
360.256	523.25
360.483	501.25
360.709	460.25
360.936	462.25
361.163	452.25
361.39	441.25
361.616	461.25
361.843	452.25
362.07	418.25
362.296	467.25
362.523	450.25
362.749	454.25
362.976	438.25
363.203	412.25
363.429	423.25
363.656	422.25
363.882	452.25
364.109	435.25
364.335	421.25
364.562	413.25
364.788	443.25
365.015	438.25
365.241	424.25
365.468	417.25
365.694	437.25
365.92	455.25
366.147	435.25
366.373	435.25
366.599	441.25
366.826	419.25
367.052	420.25
367.278	417.25
367.505	429.25
367.731	421.25
367.957	417.25
368.184	429.25
368.41	425.25
368.636	449.25
368.862	443.25
369.089	459.25
369.315	428.25
369.541	419.25
369.767	421.25
369.993	426.25
370.219	414.25
370.445	421.25
370.672	426.25
370.898	417.25
371.124	420.25
371.35	409.25
371.576	413.25
371.802	404.25
372.028	411.25
372.254	417.25
372.48	417.25
372.706	412.25
372.932	418.25
373.158	396.25
373.384	424.25
373.61	412.25
373.835	427.25
374.061	414.25
374.287	425.25
374.513	407.25
374.739	427.25
374.965	419.25
375.191	434.25
375.416	425.25
375.642	409.25
375.868	424.25
376.094	427.25
376.319	420.25
376.545	423.25
376.771	442.25
376.997	432.25
377.222	406.25
377.448	417.25
377.674	422.25
377.899	419.25
378.125	406.25
378.35	421.25
378.576	421.25
378.802	427.25
379.027	434.25
379.253	430.25
379.478	423.25
379.704	435.25
379.929	435.25
380.155	428.25
380.38	416.25
380.606	430.25
380.831	428.25
381.057	418.25
381.282	424.25
381.507	394.25
381.733	424.25
381.958	428.25
382.184	422.25
382.409	429.25
382.634	434.25
382.86	437.25
383.085	426.25
383.31	427.25
383.535	417.25
383.761	434.25
383.986	434.25
384.211	452.25
384.436	451.25
384.662	464.25
384.887	463.25
385.112	454.25
385.337	456.25
385.562	433.25
385.787	453.25
386.013	454.25
386.238	450.25
386.463	456.25
386.688	450.25
386.913	441.25
387.138	450.25
387.363	435.25
387.588	451.25
387.813	475.25
388.038	475.25
388.263	458.25
388.488	453.25
388.713	462.25
388.938	441.25
389.163	473.25
389.387	482.25
389.612	467.25
389.837	471.25
390.062	430.25
390.287	443.25
390.512	457.25
390.736	425.25
390.961	441.25
391.186	465.25
391.411	451.25
391.636	449.25
391.86	467.25
392.085	470.25
392.31	477.25
392.534	461.25
392.759	466.25
392.984	447.25
393.208	455.25
393.433	467.25
393.658	461.25
393.882	447.25
394.107	443.25
394.331	443.25
394.556	452.25
394.78	457.25
395.005	455.25
395.229	458.25
395.454	470.25
395.678	467.25
395.903	484.25
396.127	499.25
396.352	513.25
396.576	491.25
396.801	483.25
397.025	467.25
397.249	478.25
397.474	494.25
397.698	499.25
397.922	494.25
398.147	509.25
398.371	529.25
398.595	500.25
398.82	502.25
399.044	528.25
399.268	527.25
399.492	553.25
399.717	556.25
399.941	577.25
400.165	633.25
400.389	653.25
400.613	593.25
400.837	561.25
401.062	546.25
401.286	522.25
401.51	526.25
401.734	535.25
401.958	519.25
402.182	514.25
402.406	563.25
402.63	538.25
402.854	506.25
403.078	535.25
403.302	540.25
403.526	533.25
403.75	543.25
403.974	538.25
404.198	564.25
404.422	546.25
404.645	548.25
404.869	573.25
405.093	583.25
405.317	635.25
405.541	687.25
405.765	632.25
405.988	601.25
406.212	598.25
406.436	603.25
406.66	627.25
406.883	596.25
407.107	620.25
407.331	680.25
407.555	721.25
407.778	713.25
408.002	670.25
408.226	625.25
408.449	625.25
408.673	595.25
408.896	645.25
409.12	681.25
409.344	623.25
409.567	584.25
409.791	573.25
410.014	556.25
410.238	560.25
410.461	560.25
410.685	567.25
410.908	586.25
411.132	596.25
411.355	657.25
411.578	636.25
411.802	570.25
412.025	554.25
412.249	543.25
412.472	607.25
412.695	630.25
412.919	613.25
413.142	574.25
413.365	568.25
413.589	532.25
413.812	522.25
414.035	528.25
414.258	517.25
414.482	521.25
414.705	533.25
414.928	505.25
415.151	534.25
415.374	519.25
415.597	513.25
415.821	525.25
416.044	526.25
416.267	531.25
416.49	513.25
416.713	520.25
416.936	523.25
417.159	505.25
417.382	531.25
417.605	533.25
417.828	553.25
418.051	577.25
418.274	548.25
418.497	554.25
418.72	545.25
418.943	537.25
419.166	548.25
419.389	572.25
419.611	551.25
419.834	553.25
420.057	567.25
420.28	561.25
420.503	575.25
420.726	568.25
420.948	579.25
421.171	618.25
421.394	652.25
421.617	602.25
421.839	549.25
422.062	555.25
422.285	592.25
422.507	644.25
422.73	715.25
422.953	702.25
423.175	613.25
423.398	578.25
423.621	569.25
423.843	629.25
424.066	643.25
424.288	627.25
424.511	638.25
424.733	695.25
424.956	796.25
425.178	744.25
425.401	754.25
425.623	762.25
425.846	648.25
426.068	607.25
426.291	611.25
426.513	605.25
426.735	627.25
426.958	665.25
427.18	772.25
427.402	910.25
427.625	984.25
427.847	908.25
428.069	783.25
428.292	687.25
428.514	644.25
428.736	603.25
428.958	602.25
429.181	570.25
429.403	583.25
429.625	593.25
429.847	644.25
430.069	704.25
430.292	700.25
430.514	600.25
430.736	579.25
430.958	578.25
431.18	541.25
431.402	531.25
431.624	545.25
431.846	539.25
432.068	553.25
432.29	538.25
432.512	527.25
432.734	564.25
432.956	547.25
433.178	561.25
433.4	551.25
433.622	532.25
433.844	529.25
434.066	518.25
434.287	515.25
434.509	536.25
434.731	554.25
434.953	557.25
435.175	574.25
435.397	599.25
435.618	606.25
435.84	675.25
436.062	783.25
436.284	834.25
436.505	707.25
436.727	639.25
436.949	608.25
437.17	615.25
437.392	614.25
437.614	594.25
437.835	645.25
438.057	779.25
438.278	897.25
438.5	842.25
438.721	926.25
438.943	891.25
439.165	726.25
439.386	669.25
439.608	639.25
439.829	647.25
440.05	668.25
440.272	730.25
440.493	682.25
440.715	621.25
440.936	607.25
441.158	570.25
441.379	565.25
441.6	590.25
441.822	644.25
442.043	662.25
442.264	794.25
442.486	801.25
442.707	697.25
442.928	661.25
443.149	654.25
443.371	665.25
443.592	714.25
443.813	810.25
444.034	865.25
444.255	723.25
444.476	648.25
444.698	635.25
444.919	599.25
445.14	771.25
445.361	689.25
445.582	663.25
445.803	748.25
446.024	864.25
446.245	859.25
446.466	798.25
446.687	683.25
446.908	625.25
447.129	601.25
447.35	604.25
447.571	580.25
447.792	591.25
448.013	586.25
448.234	610.25
448.455	669.25
448.675	785.25
448.896	892.25
449.117	783.25
449.338	750.25
449.559	847.25
449.779	930.25
450	758.25
450.221	644.25
450.442	616.25
450.662	569.25
450.883	590.25
451.104	611.25
451.324	622.25
451.545	561.25
451.766	555.25
451.986	522.25
452.207	516.25
452.428	521.25
452.648	538.25
452.869	499.25
453.089	531.25
453.31	568.25
453.53	553.25
453.751	522.25
453.971	539.25
454.192	557.25
454.412	538.25
454.633	518.25
454.853	533.25
455.073	515.25
455.294	559.25
455.514	631.25
455.734	610.25
455.955	521.25
456.175	500.25
456.395	475.25
456.616	501.25
456.836	479.25
457.056	479.25
457.276	460.25
457.497	477.25
457.717	512.25
457.937	501.25
458.157	496.25
458.377	488.25
458.598	545.25
458.818	608.25
459.038	716.25
459.258	713.25
459.478	612.25
459.698	539.25
459.918	522.25
460.138	533.25
460.358	507.25
460.578	521.25
460.798	522.25
461.018	553.25
461.238	515.25
461.458	529.25
461.678	526.25
461.898	522.25
462.118	542.25
462.338	553.25
462.558	543.25
462.777	550.25
462.997	554.25
463.217	541.25
463.437	558.25
463.657	553.25
463.876	530.25
464.096	568.25
464.316	550.25
464.536	555.25
464.755	567.25
464.975	591.25
465.195	648.25
465.414	741.25
465.634	639.25
465.854	611.25
466.073	576.25
466.293	558.25
466.512	537.25
466.732	510.25
466.951	540.25
467.171	532.25
467.391	542.25
467.61	542.25
467.829	557.25
468.049	553.25
468.268	530.25
468.488	538.25
468.707	540.25
468.927	521.25
469.146	531.25
469.365	523.25
469.585	511.25
469.804	536.25
470.023	539.25
470.243	559.25
470.462	541.25
470.681	572.25
470.901	559.25
471.12	549.25
471.339	549.25
471.558	541.25
471.777	546.25
471.997	549.25
472.216	536.25
472.435	585.25
472.654	593.25
472.873	545.25
473.092	551.25
473.311	534.25
473.53	541.25
473.749	557.25
473.968	594.25
474.187	734.25
474.406	726.25
474.625	639.25
474.844	565.25
475.063	550.25
475.282	562.25
475.501	539.25
475.72	541.25
475.939	556.25
476.158	557.25
476.377	563.25
476.596	581.25
476.814	580.25
477.033	589.25
477.252	597.25
477.471	559.25
477.69	582.25
477.908	578.25
478.127	583.25
478.346	581.25
478.564	580.25
478.783	603.25
479.002	615.25
479.22	622.25
479.439	638.25
479.658	629.25
479.876	640.25
480.095	679.25
480.313	686.25
480.532	672.25
480.751	654.25
480.969	692.25
481.188	760.25
481.406	825.25
481.624	735.25
481.843	677.25
482.061	665.25
482.28	666.25
482.498	661.25
482.717	640.25
482.935	666.25
483.153	637.25
483.372	637.25
483.59	654.25
483.808	643.25
484.027	642.25
484.245	652.25
484.463	645.25
484.681	658.25
484.9	657.25
485.118	654.25
485.336	675.25
485.554	666.25
485.772	669.25
485.99	651.25
486.209	680.25
486.427	694.25
486.645	701.25
486.863	706.25
487.081	698.25
487.299	711.25
487.517	693.25
487.735	705.25
487.953	686.25
488.171	707.25
488.389	691.25
488.607	695.25
488.825	706.25
489.043	713.25
489.261	718.25
489.479	707.25
489.696	699.25
489.914	716.25
490.132	740.25
490.35	751.25
490.568	723.25
490.786	754.25
491.003	741.25
491.221	792.25
491.439	823.25
491.657	806.25
491.874	819.25
492.092	824.25
492.31	828.25
492.527	834.25
492.745	842.25
492.963	852.25
493.18	862.25
493.398	868.25
493.615	852.25
493.833	840.25
494.05	866.25
494.268	852.25
494.485	852.25
494.703	861.25
494.92	860.25
495.138	857.25
495.355	873.25
495.573	868.25
495.79	838.25
496.008	867.25
496.225	861.25
496.442	837.25
496.66	843.25
496.877	847.25
497.094	826.25
497.312	830.25
497.529	886.25
497.746	887.25
497.963	891.25
498.181	903.25
498.398	887.25
498.615	902.25
498.832	908.25
499.049	897.25
499.267	941.25
499.484	951.25
499.701	949.25
499.918	989.25
500.135	977.25
500.352	1012.25
500.569	1022.25
500.786	1015.25
501.003	1049.25
501.22	1032.25
501.437	1036.25
501.654	1018.25
501.871	995.25
