Data from 1970.PennyLincolnUp.Lamp.En5.5.200Scan.071719.P1._HRD10591_15-13-16-844.txt Node
Date: Thu Jul 18 15:13:16 EDT 2019
User: cochatt
Spectrometer: HR+D1059
Trigger mode: 1
Integration Time (sec): 1.000000E-1
Scans to average: 1
Electric dark correction enabled: true
Nonlinearity correction enabled: false
Boxcar width: 0
XAxis mode: Wavelengths
Number of Pixels in Spectrum: 2048
>>>>>Begin Spectral Data<<<<<
223.165	-5.38
223.4	-5.38
223.635	-5.38
223.869	-24.38
224.104	-20.38
224.338	-18.38
224.573	-13.38
224.808	-8.38
225.042	-1.38
225.277	-14.38
225.511	-2.38
225.746	2.62
225.98	4.62
226.215	15.62
226.449	12.62
226.683	25.62
226.918	19.62
227.152	27.62
227.387	33.62
227.621	30.62
227.856	40.62
228.09	41.62
228.324	26.62
228.559	50.62
228.793	58.62
229.027	87.62
229.262	100.62
229.496	102.62
229.73	122.62
229.964	145.62
230.199	129.62
230.433	107.62
230.667	119.62
230.901	111.62
231.136	115.62
231.37	106.62
231.604	103.62
231.838	103.62
232.072	101.62
232.306	100.62
232.541	109.62
232.775	123.62
233.009	110.62
233.243	99.62
233.477	112.62
233.711	100.62
233.945	114.62
234.179	101.62
234.413	109.62
234.647	112.62
234.881	109.62
235.115	125.62
235.349	106.62
235.583	102.62
235.817	99.62
236.051	125.62
236.285	122.62
236.519	125.62
236.753	116.62
236.987	145.62
237.221	181.62
237.455	202.62
237.689	177.62
237.922	134.62
238.156	133.62
238.39	122.62
238.624	119.62
238.858	104.62
239.091	109.62
239.325	113.62
239.559	110.62
239.793	141.62
240.027	122.62
240.26	117.62
240.494	145.62
240.728	141.62
240.961	136.62
241.195	123.62
241.429	115.62
241.662	129.62
241.896	123.62
242.13	118.62
242.363	120.62
242.597	118.62
242.83	127.62
243.064	126.62
243.298	127.62
243.531	136.62
243.765	129.62
243.998	120.62
244.232	153.62
244.465	147.62
244.699	129.62
244.932	141.62
245.166	145.62
245.399	140.62
245.633	146.62
245.866	144.62
246.099	139.62
246.333	146.62
246.566	146.62
246.8	141.62
247.033	143.62
247.266	150.62
247.5	152.62
247.733	160.62
247.966	170.62
248.2	178.62
248.433	167.62
248.666	167.62
248.899	182.62
249.133	197.62
249.366	190.62
249.599	177.62
249.832	179.62
250.066	176.62
250.299	159.62
250.532	176.62
250.765	204.62
250.998	208.62
251.231	206.62
251.465	201.62
251.698	200.62
251.931	191.62
252.164	199.62
252.397	193.62
252.63	195.62
252.863	196.62
253.096	207.62
253.329	219.62
253.562	200.62
253.795	212.62
254.028	197.62
254.261	213.62
254.494	224.62
254.727	218.62
254.96	254.62
255.193	243.62
255.426	231.62
255.659	214.62
255.892	224.62
256.124	203.62
256.357	209.62
256.59	216.62
256.823	196.62
257.056	188.62
257.289	185.62
257.521	208.62
257.754	212.62
257.987	198.62
258.22	202.62
258.452	205.62
258.685	181.62
258.918	194.62
259.151	201.62
259.383	207.62
259.616	201.62
259.849	212.62
260.081	214.62
260.314	223.62
260.547	233.62
260.779	218.62
261.012	214.62
261.244	210.62
261.477	209.62
261.71	190.62
261.942	203.62
262.175	218.62
262.407	204.62
262.64	199.62
262.872	199.62
263.105	185.62
263.337	188.62
263.57	195.62
263.802	193.62
264.035	200.62
264.267	193.62
264.499	203.62
264.732	204.62
264.964	203.62
265.197	199.62
265.429	206.62
265.661	191.62
265.894	192.62
266.126	198.62
266.358	180.62
266.591	181.62
266.823	201.62
267.055	188.62
267.287	190.62
267.52	191.62
267.752	198.62
267.984	195.62
268.216	191.62
268.448	198.62
268.681	213.62
268.913	219.62
269.145	224.62
269.377	244.62
269.609	241.62
269.841	230.62
270.073	232.62
270.306	232.62
270.538	257.62
270.77	279.62
271.002	265.62
271.234	271.62
271.466	287.62
271.698	278.62
271.93	281.62
272.162	286.62
272.394	254.62
272.626	278.62
272.858	258.62
273.09	260.62
273.322	239.62
273.553	233.62
273.785	227.62
274.017	216.62
274.249	235.62
274.481	230.62
274.713	233.62
274.945	231.62
275.176	231.62
275.408	239.62
275.64	218.62
275.872	223.62
276.104	224.62
276.335	233.62
276.567	245.62
276.799	260.62
277.031	255.62
277.262	264.62
277.494	254.62
277.726	239.62
277.957	246.62
278.189	247.62
278.421	229.62
278.652	236.62
278.884	238.62
279.115	233.62
279.347	222.62
279.579	243.62
279.81	259.62
280.042	226.62
280.273	227.62
280.505	218.62
280.736	238.62
280.968	243.62
281.199	243.62
281.431	222.62
281.662	226.62
281.894	227.62
282.125	237.62
282.356	248.62
282.588	263.62
282.819	264.62
283.051	253.62
283.282	228.62
283.513	253.62
283.745	250.62
283.976	239.62
284.207	227.62
284.439	227.62
284.67	223.62
284.901	240.62
285.132	226.62
285.364	234.62
285.595	242.62
285.826	252.62
286.057	226.62
286.288	220.62
286.52	229.62
286.751	211.62
286.982	239.62
287.213	220.62
287.444	239.62
287.675	254.62
287.906	232.62
288.138	255.62
288.369	257.62
288.6	255.62
288.831	255.62
289.062	250.62
289.293	252.62
289.524	267.62
289.755	251.62
289.986	255.62
290.217	246.62
290.448	251.62
290.679	244.62
290.91	251.62
291.141	252.62
291.371	238.62
291.602	265.62
291.833	236.62
292.064	253.62
292.295	230.62
292.526	231.62
292.757	252.62
292.987	252.62
293.218	238.62
293.449	252.62
293.68	239.62
293.91	252.62
294.141	246.62
294.372	248.62
294.603	259.62
294.833	253.62
295.064	238.62
295.295	237.62
295.525	248.62
295.756	227.62
295.987	247.62
296.217	252.62
296.448	285.62
296.679	248.62
296.909	251.62
297.14	254.62
297.37	260.62
297.601	271.62
297.831	246.62
298.062	254.62
298.292	248.62
298.523	262.62
298.753	248.62
298.984	265.62
299.214	248.62
299.445	251.62
299.675	267.62
299.905	271.62
300.136	260.62
300.366	245.62
300.597	265.62
300.827	263.62
301.057	254.62
301.288	277.62
301.518	271.62
301.748	261.62
301.979	275.62
302.209	276.62
302.439	280.62
302.669	263.62
302.9	263.62
303.13	263.62
303.36	268.62
303.59	266.62
303.82	282.62
304.051	278.62
304.281	280.62
304.511	275.62
304.741	277.62
304.971	270.62
305.201	257.62
305.431	277.62
305.661	273.62
305.891	274.62
306.121	260.62
306.352	283.62
306.582	286.62
306.812	288.62
307.042	289.62
307.272	279.62
307.502	272.62
307.731	270.62
307.961	262.62
308.191	286.62
308.421	285.62
308.651	274.62
308.881	277.62
309.111	272.62
309.341	287.62
309.571	285.62
309.8	302.62
310.03	307.62
310.26	323.62
310.49	322.62
310.72	307.62
310.949	337.62
311.179	341.62
311.409	326.62
311.639	295.62
311.868	301.62
312.098	311.62
312.328	313.62
312.557	318.62
312.787	349.62
313.017	316.62
313.246	323.62
313.476	322.62
313.706	323.62
313.935	323.62
314.165	356.62
314.394	321.62
314.624	318.62
314.853	332.62
315.083	307.62
315.312	312.62
315.542	305.62
315.771	310.62
316.001	319.62
316.23	315.62
316.46	316.62
316.689	298.62
316.919	297.62
317.148	314.62
317.377	327.62
317.607	318.62
317.836	319.62
318.065	319.62
318.295	320.62
318.524	320.62
318.753	315.62
318.983	296.62
319.212	309.62
319.441	326.62
319.67	308.62
319.9	329.62
320.129	331.62
320.358	311.62
320.587	330.62
320.816	335.62
321.046	323.62
321.275	328.62
321.504	332.62
321.733	336.62
321.962	337.62
322.191	353.62
322.42	359.62
322.649	389.62
322.878	372.62
323.108	404.62
323.337	404.62
323.566	405.62
323.795	434.62
324.024	469.62
324.253	574.62
324.482	776.62
324.71	1161.62
324.939	1714.62
325.168	1500.62
325.397	777.62
325.626	564.62
325.855	472.62
326.084	418.62
326.313	417.62
326.542	431.62
326.77	446.62
326.999	536.62
327.228	695.62
327.457	1077.62
327.686	1274.62
327.914	877.62
328.143	567.62
328.372	529.62
328.6	501.62
328.829	460.62
329.058	461.62
329.287	463.62
329.515	458.62
329.744	431.62
329.972	429.62
330.201	444.62
330.43	457.62
330.658	466.62
330.887	479.62
331.115	480.62
331.344	442.62
331.572	422.62
331.801	408.62
332.03	419.62
332.258	370.62
332.486	379.62
332.715	381.62
332.943	391.62
333.172	370.62
333.4	386.62
333.629	392.62
333.857	375.62
334.085	413.62
334.314	392.62
334.542	433.62
334.771	445.62
334.999	404.62
335.227	388.62
335.455	404.62
335.684	379.62
335.912	388.62
336.14	379.62
336.369	356.62
336.597	373.62
336.825	388.62
337.053	370.62
337.281	366.62
337.51	387.62
337.738	371.62
337.966	377.62
338.194	373.62
338.422	379.62
338.65	360.62
338.878	377.62
339.106	352.62
339.334	353.62
339.562	371.62
339.79	345.62
340.018	373.62
340.246	362.62
340.474	354.62
340.702	374.62
340.93	367.62
341.158	370.62
341.386	358.62
341.614	385.62
341.842	377.62
342.07	344.62
342.298	355.62
342.526	344.62
342.754	347.62
342.981	350.62
343.209	343.62
343.437	361.62
343.665	353.62
343.893	381.62
344.12	389.62
344.348	390.62
344.576	358.62
344.804	380.62
345.031	372.62
345.259	372.62
345.487	374.62
345.714	387.62
345.942	360.62
346.17	371.62
346.397	375.62
346.625	361.62
346.853	349.62
347.08	351.62
347.308	360.62
347.535	367.62
347.763	362.62
347.99	355.62
348.218	371.62
348.445	371.62
348.673	385.62
348.9	382.62
349.128	354.62
349.355	344.62
349.583	337.62
349.81	349.62
350.037	349.62
350.265	353.62
350.492	367.62
350.72	367.62
350.947	347.62
351.174	346.62
351.402	372.62
351.629	364.62
351.856	356.62
352.083	356.62
352.311	359.62
352.538	365.62
352.765	370.62
352.992	372.62
353.22	373.62
353.447	353.62
353.674	365.62
353.901	346.62
354.128	341.62
354.355	353.62
354.583	351.62
354.81	341.62
355.037	311.62
355.264	351.62
355.491	359.62
355.718	347.62
355.945	347.62
356.172	336.62
356.399	344.62
356.626	343.62
356.853	334.62
357.08	358.62
357.307	351.62
357.534	336.62
357.761	340.62
357.988	340.62
358.215	356.62
358.441	359.62
358.668	358.62
358.895	335.62
359.122	362.62
359.349	359.62
359.576	366.62
359.802	386.62
360.029	397.62
360.256	411.62
360.483	394.62
360.709	347.62
360.936	361.62
361.163	380.62
361.39	367.62
361.616	371.62
361.843	374.62
362.07	374.62
362.296	375.62
362.523	372.62
362.749	362.62
362.976	355.62
363.203	354.62
363.429	362.62
363.656	370.62
363.882	333.62
364.109	365.62
364.335	378.62
364.562	360.62
364.788	351.62
365.015	367.62
365.241	337.62
365.468	351.62
365.694	347.62
365.92	363.62
366.147	352.62
366.373	359.62
366.599	353.62
366.826	345.62
367.052	352.62
367.278	360.62
367.505	346.62
367.731	373.62
367.957	345.62
368.184	375.62
368.41	367.62
368.636	388.62
368.862	377.62
369.089	365.62
369.315	358.62
369.541	371.62
369.767	365.62
369.993	365.62
370.219	360.62
370.445	359.62
370.672	369.62
370.898	376.62
371.124	371.62
371.35	363.62
371.576	373.62
371.802	379.62
372.028	351.62
372.254	365.62
372.48	369.62
372.706	378.62
372.932	349.62
373.158	360.62
373.384	384.62
373.61	377.62
373.835	379.62
374.061	383.62
374.287	356.62
374.513	373.62
374.739	359.62
374.965	365.62
375.191	373.62
375.416	374.62
375.642	365.62
375.868	374.62
376.094	371.62
376.319	342.62
376.545	380.62
376.771	375.62
376.997	359.62
377.222	352.62
377.448	360.62
377.674	355.62
377.899	347.62
378.125	378.62
378.35	368.62
378.576	370.62
378.802	380.62
379.027	375.62
379.253	361.62
379.478	350.62
379.704	356.62
379.929	363.62
380.155	361.62
380.38	394.62
380.606	373.62
380.831	351.62
381.057	375.62
381.282	373.62
381.507	376.62
381.733	383.62
381.958	367.62
382.184	404.62
382.409	392.62
382.634	396.62
382.86	378.62
383.085	381.62
383.31	373.62
383.535	386.62
383.761	390.62
383.986	373.62
384.211	377.62
384.436	387.62
384.662	379.62
384.887	382.62
385.112	395.62
385.337	385.62
385.562	392.62
385.787	399.62
386.013	402.62
386.238	437.62
386.463	422.62
386.688	404.62
386.913	411.62
387.138	407.62
387.363	405.62
387.588	395.62
387.813	398.62
388.038	383.62
388.263	415.62
388.488	395.62
388.713	387.62
388.938	401.62
389.163	395.62
389.387	396.62
389.612	391.62
389.837	382.62
390.062	394.62
390.287	402.62
390.512	389.62
390.736	401.62
390.961	408.62
391.186	415.62
391.411	408.62
391.636	404.62
391.86	402.62
392.085	411.62
392.31	392.62
392.534	403.62
392.759	432.62
392.984	411.62
393.208	438.62
393.433	443.62
393.658	424.62
393.882	399.62
394.107	417.62
394.331	425.62
394.556	403.62
394.78	410.62
395.005	402.62
395.229	405.62
395.454	413.62
395.678	417.62
395.903	416.62
396.127	466.62
396.352	432.62
396.576	422.62
396.801	422.62
397.025	428.62
397.249	415.62
397.474	426.62
397.698	424.62
397.922	449.62
398.147	472.62
398.371	472.62
398.595	437.62
398.82	440.62
399.044	456.62
399.268	475.62
399.492	489.62
399.717	512.62
399.941	539.62
400.165	539.62
400.389	552.62
400.613	507.62
400.837	494.62
401.062	460.62
401.286	449.62
401.51	464.62
401.734	475.62
401.958	473.62
402.182	466.62
402.406	460.62
402.63	462.62
402.854	446.62
403.078	463.62
403.302	440.62
403.526	481.62
403.75	472.62
403.974	462.62
404.198	468.62
404.422	468.62
404.645	466.62
404.869	480.62
405.093	533.62
405.317	537.62
405.541	563.62
405.765	554.62
405.988	515.62
406.212	528.62
406.436	523.62
406.66	519.62
406.883	521.62
407.107	536.62
407.331	557.62
407.555	627.62
407.778	629.62
408.002	557.62
408.226	552.62
408.449	515.62
408.673	528.62
408.896	564.62
409.12	594.62
409.344	543.62
409.567	522.62
409.791	502.62
410.014	490.62
410.238	462.62
410.461	488.62
410.685	506.62
410.908	530.62
411.132	520.62
411.355	559.62
411.578	548.62
411.802	493.62
412.025	487.62
412.249	498.62
412.472	508.62
412.695	557.62
412.919	515.62
413.142	493.62
413.365	485.62
413.589	475.62
413.812	465.62
414.035	454.62
414.258	445.62
414.482	451.62
414.705	447.62
414.928	447.62
415.151	433.62
415.374	472.62
415.597	457.62
415.821	473.62
416.044	447.62
416.267	454.62
416.49	449.62
416.713	443.62
416.936	456.62
417.159	455.62
417.382	464.62
417.605	458.62
417.828	473.62
418.051	495.62
418.274	488.62
418.497	451.62
418.72	457.62
418.943	464.62
419.166	481.62
419.389	517.62
419.611	487.62
419.834	494.62
420.057	473.62
420.28	497.62
420.503	516.62
420.726	484.62
420.948	482.62
421.171	531.62
421.394	565.62
421.617	528.62
421.839	504.62
422.062	490.62
422.285	493.62
422.507	531.62
422.73	594.62
422.953	606.62
423.175	538.62
423.398	510.62
423.621	508.62
423.843	523.62
424.066	528.62
424.288	549.62
424.511	527.62
424.733	595.62
424.956	668.62
425.178	637.62
425.401	618.62
425.623	666.62
425.846	555.62
426.068	543.62
426.291	509.62
426.513	527.62
426.735	495.62
426.958	581.62
427.18	641.62
427.402	729.62
427.625	831.62
427.847	739.62
428.069	643.62
428.292	578.62
428.514	555.62
428.736	530.62
428.958	502.62
429.181	495.62
429.403	498.62
429.625	498.62
429.847	516.62
430.069	583.62
430.292	598.62
430.514	507.62
430.736	485.62
430.958	485.62
431.18	464.62
431.402	478.62
431.624	454.62
431.846	471.62
432.068	457.62
432.29	456.62
432.512	480.62
432.734	482.62
432.956	469.62
433.178	488.62
433.4	484.62
433.622	501.62
433.844	458.62
434.066	445.62
434.287	440.62
434.509	478.62
434.731	473.62
434.953	472.62
435.175	487.62
435.397	521.62
435.618	520.62
435.84	567.62
436.062	635.62
436.284	702.62
436.505	612.62
436.727	528.62
436.949	520.62
437.17	503.62
437.392	489.62
437.614	520.62
437.835	557.62
438.057	619.62
438.278	708.62
438.5	722.62
438.721	775.62
438.943	755.62
439.165	618.62
439.386	566.62
439.608	541.62
439.829	544.62
440.05	551.62
440.272	574.62
440.493	567.62
440.715	511.62
440.936	500.62
441.158	501.62
441.379	498.62
441.6	515.62
441.822	542.62
442.043	578.62
442.264	619.62
442.486	658.62
442.707	602.62
442.928	551.62
443.149	554.62
443.371	554.62
443.592	616.62
443.813	686.62
444.034	737.62
444.255	603.62
444.476	573.62
444.698	530.62
444.919	534.62
445.14	614.62
445.361	559.62
445.582	555.62
445.803	619.62
446.024	688.62
446.245	697.62
446.466	665.62
446.687	571.62
446.908	530.62
447.129	513.62
447.35	501.62
447.571	504.62
447.792	487.62
448.013	488.62
448.234	497.62
448.455	546.62
448.675	677.62
448.896	749.62
449.117	670.62
449.338	627.62
449.559	706.62
449.779	758.62
450	639.62
450.221	547.62
450.442	506.62
450.662	487.62
450.883	501.62
451.104	491.62
451.324	501.62
451.545	477.62
451.766	465.62
451.986	430.62
452.207	442.62
452.428	427.62
452.648	446.62
452.869	432.62
453.089	454.62
453.31	455.62
453.53	444.62
453.751	436.62
453.971	443.62
454.192	470.62
454.412	466.62
454.633	439.62
454.853	440.62
455.073	430.62
455.294	463.62
455.514	517.62
455.734	509.62
455.955	452.62
456.175	424.62
456.395	415.62
456.616	412.62
456.836	414.62
457.056	392.62
457.276	423.62
457.497	422.62
457.717	416.62
457.937	403.62
458.157	419.62
458.377	419.62
458.598	456.62
458.818	488.62
459.038	551.62
459.258	582.62
459.478	495.62
459.698	490.62
459.918	455.62
460.138	471.62
460.358	457.62
460.578	454.62
460.798	448.62
461.018	470.62
461.238	466.62
461.458	442.62
461.678	479.62
461.898	464.62
462.118	448.62
462.338	479.62
462.558	470.62
462.777	493.62
462.997	515.62
463.217	493.62
463.437	503.62
463.657	493.62
463.876	493.62
464.096	512.62
464.316	481.62
464.536	498.62
464.755	481.62
464.975	498.62
465.195	535.62
465.414	605.62
465.634	531.62
465.854	497.62
466.073	472.62
466.293	455.62
466.512	450.62
466.732	455.62
466.951	445.62
467.171	462.62
467.391	467.62
467.61	464.62
467.829	448.62
468.049	463.62
468.268	457.62
468.488	460.62
468.707	441.62
468.927	448.62
469.146	450.62
469.365	450.62
469.585	451.62
469.804	449.62
470.023	464.62
470.243	439.62
470.462	476.62
470.681	489.62
470.901	484.62
471.12	468.62
471.339	475.62
471.558	465.62
471.777	469.62
471.997	457.62
472.216	455.62
472.435	488.62
472.654	462.62
472.873	441.62
473.092	447.62
473.311	473.62
473.53	461.62
473.749	497.62
473.968	494.62
474.187	585.62
474.406	606.62
474.625	523.62
474.844	512.62
475.063	456.62
475.282	463.62
475.501	472.62
475.72	470.62
475.939	486.62
476.158	482.62
476.377	494.62
476.596	461.62
476.814	485.62
477.033	516.62
477.252	494.62
477.471	519.62
477.69	519.62
477.908	489.62
478.127	495.62
478.346	504.62
478.564	497.62
478.783	517.62
479.002	517.62
479.22	524.62
479.439	542.62
479.658	564.62
479.876	562.62
480.095	548.62
480.313	591.62
480.532	567.62
480.751	573.62
480.969	591.62
481.188	612.62
481.406	633.62
481.624	593.62
481.843	559.62
482.061	545.62
482.28	529.62
482.498	546.62
482.717	545.62
482.935	551.62
483.153	568.62
483.372	557.62
483.59	552.62
483.808	521.62
484.027	555.62
484.245	549.62
484.463	574.62
484.681	558.62
484.9	574.62
485.118	546.62
485.336	562.62
485.554	571.62
485.772	575.62
485.99	553.62
486.209	573.62
486.427	569.62
486.645	589.62
486.863	597.62
487.081	589.62
487.299	592.62
487.517	597.62
487.735	597.62
487.953	601.62
488.171	606.62
488.389	607.62
488.607	602.62
488.825	607.62
489.043	586.62
489.261	591.62
489.479	609.62
489.696	608.62
489.914	616.62
490.132	621.62
490.35	613.62
490.568	647.62
490.786	649.62
491.003	665.62
491.221	647.62
491.439	686.62
491.657	690.62
491.874	701.62
492.092	688.62
492.31	710.62
492.527	694.62
492.745	679.62
492.963	687.62
493.18	731.62
493.398	712.62
493.615	730.62
493.833	732.62
494.05	692.62
494.268	718.62
494.485	712.62
494.703	705.62
494.92	738.62
495.138	706.62
495.355	737.62
495.573	718.62
495.79	709.62
496.008	712.62
496.225	711.62
496.442	735.62
496.66	714.62
496.877	705.62
497.094	731.62
497.312	698.62
497.529	733.62
497.746	757.62
497.963	741.62
498.181	787.62
498.398	773.62
498.615	786.62
498.832	806.62
499.049	785.62
499.267	809.62
499.484	842.62
499.701	852.62
499.918	879.62
500.135	899.62
500.352	911.62
500.569	901.62
500.786	930.62
501.003	958.62
501.22	921.62
501.437	879.62
501.654	848.62
501.871	842.62
502.088	848.62
