Data from 1970.PennyLincolnUp.Lamp.En5.5.200Scan.071719.P1._HRD10591_15-13-28-843.txt Node
Date: Thu Jul 18 15:13:28 EDT 2019
User: cochatt
Spectrometer: HR+D1059
Trigger mode: 1
Integration Time (sec): 1.000000E-1
Scans to average: 1
Electric dark correction enabled: true
Nonlinearity correction enabled: false
Boxcar width: 0
XAxis mode: Wavelengths
Number of Pixels in Spectrum: 2048
>>>>>Begin Spectral Data<<<<<
223.165	-13.75
223.4	-13.75
223.635	-13.75
223.869	-29.75
224.104	-16.75
224.338	-5.75
224.573	-2.75
224.808	-15.75
225.042	-5.75
225.277	-8.75
225.511	4.25
225.746	-0.75
225.98	1.25
226.215	7.25
226.449	16.25
226.683	12.25
226.918	26.25
227.152	32.25
227.387	36.25
227.621	56.25
227.856	50.25
228.09	43.25
228.324	56.25
228.559	50.25
228.793	66.25
229.027	103.25
229.262	103.25
229.496	118.25
229.73	132.25
229.964	157.25
230.199	138.25
230.433	130.25
230.667	130.25
230.901	114.25
231.136	105.25
231.37	113.25
231.604	130.25
231.838	98.25
232.072	106.25
232.306	126.25
232.541	111.25
232.775	111.25
233.009	110.25
233.243	115.25
233.477	97.25
233.711	127.25
233.945	121.25
234.179	123.25
234.413	116.25
234.647	135.25
234.881	116.25
235.115	108.25
235.349	128.25
235.583	128.25
235.817	124.25
236.051	126.25
236.285	131.25
236.519	141.25
236.753	135.25
236.987	139.25
237.221	173.25
237.455	218.25
237.689	179.25
237.922	139.25
238.156	147.25
238.39	139.25
238.624	103.25
238.858	114.25
239.091	134.25
239.325	129.25
239.559	140.25
239.793	135.25
240.027	142.25
240.26	149.25
240.494	153.25
240.728	172.25
240.961	152.25
241.195	163.25
241.429	138.25
241.662	130.25
241.896	147.25
242.13	144.25
242.363	141.25
242.597	148.25
242.83	146.25
243.064	136.25
243.298	136.25
243.531	147.25
243.765	145.25
243.998	131.25
244.232	146.25
244.465	156.25
244.699	159.25
244.932	155.25
245.166	151.25
245.399	148.25
245.633	148.25
245.866	158.25
246.099	152.25
246.333	157.25
246.566	170.25
246.8	150.25
247.033	168.25
247.266	165.25
247.5	158.25
247.733	171.25
247.966	186.25
248.2	184.25
248.433	181.25
248.666	167.25
248.899	194.25
249.133	179.25
249.366	191.25
249.599	210.25
249.832	180.25
250.066	196.25
250.299	186.25
250.532	191.25
250.765	194.25
250.998	217.25
251.231	219.25
251.465	215.25
251.698	216.25
251.931	204.25
252.164	202.25
252.397	190.25
252.63	206.25
252.863	223.25
253.096	234.25
253.329	222.25
253.562	234.25
253.795	232.25
254.028	229.25
254.261	231.25
254.494	237.25
254.727	249.25
254.96	295.25
255.193	268.25
255.426	275.25
255.659	247.25
255.892	239.25
256.124	242.25
256.357	235.25
256.59	198.25
256.823	216.25
257.056	218.25
257.289	206.25
257.521	192.25
257.754	202.25
257.987	203.25
258.22	194.25
258.452	196.25
258.685	211.25
258.918	191.25
259.151	211.25
259.383	210.25
259.616	214.25
259.849	235.25
260.081	237.25
260.314	243.25
260.547	262.25
260.779	239.25
261.012	227.25
261.244	218.25
261.477	234.25
261.71	208.25
261.942	222.25
262.175	226.25
262.407	223.25
262.64	209.25
262.872	189.25
263.105	211.25
263.337	206.25
263.57	209.25
263.802	203.25
264.035	207.25
264.267	191.25
264.499	184.25
264.732	189.25
264.964	200.25
265.197	198.25
265.429	190.25
265.661	208.25
265.894	211.25
266.126	200.25
266.358	215.25
266.591	203.25
266.823	217.25
267.055	217.25
267.287	233.25
267.52	216.25
267.752	203.25
267.984	218.25
268.216	220.25
268.448	236.25
268.681	226.25
268.913	203.25
269.145	239.25
269.377	239.25
269.609	244.25
269.841	251.25
270.073	248.25
270.306	277.25
270.538	280.25
270.77	315.25
271.002	298.25
271.234	280.25
271.466	281.25
271.698	297.25
271.93	303.25
272.162	296.25
272.394	295.25
272.626	283.25
272.858	300.25
273.09	250.25
273.322	248.25
273.553	235.25
273.785	248.25
274.017	239.25
274.249	248.25
274.481	239.25
274.713	240.25
274.945	255.25
275.176	240.25
275.408	249.25
275.64	258.25
275.872	232.25
276.104	240.25
276.335	227.25
276.567	244.25
276.799	263.25
277.031	273.25
277.262	294.25
277.494	274.25
277.726	274.25
277.957	288.25
278.189	262.25
278.421	244.25
278.652	239.25
278.884	221.25
279.115	238.25
279.347	242.25
279.579	226.25
279.81	241.25
280.042	247.25
280.273	252.25
280.505	252.25
280.736	228.25
280.968	244.25
281.199	237.25
281.431	246.25
281.662	232.25
281.894	238.25
282.125	258.25
282.356	266.25
282.588	280.25
282.819	274.25
283.051	246.25
283.282	228.25
283.513	241.25
283.745	243.25
283.976	258.25
284.207	232.25
284.439	259.25
284.67	242.25
284.901	252.25
285.132	246.25
285.364	242.25
285.595	210.25
285.826	255.25
286.057	222.25
286.288	235.25
286.52	241.25
286.751	234.25
286.982	254.25
287.213	262.25
287.444	270.25
287.675	251.25
287.906	247.25
288.138	262.25
288.369	273.25
288.6	278.25
288.831	257.25
289.062	242.25
289.293	270.25
289.524	264.25
289.755	246.25
289.986	243.25
290.217	268.25
290.448	268.25
290.679	260.25
290.91	254.25
291.141	250.25
291.371	262.25
291.602	244.25
291.833	249.25
292.064	268.25
292.295	252.25
292.526	266.25
292.757	250.25
292.987	248.25
293.218	258.25
293.449	257.25
293.68	248.25
293.91	265.25
294.141	265.25
294.372	254.25
294.603	258.25
294.833	263.25
295.064	247.25
295.295	267.25
295.525	254.25
295.756	250.25
295.987	280.25
296.217	300.25
296.448	292.25
296.679	268.25
296.909	249.25
297.14	260.25
297.37	255.25
297.601	252.25
297.831	260.25
298.062	255.25
298.292	275.25
298.523	286.25
298.753	265.25
298.984	261.25
299.214	268.25
299.445	270.25
299.675	256.25
299.905	269.25
300.136	278.25
300.366	271.25
300.597	276.25
300.827	301.25
301.057	286.25
301.288	263.25
301.518	284.25
301.748	288.25
301.979	290.25
302.209	282.25
302.439	283.25
302.669	292.25
302.9	283.25
303.13	288.25
303.36	278.25
303.59	284.25
303.82	286.25
304.051	271.25
304.281	273.25
304.511	287.25
304.741	274.25
304.971	285.25
305.201	288.25
305.431	285.25
305.661	289.25
305.891	298.25
306.121	294.25
306.352	302.25
306.582	286.25
306.812	307.25
307.042	285.25
307.272	287.25
307.502	286.25
307.731	307.25
307.961	294.25
308.191	274.25
308.421	297.25
308.651	291.25
308.881	293.25
309.111	294.25
309.341	298.25
309.571	296.25
309.8	312.25
310.03	349.25
310.26	355.25
310.49	334.25
310.72	324.25
310.949	358.25
311.179	349.25
311.409	325.25
311.639	320.25
311.868	323.25
312.098	341.25
312.328	345.25
312.557	350.25
312.787	358.25
313.017	361.25
313.246	348.25
313.476	330.25
313.706	328.25
313.935	327.25
314.165	336.25
314.394	360.25
314.624	349.25
314.853	331.25
315.083	335.25
315.312	331.25
315.542	314.25
315.771	323.25
316.001	322.25
316.23	357.25
316.46	323.25
316.689	323.25
316.919	337.25
317.148	334.25
317.377	349.25
317.607	343.25
317.836	339.25
318.065	344.25
318.295	323.25
318.524	354.25
318.753	332.25
318.983	336.25
319.212	334.25
319.441	332.25
319.67	340.25
319.9	326.25
320.129	343.25
320.358	328.25
320.587	341.25
320.816	337.25
321.046	363.25
321.275	346.25
321.504	329.25
321.733	377.25
321.962	381.25
322.191	387.25
322.42	398.25
322.649	388.25
322.878	400.25
323.108	416.25
323.337	419.25
323.566	450.25
323.795	477.25
324.024	514.25
324.253	626.25
324.482	851.25
324.71	1346.25
324.939	1903.25
325.168	1620.25
325.397	870.25
325.626	603.25
325.855	512.25
326.084	463.25
326.313	452.25
326.542	434.25
326.77	500.25
326.999	578.25
327.228	776.25
327.457	1156.25
327.686	1406.25
327.914	963.25
328.143	654.25
328.372	559.25
328.6	548.25
328.829	515.25
329.058	531.25
329.287	520.25
329.515	486.25
329.744	455.25
329.972	454.25
330.201	471.25
330.43	501.25
330.658	542.25
330.887	512.25
331.115	559.25
331.344	466.25
331.572	426.25
331.801	444.25
332.03	445.25
332.258	421.25
332.486	413.25
332.715	405.25
332.943	402.25
333.172	383.25
333.4	375.25
333.629	401.25
333.857	420.25
334.085	410.25
334.314	444.25
334.542	452.25
334.771	484.25
334.999	446.25
335.227	422.25
335.455	382.25
335.684	388.25
335.912	386.25
336.14	379.25
336.369	382.25
336.597	389.25
336.825	387.25
337.053	386.25
337.281	412.25
337.51	386.25
337.738	403.25
337.966	404.25
338.194	387.25
338.422	383.25
338.65	387.25
338.878	351.25
339.106	383.25
339.334	382.25
339.562	374.25
339.79	375.25
340.018	393.25
340.246	394.25
340.474	385.25
340.702	388.25
340.93	378.25
341.158	371.25
341.386	382.25
341.614	381.25
341.842	382.25
342.07	381.25
342.298	374.25
342.526	385.25
342.754	349.25
342.981	378.25
343.209	355.25
343.437	379.25
343.665	368.25
343.893	386.25
344.12	380.25
344.348	380.25
344.576	380.25
344.804	388.25
345.031	384.25
345.259	387.25
345.487	386.25
345.714	391.25
345.942	383.25
346.17	374.25
346.397	367.25
346.625	375.25
346.853	384.25
347.08	367.25
347.308	394.25
347.535	390.25
347.763	384.25
347.99	400.25
348.218	386.25
348.445	394.25
348.673	381.25
348.9	368.25
349.128	388.25
349.355	350.25
349.583	379.25
349.81	378.25
350.037	366.25
350.265	363.25
350.492	363.25
350.72	372.25
350.947	375.25
351.174	382.25
351.402	397.25
351.629	404.25
351.856	388.25
352.083	394.25
352.311	390.25
352.538	391.25
352.765	388.25
352.992	398.25
353.22	363.25
353.447	378.25
353.674	364.25
353.901	365.25
354.128	342.25
354.355	331.25
354.583	344.25
354.81	365.25
355.037	341.25
355.264	335.25
355.491	362.25
355.718	352.25
355.945	346.25
356.172	357.25
356.399	360.25
356.626	354.25
356.853	356.25
357.08	349.25
357.307	376.25
357.534	347.25
357.761	351.25
357.988	364.25
358.215	379.25
358.441	346.25
358.668	364.25
358.895	355.25
359.122	344.25
359.349	380.25
359.576	391.25
359.802	405.25
360.029	426.25
360.256	439.25
360.483	412.25
360.709	401.25
360.936	395.25
361.163	391.25
361.39	397.25
361.616	388.25
361.843	386.25
362.07	393.25
362.296	399.25
362.523	388.25
362.749	392.25
362.976	373.25
363.203	365.25
363.429	382.25
363.656	396.25
363.882	383.25
364.109	366.25
364.335	352.25
364.562	382.25
364.788	370.25
365.015	367.25
365.241	369.25
365.468	370.25
365.694	387.25
365.92	382.25
366.147	382.25
366.373	362.25
366.599	347.25
366.826	367.25
367.052	364.25
367.278	367.25
367.505	398.25
367.731	392.25
367.957	379.25
368.184	369.25
368.41	394.25
368.636	396.25
368.862	407.25
369.089	393.25
369.315	366.25
369.541	376.25
369.767	373.25
369.993	380.25
370.219	375.25
370.445	380.25
370.672	353.25
370.898	370.25
371.124	361.25
371.35	380.25
371.576	369.25
371.802	376.25
372.028	351.25
372.254	369.25
372.48	365.25
372.706	371.25
372.932	381.25
373.158	376.25
373.384	380.25
373.61	383.25
373.835	371.25
374.061	376.25
374.287	364.25
374.513	368.25
374.739	403.25
374.965	387.25
375.191	376.25
375.416	372.25
375.642	376.25
375.868	390.25
376.094	371.25
376.319	371.25
376.545	366.25
376.771	382.25
376.997	374.25
377.222	377.25
377.448	367.25
377.674	378.25
377.899	363.25
378.125	383.25
378.35	378.25
378.576	377.25
378.802	372.25
379.027	380.25
379.253	387.25
379.478	390.25
379.704	380.25
379.929	373.25
380.155	383.25
380.38	385.25
380.606	375.25
380.831	402.25
381.057	390.25
381.282	380.25
381.507	363.25
381.733	392.25
381.958	380.25
382.184	387.25
382.409	383.25
382.634	402.25
382.86	379.25
383.085	380.25
383.31	394.25
383.535	400.25
383.761	394.25
383.986	377.25
384.211	395.25
384.436	391.25
384.662	390.25
384.887	398.25
385.112	399.25
385.337	404.25
385.562	400.25
385.787	417.25
386.013	433.25
386.238	403.25
386.463	438.25
386.688	423.25
386.913	412.25
387.138	403.25
387.363	418.25
387.588	413.25
387.813	414.25
388.038	389.25
388.263	409.25
388.488	394.25
388.713	399.25
388.938	415.25
389.163	407.25
389.387	409.25
389.612	411.25
389.837	419.25
390.062	395.25
390.287	402.25
390.512	385.25
390.736	398.25
390.961	411.25
391.186	397.25
391.411	410.25
391.636	415.25
391.86	416.25
392.085	410.25
392.31	405.25
392.534	411.25
392.759	425.25
392.984	431.25
393.208	425.25
393.433	434.25
393.658	424.25
393.882	404.25
394.107	405.25
394.331	411.25
394.556	418.25
394.78	399.25
395.005	419.25
395.229	413.25
395.454	416.25
395.678	425.25
395.903	433.25
396.127	449.25
396.352	450.25
396.576	445.25
396.801	435.25
397.025	440.25
397.249	438.25
397.474	448.25
397.698	429.25
397.922	432.25
398.147	465.25
398.371	446.25
398.595	446.25
398.82	451.25
399.044	459.25
399.268	484.25
399.492	500.25
399.717	503.25
399.941	544.25
400.165	553.25
400.389	531.25
400.613	524.25
400.837	487.25
401.062	483.25
401.286	497.25
401.51	458.25
401.734	458.25
401.958	460.25
402.182	468.25
402.406	487.25
402.63	492.25
402.854	481.25
403.078	458.25
403.302	482.25
403.526	492.25
403.75	483.25
403.974	495.25
404.198	465.25
404.422	481.25
404.645	492.25
404.869	470.25
405.093	530.25
405.317	546.25
405.541	583.25
405.765	556.25
405.988	504.25
406.212	508.25
406.436	558.25
406.66	559.25
406.883	513.25
407.107	550.25
407.331	574.25
407.555	632.25
407.778	632.25
408.002	591.25
408.226	538.25
408.449	541.25
408.673	511.25
408.896	547.25
409.12	602.25
409.344	572.25
409.567	479.25
409.791	497.25
410.014	496.25
410.238	484.25
410.461	506.25
410.685	475.25
410.908	522.25
411.132	537.25
411.355	578.25
411.578	546.25
411.802	518.25
412.025	492.25
412.249	498.25
412.472	509.25
412.695	543.25
412.919	527.25
413.142	497.25
413.365	491.25
413.589	454.25
413.812	467.25
414.035	471.25
414.258	491.25
414.482	470.25
414.705	464.25
414.928	454.25
415.151	464.25
415.374	486.25
415.597	481.25
415.821	442.25
416.044	450.25
416.267	484.25
416.49	460.25
416.713	468.25
416.936	458.25
417.159	474.25
417.382	477.25
417.605	511.25
417.828	489.25
418.051	488.25
418.274	492.25
418.497	481.25
418.72	489.25
418.943	459.25
419.166	486.25
419.389	502.25
419.611	497.25
419.834	483.25
420.057	483.25
420.28	481.25
420.503	485.25
420.726	488.25
420.948	497.25
421.171	532.25
421.394	582.25
421.617	531.25
421.839	487.25
422.062	473.25
422.285	504.25
422.507	574.25
422.73	638.25
422.953	622.25
423.175	553.25
423.398	528.25
423.621	514.25
423.843	544.25
424.066	548.25
424.288	519.25
424.511	542.25
424.733	588.25
424.956	674.25
425.178	646.25
425.401	638.25
425.623	669.25
425.846	572.25
426.068	552.25
426.291	538.25
426.513	543.25
426.735	521.25
426.958	610.25
427.18	666.25
427.402	775.25
427.625	830.25
427.847	758.25
428.069	675.25
428.292	600.25
428.514	566.25
428.736	510.25
428.958	502.25
429.181	499.25
429.403	495.25
429.625	519.25
429.847	547.25
430.069	608.25
430.292	607.25
430.514	537.25
430.736	506.25
430.958	504.25
431.18	482.25
431.402	474.25
431.624	481.25
431.846	466.25
432.068	448.25
432.29	475.25
432.512	457.25
432.734	477.25
432.956	488.25
433.178	488.25
433.4	478.25
433.622	497.25
433.844	457.25
434.066	457.25
434.287	477.25
434.509	489.25
434.731	483.25
434.953	504.25
435.175	519.25
435.397	520.25
435.618	545.25
435.84	589.25
436.062	674.25
436.284	721.25
436.505	631.25
436.727	566.25
436.949	536.25
437.17	497.25
437.392	510.25
437.614	516.25
437.835	556.25
438.057	647.25
438.278	715.25
438.5	735.25
438.721	794.25
438.943	776.25
439.165	624.25
439.386	588.25
439.608	572.25
439.829	564.25
440.05	576.25
440.272	620.25
440.493	582.25
440.715	565.25
440.936	527.25
441.158	500.25
441.379	503.25
441.6	509.25
441.822	537.25
442.043	581.25
442.264	670.25
442.486	680.25
442.707	604.25
442.928	568.25
443.149	575.25
443.371	576.25
443.592	620.25
443.813	699.25
444.034	756.25
444.255	642.25
444.476	590.25
444.698	543.25
444.919	528.25
445.14	655.25
445.361	604.25
445.582	588.25
445.803	641.25
446.024	734.25
446.245	729.25
446.466	658.25
446.687	594.25
446.908	550.25
447.129	510.25
447.35	519.25
447.571	514.25
447.792	488.25
448.013	504.25
448.234	537.25
448.455	607.25
448.675	656.25
448.896	775.25
449.117	656.25
449.338	658.25
449.559	728.25
449.779	819.25
450	672.25
450.221	572.25
450.442	514.25
450.662	524.25
450.883	507.25
451.104	529.25
451.324	507.25
451.545	465.25
451.766	476.25
451.986	471.25
452.207	458.25
452.428	433.25
452.648	446.25
452.869	463.25
453.089	459.25
453.31	489.25
453.53	450.25
453.751	445.25
453.971	444.25
454.192	464.25
454.412	452.25
454.633	458.25
454.853	450.25
455.073	439.25
455.294	482.25
455.514	545.25
455.734	521.25
455.955	455.25
456.175	414.25
456.395	438.25
456.616	431.25
456.836	406.25
457.056	433.25
457.276	403.25
457.497	436.25
457.717	435.25
457.937	431.25
458.157	458.25
458.377	440.25
458.598	442.25
458.818	527.25
459.038	594.25
459.258	595.25
459.478	528.25
459.698	484.25
459.918	454.25
460.138	464.25
460.358	459.25
460.578	481.25
460.798	474.25
461.018	473.25
461.238	447.25
461.458	456.25
461.678	456.25
461.898	491.25
462.118	444.25
462.338	474.25
462.558	467.25
462.777	483.25
462.997	497.25
463.217	487.25
463.437	499.25
463.657	484.25
463.876	501.25
464.096	484.25
464.316	480.25
464.536	514.25
464.755	507.25
464.975	482.25
465.195	563.25
465.414	630.25
465.634	533.25
465.854	513.25
466.073	475.25
466.293	482.25
466.512	459.25
466.732	474.25
466.951	455.25
467.171	441.25
467.391	472.25
467.61	472.25
467.829	495.25
468.049	462.25
468.268	473.25
468.488	463.25
468.707	459.25
468.927	460.25
469.146	437.25
469.365	446.25
469.585	434.25
469.804	468.25
470.023	470.25
470.243	475.25
470.462	477.25
470.681	478.25
470.901	492.25
471.12	476.25
471.339	460.25
471.558	469.25
471.777	479.25
471.997	464.25
472.216	488.25
472.435	523.25
472.654	484.25
472.873	468.25
473.092	456.25
473.311	464.25
473.53	472.25
473.749	482.25
473.968	533.25
474.187	618.25
474.406	627.25
474.625	535.25
474.844	512.25
475.063	461.25
475.282	495.25
475.501	500.25
475.72	480.25
475.939	474.25
476.158	460.25
476.377	499.25
476.596	481.25
476.814	499.25
477.033	508.25
477.252	489.25
477.471	508.25
477.69	512.25
477.908	514.25
478.127	542.25
478.346	505.25
478.564	531.25
478.783	516.25
479.002	549.25
479.22	531.25
479.439	556.25
479.658	557.25
479.876	572.25
480.095	592.25
480.313	611.25
480.532	584.25
480.751	574.25
480.969	596.25
481.188	624.25
481.406	648.25
481.624	602.25
481.843	548.25
482.061	557.25
482.28	557.25
482.498	574.25
482.717	561.25
482.935	591.25
483.153	568.25
483.372	567.25
483.59	547.25
483.808	588.25
484.027	563.25
484.245	566.25
484.463	572.25
484.681	579.25
484.9	574.25
485.118	576.25
485.336	591.25
485.554	586.25
485.772	580.25
485.99	585.25
486.209	583.25
486.427	580.25
486.645	591.25
486.863	608.25
487.081	631.25
487.299	630.25
487.517	643.25
487.735	614.25
487.953	624.25
488.171	605.25
488.389	604.25
488.607	622.25
488.825	615.25
489.043	614.25
489.261	646.25
489.479	618.25
489.696	627.25
489.914	631.25
490.132	632.25
490.35	638.25
490.568	644.25
490.786	637.25
491.003	661.25
491.221	705.25
491.439	715.25
491.657	690.25
491.874	723.25
492.092	716.25
492.31	705.25
492.527	733.25
492.745	717.25
492.963	737.25
493.18	717.25
493.398	731.25
493.615	748.25
493.833	726.25
494.05	755.25
494.268	724.25
494.485	730.25
494.703	754.25
494.92	739.25
495.138	742.25
495.355	736.25
495.573	729.25
495.79	726.25
496.008	740.25
496.225	739.25
496.442	724.25
496.66	736.25
496.877	732.25
497.094	767.25
497.312	746.25
497.529	733.25
497.746	776.25
497.963	762.25
498.181	796.25
498.398	783.25
498.615	792.25
498.832	774.25
499.049	794.25
499.267	832.25
499.484	851.25
499.701	895.25
499.918	849.25
500.135	873.25
500.352	919.25
500.569	926.25
500.786	931.25
501.003	927.25
501.22	908.25
501.437	903.25
501.654	916.25
501.871	889.25
502.088	846.25
