Data from 1970.PennyLincolnUp.Lamp.En5.5.200Scan.071719.P1._HRD10591_15-15-58-841.txt Node
Date: Thu Jul 18 15:15:58 EDT 2019
User: cochatt
Spectrometer: HR+D1059
Trigger mode: 1
Integration Time (sec): 1.000000E-1
Scans to average: 1
Electric dark correction enabled: true
Nonlinearity correction enabled: false
Boxcar width: 0
XAxis mode: Wavelengths
Number of Pixels in Spectrum: 2048
>>>>>Begin Spectral Data<<<<<
223.165	-9.31
223.4	-9.31
223.635	-9.31
223.869	-24.31
224.104	-9.31
224.338	-2.31
224.573	-31.31
224.808	-17.31
225.042	-5.31
225.277	-2.31
225.511	2.69
225.746	2.69
225.98	9.69
226.215	-4.31
226.449	16.69
226.683	14.69
226.918	25.69
227.152	33.69
227.387	21.69
227.621	42.69
227.856	42.69
228.09	46.69
228.324	50.69
228.559	48.69
228.793	65.69
229.027	109.69
229.262	111.69
229.496	125.69
229.73	151.69
229.964	170.69
230.199	150.69
230.433	122.69
230.667	118.69
230.901	127.69
231.136	104.69
231.37	107.69
231.604	118.69
231.838	119.69
232.072	109.69
232.306	135.69
232.541	129.69
232.775	130.69
233.009	125.69
233.243	119.69
233.477	100.69
233.711	136.69
233.945	119.69
234.179	105.69
234.413	122.69
234.647	129.69
234.881	123.69
235.115	139.69
235.349	128.69
235.583	127.69
235.817	129.69
236.051	152.69
236.285	146.69
236.519	139.69
236.753	145.69
236.987	161.69
237.221	201.69
237.455	269.69
237.689	202.69
237.922	159.69
238.156	144.69
238.39	133.69
238.624	140.69
238.858	142.69
239.091	137.69
239.325	151.69
239.559	141.69
239.793	130.69
240.027	140.69
240.26	161.69
240.494	151.69
240.728	158.69
240.961	157.69
241.195	157.69
241.429	162.69
241.662	139.69
241.896	156.69
242.13	149.69
242.363	140.69
242.597	139.69
242.83	146.69
243.064	149.69
243.298	149.69
243.531	155.69
243.765	163.69
243.998	136.69
244.232	153.69
244.465	147.69
244.699	157.69
244.932	161.69
245.166	151.69
245.399	144.69
245.633	140.69
245.866	152.69
246.099	150.69
246.333	164.69
246.566	166.69
246.8	161.69
247.033	149.69
247.266	168.69
247.5	187.69
247.733	174.69
247.966	196.69
248.2	177.69
248.433	178.69
248.666	197.69
248.899	206.69
249.133	220.69
249.366	245.69
249.599	203.69
249.832	185.69
250.066	197.69
250.299	211.69
250.532	209.69
250.765	222.69
250.998	249.69
251.231	271.69
251.465	249.69
251.698	229.69
251.931	227.69
252.164	231.69
252.397	241.69
252.63	243.69
252.863	228.69
253.096	239.69
253.329	257.69
253.562	243.69
253.795	244.69
254.028	239.69
254.261	232.69
254.494	259.69
254.727	280.69
254.96	306.69
255.193	321.69
255.426	293.69
255.659	273.69
255.892	249.69
256.124	251.69
256.357	269.69
256.59	266.69
256.823	250.69
257.056	239.69
257.289	236.69
257.521	242.69
257.754	243.69
257.987	237.69
258.22	228.69
258.452	236.69
258.685	211.69
258.918	218.69
259.151	232.69
259.383	221.69
259.616	237.69
259.849	259.69
260.081	243.69
260.314	273.69
260.547	291.69
260.779	264.69
261.012	271.69
261.244	268.69
261.477	269.69
261.71	270.69
261.942	257.69
262.175	264.69
262.407	247.69
262.64	221.69
262.872	227.69
263.105	236.69
263.337	235.69
263.57	239.69
263.802	237.69
264.035	216.69
264.267	217.69
264.499	211.69
264.732	229.69
264.964	212.69
265.197	234.69
265.429	233.69
265.661	217.69
265.894	226.69
266.126	235.69
266.358	215.69
266.591	221.69
266.823	225.69
267.055	238.69
267.287	229.69
267.52	241.69
267.752	245.69
267.984	228.69
268.216	225.69
268.448	242.69
268.681	267.69
268.913	280.69
269.145	282.69
269.377	287.69
269.609	298.69
269.841	294.69
270.073	297.69
270.306	314.69
270.538	327.69
270.77	354.69
271.002	321.69
271.234	329.69
271.466	323.69
271.698	337.69
271.93	325.69
272.162	341.69
272.394	345.69
272.626	321.69
272.858	308.69
273.09	312.69
273.322	274.69
273.553	282.69
273.785	269.69
274.017	281.69
274.249	289.69
274.481	281.69
274.713	287.69
274.945	278.69
275.176	286.69
275.408	291.69
275.64	270.69
275.872	273.69
276.104	261.69
276.335	270.69
276.567	283.69
276.799	299.69
277.031	313.69
277.262	350.69
277.494	322.69
277.726	325.69
277.957	319.69
278.189	293.69
278.421	288.69
278.652	278.69
278.884	271.69
279.115	270.69
279.347	278.69
279.579	272.69
279.81	267.69
280.042	266.69
280.273	268.69
280.505	271.69
280.736	273.69
280.968	279.69
281.199	261.69
281.431	260.69
281.662	262.69
281.894	283.69
282.125	270.69
282.356	294.69
282.588	319.69
282.819	317.69
283.051	283.69
283.282	286.69
283.513	283.69
283.745	278.69
283.976	252.69
284.207	282.69
284.439	280.69
284.67	286.69
284.901	271.69
285.132	287.69
285.364	273.69
285.595	274.69
285.826	270.69
286.057	268.69
286.288	283.69
286.52	299.69
286.751	265.69
286.982	288.69
287.213	288.69
287.444	268.69
287.675	254.69
287.906	289.69
288.138	310.69
288.369	307.69
288.6	305.69
288.831	268.69
289.062	299.69
289.293	285.69
289.524	306.69
289.755	293.69
289.986	284.69
290.217	296.69
290.448	294.69
290.679	293.69
290.91	285.69
291.141	274.69
291.371	284.69
291.602	282.69
291.833	284.69
292.064	267.69
292.295	294.69
292.526	291.69
292.757	278.69
292.987	281.69
293.218	296.69
293.449	277.69
293.68	296.69
293.91	285.69
294.141	290.69
294.372	292.69
294.603	289.69
294.833	310.69
295.064	273.69
295.295	285.69
295.525	289.69
295.756	283.69
295.987	319.69
296.217	327.69
296.448	342.69
296.679	318.69
296.909	282.69
297.14	297.69
297.37	306.69
297.601	297.69
297.831	297.69
298.062	282.69
298.292	309.69
298.523	313.69
298.753	306.69
298.984	298.69
299.214	305.69
299.445	298.69
299.675	287.69
299.905	314.69
300.136	315.69
300.366	308.69
300.597	312.69
300.827	316.69
301.057	317.69
301.288	339.69
301.518	327.69
301.748	311.69
301.979	330.69
302.209	309.69
302.439	319.69
302.669	327.69
302.9	314.69
303.13	324.69
303.36	328.69
303.59	341.69
303.82	347.69
304.051	355.69
304.281	326.69
304.511	316.69
304.741	341.69
304.971	330.69
305.201	333.69
305.431	311.69
305.661	332.69
305.891	315.69
306.121	333.69
306.352	348.69
306.582	352.69
306.812	322.69
307.042	339.69
307.272	321.69
307.502	329.69
307.731	345.69
307.961	321.69
308.191	346.69
308.421	328.69
308.651	348.69
308.881	342.69
309.111	330.69
309.341	347.69
309.571	374.69
309.8	385.69
310.03	387.69
310.26	392.69
310.49	386.69
310.72	390.69
310.949	397.69
311.179	413.69
311.409	394.69
311.639	382.69
311.868	401.69
312.098	377.69
312.328	412.69
312.557	425.69
312.787	431.69
313.017	441.69
313.246	413.69
313.476	387.69
313.706	392.69
313.935	406.69
314.165	418.69
314.394	410.69
314.624	425.69
314.853	421.69
315.083	407.69
315.312	399.69
315.542	356.69
315.771	389.69
316.001	383.69
316.23	375.69
316.46	380.69
316.689	387.69
316.919	390.69
317.148	416.69
317.377	408.69
317.607	418.69
317.836	391.69
318.065	375.69
318.295	390.69
318.524	394.69
318.753	379.69
318.983	385.69
319.212	391.69
319.441	396.69
319.67	393.69
319.9	386.69
320.129	387.69
320.358	407.69
320.587	390.69
320.816	410.69
321.046	408.69
321.275	395.69
321.504	421.69
321.733	407.69
321.962	421.69
322.191	439.69
322.42	463.69
322.649	492.69
322.878	490.69
323.108	482.69
323.337	530.69
323.566	557.69
323.795	592.69
324.024	643.69
324.253	801.69
324.482	1140.69
324.71	1735.69
324.939	2461.69
325.168	2155.69
325.397	1161.69
325.626	757.69
325.855	660.69
326.084	571.69
326.313	561.69
326.542	579.69
326.77	627.69
326.999	717.69
327.228	1010.69
327.457	1517.69
327.686	1843.69
327.914	1282.69
328.143	844.69
328.372	740.69
328.6	673.69
328.829	627.69
329.058	660.69
329.287	670.69
329.515	618.69
329.744	586.69
329.972	565.69
330.201	599.69
330.43	651.69
330.658	666.69
330.887	726.69
331.115	688.69
331.344	564.69
331.572	527.69
331.801	546.69
332.03	522.69
332.258	505.69
332.486	477.69
332.715	472.69
332.943	469.69
333.172	467.69
333.4	472.69
333.629	490.69
333.857	496.69
334.085	491.69
334.314	508.69
334.542	571.69
334.771	598.69
334.999	539.69
335.227	484.69
335.455	471.69
335.684	462.69
335.912	448.69
336.14	447.69
336.369	455.69
336.597	464.69
336.825	468.69
337.053	466.69
337.281	444.69
337.51	431.69
337.738	439.69
337.966	432.69
338.194	451.69
338.422	467.69
338.65	475.69
338.878	447.69
339.106	451.69
339.334	446.69
339.562	452.69
339.79	445.69
340.018	434.69
340.246	439.69
340.474	439.69
340.702	470.69
340.93	434.69
341.158	430.69
341.386	441.69
341.614	441.69
341.842	466.69
342.07	451.69
342.298	440.69
342.526	429.69
342.754	431.69
342.981	421.69
343.209	411.69
343.437	438.69
343.665	435.69
343.893	430.69
344.12	430.69
344.348	448.69
344.576	441.69
344.804	444.69
345.031	470.69
345.259	461.69
345.487	450.69
345.714	431.69
345.942	440.69
346.17	452.69
346.397	423.69
346.625	443.69
346.853	438.69
347.08	420.69
347.308	450.69
347.535	436.69
347.763	445.69
347.99	462.69
348.218	452.69
348.445	442.69
348.673	463.69
348.9	440.69
349.128	433.69
349.355	427.69
349.583	439.69
349.81	427.69
350.037	437.69
350.265	418.69
350.492	419.69
350.72	409.69
350.947	430.69
351.174	433.69
351.402	442.69
351.629	448.69
351.856	445.69
352.083	447.69
352.311	470.69
352.538	451.69
352.765	457.69
352.992	469.69
353.22	474.69
353.447	450.69
353.674	443.69
353.901	425.69
354.128	423.69
354.355	402.69
354.583	424.69
354.81	412.69
355.037	402.69
355.264	403.69
355.491	408.69
355.718	396.69
355.945	377.69
356.172	391.69
356.399	403.69
356.626	386.69
356.853	402.69
357.08	393.69
357.307	405.69
357.534	392.69
357.761	406.69
357.988	390.69
358.215	409.69
358.441	417.69
358.668	413.69
358.895	409.69
359.122	403.69
359.349	443.69
359.576	443.69
359.802	453.69
360.029	498.69
360.256	492.69
360.483	495.69
360.709	451.69
360.936	447.69
361.163	449.69
361.39	456.69
361.616	443.69
361.843	438.69
362.07	433.69
362.296	432.69
362.523	449.69
362.749	440.69
362.976	442.69
363.203	422.69
363.429	426.69
363.656	405.69
363.882	393.69
364.109	419.69
364.335	417.69
364.562	419.69
364.788	403.69
365.015	417.69
365.241	439.69
365.468	419.69
365.694	437.69
365.92	435.69
366.147	418.69
366.373	434.69
366.599	415.69
366.826	413.69
367.052	429.69
367.278	424.69
367.505	409.69
367.731	418.69
367.957	414.69
368.184	410.69
368.41	434.69
368.636	445.69
368.862	463.69
369.089	457.69
369.315	436.69
369.541	433.69
369.767	427.69
369.993	441.69
370.219	419.69
370.445	409.69
370.672	395.69
370.898	422.69
371.124	424.69
371.35	419.69
371.576	399.69
371.802	420.69
372.028	399.69
372.254	417.69
372.48	415.69
372.706	434.69
372.932	419.69
373.158	418.69
373.384	424.69
373.61	423.69
373.835	417.69
374.061	419.69
374.287	421.69
374.513	412.69
374.739	420.69
374.965	441.69
375.191	442.69
375.416	416.69
375.642	406.69
375.868	430.69
376.094	421.69
376.319	422.69
376.545	409.69
376.771	400.69
376.997	413.69
377.222	409.69
377.448	427.69
377.674	427.69
377.899	412.69
378.125	424.69
378.35	413.69
378.576	418.69
378.802	406.69
379.027	410.69
379.253	419.69
379.478	407.69
379.704	416.69
379.929	421.69
380.155	431.69
380.38	421.69
380.606	414.69
380.831	423.69
381.057	427.69
381.282	427.69
381.507	415.69
381.733	420.69
381.958	425.69
382.184	416.69
382.409	429.69
382.634	449.69
382.86	417.69
383.085	439.69
383.31	451.69
383.535	425.69
383.761	440.69
383.986	442.69
384.211	436.69
384.436	444.69
384.662	427.69
384.887	449.69
385.112	454.69
385.337	445.69
385.562	454.69
385.787	442.69
386.013	449.69
386.238	455.69
386.463	458.69
386.688	453.69
386.913	458.69
387.138	441.69
387.363	454.69
387.588	450.69
387.813	458.69
388.038	441.69
388.263	446.69
388.488	460.69
388.713	458.69
388.938	461.69
389.163	450.69
389.387	459.69
389.612	458.69
389.837	414.69
390.062	435.69
390.287	446.69
390.512	436.69
390.736	439.69
390.961	445.69
391.186	445.69
391.411	461.69
391.636	459.69
391.86	474.69
392.085	468.69
392.31	442.69
392.534	451.69
392.759	453.69
392.984	447.69
393.208	447.69
393.433	447.69
393.658	453.69
393.882	442.69
394.107	475.69
394.331	449.69
394.556	446.69
394.78	436.69
395.005	454.69
395.229	475.69
395.454	488.69
395.678	471.69
395.903	480.69
396.127	494.69
396.352	506.69
396.576	499.69
396.801	463.69
397.025	486.69
397.249	473.69
397.474	481.69
397.698	459.69
397.922	494.69
398.147	528.69
398.371	522.69
398.595	509.69
398.82	491.69
399.044	510.69
399.268	521.69
399.492	532.69
399.717	558.69
399.941	589.69
400.165	616.69
400.389	636.69
400.613	593.69
400.837	550.69
401.062	537.69
401.286	523.69
401.51	518.69
401.734	526.69
401.958	522.69
402.182	528.69
402.406	541.69
402.63	563.69
402.854	515.69
403.078	534.69
403.302	534.69
403.526	552.69
403.75	532.69
403.974	529.69
404.198	523.69
404.422	543.69
404.645	533.69
404.869	533.69
405.093	602.69
405.317	627.69
405.541	649.69
405.765	598.69
405.988	575.69
406.212	614.69
406.436	622.69
406.66	627.69
406.883	607.69
407.107	616.69
407.331	637.69
407.555	719.69
407.778	718.69
408.002	652.69
408.226	581.69
408.449	621.69
408.673	627.69
408.896	637.69
409.12	674.69
409.344	652.69
409.567	578.69
409.791	571.69
410.014	537.69
410.238	532.69
410.461	541.69
410.685	560.69
410.908	583.69
411.132	606.69
411.355	647.69
411.578	617.69
411.802	563.69
412.025	563.69
412.249	570.69
412.472	590.69
412.695	636.69
412.919	621.69
413.142	571.69
413.365	540.69
413.589	553.69
413.812	559.69
414.035	524.69
414.258	510.69
414.482	494.69
414.705	519.69
414.928	518.69
415.151	531.69
415.374	517.69
415.597	519.69
415.821	514.69
416.044	526.69
416.267	553.69
416.49	517.69
416.713	519.69
416.936	508.69
417.159	525.69
417.382	537.69
417.605	519.69
417.828	526.69
418.051	546.69
418.274	539.69
418.497	510.69
418.72	519.69
418.943	520.69
419.166	538.69
419.389	563.69
419.611	563.69
419.834	557.69
420.057	562.69
420.28	567.69
420.503	556.69
420.726	537.69
420.948	569.69
421.171	621.69
421.394	662.69
421.617	592.69
421.839	527.69
422.062	569.69
422.285	581.69
422.507	629.69
422.73	719.69
422.953	705.69
423.175	602.69
423.398	594.69
423.621	581.69
423.843	606.69
424.066	600.69
424.288	612.69
424.511	606.69
424.733	691.69
424.956	761.69
425.178	757.69
425.401	719.69
425.623	771.69
425.846	669.69
426.068	616.69
426.291	625.69
426.513	597.69
426.735	631.69
426.958	693.69
427.18	762.69
427.402	903.69
427.625	978.69
427.847	892.69
428.069	785.69
428.292	686.69
428.514	651.69
428.736	615.69
428.958	595.69
429.181	574.69
429.403	573.69
429.625	575.69
429.847	600.69
430.069	698.69
430.292	697.69
430.514	611.69
430.736	588.69
430.958	554.69
431.18	569.69
431.402	546.69
431.624	538.69
431.846	531.69
432.068	534.69
432.29	540.69
432.512	530.69
432.734	540.69
432.956	539.69
433.178	557.69
433.4	541.69
433.622	547.69
433.844	534.69
434.066	521.69
434.287	545.69
434.509	537.69
434.731	527.69
434.953	558.69
435.175	572.69
435.397	591.69
435.618	621.69
435.84	651.69
436.062	740.69
436.284	825.69
436.505	710.69
436.727	634.69
436.949	573.69
437.17	581.69
437.392	558.69
437.614	618.69
437.835	638.69
438.057	733.69
438.278	875.69
438.5	862.69
438.721	926.69
438.943	863.69
439.165	730.69
439.386	678.69
439.608	645.69
439.829	628.69
440.05	683.69
440.272	727.69
440.493	665.69
440.715	616.69
440.936	589.69
441.158	575.69
441.379	591.69
441.6	590.69
441.822	626.69
442.043	686.69
442.264	767.69
442.486	804.69
442.707	669.69
442.928	639.69
443.149	659.69
443.371	650.69
443.592	702.69
443.813	823.69
444.034	879.69
444.255	731.69
444.476	647.69
444.698	602.69
444.919	607.69
445.14	752.69
445.361	701.69
445.582	698.69
445.803	723.69
446.024	831.69
446.245	856.69
446.466	773.69
446.687	673.69
446.908	633.69
447.129	601.69
447.35	580.69
447.571	577.69
447.792	588.69
448.013	585.69
448.234	597.69
448.455	675.69
448.675	774.69
448.896	891.69
449.117	781.69
449.338	744.69
449.559	833.69
449.779	926.69
450	761.69
450.221	647.69
450.442	596.69
450.662	593.69
450.883	578.69
451.104	614.69
451.324	591.69
451.545	558.69
451.766	539.69
451.986	509.69
452.207	531.69
452.428	531.69
452.648	501.69
452.869	529.69
453.089	545.69
453.31	563.69
453.53	509.69
453.751	499.69
453.971	545.69
454.192	531.69
454.412	544.69
454.633	512.69
454.853	511.69
455.073	518.69
455.294	541.69
455.514	632.69
455.734	627.69
455.955	530.69
456.175	508.69
456.395	475.69
456.616	484.69
456.836	505.69
457.056	470.69
457.276	484.69
457.497	474.69
457.717	477.69
457.937	468.69
458.157	493.69
458.377	528.69
458.598	535.69
458.818	592.69
459.038	709.69
459.258	726.69
459.478	613.69
459.698	543.69
459.918	519.69
460.138	517.69
460.358	530.69
460.578	510.69
460.798	535.69
461.018	534.69
461.238	516.69
461.458	545.69
461.678	533.69
461.898	521.69
462.118	500.69
462.338	539.69
462.558	537.69
462.777	545.69
462.997	556.69
463.217	546.69
463.437	580.69
463.657	532.69
463.876	538.69
464.096	538.69
464.316	549.69
464.536	587.69
464.755	581.69
464.975	558.69
465.195	640.69
465.414	753.69
465.634	638.69
465.854	600.69
466.073	559.69
466.293	556.69
466.512	517.69
466.732	537.69
466.951	524.69
467.171	522.69
467.391	543.69
467.61	538.69
467.829	555.69
468.049	546.69
468.268	549.69
468.488	516.69
468.707	517.69
468.927	528.69
469.146	491.69
469.365	513.69
469.585	495.69
469.804	559.69
470.023	528.69
470.243	539.69
470.462	544.69
470.681	559.69
470.901	557.69
471.12	545.69
471.339	524.69
471.558	550.69
471.777	519.69
471.997	545.69
472.216	522.69
472.435	614.69
472.654	578.69
472.873	543.69
473.092	547.69
473.311	527.69
473.53	550.69
473.749	546.69
473.968	590.69
474.187	730.69
474.406	745.69
474.625	613.69
474.844	576.69
475.063	573.69
475.282	550.69
475.501	546.69
475.72	549.69
475.939	558.69
476.158	552.69
476.377	549.69
476.596	543.69
476.814	563.69
477.033	580.69
477.252	562.69
477.471	581.69
477.69	580.69
477.908	570.69
478.127	580.69
478.346	572.69
478.564	616.69
478.783	621.69
479.002	606.69
479.22	607.69
479.439	602.69
479.658	628.69
479.876	684.69
480.095	668.69
480.313	675.69
480.532	657.69
480.751	661.69
480.969	673.69
481.188	769.69
481.406	802.69
481.624	681.69
481.843	673.69
482.061	653.69
482.28	647.69
482.498	660.69
482.717	639.69
482.935	643.69
483.153	639.69
483.372	668.69
483.59	623.69
483.808	636.69
484.027	645.69
484.245	656.69
484.463	630.69
484.681	655.69
484.9	658.69
485.118	653.69
485.336	638.69
485.554	655.69
485.772	674.69
485.99	686.69
486.209	670.69
486.427	660.69
486.645	678.69
486.863	674.69
487.081	721.69
487.299	679.69
487.517	699.69
487.735	713.69
487.953	722.69
488.171	703.69
488.389	701.69
488.607	713.69
488.825	716.69
489.043	696.69
489.261	700.69
489.479	704.69
489.696	711.69
489.914	712.69
490.132	730.69
490.35	745.69
490.568	743.69
490.786	750.69
491.003	750.69
491.221	787.69
491.439	771.69
491.657	793.69
491.874	831.69
492.092	836.69
492.31	820.69
492.527	802.69
492.745	794.69
492.963	843.69
493.18	826.69
493.398	854.69
493.615	863.69
493.833	833.69
494.05	858.69
494.268	819.69
494.485	828.69
494.703	839.69
494.92	854.69
495.138	846.69
495.355	840.69
495.573	867.69
495.79	865.69
496.008	845.69
496.225	860.69
496.442	843.69
496.66	854.69
496.877	837.69
497.094	837.69
497.312	866.69
497.529	828.69
497.746	862.69
497.963	901.69
498.181	860.69
498.398	883.69
498.615	897.69
498.832	916.69
499.049	889.69
499.267	931.69
499.484	934.69
499.701	963.69
499.918	989.69
500.135	999.69
500.352	1012.69
500.569	1030.69
500.786	1050.69
501.003	1009.69
501.22	1018.69
501.437	971.69
501.654	990.69
501.871	970.69
