Data from 1970.PennyLincolnUp.Lamp.En5.5.200Scan.071719.P1._HRD10591_15-15-01-841.txt Node
Date: Thu Jul 18 15:15:01 EDT 2019
User: cochatt
Spectrometer: HR+D1059
Trigger mode: 1
Integration Time (sec): 1.000000E-1
Scans to average: 1
Electric dark correction enabled: true
Nonlinearity correction enabled: false
Boxcar width: 0
XAxis mode: Wavelengths
Number of Pixels in Spectrum: 2048
>>>>>Begin Spectral Data<<<<<
223.165	-11.75
223.4	-11.75
223.635	-11.75
223.869	-4.75
224.104	-16.75
224.338	-24.75
224.573	-9.75
224.808	-9.75
225.042	0.25
225.277	-0.75
225.511	-7.75
225.746	5.25
225.98	6.25
226.215	-0.75
226.449	3.25
226.683	22.25
226.918	29.25
227.152	20.25
227.387	31.25
227.621	35.25
227.856	39.25
228.09	47.25
228.324	53.25
228.559	66.25
228.793	82.25
229.027	114.25
229.262	118.25
229.496	145.25
229.73	152.25
229.964	176.25
230.199	134.25
230.433	114.25
230.667	137.25
230.901	120.25
231.136	128.25
231.37	131.25
231.604	125.25
231.838	120.25
232.072	99.25
232.306	111.25
232.541	116.25
232.775	128.25
233.009	121.25
233.243	126.25
233.477	105.25
233.711	130.25
233.945	114.25
234.179	118.25
234.413	116.25
234.647	121.25
234.881	134.25
235.115	127.25
235.349	127.25
235.583	112.25
235.817	134.25
236.051	133.25
236.285	139.25
236.519	138.25
236.753	157.25
236.987	165.25
237.221	202.25
237.455	262.25
237.689	204.25
237.922	150.25
238.156	148.25
238.39	149.25
238.624	137.25
238.858	128.25
239.091	130.25
239.325	128.25
239.559	127.25
239.793	128.25
240.027	151.25
240.26	162.25
240.494	180.25
240.728	169.25
240.961	158.25
241.195	141.25
241.429	160.25
241.662	135.25
241.896	160.25
242.13	146.25
242.363	150.25
242.597	152.25
242.83	163.25
243.064	151.25
243.298	147.25
243.531	152.25
243.765	136.25
243.998	150.25
244.232	159.25
244.465	152.25
244.699	145.25
244.932	159.25
245.166	162.25
245.399	154.25
245.633	157.25
245.866	154.25
246.099	153.25
246.333	143.25
246.566	164.25
246.8	173.25
247.033	176.25
247.266	178.25
247.5	182.25
247.733	182.25
247.966	182.25
248.2	195.25
248.433	186.25
248.666	208.25
248.899	210.25
249.133	221.25
249.366	240.25
249.599	237.25
249.832	198.25
250.066	222.25
250.299	202.25
250.532	221.25
250.765	219.25
250.998	268.25
251.231	258.25
251.465	253.25
251.698	236.25
251.931	225.25
252.164	226.25
252.397	233.25
252.63	227.25
252.863	212.25
253.096	239.25
253.329	254.25
253.562	255.25
253.795	261.25
254.028	249.25
254.261	247.25
254.494	264.25
254.727	294.25
254.96	318.25
255.193	295.25
255.426	291.25
255.659	286.25
255.892	278.25
256.124	274.25
256.357	273.25
256.59	261.25
256.823	243.25
257.056	247.25
257.289	229.25
257.521	237.25
257.754	236.25
257.987	239.25
258.22	223.25
258.452	212.25
258.685	234.25
258.918	246.25
259.151	235.25
259.383	238.25
259.616	241.25
259.849	235.25
260.081	269.25
260.314	293.25
260.547	283.25
260.779	286.25
261.012	265.25
261.244	246.25
261.477	247.25
261.71	247.25
261.942	245.25
262.175	270.25
262.407	260.25
262.64	237.25
262.872	240.25
263.105	228.25
263.337	236.25
263.57	235.25
263.802	236.25
264.035	235.25
264.267	214.25
264.499	226.25
264.732	230.25
264.964	248.25
265.197	232.25
265.429	228.25
265.661	229.25
265.894	227.25
266.126	226.25
266.358	223.25
266.591	225.25
266.823	235.25
267.055	239.25
267.287	255.25
267.52	225.25
267.752	258.25
267.984	246.25
268.216	239.25
268.448	256.25
268.681	239.25
268.913	271.25
269.145	269.25
269.377	298.25
269.609	283.25
269.841	312.25
270.073	298.25
270.306	318.25
270.538	341.25
270.77	355.25
271.002	348.25
271.234	315.25
271.466	333.25
271.698	344.25
271.93	361.25
272.162	347.25
272.394	346.25
272.626	339.25
272.858	319.25
273.09	301.25
273.322	292.25
273.553	280.25
273.785	295.25
274.017	282.25
274.249	298.25
274.481	268.25
274.713	282.25
274.945	296.25
275.176	278.25
275.408	305.25
275.64	295.25
275.872	284.25
276.104	285.25
276.335	282.25
276.567	291.25
276.799	307.25
277.031	316.25
277.262	336.25
277.494	337.25
277.726	329.25
277.957	301.25
278.189	312.25
278.421	291.25
278.652	294.25
278.884	288.25
279.115	271.25
279.347	258.25
279.579	279.25
279.81	281.25
280.042	280.25
280.273	299.25
280.505	274.25
280.736	268.25
280.968	289.25
281.199	266.25
281.431	281.25
281.662	261.25
281.894	262.25
282.125	291.25
282.356	280.25
282.588	321.25
282.819	320.25
283.051	278.25
283.282	288.25
283.513	286.25
283.745	290.25
283.976	278.25
284.207	310.25
284.439	287.25
284.67	271.25
284.901	276.25
285.132	273.25
285.364	277.25
285.595	277.25
285.826	281.25
286.057	291.25
286.288	309.25
286.52	288.25
286.751	298.25
286.982	275.25
287.213	282.25
287.444	283.25
287.675	293.25
287.906	310.25
288.138	296.25
288.369	320.25
288.6	322.25
288.831	294.25
289.062	300.25
289.293	294.25
289.524	298.25
289.755	308.25
289.986	284.25
290.217	300.25
290.448	296.25
290.679	285.25
290.91	281.25
291.141	285.25
291.371	285.25
291.602	287.25
291.833	287.25
292.064	273.25
292.295	292.25
292.526	287.25
292.757	290.25
292.987	310.25
293.218	293.25
293.449	284.25
293.68	298.25
293.91	285.25
294.141	296.25
294.372	302.25
294.603	297.25
294.833	295.25
295.064	313.25
295.295	287.25
295.525	302.25
295.756	323.25
295.987	297.25
296.217	354.25
296.448	356.25
296.679	321.25
296.909	310.25
297.14	291.25
297.37	314.25
297.601	306.25
297.831	298.25
298.062	323.25
298.292	290.25
298.523	298.25
298.753	312.25
298.984	298.25
299.214	311.25
299.445	306.25
299.675	327.25
299.905	326.25
300.136	325.25
300.366	322.25
300.597	323.25
300.827	314.25
301.057	328.25
301.288	325.25
301.518	331.25
301.748	330.25
301.979	326.25
302.209	330.25
302.439	336.25
302.669	315.25
302.9	322.25
303.13	325.25
303.36	335.25
303.59	351.25
303.82	349.25
304.051	344.25
304.281	334.25
304.511	321.25
304.741	317.25
304.971	309.25
305.201	325.25
305.431	340.25
305.661	306.25
305.891	346.25
306.121	364.25
306.352	347.25
306.582	349.25
306.812	344.25
307.042	345.25
307.272	333.25
307.502	333.25
307.731	346.25
307.961	344.25
308.191	333.25
308.421	345.25
308.651	353.25
308.881	367.25
309.111	368.25
309.341	363.25
309.571	372.25
309.8	386.25
310.03	381.25
310.26	384.25
310.49	394.25
310.72	402.25
310.949	419.25
311.179	431.25
311.409	404.25
311.639	392.25
311.868	409.25
312.098	408.25
312.328	397.25
312.557	425.25
312.787	442.25
313.017	434.25
313.246	435.25
313.476	392.25
313.706	405.25
313.935	395.25
314.165	407.25
314.394	434.25
314.624	442.25
314.853	398.25
315.083	396.25
315.312	392.25
315.542	375.25
315.771	388.25
316.001	406.25
316.23	386.25
316.46	382.25
316.689	395.25
316.919	384.25
317.148	413.25
317.377	420.25
317.607	400.25
317.836	398.25
318.065	421.25
318.295	401.25
318.524	410.25
318.753	380.25
318.983	394.25
319.212	401.25
319.441	405.25
319.67	398.25
319.9	411.25
320.129	404.25
320.358	408.25
320.587	418.25
320.816	416.25
321.046	418.25
321.275	429.25
321.504	408.25
321.733	448.25
321.962	437.25
322.191	436.25
322.42	463.25
322.649	501.25
322.878	492.25
323.108	512.25
323.337	538.25
323.566	552.25
323.795	584.25
324.024	676.25
324.253	792.25
324.482	1182.25
324.71	1778.25
324.939	2543.25
325.168	2210.25
325.397	1160.25
325.626	780.25
325.855	651.25
326.084	579.25
326.313	576.25
326.542	569.25
326.77	647.25
326.999	758.25
327.228	1040.25
327.457	1563.25
327.686	1926.25
327.914	1299.25
328.143	863.25
328.372	734.25
328.6	684.25
328.829	640.25
329.058	644.25
329.287	672.25
329.515	618.25
329.744	605.25
329.972	576.25
330.201	618.25
330.43	653.25
330.658	682.25
330.887	704.25
331.115	670.25
331.344	584.25
331.572	543.25
331.801	544.25
332.03	533.25
332.258	500.25
332.486	489.25
332.715	480.25
332.943	471.25
333.172	502.25
333.4	488.25
333.629	489.25
333.857	497.25
334.085	526.25
334.314	527.25
334.542	573.25
334.771	586.25
334.999	547.25
335.227	504.25
335.455	488.25
335.684	503.25
335.912	466.25
336.14	468.25
336.369	451.25
336.597	453.25
336.825	487.25
337.053	451.25
337.281	436.25
337.51	458.25
337.738	439.25
337.966	455.25
338.194	492.25
338.422	473.25
338.65	448.25
338.878	454.25
339.106	430.25
339.334	440.25
339.562	427.25
339.79	454.25
340.018	457.25
340.246	469.25
340.474	468.25
340.702	434.25
340.93	465.25
341.158	447.25
341.386	441.25
341.614	456.25
341.842	460.25
342.07	442.25
342.298	442.25
342.526	407.25
342.754	427.25
342.981	441.25
343.209	428.25
343.437	436.25
343.665	444.25
343.893	432.25
344.12	457.25
344.348	438.25
344.576	450.25
344.804	459.25
345.031	458.25
345.259	483.25
345.487	490.25
345.714	465.25
345.942	439.25
346.17	451.25
346.397	449.25
346.625	456.25
346.853	429.25
347.08	424.25
347.308	457.25
347.535	448.25
347.763	453.25
347.99	468.25
348.218	452.25
348.445	447.25
348.673	457.25
348.9	449.25
349.128	462.25
349.355	435.25
349.583	414.25
349.81	433.25
350.037	414.25
350.265	429.25
350.492	421.25
350.72	410.25
350.947	437.25
351.174	468.25
351.402	453.25
351.629	466.25
351.856	452.25
352.083	491.25
352.311	463.25
352.538	502.25
352.765	489.25
352.992	469.25
353.22	444.25
353.447	443.25
353.674	448.25
353.901	434.25
354.128	420.25
354.355	415.25
354.583	420.25
354.81	413.25
355.037	415.25
355.264	438.25
355.491	396.25
355.718	416.25
355.945	423.25
356.172	406.25
356.399	392.25
356.626	413.25
356.853	430.25
357.08	411.25
357.307	418.25
357.534	404.25
357.761	428.25
357.988	399.25
358.215	403.25
358.441	411.25
358.668	426.25
358.895	433.25
359.122	425.25
359.349	436.25
359.576	468.25
359.802	491.25
360.029	505.25
360.256	528.25
360.483	493.25
360.709	474.25
360.936	440.25
361.163	454.25
361.39	441.25
361.616	454.25
361.843	446.25
362.07	455.25
362.296	470.25
362.523	439.25
362.749	444.25
362.976	447.25
363.203	441.25
363.429	428.25
363.656	454.25
363.882	434.25
364.109	453.25
364.335	442.25
364.562	438.25
364.788	432.25
365.015	436.25
365.241	450.25
365.468	445.25
365.694	452.25
365.92	450.25
366.147	423.25
366.373	431.25
366.599	436.25
366.826	423.25
367.052	404.25
367.278	418.25
367.505	430.25
367.731	424.25
367.957	412.25
368.184	450.25
368.41	451.25
368.636	443.25
368.862	485.25
369.089	447.25
369.315	463.25
369.541	459.25
369.767	408.25
369.993	450.25
370.219	430.25
370.445	451.25
370.672	431.25
370.898	419.25
371.124	415.25
371.35	460.25
371.576	450.25
371.802	438.25
372.028	435.25
372.254	413.25
372.48	415.25
372.706	439.25
372.932	415.25
373.158	421.25
373.384	419.25
373.61	438.25
373.835	426.25
374.061	424.25
374.287	438.25
374.513	438.25
374.739	448.25
374.965	431.25
375.191	451.25
375.416	448.25
375.642	420.25
375.868	445.25
376.094	447.25
376.319	423.25
376.545	436.25
376.771	443.25
376.997	435.25
377.222	435.25
377.448	424.25
377.674	443.25
377.899	426.25
378.125	417.25
378.35	429.25
378.576	423.25
378.802	426.25
379.027	430.25
379.253	433.25
379.478	425.25
379.704	420.25
379.929	415.25
380.155	427.25
380.38	434.25
380.606	458.25
380.831	424.25
381.057	424.25
381.282	422.25
381.507	422.25
381.733	445.25
381.958	413.25
382.184	419.25
382.409	426.25
382.634	444.25
382.86	435.25
383.085	446.25
383.31	455.25
383.535	428.25
383.761	443.25
383.986	464.25
384.211	442.25
384.436	458.25
384.662	447.25
384.887	459.25
385.112	445.25
385.337	450.25
385.562	451.25
385.787	458.25
386.013	461.25
386.238	475.25
386.463	479.25
386.688	479.25
386.913	451.25
387.138	474.25
387.363	467.25
387.588	455.25
387.813	464.25
388.038	475.25
388.263	478.25
388.488	452.25
388.713	467.25
388.938	452.25
389.163	487.25
389.387	470.25
389.612	466.25
389.837	456.25
390.062	461.25
390.287	456.25
390.512	452.25
390.736	466.25
390.961	458.25
391.186	462.25
391.411	455.25
391.636	450.25
391.86	459.25
392.085	478.25
392.31	466.25
392.534	458.25
392.759	479.25
392.984	477.25
393.208	489.25
393.433	483.25
393.658	474.25
393.882	465.25
394.107	473.25
394.331	464.25
394.556	499.25
394.78	473.25
395.005	459.25
395.229	479.25
395.454	479.25
395.678	451.25
395.903	494.25
396.127	533.25
396.352	523.25
396.576	494.25
396.801	506.25
397.025	510.25
397.249	492.25
397.474	499.25
397.698	496.25
397.922	526.25
398.147	526.25
398.371	528.25
398.595	535.25
398.82	524.25
399.044	527.25
399.268	531.25
399.492	555.25
399.717	604.25
399.941	602.25
400.165	643.25
400.389	662.25
400.613	599.25
400.837	578.25
401.062	557.25
401.286	540.25
401.51	541.25
401.734	551.25
401.958	538.25
402.182	532.25
402.406	560.25
402.63	540.25
402.854	514.25
403.078	542.25
403.302	548.25
403.526	562.25
403.75	574.25
403.974	563.25
404.198	548.25
404.422	573.25
404.645	568.25
404.869	579.25
405.093	602.25
405.317	630.25
405.541	682.25
405.765	639.25
405.988	615.25
406.212	596.25
406.436	628.25
406.66	631.25
406.883	616.25
407.107	628.25
407.331	656.25
407.555	744.25
407.778	740.25
408.002	709.25
408.226	658.25
408.449	626.25
408.673	599.25
408.896	636.25
409.12	692.25
409.344	669.25
409.567	593.25
409.791	579.25
410.014	573.25
410.238	567.25
410.461	574.25
410.685	555.25
410.908	602.25
411.132	632.25
411.355	654.25
411.578	636.25
411.802	606.25
412.025	574.25
412.249	595.25
412.472	591.25
412.695	668.25
412.919	638.25
413.142	590.25
413.365	565.25
413.589	546.25
413.812	564.25
414.035	563.25
414.258	553.25
414.482	532.25
414.705	524.25
414.928	512.25
415.151	527.25
415.374	525.25
415.597	539.25
415.821	526.25
416.044	540.25
416.267	527.25
416.49	528.25
416.713	530.25
416.936	538.25
417.159	522.25
417.382	543.25
417.605	546.25
417.828	571.25
418.051	553.25
418.274	565.25
418.497	557.25
418.72	550.25
418.943	551.25
419.166	580.25
419.389	588.25
419.611	578.25
419.834	566.25
420.057	597.25
420.28	580.25
420.503	598.25
420.726	588.25
420.948	598.25
421.171	631.25
421.394	650.25
421.617	610.25
421.839	562.25
422.062	611.25
422.285	598.25
422.507	660.25
422.73	736.25
422.953	716.25
423.175	627.25
423.398	621.25
423.621	614.25
423.843	620.25
424.066	617.25
424.288	618.25
424.511	650.25
424.733	694.25
424.956	795.25
425.178	778.25
425.401	763.25
425.623	775.25
425.846	687.25
426.068	660.25
426.291	628.25
426.513	634.25
426.735	628.25
426.958	706.25
427.18	771.25
427.402	940.25
427.625	1003.25
427.847	909.25
428.069	790.25
428.292	718.25
428.514	640.25
428.736	615.25
428.958	626.25
429.181	596.25
429.403	566.25
429.625	604.25
429.847	610.25
430.069	730.25
430.292	690.25
430.514	643.25
430.736	589.25
430.958	572.25
431.18	584.25
431.402	563.25
431.624	542.25
431.846	542.25
432.068	547.25
432.29	550.25
432.512	544.25
432.734	560.25
432.956	553.25
433.178	550.25
433.4	581.25
433.622	565.25
433.844	563.25
434.066	531.25
434.287	557.25
434.509	537.25
434.731	567.25
434.953	564.25
435.175	582.25
435.397	614.25
435.618	637.25
435.84	664.25
436.062	779.25
436.284	835.25
436.505	762.25
436.727	688.25
436.949	594.25
437.17	588.25
437.392	595.25
437.614	630.25
437.835	658.25
438.057	779.25
438.278	856.25
438.5	857.25
438.721	934.25
438.943	894.25
439.165	739.25
439.386	666.25
439.608	695.25
439.829	666.25
440.05	688.25
440.272	722.25
440.493	690.25
440.715	646.25
440.936	614.25
441.158	589.25
441.379	592.25
441.6	605.25
441.822	631.25
442.043	698.25
442.264	776.25
442.486	814.25
442.707	728.25
442.928	664.25
443.149	655.25
443.371	693.25
443.592	745.25
443.813	839.25
444.034	886.25
444.255	758.25
444.476	656.25
444.698	644.25
444.919	633.25
445.14	708.25
445.361	687.25
445.582	707.25
445.803	778.25
446.024	852.25
446.245	883.25
446.466	821.25
446.687	729.25
446.908	641.25
447.129	617.25
447.35	576.25
447.571	604.25
447.792	591.25
448.013	588.25
448.234	619.25
448.455	675.25
448.675	803.25
448.896	900.25
449.117	813.25
449.338	764.25
449.559	868.25
449.779	952.25
450	770.25
450.221	678.25
450.442	636.25
450.662	578.25
450.883	603.25
451.104	601.25
451.324	592.25
451.545	584.25
451.766	570.25
451.986	546.25
452.207	537.25
452.428	497.25
452.648	543.25
452.869	542.25
453.089	547.25
453.31	559.25
453.53	520.25
453.751	543.25
453.971	537.25
454.192	567.25
454.412	542.25
454.633	549.25
454.853	551.25
455.073	528.25
455.294	568.25
455.514	648.25
455.734	607.25
455.955	528.25
456.175	521.25
456.395	503.25
456.616	514.25
456.836	494.25
457.056	515.25
457.276	484.25
457.497	488.25
457.717	496.25
457.937	507.25
458.157	514.25
458.377	520.25
458.598	537.25
458.818	623.25
459.038	721.25
459.258	726.25
459.478	612.25
459.698	569.25
459.918	540.25
460.138	546.25
460.358	537.25
460.578	577.25
460.798	535.25
461.018	548.25
461.238	535.25
461.458	524.25
461.678	531.25
461.898	542.25
462.118	534.25
462.338	560.25
462.558	534.25
462.777	557.25
462.997	550.25
463.217	550.25
463.437	578.25
463.657	570.25
463.876	564.25
464.096	556.25
464.316	594.25
464.536	567.25
464.755	553.25
464.975	610.25
465.195	659.25
465.414	742.25
465.634	672.25
465.854	607.25
466.073	572.25
466.293	559.25
466.512	549.25
466.732	533.25
466.951	524.25
467.171	558.25
467.391	543.25
467.61	555.25
467.829	573.25
468.049	565.25
468.268	560.25
468.488	542.25
468.707	548.25
468.927	529.25
469.146	515.25
469.365	523.25
469.585	516.25
469.804	524.25
470.023	542.25
470.243	546.25
470.462	534.25
470.681	560.25
470.901	564.25
471.12	542.25
471.339	549.25
471.558	528.25
471.777	567.25
471.997	555.25
472.216	569.25
472.435	618.25
472.654	593.25
472.873	562.25
473.092	534.25
473.311	584.25
473.53	585.25
473.749	571.25
473.968	603.25
474.187	747.25
474.406	752.25
474.625	626.25
474.844	571.25
475.063	572.25
475.282	574.25
475.501	570.25
475.72	564.25
475.939	574.25
476.158	590.25
476.377	569.25
476.596	559.25
476.814	583.25
477.033	575.25
477.252	601.25
477.471	573.25
477.69	598.25
477.908	612.25
478.127	604.25
478.346	592.25
478.564	629.25
478.783	610.25
479.002	597.25
479.22	613.25
479.439	627.25
479.658	669.25
479.876	654.25
480.095	667.25
480.313	711.25
480.532	672.25
480.751	671.25
480.969	697.25
481.188	785.25
481.406	847.25
481.624	726.25
481.843	700.25
482.061	672.25
482.28	662.25
482.498	647.25
482.717	668.25
482.935	639.25
483.153	662.25
483.372	665.25
483.59	641.25
483.808	660.25
484.027	660.25
484.245	663.25
484.463	643.25
484.681	657.25
484.9	686.25
485.118	670.25
485.336	660.25
485.554	679.25
485.772	698.25
485.99	683.25
486.209	670.25
486.427	676.25
486.645	699.25
486.863	734.25
487.081	731.25
487.299	727.25
487.517	726.25
487.735	721.25
487.953	711.25
488.171	703.25
488.389	716.25
488.607	696.25
488.825	728.25
489.043	713.25
489.261	704.25
489.479	713.25
489.696	708.25
489.914	745.25
490.132	729.25
490.35	763.25
490.568	776.25
490.786	762.25
491.003	773.25
491.221	810.25
491.439	816.25
491.657	825.25
491.874	831.25
492.092	824.25
492.31	831.25
492.527	861.25
492.745	832.25
492.963	855.25
493.18	843.25
493.398	877.25
493.615	842.25
493.833	869.25
494.05	871.25
494.268	896.25
494.485	872.25
494.703	866.25
494.92	847.25
495.138	892.25
495.355	870.25
495.573	865.25
495.79	866.25
496.008	855.25
496.225	882.25
496.442	877.25
496.66	882.25
496.877	867.25
497.094	872.25
497.312	872.25
497.529	883.25
497.746	892.25
497.963	885.25
498.181	924.25
498.398	928.25
498.615	936.25
498.832	919.25
499.049	919.25
499.267	942.25
499.484	970.25
499.701	971.25
499.918	992.25
500.135	1008.25
500.352	1047.25
500.569	1118.25
500.786	1084.25
501.003	1082.25
501.22	1083.25
501.437	1040.25
501.654	1018.25
501.871	1017.25
