Data from 1970.PennyLincolnUp.Lamp.En5.5.200Scan.071719.P1._HRD10591_15-14-58-842.txt Node
Date: Thu Jul 18 15:14:58 EDT 2019
User: cochatt
Spectrometer: HR+D1059
Trigger mode: 1
Integration Time (sec): 1.000000E-1
Scans to average: 1
Electric dark correction enabled: true
Nonlinearity correction enabled: false
Boxcar width: 0
XAxis mode: Wavelengths
Number of Pixels in Spectrum: 2048
>>>>>Begin Spectral Data<<<<<
223.165	-15.19
223.4	-15.19
223.635	-15.19
223.869	-16.19
224.104	-6.19
224.338	-5.19
224.573	-11.19
224.808	-8.19
225.042	-22.19
225.277	-11.19
225.511	-1.19
225.746	1.81
225.98	-0.19
226.215	7.81
226.449	6.81
226.683	19.81
226.918	28.81
227.152	31.81
227.387	30.81
227.621	46.81
227.856	40.81
228.09	41.81
228.324	46.81
228.559	42.81
228.793	68.81
229.027	105.81
229.262	122.81
229.496	125.81
229.73	142.81
229.964	200.81
230.199	152.81
230.433	119.81
230.667	122.81
230.901	114.81
231.136	110.81
231.37	102.81
231.604	130.81
231.838	118.81
232.072	119.81
232.306	108.81
232.541	110.81
232.775	128.81
233.009	125.81
233.243	123.81
233.477	125.81
233.711	118.81
233.945	129.81
234.179	124.81
234.413	100.81
234.647	122.81
234.881	114.81
235.115	130.81
235.349	114.81
235.583	125.81
235.817	121.81
236.051	124.81
236.285	139.81
236.519	124.81
236.753	146.81
236.987	157.81
237.221	210.81
237.455	263.81
237.689	206.81
237.922	148.81
238.156	153.81
238.39	143.81
238.624	125.81
238.858	131.81
239.091	141.81
239.325	112.81
239.559	124.81
239.793	126.81
240.027	124.81
240.26	144.81
240.494	168.81
240.728	145.81
240.961	158.81
241.195	161.81
241.429	141.81
241.662	139.81
241.896	144.81
242.13	138.81
242.363	132.81
242.597	138.81
242.83	169.81
243.064	143.81
243.298	140.81
243.531	151.81
243.765	139.81
243.998	133.81
244.232	161.81
244.465	158.81
244.699	158.81
244.932	151.81
245.166	150.81
245.399	146.81
245.633	151.81
245.866	149.81
246.099	169.81
246.333	149.81
246.566	156.81
246.8	186.81
247.033	159.81
247.266	165.81
247.5	166.81
247.733	187.81
247.966	188.81
248.2	182.81
248.433	181.81
248.666	193.81
248.899	204.81
249.133	229.81
249.366	227.81
249.599	236.81
249.832	195.81
250.066	198.81
250.299	204.81
250.532	211.81
250.765	232.81
250.998	228.81
251.231	243.81
251.465	252.81
251.698	253.81
251.931	205.81
252.164	219.81
252.397	224.81
252.63	226.81
252.863	231.81
253.096	243.81
253.329	254.81
253.562	263.81
253.795	256.81
254.028	223.81
254.261	234.81
254.494	259.81
254.727	293.81
254.96	327.81
255.193	323.81
255.426	272.81
255.659	258.81
255.892	270.81
256.124	244.81
256.357	267.81
256.59	250.81
256.823	240.81
257.056	224.81
257.289	216.81
257.521	223.81
257.754	225.81
257.987	219.81
258.22	231.81
258.452	225.81
258.685	216.81
258.918	233.81
259.151	229.81
259.383	233.81
259.616	252.81
259.849	246.81
260.081	260.81
260.314	287.81
260.547	290.81
260.779	275.81
261.012	261.81
261.244	252.81
261.477	238.81
261.71	250.81
261.942	235.81
262.175	259.81
262.407	254.81
262.64	231.81
262.872	228.81
263.105	230.81
263.337	220.81
263.57	211.81
263.802	216.81
264.035	225.81
264.267	217.81
264.499	210.81
264.732	216.81
264.964	214.81
265.197	213.81
265.429	238.81
265.661	223.81
265.894	215.81
266.126	220.81
266.358	228.81
266.591	208.81
266.823	225.81
267.055	236.81
267.287	226.81
267.52	219.81
267.752	234.81
267.984	232.81
268.216	239.81
268.448	235.81
268.681	243.81
268.913	239.81
269.145	269.81
269.377	292.81
269.609	298.81
269.841	285.81
270.073	268.81
270.306	290.81
270.538	341.81
270.77	328.81
271.002	312.81
271.234	310.81
271.466	313.81
271.698	329.81
271.93	332.81
272.162	334.81
272.394	328.81
272.626	324.81
272.858	320.81
273.09	299.81
273.322	305.81
273.553	293.81
273.785	264.81
274.017	272.81
274.249	265.81
274.481	261.81
274.713	281.81
274.945	278.81
275.176	265.81
275.408	267.81
275.64	286.81
275.872	267.81
276.104	264.81
276.335	273.81
276.567	262.81
276.799	288.81
277.031	321.81
277.262	343.81
277.494	328.81
277.726	332.81
277.957	310.81
278.189	271.81
278.421	279.81
278.652	266.81
278.884	260.81
279.115	278.81
279.347	268.81
279.579	272.81
279.81	276.81
280.042	258.81
280.273	271.81
280.505	283.81
280.736	264.81
280.968	261.81
281.199	269.81
281.431	273.81
281.662	274.81
281.894	266.81
282.125	281.81
282.356	291.81
282.588	303.81
282.819	318.81
283.051	280.81
283.282	267.81
283.513	256.81
283.745	278.81
283.976	277.81
284.207	280.81
284.439	275.81
284.67	278.81
284.901	285.81
285.132	286.81
285.364	263.81
285.595	276.81
285.826	283.81
286.057	274.81
286.288	264.81
286.52	288.81
286.751	286.81
286.982	282.81
287.213	291.81
287.444	294.81
287.675	292.81
287.906	315.81
288.138	276.81
288.369	310.81
288.6	288.81
288.831	284.81
289.062	289.81
289.293	278.81
289.524	302.81
289.755	288.81
289.986	275.81
290.217	276.81
290.448	277.81
290.679	292.81
290.91	291.81
291.141	286.81
291.371	271.81
291.602	300.81
291.833	284.81
292.064	281.81
292.295	293.81
292.526	280.81
292.757	282.81
292.987	272.81
293.218	299.81
293.449	286.81
293.68	294.81
293.91	296.81
294.141	289.81
294.372	282.81
294.603	278.81
294.833	294.81
295.064	291.81
295.295	299.81
295.525	272.81
295.756	293.81
295.987	291.81
296.217	341.81
296.448	323.81
296.679	298.81
296.909	294.81
297.14	284.81
297.37	294.81
297.601	305.81
297.831	295.81
298.062	292.81
298.292	318.81
298.523	284.81
298.753	271.81
298.984	290.81
299.214	289.81
299.445	303.81
299.675	291.81
299.905	326.81
300.136	313.81
300.366	307.81
300.597	289.81
300.827	303.81
301.057	315.81
301.288	322.81
301.518	310.81
301.748	326.81
301.979	318.81
302.209	320.81
302.439	302.81
302.669	307.81
302.9	339.81
303.13	316.81
303.36	322.81
303.59	314.81
303.82	329.81
304.051	347.81
304.281	315.81
304.511	334.81
304.741	306.81
304.971	291.81
305.201	321.81
305.431	326.81
305.661	327.81
305.891	320.81
306.121	342.81
306.352	339.81
306.582	327.81
306.812	339.81
307.042	334.81
307.272	328.81
307.502	310.81
307.731	328.81
307.961	329.81
308.191	327.81
308.421	333.81
308.651	328.81
308.881	316.81
309.111	328.81
309.341	340.81
309.571	352.81
309.8	363.81
310.03	354.81
310.26	390.81
310.49	382.81
310.72	386.81
310.949	419.81
311.179	400.81
311.409	384.81
311.639	373.81
311.868	385.81
312.098	392.81
312.328	388.81
312.557	401.81
312.787	417.81
313.017	422.81
313.246	396.81
313.476	387.81
313.706	360.81
313.935	390.81
314.165	398.81
314.394	406.81
314.624	411.81
314.853	400.81
315.083	409.81
315.312	399.81
315.542	361.81
315.771	386.81
316.001	377.81
316.23	384.81
316.46	388.81
316.689	397.81
316.919	376.81
317.148	399.81
317.377	413.81
317.607	394.81
317.836	411.81
318.065	401.81
318.295	379.81
318.524	400.81
318.753	393.81
318.983	378.81
319.212	362.81
319.441	379.81
319.67	387.81
319.9	396.81
320.129	385.81
320.358	369.81
320.587	368.81
320.816	392.81
321.046	411.81
321.275	420.81
321.504	402.81
321.733	394.81
321.962	434.81
322.191	437.81
322.42	447.81
322.649	469.81
322.878	469.81
323.108	482.81
323.337	522.81
323.566	545.81
323.795	577.81
324.024	650.81
324.253	801.81
324.482	1133.81
324.71	1756.81
324.939	2467.81
325.168	2123.81
325.397	1147.81
325.626	753.81
325.855	631.81
326.084	582.81
326.313	549.81
326.542	543.81
326.77	623.81
326.999	734.81
327.228	995.81
327.457	1537.81
327.686	1868.81
327.914	1248.81
328.143	825.81
328.372	712.81
328.6	681.81
328.829	660.81
329.058	659.81
329.287	659.81
329.515	601.81
329.744	574.81
329.972	553.81
330.201	576.81
330.43	632.81
330.658	660.81
330.887	690.81
331.115	668.81
331.344	574.81
331.572	536.81
331.801	539.81
332.03	539.81
332.258	488.81
332.486	488.81
332.715	452.81
332.943	461.81
333.172	462.81
333.4	471.81
333.629	486.81
333.857	499.81
334.085	516.81
334.314	538.81
334.542	542.81
334.771	575.81
334.999	539.81
335.227	491.81
335.455	460.81
335.684	471.81
335.912	455.81
336.14	449.81
336.369	448.81
336.597	460.81
336.825	462.81
337.053	472.81
337.281	435.81
337.51	436.81
337.738	465.81
337.966	446.81
338.194	428.81
338.422	461.81
338.65	473.81
338.878	436.81
339.106	425.81
339.334	417.81
339.562	439.81
339.79	436.81
340.018	440.81
340.246	444.81
340.474	461.81
340.702	445.81
340.93	434.81
341.158	440.81
341.386	440.81
341.614	430.81
341.842	440.81
342.07	421.81
342.298	436.81
342.526	436.81
342.754	428.81
342.981	449.81
343.209	440.81
343.437	423.81
343.665	411.81
343.893	403.81
344.12	435.81
344.348	441.81
344.576	439.81
344.804	444.81
345.031	465.81
345.259	470.81
345.487	446.81
345.714	446.81
345.942	438.81
346.17	436.81
346.397	438.81
346.625	417.81
346.853	448.81
347.08	420.81
347.308	432.81
347.535	432.81
347.763	453.81
347.99	448.81
348.218	472.81
348.445	466.81
348.673	459.81
348.9	442.81
349.128	434.81
349.355	426.81
349.583	415.81
349.81	434.81
350.037	407.81
350.265	413.81
350.492	461.81
350.72	421.81
350.947	419.81
351.174	441.81
351.402	446.81
351.629	439.81
351.856	428.81
352.083	451.81
352.311	454.81
352.538	474.81
352.765	471.81
352.992	448.81
353.22	454.81
353.447	437.81
353.674	437.81
353.901	439.81
354.128	391.81
354.355	409.81
354.583	419.81
354.81	410.81
355.037	420.81
355.264	403.81
355.491	420.81
355.718	389.81
355.945	396.81
356.172	405.81
356.399	403.81
356.626	402.81
356.853	394.81
357.08	379.81
357.307	416.81
357.534	414.81
357.761	387.81
357.988	402.81
358.215	415.81
358.441	409.81
358.668	419.81
358.895	423.81
359.122	422.81
359.349	433.81
359.576	430.81
359.802	463.81
360.029	496.81
360.256	513.81
360.483	468.81
360.709	451.81
360.936	421.81
361.163	445.81
361.39	468.81
361.616	458.81
361.843	437.81
362.07	442.81
362.296	431.81
362.523	432.81
362.749	424.81
362.976	430.81
363.203	412.81
363.429	427.81
363.656	444.81
363.882	454.81
364.109	432.81
364.335	424.81
364.562	411.81
364.788	423.81
365.015	436.81
365.241	423.81
365.468	433.81
365.694	426.81
365.92	431.81
366.147	430.81
366.373	430.81
366.599	425.81
366.826	427.81
367.052	428.81
367.278	410.81
367.505	414.81
367.731	428.81
367.957	419.81
368.184	428.81
368.41	427.81
368.636	426.81
368.862	442.81
369.089	432.81
369.315	410.81
369.541	432.81
369.767	415.81
369.993	424.81
370.219	441.81
370.445	420.81
370.672	414.81
370.898	386.81
371.124	411.81
371.35	417.81
371.576	408.81
371.802	424.81
372.028	413.81
372.254	397.81
372.48	426.81
372.706	390.81
372.932	408.81
373.158	419.81
373.384	411.81
373.61	431.81
373.835	407.81
374.061	420.81
374.287	418.81
374.513	403.81
374.739	434.81
374.965	436.81
375.191	423.81
375.416	414.81
375.642	406.81
375.868	403.81
376.094	423.81
376.319	420.81
376.545	424.81
376.771	432.81
376.997	425.81
377.222	402.81
377.448	406.81
377.674	412.81
377.899	400.81
378.125	411.81
378.35	400.81
378.576	418.81
378.802	401.81
379.027	416.81
379.253	411.81
379.478	412.81
379.704	408.81
379.929	407.81
380.155	410.81
380.38	405.81
380.606	422.81
380.831	417.81
381.057	430.81
381.282	423.81
381.507	424.81
381.733	414.81
381.958	393.81
382.184	411.81
382.409	419.81
382.634	427.81
382.86	424.81
383.085	428.81
383.31	415.81
383.535	433.81
383.761	446.81
383.986	423.81
384.211	425.81
384.436	432.81
384.662	436.81
384.887	448.81
385.112	421.81
385.337	442.81
385.562	440.81
385.787	445.81
386.013	451.81
386.238	471.81
386.463	460.81
386.688	440.81
386.913	443.81
387.138	447.81
387.363	452.81
387.588	440.81
387.813	450.81
388.038	443.81
388.263	468.81
388.488	457.81
388.713	461.81
388.938	445.81
389.163	452.81
389.387	460.81
389.612	458.81
389.837	421.81
390.062	453.81
390.287	439.81
390.512	445.81
390.736	455.81
390.961	448.81
391.186	452.81
391.411	445.81
391.636	463.81
391.86	466.81
392.085	475.81
392.31	471.81
392.534	450.81
392.759	446.81
392.984	448.81
393.208	450.81
393.433	458.81
393.658	442.81
393.882	439.81
394.107	463.81
394.331	455.81
394.556	448.81
394.78	435.81
395.005	459.81
395.229	460.81
395.454	492.81
395.678	479.81
395.903	480.81
396.127	492.81
396.352	500.81
396.576	492.81
396.801	479.81
397.025	464.81
397.249	470.81
397.474	477.81
397.698	482.81
397.922	504.81
398.147	483.81
398.371	516.81
398.595	495.81
398.82	479.81
399.044	532.81
399.268	532.81
399.492	550.81
399.717	582.81
399.941	577.81
400.165	628.81
400.389	631.81
400.613	563.81
400.837	554.81
401.062	552.81
401.286	532.81
401.51	542.81
401.734	529.81
401.958	525.81
402.182	518.81
402.406	516.81
402.63	546.81
402.854	510.81
403.078	529.81
403.302	532.81
403.526	534.81
403.75	528.81
403.974	544.81
404.198	564.81
404.422	580.81
404.645	572.81
404.869	571.81
405.093	569.81
405.317	617.81
405.541	657.81
405.765	595.81
405.988	607.81
406.212	600.81
406.436	626.81
406.66	599.81
406.883	595.81
407.107	611.81
407.331	676.81
407.555	730.81
407.778	724.81
408.002	662.81
408.226	603.81
408.449	617.81
408.673	600.81
408.896	632.81
409.12	670.81
409.344	663.81
409.567	584.81
409.791	571.81
410.014	561.81
410.238	558.81
410.461	550.81
410.685	561.81
410.908	572.81
411.132	625.81
411.355	645.81
411.578	623.81
411.802	568.81
412.025	578.81
412.249	550.81
412.472	588.81
412.695	646.81
412.919	623.81
413.142	561.81
413.365	543.81
413.589	540.81
413.812	520.81
414.035	506.81
414.258	520.81
414.482	541.81
414.705	510.81
414.928	498.81
415.151	514.81
415.374	522.81
415.597	517.81
415.821	510.81
416.044	516.81
416.267	517.81
416.49	539.81
416.713	517.81
416.936	509.81
417.159	518.81
417.382	530.81
417.605	538.81
417.828	530.81
418.051	545.81
418.274	530.81
418.497	531.81
418.72	523.81
418.943	522.81
419.166	520.81
419.389	561.81
419.611	547.81
419.834	558.81
420.057	574.81
420.28	544.81
420.503	561.81
420.726	579.81
420.948	595.81
421.171	624.81
421.394	654.81
421.617	569.81
421.839	561.81
422.062	566.81
422.285	576.81
422.507	645.81
422.73	712.81
422.953	692.81
423.175	613.81
423.398	592.81
423.621	591.81
423.843	589.81
424.066	600.81
424.288	600.81
424.511	640.81
424.733	698.81
424.956	770.81
425.178	734.81
425.401	755.81
425.623	768.81
425.846	646.81
426.068	608.81
426.291	590.81
426.513	614.81
426.735	623.81
426.958	667.81
427.18	781.81
427.402	895.81
427.625	982.81
427.847	900.81
428.069	757.81
428.292	696.81
428.514	616.81
428.736	597.81
428.958	573.81
429.181	577.81
429.403	569.81
429.625	591.81
429.847	607.81
430.069	700.81
430.292	698.81
430.514	592.81
430.736	568.81
430.958	555.81
431.18	538.81
431.402	554.81
431.624	533.81
431.846	531.81
432.068	545.81
432.29	546.81
432.512	542.81
432.734	541.81
432.956	540.81
433.178	562.81
433.4	552.81
433.622	537.81
433.844	543.81
434.066	528.81
434.287	548.81
434.509	539.81
434.731	548.81
434.953	566.81
435.175	582.81
435.397	602.81
435.618	610.81
435.84	663.81
436.062	758.81
436.284	828.81
436.505	696.81
436.727	619.81
436.949	586.81
437.17	579.81
437.392	574.81
437.614	610.81
437.835	650.81
438.057	740.81
438.278	832.81
438.5	834.81
438.721	885.81
438.943	853.81
439.165	717.81
439.386	672.81
439.608	649.81
439.829	648.81
440.05	670.81
440.272	738.81
440.493	687.81
440.715	632.81
440.936	599.81
441.158	568.81
441.379	570.81
441.6	603.81
441.822	613.81
442.043	652.81
442.264	753.81
442.486	787.81
442.707	686.81
442.928	633.81
443.149	650.81
443.371	668.81
443.592	722.81
443.813	816.81
444.034	883.81
444.255	716.81
444.476	652.81
444.698	625.81
444.919	609.81
445.14	687.81
445.361	660.81
445.582	666.81
445.803	744.81
446.024	857.81
446.245	854.81
446.466	795.81
446.687	704.81
446.908	646.81
447.129	600.81
447.35	598.81
447.571	574.81
447.792	575.81
448.013	588.81
448.234	601.81
448.455	679.81
448.675	791.81
448.896	900.81
449.117	758.81
449.338	766.81
449.559	842.81
449.779	929.81
450	755.81
450.221	642.81
450.442	573.81
450.662	580.81
450.883	599.81
451.104	615.81
451.324	599.81
451.545	555.81
451.766	566.81
451.986	531.81
452.207	524.81
452.428	559.81
452.648	498.81
452.869	509.81
453.089	539.81
453.31	526.81
453.53	534.81
453.751	522.81
453.971	508.81
454.192	548.81
454.412	537.81
454.633	506.81
454.853	512.81
455.073	516.81
455.294	547.81
455.514	638.81
455.734	594.81
455.955	514.81
456.175	493.81
456.395	472.81
456.616	493.81
456.836	494.81
457.056	467.81
457.276	458.81
457.497	482.81
457.717	483.81
457.937	473.81
458.157	503.81
458.377	502.81
458.598	543.81
458.818	607.81
459.038	687.81
459.258	714.81
459.478	592.81
459.698	540.81
459.918	546.81
460.138	504.81
460.358	516.81
460.578	512.81
460.798	532.81
461.018	555.81
461.238	510.81
461.458	543.81
461.678	506.81
461.898	535.81
462.118	522.81
462.338	534.81
462.558	519.81
462.777	539.81
462.997	537.81
463.217	555.81
463.437	562.81
463.657	557.81
463.876	528.81
464.096	558.81
464.316	550.81
464.536	562.81
464.755	561.81
464.975	564.81
465.195	624.81
465.414	733.81
465.634	660.81
465.854	574.81
466.073	563.81
466.293	543.81
466.512	536.81
466.732	543.81
466.951	528.81
467.171	512.81
467.391	521.81
467.61	543.81
467.829	558.81
468.049	539.81
468.268	546.81
468.488	519.81
468.707	515.81
468.927	512.81
469.146	490.81
469.365	498.81
469.585	512.81
469.804	517.81
470.023	535.81
470.243	529.81
470.462	539.81
470.681	551.81
470.901	553.81
471.12	514.81
471.339	517.81
471.558	524.81
471.777	565.81
471.997	526.81
472.216	533.81
472.435	576.81
472.654	573.81
472.873	535.81
473.092	543.81
473.311	525.81
473.53	545.81
473.749	553.81
473.968	618.81
474.187	734.81
474.406	733.81
474.625	608.81
474.844	555.81
475.063	539.81
475.282	532.81
475.501	538.81
475.72	563.81
475.939	560.81
476.158	548.81
476.377	580.81
476.596	539.81
476.814	569.81
477.033	566.81
477.252	571.81
477.471	574.81
477.69	582.81
477.908	596.81
478.127	592.81
478.346	579.81
478.564	595.81
478.783	592.81
479.002	608.81
479.22	588.81
479.439	615.81
479.658	667.81
479.876	654.81
480.095	665.81
480.313	671.81
480.532	650.81
480.751	661.81
480.969	679.81
481.188	769.81
481.406	800.81
481.624	720.81
481.843	672.81
482.061	659.81
482.28	624.81
482.498	667.81
482.717	630.81
482.935	637.81
483.153	642.81
483.372	637.81
483.59	627.81
483.808	637.81
484.027	646.81
484.245	636.81
484.463	656.81
484.681	664.81
484.9	641.81
485.118	648.81
485.336	670.81
485.554	658.81
485.772	650.81
485.99	668.81
486.209	659.81
486.427	675.81
486.645	652.81
486.863	689.81
487.081	706.81
487.299	694.81
487.517	694.81
487.735	691.81
487.953	672.81
488.171	695.81
488.389	694.81
488.607	683.81
488.825	694.81
489.043	692.81
489.261	696.81
489.479	690.81
489.696	707.81
489.914	694.81
490.132	722.81
490.35	759.81
490.568	743.81
490.786	762.81
491.003	762.81
491.221	780.81
491.439	789.81
491.657	798.81
491.874	791.81
492.092	801.81
492.31	819.81
492.527	816.81
492.745	835.81
492.963	825.81
493.18	822.81
493.398	837.81
493.615	872.81
493.833	849.81
494.05	860.81
494.268	842.81
494.485	841.81
494.703	836.81
494.92	848.81
495.138	850.81
495.355	814.81
495.573	830.81
495.79	850.81
496.008	843.81
496.225	833.81
496.442	830.81
496.66	852.81
496.877	842.81
497.094	872.81
497.312	862.81
497.529	868.81
497.746	865.81
497.963	907.81
498.181	880.81
498.398	904.81
498.615	911.81
498.832	900.81
499.049	908.81
499.267	932.81
499.484	933.81
499.701	949.81
499.918	968.81
500.135	1001.81
500.352	1046.81
500.569	1012.81
500.786	1059.81
501.003	1055.81
501.22	1011.81
501.437	1021.81
501.654	974.81
501.871	991.81
