Data from 1970.PennyLincolnUp.Lamp.En5.5.200Scan.071719.P1._HRD10591_15-15-11-841.txt Node
Date: Thu Jul 18 15:15:11 EDT 2019
User: cochatt
Spectrometer: HR+D1059
Trigger mode: 1
Integration Time (sec): 1.000000E-1
Scans to average: 1
Electric dark correction enabled: true
Nonlinearity correction enabled: false
Boxcar width: 0
XAxis mode: Wavelengths
Number of Pixels in Spectrum: 2048
>>>>>Begin Spectral Data<<<<<
223.165	-21.62
223.4	-21.62
223.635	-21.62
223.869	-18.62
224.104	-27.62
224.338	-5.62
224.573	-3.62
224.808	-20.62
225.042	-13.62
225.277	-6.62
225.511	4.38
225.746	1.38
225.98	13.38
226.215	13.38
226.449	14.38
226.683	18.38
226.918	24.38
227.152	28.38
227.387	31.38
227.621	38.38
227.856	60.38
228.09	51.38
228.324	36.38
228.559	57.38
228.793	68.38
229.027	116.38
229.262	120.38
229.496	133.38
229.73	149.38
229.964	189.38
230.199	135.38
230.433	117.38
230.667	122.38
230.901	133.38
231.136	117.38
231.37	127.38
231.604	123.38
231.838	123.38
232.072	128.38
232.306	115.38
232.541	118.38
232.775	128.38
233.009	121.38
233.243	128.38
233.477	137.38
233.711	127.38
233.945	124.38
234.179	126.38
234.413	131.38
234.647	132.38
234.881	121.38
235.115	133.38
235.349	129.38
235.583	120.38
235.817	127.38
236.051	149.38
236.285	132.38
236.519	129.38
236.753	146.38
236.987	164.38
237.221	199.38
237.455	258.38
237.689	218.38
237.922	155.38
238.156	149.38
238.39	136.38
238.624	127.38
238.858	141.38
239.091	133.38
239.325	133.38
239.559	122.38
239.793	141.38
240.027	135.38
240.26	149.38
240.494	163.38
240.728	152.38
240.961	161.38
241.195	152.38
241.429	144.38
241.662	154.38
241.896	141.38
242.13	155.38
242.363	149.38
242.597	152.38
242.83	146.38
243.064	156.38
243.298	150.38
243.531	138.38
243.765	168.38
243.998	161.38
244.232	137.38
244.465	142.38
244.699	159.38
244.932	157.38
245.166	155.38
245.399	147.38
245.633	169.38
245.866	149.38
246.099	169.38
246.333	155.38
246.566	172.38
246.8	157.38
247.033	165.38
247.266	171.38
247.5	186.38
247.733	196.38
247.966	188.38
248.2	190.38
248.433	187.38
248.666	209.38
248.899	210.38
249.133	231.38
249.366	245.38
249.599	235.38
249.832	198.38
250.066	213.38
250.299	217.38
250.532	191.38
250.765	230.38
250.998	247.38
251.231	270.38
251.465	233.38
251.698	233.38
251.931	241.38
252.164	238.38
252.397	222.38
252.63	236.38
252.863	241.38
253.096	248.38
253.329	254.38
253.562	244.38
253.795	242.38
254.028	261.38
254.261	268.38
254.494	266.38
254.727	281.38
254.96	301.38
255.193	325.38
255.426	291.38
255.659	279.38
255.892	275.38
256.124	259.38
256.357	266.38
256.59	258.38
256.823	253.38
257.056	238.38
257.289	257.38
257.521	253.38
257.754	247.38
257.987	248.38
258.22	220.38
258.452	222.38
258.685	238.38
258.918	245.38
259.151	235.38
259.383	234.38
259.616	240.38
259.849	259.38
260.081	270.38
260.314	272.38
260.547	284.38
260.779	282.38
261.012	277.38
261.244	252.38
261.477	248.38
261.71	247.38
261.942	253.38
262.175	262.38
262.407	268.38
262.64	251.38
262.872	225.38
263.105	236.38
263.337	219.38
263.57	226.38
263.802	220.38
264.035	246.38
264.267	235.38
264.499	225.38
264.732	255.38
264.964	232.38
265.197	221.38
265.429	220.38
265.661	225.38
265.894	226.38
266.126	241.38
266.358	233.38
266.591	241.38
266.823	253.38
267.055	251.38
267.287	239.38
267.52	236.38
267.752	234.38
267.984	235.38
268.216	243.38
268.448	247.38
268.681	239.38
268.913	241.38
269.145	278.38
269.377	315.38
269.609	320.38
269.841	308.38
270.073	301.38
270.306	327.38
270.538	346.38
270.77	347.38
271.002	327.38
271.234	327.38
271.466	312.38
271.698	343.38
271.93	343.38
272.162	347.38
272.394	355.38
272.626	333.38
272.858	309.38
273.09	298.38
273.322	300.38
273.553	285.38
273.785	291.38
274.017	271.38
274.249	292.38
274.481	289.38
274.713	281.38
274.945	275.38
275.176	296.38
275.408	267.38
275.64	283.38
275.872	276.38
276.104	269.38
276.335	282.38
276.567	284.38
276.799	282.38
277.031	327.38
277.262	348.38
277.494	358.38
277.726	334.38
277.957	306.38
278.189	317.38
278.421	277.38
278.652	273.38
278.884	294.38
279.115	289.38
279.347	285.38
279.579	282.38
279.81	267.38
280.042	289.38
280.273	285.38
280.505	269.38
280.736	281.38
280.968	265.38
281.199	270.38
281.431	271.38
281.662	290.38
281.894	277.38
282.125	265.38
282.356	314.38
282.588	323.38
282.819	329.38
283.051	278.38
283.282	283.38
283.513	285.38
283.745	282.38
283.976	295.38
284.207	289.38
284.439	289.38
284.67	281.38
284.901	288.38
285.132	279.38
285.364	285.38
285.595	268.38
285.826	271.38
286.057	295.38
286.288	284.38
286.52	284.38
286.751	299.38
286.982	272.38
287.213	285.38
287.444	285.38
287.675	282.38
287.906	305.38
288.138	317.38
288.369	308.38
288.6	315.38
288.831	311.38
289.062	336.38
289.293	305.38
289.524	296.38
289.755	310.38
289.986	290.38
290.217	295.38
290.448	299.38
290.679	308.38
290.91	299.38
291.141	301.38
291.371	310.38
291.602	296.38
291.833	299.38
292.064	312.38
292.295	282.38
292.526	297.38
292.757	312.38
292.987	307.38
293.218	297.38
293.449	293.38
293.68	294.38
293.91	308.38
294.141	285.38
294.372	302.38
294.603	319.38
294.833	311.38
295.064	299.38
295.295	297.38
295.525	312.38
295.756	301.38
295.987	332.38
296.217	345.38
296.448	336.38
296.679	315.38
296.909	296.38
297.14	306.38
297.37	297.38
297.601	307.38
297.831	302.38
298.062	305.38
298.292	307.38
298.523	310.38
298.753	324.38
298.984	305.38
299.214	294.38
299.445	305.38
299.675	307.38
299.905	330.38
300.136	316.38
300.366	307.38
300.597	338.38
300.827	319.38
301.057	328.38
301.288	335.38
301.518	339.38
301.748	323.38
301.979	307.38
302.209	333.38
302.439	317.38
302.669	351.38
302.9	338.38
303.13	323.38
303.36	342.38
303.59	338.38
303.82	347.38
304.051	329.38
304.281	342.38
304.511	329.38
304.741	331.38
304.971	323.38
305.201	330.38
305.431	336.38
305.661	327.38
305.891	344.38
306.121	322.38
306.352	347.38
306.582	334.38
306.812	339.38
307.042	339.38
307.272	350.38
307.502	327.38
307.731	355.38
307.961	346.38
308.191	341.38
308.421	348.38
308.651	353.38
308.881	329.38
309.111	333.38
309.341	360.38
309.571	377.38
309.8	379.38
310.03	395.38
310.26	392.38
310.49	391.38
310.72	391.38
310.949	426.38
311.179	426.38
311.409	405.38
311.639	406.38
311.868	396.38
312.098	399.38
312.328	402.38
312.557	404.38
312.787	435.38
313.017	438.38
313.246	429.38
313.476	407.38
313.706	416.38
313.935	414.38
314.165	408.38
314.394	426.38
314.624	403.38
314.853	413.38
315.083	402.38
315.312	397.38
315.542	384.38
315.771	395.38
316.001	390.38
316.23	402.38
316.46	404.38
316.689	405.38
316.919	410.38
317.148	398.38
317.377	414.38
317.607	410.38
317.836	413.38
318.065	427.38
318.295	393.38
318.524	395.38
318.753	380.38
318.983	393.38
319.212	401.38
319.441	377.38
319.67	418.38
319.9	397.38
320.129	417.38
320.358	425.38
320.587	433.38
320.816	423.38
321.046	417.38
321.275	433.38
321.504	418.38
321.733	437.38
321.962	425.38
322.191	453.38
322.42	493.38
322.649	471.38
322.878	493.38
323.108	489.38
323.337	526.38
323.566	565.38
323.795	597.38
324.024	645.38
324.253	815.38
324.482	1158.38
324.71	1786.38
324.939	2564.38
325.168	2181.38
325.397	1153.38
325.626	780.38
325.855	639.38
326.084	586.38
326.313	558.38
326.542	565.38
326.77	616.38
326.999	751.38
327.228	1042.38
327.457	1573.38
327.686	1918.38
327.914	1331.38
328.143	851.38
328.372	749.38
328.6	657.38
328.829	648.38
329.058	654.38
329.287	685.38
329.515	645.38
329.744	592.38
329.972	573.38
330.201	622.38
330.43	655.38
330.658	693.38
330.887	751.38
331.115	683.38
331.344	572.38
331.572	550.38
331.801	563.38
332.03	557.38
332.258	506.38
332.486	493.38
332.715	490.38
332.943	461.38
333.172	474.38
333.4	478.38
333.629	497.38
333.857	514.38
334.085	542.38
334.314	590.38
334.542	590.38
334.771	606.38
334.999	552.38
335.227	510.38
335.455	471.38
335.684	484.38
335.912	484.38
336.14	479.38
336.369	453.38
336.597	481.38
336.825	480.38
337.053	476.38
337.281	468.38
337.51	475.38
337.738	463.38
337.966	465.38
338.194	477.38
338.422	474.38
338.65	475.38
338.878	470.38
339.106	461.38
339.334	467.38
339.562	459.38
339.79	436.38
340.018	442.38
340.246	462.38
340.474	455.38
340.702	484.38
340.93	447.38
341.158	463.38
341.386	460.38
341.614	456.38
341.842	455.38
342.07	454.38
342.298	453.38
342.526	441.38
342.754	440.38
342.981	427.38
343.209	424.38
343.437	441.38
343.665	457.38
343.893	456.38
344.12	445.38
344.348	433.38
344.576	467.38
344.804	470.38
345.031	473.38
345.259	486.38
345.487	488.38
345.714	461.38
345.942	464.38
346.17	450.38
346.397	457.38
346.625	461.38
346.853	450.38
347.08	427.38
347.308	440.38
347.535	459.38
347.763	465.38
347.99	461.38
348.218	462.38
348.445	469.38
348.673	479.38
348.9	466.38
349.128	454.38
349.355	433.38
349.583	452.38
349.81	437.38
350.037	430.38
350.265	441.38
350.492	449.38
350.72	443.38
350.947	448.38
351.174	454.38
351.402	452.38
351.629	455.38
351.856	472.38
352.083	479.38
352.311	491.38
352.538	476.38
352.765	486.38
352.992	486.38
353.22	470.38
353.447	454.38
353.674	466.38
353.901	427.38
354.128	436.38
354.355	440.38
354.583	418.38
354.81	441.38
355.037	431.38
355.264	405.38
355.491	421.38
355.718	429.38
355.945	426.38
356.172	421.38
356.399	415.38
356.626	423.38
356.853	419.38
357.08	441.38
357.307	403.38
357.534	405.38
357.761	422.38
357.988	425.38
358.215	407.38
358.441	431.38
358.668	410.38
358.895	437.38
359.122	435.38
359.349	457.38
359.576	464.38
359.802	479.38
360.029	537.38
360.256	544.38
360.483	527.38
360.709	470.38
360.936	458.38
361.163	468.38
361.39	452.38
361.616	453.38
361.843	478.38
362.07	461.38
362.296	448.38
362.523	448.38
362.749	447.38
362.976	451.38
363.203	449.38
363.429	463.38
363.656	430.38
363.882	430.38
364.109	442.38
364.335	439.38
364.562	442.38
364.788	446.38
365.015	433.38
365.241	450.38
365.468	445.38
365.694	448.38
365.92	459.38
366.147	455.38
366.373	435.38
366.599	442.38
366.826	430.38
367.052	416.38
367.278	421.38
367.505	427.38
367.731	451.38
367.957	451.38
368.184	446.38
368.41	453.38
368.636	450.38
368.862	479.38
369.089	459.38
369.315	421.38
369.541	423.38
369.767	434.38
369.993	445.38
370.219	429.38
370.445	442.38
370.672	434.38
370.898	428.38
371.124	426.38
371.35	427.38
371.576	440.38
371.802	409.38
372.028	416.38
372.254	430.38
372.48	413.38
372.706	437.38
372.932	413.38
373.158	416.38
373.384	435.38
373.61	424.38
373.835	443.38
374.061	437.38
374.287	449.38
374.513	451.38
374.739	446.38
374.965	445.38
375.191	428.38
375.416	439.38
375.642	427.38
375.868	445.38
376.094	430.38
376.319	434.38
376.545	437.38
376.771	430.38
376.997	435.38
377.222	429.38
377.448	414.38
377.674	424.38
377.899	425.38
378.125	430.38
378.35	449.38
378.576	419.38
378.802	438.38
379.027	422.38
379.253	436.38
379.478	443.38
379.704	437.38
379.929	451.38
380.155	421.38
380.38	431.38
380.606	450.38
380.831	451.38
381.057	423.38
381.282	457.38
381.507	427.38
381.733	419.38
381.958	441.38
382.184	441.38
382.409	446.38
382.634	458.38
382.86	439.38
383.085	444.38
383.31	454.38
383.535	431.38
383.761	467.38
383.986	455.38
384.211	450.38
384.436	451.38
384.662	450.38
384.887	454.38
385.112	454.38
385.337	471.38
385.562	493.38
385.787	481.38
386.013	480.38
386.238	483.38
386.463	469.38
386.688	484.38
386.913	479.38
387.138	472.38
387.363	471.38
387.588	470.38
387.813	478.38
388.038	471.38
388.263	461.38
388.488	456.38
388.713	475.38
388.938	449.38
389.163	474.38
389.387	496.38
389.612	459.38
389.837	468.38
390.062	473.38
390.287	461.38
390.512	483.38
390.736	471.38
390.961	461.38
391.186	475.38
391.411	446.38
391.636	489.38
391.86	464.38
392.085	467.38
392.31	477.38
392.534	480.38
392.759	467.38
392.984	478.38
393.208	472.38
393.433	499.38
393.658	468.38
393.882	471.38
394.107	481.38
394.331	474.38
394.556	475.38
394.78	464.38
395.005	483.38
395.229	488.38
395.454	484.38
395.678	486.38
395.903	479.38
396.127	515.38
396.352	516.38
396.576	513.38
396.801	483.38
397.025	501.38
397.249	485.38
397.474	497.38
397.698	511.38
397.922	516.38
398.147	533.38
398.371	547.38
398.595	535.38
398.82	508.38
399.044	539.38
399.268	531.38
399.492	565.38
399.717	614.38
399.941	617.38
400.165	644.38
400.389	664.38
400.613	605.38
400.837	598.38
401.062	552.38
401.286	556.38
401.51	546.38
401.734	531.38
401.958	556.38
402.182	555.38
402.406	557.38
402.63	567.38
402.854	538.38
403.078	578.38
403.302	549.38
403.526	569.38
403.75	568.38
403.974	580.38
404.198	557.38
404.422	589.38
404.645	574.38
404.869	572.38
405.093	604.38
405.317	669.38
405.541	669.38
405.765	651.38
405.988	605.38
406.212	625.38
406.436	633.38
406.66	636.38
406.883	640.38
407.107	641.38
407.331	672.38
407.555	765.38
407.778	732.38
408.002	675.38
408.226	629.38
408.449	641.38
408.673	639.38
408.896	667.38
409.12	714.38
409.344	671.38
409.567	598.38
409.791	599.38
410.014	590.38
410.238	566.38
410.461	590.38
410.685	569.38
410.908	606.38
411.132	634.38
411.355	686.38
411.578	642.38
411.802	603.38
412.025	565.38
412.249	589.38
412.472	604.38
412.695	641.38
412.919	623.38
413.142	585.38
413.365	576.38
413.589	553.38
413.812	567.38
414.035	536.38
414.258	550.38
414.482	542.38
414.705	541.38
414.928	541.38
415.151	552.38
415.374	539.38
415.597	526.38
415.821	523.38
416.044	527.38
416.267	548.38
416.49	563.38
416.713	545.38
416.936	541.38
417.159	550.38
417.382	565.38
417.605	567.38
417.828	549.38
418.051	575.38
418.274	568.38
418.497	569.38
418.72	558.38
418.943	554.38
419.166	590.38
419.389	571.38
419.611	566.38
419.834	600.38
420.057	586.38
420.28	589.38
420.503	570.38
420.726	572.38
420.948	595.38
421.171	637.38
421.394	659.38
421.617	607.38
421.839	601.38
422.062	610.38
422.285	593.38
422.507	654.38
422.73	727.38
422.953	706.38
423.175	614.38
423.398	593.38
423.621	629.38
423.843	614.38
424.066	627.38
424.288	642.38
424.511	638.38
424.733	701.38
424.956	790.38
425.178	760.38
425.401	760.38
425.623	790.38
425.846	717.38
426.068	654.38
426.291	625.38
426.513	631.38
426.735	666.38
426.958	685.38
427.18	785.38
427.402	915.38
427.625	1044.38
427.847	934.38
428.069	804.38
428.292	729.38
428.514	641.38
428.736	633.38
428.958	637.38
429.181	606.38
429.403	591.38
429.625	609.38
429.847	658.38
430.069	714.38
430.292	729.38
430.514	645.38
430.736	588.38
430.958	569.38
431.18	571.38
431.402	549.38
431.624	543.38
431.846	531.38
432.068	541.38
432.29	580.38
432.512	558.38
432.734	553.38
432.956	568.38
433.178	603.38
433.4	570.38
433.622	567.38
433.844	543.38
434.066	522.38
434.287	556.38
434.509	568.38
434.731	567.38
434.953	577.38
435.175	590.38
435.397	645.38
435.618	632.38
435.84	693.38
436.062	782.38
436.284	891.38
436.505	764.38
436.727	655.38
436.949	633.38
437.17	606.38
437.392	605.38
437.614	595.38
437.835	681.38
438.057	783.38
438.278	891.38
438.5	868.38
438.721	942.38
438.943	926.38
439.165	727.38
439.386	684.38
439.608	673.38
439.829	707.38
440.05	714.38
440.272	752.38
440.493	698.38
440.715	657.38
440.936	616.38
441.158	602.38
441.379	610.38
441.6	604.38
441.822	643.38
442.043	717.38
442.264	791.38
442.486	814.38
442.707	691.38
442.928	660.38
443.149	673.38
443.371	706.38
443.592	737.38
443.813	852.38
444.034	899.38
444.255	761.38
444.476	685.38
444.698	663.38
444.919	631.38
445.14	729.38
445.361	700.38
445.582	697.38
445.803	766.38
446.024	857.38
446.245	905.38
446.466	842.38
446.687	731.38
446.908	685.38
447.129	637.38
447.35	617.38
447.571	598.38
447.792	598.38
448.013	609.38
448.234	621.38
448.455	681.38
448.675	803.38
448.896	901.38
449.117	823.38
449.338	796.38
449.559	868.38
449.779	948.38
450	776.38
450.221	675.38
450.442	642.38
450.662	604.38
450.883	606.38
451.104	636.38
451.324	617.38
451.545	580.38
451.766	580.38
451.986	524.38
452.207	550.38
452.428	527.38
452.648	526.38
452.869	548.38
453.089	545.38
453.31	564.38
453.53	549.38
453.751	526.38
453.971	533.38
454.192	574.38
454.412	559.38
454.633	570.38
454.853	539.38
455.073	528.38
455.294	585.38
455.514	627.38
455.734	651.38
455.955	560.38
456.175	517.38
456.395	482.38
456.616	503.38
456.836	497.38
457.056	482.38
457.276	487.38
457.497	501.38
457.717	478.38
457.937	487.38
458.157	527.38
458.377	501.38
458.598	542.38
458.818	630.38
459.038	740.38
459.258	721.38
459.478	625.38
459.698	551.38
459.918	571.38
460.138	545.38
460.358	555.38
460.578	587.38
460.798	569.38
461.018	567.38
461.238	545.38
461.458	550.38
461.678	547.38
461.898	541.38
462.118	540.38
462.338	570.38
462.558	568.38
462.777	555.38
462.997	565.38
463.217	586.38
463.437	577.38
463.657	558.38
463.876	581.38
464.096	587.38
464.316	575.38
464.536	577.38
464.755	592.38
464.975	585.38
465.195	625.38
465.414	744.38
465.634	685.38
465.854	628.38
466.073	600.38
466.293	571.38
466.512	555.38
466.732	554.38
466.951	545.38
467.171	538.38
467.391	567.38
467.61	539.38
467.829	571.38
468.049	587.38
468.268	563.38
468.488	554.38
468.707	528.38
468.927	552.38
469.146	517.38
469.365	546.38
469.585	523.38
469.804	541.38
470.023	567.38
470.243	545.38
470.462	563.38
470.681	569.38
470.901	565.38
471.12	557.38
471.339	570.38
471.558	550.38
471.777	537.38
471.997	550.38
472.216	570.38
472.435	621.38
472.654	607.38
472.873	573.38
473.092	566.38
473.311	571.38
473.53	545.38
473.749	578.38
473.968	612.38
474.187	738.38
474.406	755.38
474.625	642.38
474.844	585.38
475.063	569.38
475.282	572.38
475.501	578.38
475.72	607.38
475.939	589.38
476.158	582.38
476.377	583.38
476.596	564.38
476.814	577.38
477.033	616.38
477.252	591.38
477.471	583.38
477.69	577.38
477.908	610.38
478.127	615.38
478.346	595.38
478.564	593.38
478.783	600.38
479.002	615.38
479.22	631.38
479.439	666.38
479.658	667.38
479.876	681.38
480.095	681.38
480.313	690.38
480.532	723.38
480.751	670.38
480.969	682.38
481.188	785.38
481.406	853.38
481.624	735.38
481.843	710.38
482.061	689.38
482.28	661.38
482.498	679.38
482.717	650.38
482.935	682.38
483.153	674.38
483.372	665.38
483.59	664.38
483.808	647.38
484.027	668.38
484.245	674.38
484.463	676.38
484.681	685.38
484.9	687.38
485.118	681.38
485.336	668.38
485.554	666.38
485.772	690.38
485.99	699.38
486.209	684.38
486.427	665.38
486.645	701.38
486.863	733.38
487.081	732.38
487.299	723.38
487.517	713.38
487.735	695.38
487.953	737.38
488.171	726.38
488.389	731.38
488.607	706.38
488.825	732.38
489.043	713.38
489.261	716.38
489.479	734.38
489.696	721.38
489.914	717.38
490.132	770.38
490.35	746.38
490.568	781.38
490.786	811.38
491.003	805.38
491.221	813.38
491.439	816.38
491.657	806.38
491.874	829.38
492.092	855.38
492.31	840.38
492.527	859.38
492.745	845.38
492.963	842.38
493.18	876.38
493.398	855.38
493.615	859.38
493.833	873.38
494.05	860.38
494.268	881.38
494.485	843.38
494.703	871.38
494.92	889.38
495.138	870.38
495.355	868.38
495.573	869.38
495.79	871.38
496.008	878.38
496.225	893.38
496.442	873.38
496.66	861.38
496.877	861.38
497.094	889.38
497.312	887.38
497.529	873.38
497.746	888.38
497.963	885.38
498.181	920.38
498.398	939.38
498.615	920.38
498.832	924.38
499.049	917.38
499.267	962.38
499.484	981.38
499.701	1002.38
499.918	997.38
500.135	1025.38
500.352	1071.38
500.569	1052.38
500.786	1095.38
501.003	1085.38
501.22	1070.38
501.437	1056.38
501.654	1042.38
