Data from 1970.PennyLincolnUp.Lamp.En5.5.200Scan.071719.P1._HRD10591_15-16-11-842.txt Node
Date: Thu Jul 18 15:16:11 EDT 2019
User: cochatt
Spectrometer: HR+D1059
Trigger mode: 1
Integration Time (sec): 1.000000E-1
Scans to average: 1
Electric dark correction enabled: true
Nonlinearity correction enabled: false
Boxcar width: 0
XAxis mode: Wavelengths
Number of Pixels in Spectrum: 2048
>>>>>Begin Spectral Data<<<<<
223.165	-18.75
223.4	-18.75
223.635	-18.75
223.869	-12.75
224.104	-32.75
224.338	-19.75
224.573	5.25
224.808	-5.75
225.042	-15.75
225.277	-12.75
225.511	-1.75
225.746	25.25
225.98	8.25
226.215	5.25
226.449	7.25
226.683	18.25
226.918	17.25
227.152	33.25
227.387	33.25
227.621	50.25
227.856	38.25
228.09	56.25
228.324	50.25
228.559	59.25
228.793	73.25
229.027	114.25
229.262	122.25
229.496	127.25
229.73	130.25
229.964	176.25
230.199	149.25
230.433	121.25
230.667	112.25
230.901	131.25
231.136	128.25
231.37	129.25
231.604	113.25
231.838	129.25
232.072	107.25
232.306	123.25
232.541	138.25
232.775	110.25
233.009	120.25
233.243	118.25
233.477	120.25
233.711	127.25
233.945	120.25
234.179	134.25
234.413	129.25
234.647	137.25
234.881	122.25
235.115	130.25
235.349	122.25
235.583	132.25
235.817	149.25
236.051	160.25
236.285	130.25
236.519	142.25
236.753	139.25
236.987	163.25
237.221	207.25
237.455	265.25
237.689	207.25
237.922	173.25
238.156	142.25
238.39	140.25
238.624	136.25
238.858	139.25
239.091	145.25
239.325	128.25
239.559	148.25
239.793	142.25
240.027	167.25
240.26	153.25
240.494	179.25
240.728	181.25
240.961	182.25
241.195	167.25
241.429	157.25
241.662	141.25
241.896	142.25
242.13	160.25
242.363	147.25
242.597	144.25
242.83	158.25
243.064	158.25
243.298	153.25
243.531	166.25
243.765	147.25
243.998	158.25
244.232	152.25
244.465	173.25
244.699	165.25
244.932	176.25
245.166	168.25
245.399	161.25
245.633	169.25
245.866	171.25
246.099	170.25
246.333	146.25
246.566	162.25
246.8	179.25
247.033	173.25
247.266	175.25
247.5	174.25
247.733	196.25
247.966	203.25
248.2	188.25
248.433	194.25
248.666	186.25
248.899	209.25
249.133	251.25
249.366	219.25
249.599	218.25
249.832	207.25
250.066	209.25
250.299	207.25
250.532	225.25
250.765	237.25
250.998	252.25
251.231	269.25
251.465	236.25
251.698	247.25
251.931	240.25
252.164	223.25
252.397	240.25
252.63	240.25
252.863	226.25
253.096	251.25
253.329	268.25
253.562	253.25
253.795	229.25
254.028	254.25
254.261	237.25
254.494	255.25
254.727	304.25
254.96	328.25
255.193	319.25
255.426	304.25
255.659	282.25
255.892	251.25
256.124	269.25
256.357	257.25
256.59	241.25
256.823	235.25
257.056	245.25
257.289	265.25
257.521	254.25
257.754	221.25
257.987	225.25
258.22	231.25
258.452	242.25
258.685	246.25
258.918	231.25
259.151	234.25
259.383	258.25
259.616	251.25
259.849	260.25
260.081	265.25
260.314	275.25
260.547	291.25
260.779	281.25
261.012	275.25
261.244	265.25
261.477	263.25
261.71	235.25
261.942	269.25
262.175	265.25
262.407	266.25
262.64	261.25
262.872	240.25
263.105	225.25
263.337	225.25
263.57	253.25
263.802	232.25
264.035	236.25
264.267	225.25
264.499	219.25
264.732	234.25
264.964	224.25
265.197	234.25
265.429	239.25
265.661	214.25
265.894	235.25
266.126	231.25
266.358	243.25
266.591	241.25
266.823	252.25
267.055	226.25
267.287	224.25
267.52	235.25
267.752	245.25
267.984	240.25
268.216	242.25
268.448	235.25
268.681	258.25
268.913	271.25
269.145	287.25
269.377	299.25
269.609	306.25
269.841	296.25
270.073	306.25
270.306	298.25
270.538	342.25
270.77	336.25
271.002	343.25
271.234	335.25
271.466	329.25
271.698	359.25
271.93	375.25
272.162	355.25
272.394	355.25
272.626	333.25
272.858	310.25
273.09	319.25
273.322	294.25
273.553	277.25
273.785	288.25
274.017	293.25
274.249	283.25
274.481	277.25
274.713	284.25
274.945	286.25
275.176	281.25
275.408	275.25
275.64	295.25
275.872	273.25
276.104	302.25
276.335	279.25
276.567	277.25
276.799	325.25
277.031	327.25
277.262	349.25
277.494	346.25
277.726	342.25
277.957	316.25
278.189	299.25
278.421	287.25
278.652	295.25
278.884	294.25
279.115	268.25
279.347	261.25
279.579	271.25
279.81	277.25
280.042	281.25
280.273	291.25
280.505	301.25
280.736	282.25
280.968	272.25
281.199	267.25
281.431	274.25
281.662	254.25
281.894	281.25
282.125	306.25
282.356	310.25
282.588	329.25
282.819	332.25
283.051	295.25
283.282	293.25
283.513	291.25
283.745	290.25
283.976	274.25
284.207	291.25
284.439	285.25
284.67	290.25
284.901	276.25
285.132	272.25
285.364	267.25
285.595	299.25
285.826	298.25
286.057	300.25
286.288	286.25
286.52	280.25
286.751	294.25
286.982	289.25
287.213	283.25
287.444	298.25
287.675	289.25
287.906	319.25
288.138	306.25
288.369	300.25
288.6	306.25
288.831	305.25
289.062	293.25
289.293	311.25
289.524	297.25
289.755	292.25
289.986	281.25
290.217	296.25
290.448	286.25
290.679	288.25
290.91	295.25
291.141	279.25
291.371	289.25
291.602	289.25
291.833	291.25
292.064	298.25
292.295	281.25
292.526	291.25
292.757	292.25
292.987	314.25
293.218	280.25
293.449	302.25
293.68	300.25
293.91	285.25
294.141	299.25
294.372	290.25
294.603	292.25
294.833	286.25
295.064	316.25
295.295	311.25
295.525	306.25
295.756	313.25
295.987	307.25
296.217	354.25
296.448	344.25
296.679	327.25
296.909	324.25
297.14	306.25
297.37	307.25
297.601	305.25
297.831	311.25
298.062	315.25
298.292	295.25
298.523	317.25
298.753	299.25
298.984	303.25
299.214	296.25
299.445	317.25
299.675	330.25
299.905	324.25
300.136	337.25
300.366	332.25
300.597	313.25
300.827	323.25
301.057	330.25
301.288	361.25
301.518	345.25
301.748	337.25
301.979	325.25
302.209	342.25
302.439	347.25
302.669	327.25
302.9	337.25
303.13	338.25
303.36	325.25
303.59	345.25
303.82	358.25
304.051	361.25
304.281	339.25
304.511	330.25
304.741	329.25
304.971	337.25
305.201	338.25
305.431	326.25
305.661	325.25
305.891	328.25
306.121	344.25
306.352	337.25
306.582	328.25
306.812	347.25
307.042	344.25
307.272	313.25
307.502	336.25
307.731	341.25
307.961	341.25
308.191	334.25
308.421	333.25
308.651	327.25
308.881	350.25
309.111	360.25
309.341	343.25
309.571	375.25
309.8	409.25
310.03	381.25
310.26	407.25
310.49	403.25
310.72	416.25
310.949	437.25
311.179	421.25
311.409	426.25
311.639	393.25
311.868	387.25
312.098	405.25
312.328	406.25
312.557	434.25
312.787	459.25
313.017	415.25
313.246	420.25
313.476	393.25
313.706	404.25
313.935	386.25
314.165	418.25
314.394	427.25
314.624	443.25
314.853	401.25
315.083	409.25
315.312	395.25
315.542	410.25
315.771	392.25
316.001	377.25
316.23	389.25
316.46	391.25
316.689	388.25
316.919	415.25
317.148	417.25
317.377	403.25
317.607	429.25
317.836	409.25
318.065	398.25
318.295	392.25
318.524	393.25
318.753	396.25
318.983	401.25
319.212	404.25
319.441	399.25
319.67	422.25
319.9	415.25
320.129	417.25
320.358	406.25
320.587	390.25
320.816	414.25
321.046	399.25
321.275	440.25
321.504	429.25
321.733	437.25
321.962	447.25
322.191	449.25
322.42	474.25
322.649	467.25
322.878	527.25
323.108	513.25
323.337	541.25
323.566	575.25
323.795	626.25
324.024	667.25
324.253	838.25
324.482	1201.25
324.71	1813.25
324.939	2625.25
325.168	2247.25
325.397	1200.25
325.626	805.25
325.855	642.25
326.084	594.25
326.313	596.25
326.542	606.25
326.77	648.25
326.999	770.25
327.228	1082.25
327.457	1625.25
327.686	1968.25
327.914	1333.25
328.143	896.25
328.372	787.25
328.6	709.25
328.829	677.25
329.058	676.25
329.287	677.25
329.515	645.25
329.744	585.25
329.972	577.25
330.201	615.25
330.43	667.25
330.658	705.25
330.887	748.25
331.115	707.25
331.344	605.25
331.572	540.25
331.801	537.25
332.03	545.25
332.258	531.25
332.486	498.25
332.715	481.25
332.943	479.25
333.172	496.25
333.4	501.25
333.629	506.25
333.857	535.25
334.085	511.25
334.314	553.25
334.542	599.25
334.771	615.25
334.999	555.25
335.227	504.25
335.455	493.25
335.684	462.25
335.912	481.25
336.14	474.25
336.369	465.25
336.597	482.25
336.825	483.25
337.053	479.25
337.281	465.25
337.51	477.25
337.738	456.25
337.966	475.25
338.194	469.25
338.422	471.25
338.65	466.25
338.878	462.25
339.106	451.25
339.334	455.25
339.562	451.25
339.79	457.25
340.018	445.25
340.246	463.25
340.474	460.25
340.702	472.25
340.93	457.25
341.158	449.25
341.386	451.25
341.614	466.25
341.842	464.25
342.07	445.25
342.298	454.25
342.526	450.25
342.754	448.25
342.981	439.25
343.209	433.25
343.437	438.25
343.665	449.25
343.893	436.25
344.12	444.25
344.348	439.25
344.576	452.25
344.804	474.25
345.031	488.25
345.259	490.25
345.487	476.25
345.714	445.25
345.942	453.25
346.17	467.25
346.397	445.25
346.625	429.25
346.853	456.25
347.08	451.25
347.308	441.25
347.535	476.25
347.763	479.25
347.99	480.25
348.218	491.25
348.445	479.25
348.673	475.25
348.9	453.25
349.128	451.25
349.355	434.25
349.583	429.25
349.81	421.25
350.037	433.25
350.265	439.25
350.492	421.25
350.72	433.25
350.947	458.25
351.174	476.25
351.402	479.25
351.629	464.25
351.856	480.25
352.083	483.25
352.311	486.25
352.538	473.25
352.765	493.25
352.992	474.25
353.22	455.25
353.447	461.25
353.674	449.25
353.901	425.25
354.128	424.25
354.355	423.25
354.583	403.25
354.81	422.25
355.037	418.25
355.264	427.25
355.491	407.25
355.718	416.25
355.945	419.25
356.172	398.25
356.399	405.25
356.626	413.25
356.853	414.25
357.08	415.25
357.307	416.25
357.534	412.25
357.761	418.25
357.988	406.25
358.215	426.25
358.441	403.25
358.668	413.25
358.895	417.25
359.122	441.25
359.349	439.25
359.576	468.25
359.802	516.25
360.029	520.25
360.256	550.25
360.483	521.25
360.709	482.25
360.936	447.25
361.163	448.25
361.39	444.25
361.616	462.25
361.843	458.25
362.07	458.25
362.296	468.25
362.523	446.25
362.749	458.25
362.976	467.25
363.203	440.25
363.429	440.25
363.656	451.25
363.882	444.25
364.109	427.25
364.335	426.25
364.562	447.25
364.788	418.25
365.015	430.25
365.241	414.25
365.468	449.25
365.694	453.25
365.92	441.25
366.147	448.25
366.373	423.25
366.599	449.25
366.826	431.25
367.052	416.25
367.278	429.25
367.505	429.25
367.731	424.25
367.957	451.25
368.184	429.25
368.41	456.25
368.636	423.25
368.862	475.25
369.089	441.25
369.315	451.25
369.541	426.25
369.767	455.25
369.993	431.25
370.219	451.25
370.445	448.25
370.672	428.25
370.898	425.25
371.124	423.25
371.35	424.25
371.576	412.25
371.802	426.25
372.028	438.25
372.254	419.25
372.48	415.25
372.706	406.25
372.932	430.25
373.158	453.25
373.384	439.25
373.61	422.25
373.835	433.25
374.061	417.25
374.287	432.25
374.513	447.25
374.739	420.25
374.965	415.25
375.191	430.25
375.416	441.25
375.642	419.25
375.868	411.25
376.094	439.25
376.319	409.25
376.545	437.25
376.771	415.25
376.997	417.25
377.222	433.25
377.448	433.25
377.674	430.25
377.899	398.25
378.125	438.25
378.35	430.25
378.576	430.25
378.802	410.25
379.027	434.25
379.253	421.25
379.478	427.25
379.704	418.25
379.929	435.25
380.155	425.25
380.38	431.25
380.606	445.25
380.831	431.25
381.057	423.25
381.282	415.25
381.507	410.25
381.733	427.25
381.958	422.25
382.184	431.25
382.409	434.25
382.634	430.25
382.86	424.25
383.085	408.25
383.31	430.25
383.535	445.25
383.761	443.25
383.986	439.25
384.211	439.25
384.436	453.25
384.662	458.25
384.887	458.25
385.112	451.25
385.337	461.25
385.562	456.25
385.787	445.25
386.013	477.25
386.238	474.25
386.463	470.25
386.688	455.25
386.913	454.25
387.138	441.25
387.363	472.25
387.588	457.25
387.813	470.25
388.038	449.25
388.263	454.25
388.488	471.25
388.713	473.25
388.938	457.25
389.163	476.25
389.387	479.25
389.612	462.25
389.837	465.25
390.062	475.25
390.287	449.25
390.512	445.25
390.736	450.25
390.961	472.25
391.186	445.25
391.411	453.25
391.636	477.25
391.86	483.25
392.085	461.25
392.31	474.25
392.534	469.25
392.759	459.25
392.984	473.25
393.208	473.25
393.433	459.25
393.658	471.25
393.882	456.25
394.107	465.25
394.331	468.25
394.556	465.25
394.78	465.25
395.005	474.25
395.229	472.25
395.454	476.25
395.678	487.25
395.903	486.25
396.127	506.25
396.352	531.25
396.576	486.25
396.801	494.25
397.025	470.25
397.249	474.25
397.474	501.25
397.698	481.25
397.922	541.25
398.147	520.25
398.371	511.25
398.595	531.25
398.82	532.25
399.044	521.25
399.268	550.25
399.492	573.25
399.717	547.25
399.941	611.25
400.165	625.25
400.389	687.25
400.613	608.25
400.837	571.25
401.062	554.25
401.286	551.25
401.51	541.25
401.734	523.25
401.958	530.25
402.182	538.25
402.406	562.25
402.63	559.25
402.854	549.25
403.078	559.25
403.302	551.25
403.526	567.25
403.75	562.25
403.974	563.25
404.198	543.25
404.422	589.25
404.645	571.25
404.869	581.25
405.093	604.25
405.317	638.25
405.541	674.25
405.765	627.25
405.988	590.25
406.212	604.25
406.436	623.25
406.66	649.25
406.883	603.25
407.107	633.25
407.331	660.25
407.555	727.25
407.778	719.25
408.002	669.25
408.226	631.25
408.449	645.25
408.673	601.25
408.896	659.25
409.12	721.25
409.344	665.25
409.567	599.25
409.791	579.25
410.014	566.25
410.238	555.25
410.461	571.25
410.685	579.25
410.908	592.25
411.132	620.25
411.355	679.25
411.578	616.25
411.802	585.25
412.025	582.25
412.249	593.25
412.472	624.25
412.695	663.25
412.919	647.25
413.142	581.25
413.365	550.25
413.589	561.25
413.812	527.25
414.035	529.25
414.258	529.25
414.482	521.25
414.705	526.25
414.928	539.25
415.151	530.25
415.374	521.25
415.597	543.25
415.821	525.25
416.044	528.25
416.267	526.25
416.49	523.25
416.713	539.25
416.936	527.25
417.159	576.25
417.382	539.25
417.605	535.25
417.828	549.25
418.051	558.25
418.274	550.25
418.497	532.25
418.72	541.25
418.943	560.25
419.166	560.25
419.389	568.25
419.611	574.25
419.834	584.25
420.057	579.25
420.28	561.25
420.503	569.25
420.726	577.25
420.948	581.25
421.171	616.25
421.394	666.25
421.617	599.25
421.839	575.25
422.062	581.25
422.285	559.25
422.507	640.25
422.73	733.25
422.953	682.25
423.175	629.25
423.398	603.25
423.621	598.25
423.843	633.25
424.066	645.25
424.288	632.25
424.511	661.25
424.733	731.25
424.956	779.25
425.178	775.25
425.401	740.25
425.623	779.25
425.846	691.25
426.068	640.25
426.291	648.25
426.513	646.25
426.735	657.25
426.958	703.25
427.18	775.25
427.402	903.25
427.625	1007.25
427.847	932.25
428.069	813.25
428.292	733.25
428.514	635.25
428.736	622.25
428.958	595.25
429.181	594.25
429.403	591.25
429.625	603.25
429.847	647.25
430.069	702.25
430.292	698.25
430.514	637.25
430.736	589.25
430.958	567.25
431.18	557.25
431.402	568.25
431.624	529.25
431.846	521.25
432.068	555.25
432.29	529.25
432.512	546.25
432.734	552.25
432.956	559.25
433.178	574.25
433.4	570.25
433.622	547.25
433.844	533.25
434.066	532.25
434.287	556.25
434.509	522.25
434.731	551.25
434.953	581.25
435.175	581.25
435.397	598.25
435.618	608.25
435.84	681.25
436.062	774.25
436.284	848.25
436.505	726.25
436.727	649.25
436.949	588.25
437.17	580.25
437.392	623.25
437.614	595.25
437.835	636.25
438.057	763.25
438.278	861.25
438.5	863.25
438.721	911.25
438.943	888.25
439.165	717.25
439.386	661.25
439.608	659.25
439.829	680.25
440.05	697.25
440.272	753.25
440.493	693.25
440.715	637.25
440.936	611.25
441.158	608.25
441.379	611.25
441.6	595.25
441.822	662.25
442.043	697.25
442.264	783.25
442.486	821.25
442.707	698.25
442.928	668.25
443.149	669.25
443.371	698.25
443.592	745.25
443.813	819.25
444.034	889.25
444.255	746.25
444.476	657.25
444.698	629.25
444.919	651.25
445.14	759.25
445.361	707.25
445.582	677.25
445.803	771.25
446.024	863.25
446.245	865.25
446.466	770.25
446.687	703.25
446.908	651.25
447.129	629.25
447.35	595.25
447.571	590.25
447.792	597.25
448.013	587.25
448.234	611.25
448.455	693.25
448.675	793.25
448.896	885.25
449.117	787.25
449.338	771.25
449.559	866.25
449.779	942.25
450	782.25
450.221	672.25
450.442	602.25
450.662	603.25
450.883	594.25
451.104	612.25
451.324	621.25
451.545	587.25
451.766	565.25
451.986	557.25
452.207	517.25
452.428	522.25
452.648	546.25
452.869	522.25
453.089	550.25
453.31	544.25
453.53	539.25
453.751	526.25
453.971	537.25
454.192	546.25
454.412	569.25
454.633	542.25
454.853	533.25
455.073	532.25
455.294	574.25
455.514	647.25
455.734	618.25
455.955	539.25
456.175	509.25
456.395	495.25
456.616	483.25
456.836	490.25
457.056	479.25
457.276	468.25
457.497	502.25
457.717	470.25
457.937	503.25
458.157	501.25
458.377	521.25
458.598	533.25
458.818	637.25
459.038	707.25
459.258	749.25
459.478	604.25
459.698	570.25
459.918	526.25
460.138	558.25
460.358	516.25
460.578	524.25
460.798	560.25
461.018	571.25
461.238	545.25
461.458	541.25
461.678	539.25
461.898	538.25
462.118	536.25
462.338	533.25
462.558	543.25
462.777	557.25
462.997	546.25
463.217	563.25
463.437	582.25
463.657	568.25
463.876	563.25
464.096	574.25
464.316	585.25
464.536	591.25
464.755	586.25
464.975	615.25
465.195	675.25
465.414	765.25
465.634	675.25
465.854	620.25
466.073	583.25
466.293	545.25
466.512	525.25
466.732	537.25
466.951	547.25
467.171	547.25
467.391	549.25
467.61	571.25
467.829	567.25
468.049	566.25
468.268	556.25
468.488	547.25
468.707	514.25
468.927	526.25
469.146	518.25
469.365	515.25
469.585	517.25
469.804	563.25
470.023	551.25
470.243	565.25
470.462	569.25
470.681	595.25
470.901	546.25
471.12	562.25
471.339	561.25
471.558	560.25
471.777	559.25
471.997	542.25
472.216	552.25
472.435	593.25
472.654	617.25
472.873	557.25
473.092	549.25
473.311	551.25
473.53	558.25
473.749	563.25
473.968	608.25
474.187	730.25
474.406	746.25
474.625	632.25
474.844	574.25
475.063	571.25
475.282	565.25
475.501	540.25
475.72	561.25
475.939	576.25
476.158	568.25
476.377	555.25
476.596	575.25
476.814	571.25
477.033	587.25
477.252	573.25
477.471	575.25
477.69	575.25
477.908	603.25
478.127	579.25
478.346	591.25
478.564	577.25
478.783	615.25
479.002	635.25
479.22	598.25
479.439	654.25
479.658	649.25
479.876	665.25
480.095	678.25
480.313	728.25
480.532	711.25
480.751	659.25
480.969	661.25
481.188	796.25
481.406	848.25
481.624	743.25
481.843	706.25
482.061	672.25
482.28	665.25
482.498	651.25
482.717	639.25
482.935	658.25
483.153	655.25
483.372	657.25
483.59	659.25
483.808	641.25
484.027	652.25
484.245	626.25
484.463	656.25
484.681	675.25
484.9	681.25
485.118	659.25
485.336	665.25
485.554	677.25
485.772	674.25
485.99	674.25
486.209	673.25
486.427	682.25
486.645	657.25
486.863	710.25
487.081	741.25
487.299	697.25
487.517	714.25
487.735	695.25
487.953	730.25
488.171	730.25
488.389	679.25
488.607	725.25
488.825	689.25
489.043	733.25
489.261	734.25
489.479	733.25
489.696	718.25
489.914	738.25
490.132	721.25
490.35	749.25
490.568	736.25
490.786	769.25
491.003	779.25
491.221	797.25
491.439	811.25
491.657	819.25
491.874	811.25
492.092	844.25
492.31	856.25
492.527	857.25
492.745	851.25
492.963	847.25
493.18	830.25
493.398	863.25
493.615	863.25
493.833	857.25
494.05	846.25
494.268	843.25
494.485	879.25
494.703	858.25
494.92	851.25
495.138	858.25
495.355	866.25
495.573	845.25
495.79	872.25
496.008	885.25
496.225	857.25
496.442	838.25
496.66	863.25
496.877	862.25
497.094	850.25
497.312	865.25
497.529	863.25
497.746	878.25
497.963	869.25
498.181	897.25
498.398	887.25
498.615	892.25
498.832	901.25
499.049	931.25
499.267	905.25
499.484	944.25
499.701	959.25
499.918	999.25
500.135	1047.25
500.352	1041.25
500.569	1067.25
500.786	1081.25
501.003	1062.25
501.22	1035.25
501.437	998.25
501.654	1029.25
501.871	1011.25
