Data from 1970.PennyLincolnUp.Lamp.En5.5.200Scan.071719.P1._HRD10591_15-13-45-842.txt Node
Date: Thu Jul 18 15:13:45 EDT 2019
User: cochatt
Spectrometer: HR+D1059
Trigger mode: 1
Integration Time (sec): 1.000000E-1
Scans to average: 1
Electric dark correction enabled: true
Nonlinearity correction enabled: false
Boxcar width: 0
XAxis mode: Wavelengths
Number of Pixels in Spectrum: 2048
>>>>>Begin Spectral Data<<<<<
223.165	-11.56
223.4	-11.56
223.635	-11.56
223.869	-9.56
224.104	-21.56
224.338	-27.56
224.573	-14.56
224.808	-9.56
225.042	-11.56
225.277	-3.56
225.511	-9.56
225.746	8.44
225.98	10.44
226.215	16.44
226.449	16.44
226.683	20.44
226.918	14.44
227.152	32.44
227.387	35.44
227.621	35.44
227.856	43.44
228.09	47.44
228.324	57.44
228.559	54.44
228.793	58.44
229.027	118.44
229.262	110.44
229.496	120.44
229.73	142.44
229.964	176.44
230.199	145.44
230.433	120.44
230.667	128.44
230.901	108.44
231.136	118.44
231.37	92.44
231.604	119.44
231.838	118.44
232.072	115.44
232.306	126.44
232.541	110.44
232.775	112.44
233.009	110.44
233.243	120.44
233.477	112.44
233.711	115.44
233.945	127.44
234.179	119.44
234.413	131.44
234.647	120.44
234.881	127.44
235.115	113.44
235.349	108.44
235.583	122.44
235.817	127.44
236.051	132.44
236.285	126.44
236.519	127.44
236.753	149.44
236.987	148.44
237.221	186.44
237.455	246.44
237.689	198.44
237.922	152.44
238.156	147.44
238.39	140.44
238.624	132.44
238.858	130.44
239.091	117.44
239.325	134.44
239.559	140.44
239.793	134.44
240.027	144.44
240.26	155.44
240.494	163.44
240.728	152.44
240.961	171.44
241.195	136.44
241.429	149.44
241.662	152.44
241.896	130.44
242.13	133.44
242.363	162.44
242.597	145.44
242.83	151.44
243.064	134.44
243.298	146.44
243.531	135.44
243.765	154.44
243.998	150.44
244.232	130.44
244.465	145.44
244.699	154.44
244.932	145.44
245.166	152.44
245.399	155.44
245.633	159.44
245.866	165.44
246.099	157.44
246.333	166.44
246.566	164.44
246.8	143.44
247.033	166.44
247.266	182.44
247.5	186.44
247.733	168.44
247.966	173.44
248.2	194.44
248.433	191.44
248.666	204.44
248.899	205.44
249.133	229.44
249.366	205.44
249.599	210.44
249.832	199.44
250.066	203.44
250.299	182.44
250.532	196.44
250.765	216.44
250.998	240.44
251.231	228.44
251.465	252.44
251.698	226.44
251.931	205.44
252.164	207.44
252.397	208.44
252.63	219.44
252.863	236.44
253.096	232.44
253.329	248.44
253.562	239.44
253.795	250.44
254.028	233.44
254.261	216.44
254.494	248.44
254.727	275.44
254.96	313.44
255.193	289.44
255.426	290.44
255.659	238.44
255.892	258.44
256.124	253.44
256.357	243.44
256.59	216.44
256.823	229.44
257.056	224.44
257.289	235.44
257.521	217.44
257.754	210.44
257.987	229.44
258.22	210.44
258.452	218.44
258.685	212.44
258.918	208.44
259.151	206.44
259.383	230.44
259.616	233.44
259.849	239.44
260.081	267.44
260.314	277.44
260.547	262.44
260.779	268.44
261.012	247.44
261.244	249.44
261.477	246.44
261.71	240.44
261.942	238.44
262.175	249.44
262.407	239.44
262.64	223.44
262.872	227.44
263.105	214.44
263.337	214.44
263.57	199.44
263.802	218.44
264.035	233.44
264.267	223.44
264.499	198.44
264.732	214.44
264.964	223.44
265.197	211.44
265.429	219.44
265.661	205.44
265.894	227.44
266.126	223.44
266.358	207.44
266.591	236.44
266.823	205.44
267.055	213.44
267.287	224.44
267.52	223.44
267.752	227.44
267.984	232.44
268.216	238.44
268.448	238.44
268.681	238.44
268.913	246.44
269.145	263.44
269.377	270.44
269.609	278.44
269.841	268.44
270.073	260.44
270.306	292.44
270.538	315.44
270.77	320.44
271.002	313.44
271.234	295.44
271.466	302.44
271.698	306.44
271.93	312.44
272.162	314.44
272.394	324.44
272.626	292.44
272.858	290.44
273.09	292.44
273.322	272.44
273.553	262.44
273.785	265.44
274.017	242.44
274.249	270.44
274.481	247.44
274.713	278.44
274.945	279.44
275.176	284.44
275.408	277.44
275.64	254.44
275.872	269.44
276.104	267.44
276.335	272.44
276.567	269.44
276.799	276.44
277.031	302.44
277.262	311.44
277.494	309.44
277.726	301.44
277.957	272.44
278.189	277.44
278.421	267.44
278.652	280.44
278.884	272.44
279.115	278.44
279.347	266.44
279.579	267.44
279.81	278.44
280.042	280.44
280.273	291.44
280.505	245.44
280.736	268.44
280.968	241.44
281.199	260.44
281.431	261.44
281.662	246.44
281.894	246.44
282.125	281.44
282.356	287.44
282.588	282.44
282.819	306.44
283.051	274.44
283.282	276.44
283.513	275.44
283.745	254.44
283.976	276.44
284.207	267.44
284.439	270.44
284.67	273.44
284.901	274.44
285.132	276.44
285.364	278.44
285.595	269.44
285.826	248.44
286.057	279.44
286.288	268.44
286.52	267.44
286.751	275.44
286.982	304.44
287.213	275.44
287.444	260.44
287.675	276.44
287.906	281.44
288.138	303.44
288.369	306.44
288.6	287.44
288.831	319.44
289.062	281.44
289.293	280.44
289.524	261.44
289.755	286.44
289.986	268.44
290.217	270.44
290.448	295.44
290.679	283.44
290.91	292.44
291.141	282.44
291.371	291.44
291.602	268.44
291.833	273.44
292.064	292.44
292.295	299.44
292.526	283.44
292.757	271.44
292.987	276.44
293.218	259.44
293.449	289.44
293.68	274.44
293.91	286.44
294.141	273.44
294.372	286.44
294.603	285.44
294.833	268.44
295.064	285.44
295.295	291.44
295.525	286.44
295.756	293.44
295.987	312.44
296.217	308.44
296.448	315.44
296.679	290.44
296.909	291.44
297.14	288.44
297.37	286.44
297.601	297.44
297.831	285.44
298.062	294.44
298.292	290.44
298.523	290.44
298.753	287.44
298.984	300.44
299.214	298.44
299.445	283.44
299.675	291.44
299.905	313.44
300.136	289.44
300.366	296.44
300.597	301.44
300.827	314.44
301.057	308.44
301.288	323.44
301.518	308.44
301.748	308.44
301.979	315.44
302.209	303.44
302.439	304.44
302.669	309.44
302.9	316.44
303.13	316.44
303.36	307.44
303.59	318.44
303.82	322.44
304.051	320.44
304.281	322.44
304.511	320.44
304.741	315.44
304.971	303.44
305.201	322.44
305.431	319.44
305.661	314.44
305.891	311.44
306.121	324.44
306.352	346.44
306.582	326.44
306.812	314.44
307.042	328.44
307.272	314.44
307.502	329.44
307.731	317.44
307.961	302.44
308.191	323.44
308.421	325.44
308.651	324.44
308.881	334.44
309.111	335.44
309.341	329.44
309.571	326.44
309.8	351.44
310.03	348.44
310.26	352.44
310.49	374.44
310.72	386.44
310.949	390.44
311.179	413.44
311.409	375.44
311.639	372.44
311.868	354.44
312.098	358.44
312.328	381.44
312.557	387.44
312.787	391.44
313.017	408.44
313.246	379.44
313.476	374.44
313.706	369.44
313.935	383.44
314.165	372.44
314.394	391.44
314.624	386.44
314.853	367.44
315.083	360.44
315.312	375.44
315.542	364.44
315.771	363.44
316.001	368.44
316.23	343.44
316.46	362.44
316.689	363.44
316.919	371.44
317.148	372.44
317.377	383.44
317.607	363.44
317.836	380.44
318.065	372.44
318.295	355.44
318.524	359.44
318.753	369.44
318.983	382.44
319.212	385.44
319.441	376.44
319.67	369.44
319.9	362.44
320.129	352.44
320.358	382.44
320.587	386.44
320.816	379.44
321.046	392.44
321.275	400.44
321.504	386.44
321.733	398.44
321.962	404.44
322.191	430.44
322.42	423.44
322.649	454.44
322.878	452.44
323.108	464.44
323.337	480.44
323.566	527.44
323.795	546.44
324.024	608.44
324.253	730.44
324.482	987.44
324.71	1535.44
324.939	2181.44
325.168	1888.44
325.397	989.44
325.626	687.44
325.855	558.44
326.084	536.44
326.313	514.44
326.542	505.44
326.77	563.44
326.999	635.44
327.228	886.44
327.457	1375.44
327.686	1605.44
327.914	1114.44
328.143	770.44
328.372	652.44
328.6	629.44
328.829	572.44
329.058	582.44
329.287	608.44
329.515	570.44
329.744	520.44
329.972	515.44
330.201	531.44
330.43	565.44
330.658	594.44
330.887	642.44
331.115	608.44
331.344	536.44
331.572	501.44
331.801	485.44
332.03	475.44
332.258	475.44
332.486	449.44
332.715	463.44
332.943	452.44
333.172	430.44
333.4	444.44
333.629	458.44
333.857	471.44
334.085	478.44
334.314	484.44
334.542	522.44
334.771	554.44
334.999	498.44
335.227	477.44
335.455	442.44
335.684	443.44
335.912	459.44
336.14	450.44
336.369	450.44
336.597	446.44
336.825	433.44
337.053	440.44
337.281	434.44
337.51	436.44
337.738	436.44
337.966	449.44
338.194	445.44
338.422	428.44
338.65	433.44
338.878	429.44
339.106	417.44
339.334	424.44
339.562	420.44
339.79	422.44
340.018	415.44
340.246	416.44
340.474	451.44
340.702	407.44
340.93	436.44
341.158	415.44
341.386	414.44
341.614	430.44
341.842	430.44
342.07	405.44
342.298	436.44
342.526	410.44
342.754	414.44
342.981	396.44
343.209	423.44
343.437	396.44
343.665	411.44
343.893	420.44
344.12	418.44
344.348	419.44
344.576	441.44
344.804	422.44
345.031	440.44
345.259	470.44
345.487	449.44
345.714	418.44
345.942	438.44
346.17	419.44
346.397	419.44
346.625	414.44
346.853	400.44
347.08	412.44
347.308	436.44
347.535	404.44
347.763	444.44
347.99	427.44
348.218	455.44
348.445	452.44
348.673	417.44
348.9	414.44
349.128	412.44
349.355	417.44
349.583	410.44
349.81	391.44
350.037	416.44
350.265	392.44
350.492	393.44
350.72	419.44
350.947	431.44
351.174	434.44
351.402	436.44
351.629	435.44
351.856	406.44
352.083	429.44
352.311	438.44
352.538	431.44
352.765	446.44
352.992	430.44
353.22	406.44
353.447	408.44
353.674	411.44
353.901	404.44
354.128	396.44
354.355	401.44
354.583	390.44
354.81	388.44
355.037	389.44
355.264	386.44
355.491	379.44
355.718	394.44
355.945	390.44
356.172	390.44
356.399	395.44
356.626	379.44
356.853	392.44
357.08	387.44
357.307	412.44
357.534	400.44
357.761	413.44
357.988	381.44
358.215	390.44
358.441	394.44
358.668	424.44
358.895	410.44
359.122	399.44
359.349	400.44
359.576	423.44
359.802	438.44
360.029	476.44
360.256	498.44
360.483	475.44
360.709	439.44
360.936	414.44
361.163	434.44
361.39	421.44
361.616	445.44
361.843	430.44
362.07	418.44
362.296	439.44
362.523	404.44
362.749	419.44
362.976	427.44
363.203	423.44
363.429	396.44
363.656	418.44
363.882	406.44
364.109	408.44
364.335	398.44
364.562	413.44
364.788	404.44
365.015	395.44
365.241	421.44
365.468	421.44
365.694	421.44
365.92	427.44
366.147	401.44
366.373	403.44
366.599	397.44
366.826	387.44
367.052	416.44
367.278	429.44
367.505	405.44
367.731	413.44
367.957	418.44
368.184	404.44
368.41	413.44
368.636	431.44
368.862	431.44
369.089	436.44
369.315	410.44
369.541	398.44
369.767	424.44
369.993	414.44
370.219	423.44
370.445	410.44
370.672	409.44
370.898	411.44
371.124	412.44
371.35	405.44
371.576	411.44
371.802	391.44
372.028	416.44
372.254	408.44
372.48	400.44
372.706	412.44
372.932	421.44
373.158	394.44
373.384	416.44
373.61	420.44
373.835	409.44
374.061	408.44
374.287	427.44
374.513	419.44
374.739	421.44
374.965	413.44
375.191	428.44
375.416	422.44
375.642	397.44
375.868	415.44
376.094	414.44
376.319	418.44
376.545	418.44
376.771	430.44
376.997	411.44
377.222	408.44
377.448	404.44
377.674	420.44
377.899	418.44
378.125	414.44
378.35	406.44
378.576	410.44
378.802	405.44
379.027	401.44
379.253	422.44
379.478	399.44
379.704	407.44
379.929	399.44
380.155	405.44
380.38	416.44
380.606	409.44
380.831	401.44
381.057	424.44
381.282	418.44
381.507	408.44
381.733	400.44
381.958	394.44
382.184	415.44
382.409	424.44
382.634	438.44
382.86	427.44
383.085	423.44
383.31	407.44
383.535	437.44
383.761	429.44
383.986	413.44
384.211	436.44
384.436	428.44
384.662	442.44
384.887	444.44
385.112	434.44
385.337	444.44
385.562	442.44
385.787	440.44
386.013	444.44
386.238	445.44
386.463	459.44
386.688	435.44
386.913	462.44
387.138	463.44
387.363	453.44
387.588	439.44
387.813	452.44
388.038	444.44
388.263	428.44
388.488	460.44
388.713	444.44
388.938	452.44
389.163	469.44
389.387	446.44
389.612	440.44
389.837	444.44
390.062	459.44
390.287	455.44
390.512	437.44
390.736	467.44
390.961	450.44
391.186	454.44
391.411	442.44
391.636	475.44
391.86	463.44
392.085	459.44
392.31	461.44
392.534	467.44
392.759	461.44
392.984	461.44
393.208	480.44
393.433	456.44
393.658	500.44
393.882	469.44
394.107	454.44
394.331	476.44
394.556	438.44
394.78	457.44
395.005	466.44
395.229	460.44
395.454	459.44
395.678	475.44
395.903	478.44
396.127	504.44
396.352	514.44
396.576	489.44
396.801	488.44
397.025	457.44
397.249	469.44
397.474	494.44
397.698	491.44
397.922	501.44
398.147	500.44
398.371	504.44
398.595	503.44
398.82	512.44
399.044	501.44
399.268	527.44
399.492	536.44
399.717	575.44
399.941	591.44
400.165	639.44
400.389	603.44
400.613	584.44
400.837	539.44
401.062	528.44
401.286	507.44
401.51	529.44
401.734	509.44
401.958	528.44
402.182	522.44
402.406	537.44
402.63	547.44
402.854	550.44
403.078	550.44
403.302	535.44
403.526	528.44
403.75	536.44
403.974	528.44
404.198	534.44
404.422	556.44
404.645	559.44
404.869	537.44
405.093	569.44
405.317	588.44
405.541	635.44
405.765	599.44
405.988	557.44
406.212	568.44
406.436	619.44
406.66	615.44
406.883	579.44
407.107	618.44
407.331	634.44
407.555	688.44
407.778	702.44
408.002	650.44
408.226	618.44
408.449	578.44
408.673	600.44
408.896	620.44
409.12	643.44
409.344	640.44
409.567	548.44
409.791	554.44
410.014	549.44
410.238	558.44
410.461	541.44
410.685	551.44
410.908	563.44
411.132	623.44
411.355	637.44
411.578	613.44
411.802	558.44
412.025	538.44
412.249	551.44
412.472	583.44
412.695	615.44
412.919	597.44
413.142	566.44
413.365	529.44
413.589	520.44
413.812	515.44
414.035	534.44
414.258	519.44
414.482	519.44
414.705	509.44
414.928	504.44
415.151	508.44
415.374	513.44
415.597	517.44
415.821	507.44
416.044	495.44
416.267	519.44
416.49	519.44
416.713	511.44
416.936	524.44
417.159	522.44
417.382	505.44
417.605	531.44
417.828	534.44
418.051	562.44
418.274	539.44
418.497	545.44
418.72	534.44
418.943	513.44
419.166	531.44
419.389	550.44
419.611	560.44
419.834	541.44
420.057	552.44
420.28	550.44
420.503	530.44
420.726	566.44
420.948	555.44
421.171	610.44
421.394	631.44
421.617	578.44
421.839	553.44
422.062	571.44
422.285	570.44
422.507	615.44
422.73	706.44
422.953	672.44
423.175	629.44
423.398	569.44
423.621	578.44
423.843	607.44
424.066	599.44
424.288	588.44
424.511	635.44
424.733	655.44
424.956	761.44
425.178	735.44
425.401	727.44
425.623	736.44
425.846	648.44
426.068	588.44
426.291	602.44
426.513	585.44
426.735	604.44
426.958	651.44
427.18	708.44
427.402	857.44
427.625	934.44
427.847	860.44
428.069	724.44
428.292	645.44
428.514	589.44
428.736	576.44
428.958	589.44
429.181	568.44
429.403	559.44
429.625	562.44
429.847	612.44
430.069	666.44
430.292	671.44
430.514	588.44
430.736	551.44
430.958	563.44
431.18	535.44
431.402	548.44
431.624	515.44
431.846	522.44
432.068	528.44
432.29	516.44
432.512	526.44
432.734	531.44
432.956	519.44
433.178	549.44
433.4	551.44
433.622	537.44
433.844	543.44
434.066	509.44
434.287	520.44
434.509	526.44
434.731	530.44
434.953	543.44
435.175	549.44
435.397	570.44
435.618	593.44
435.84	646.44
436.062	751.44
436.284	799.44
436.505	662.44
436.727	603.44
436.949	558.44
437.17	576.44
437.392	556.44
437.614	578.44
437.835	607.44
438.057	691.44
438.278	783.44
438.5	793.44
438.721	864.44
438.943	856.44
439.165	699.44
439.386	635.44
439.608	608.44
439.829	600.44
440.05	630.44
440.272	664.44
440.493	640.44
440.715	589.44
440.936	587.44
441.158	555.44
441.379	563.44
441.6	571.44
441.822	601.44
442.043	637.44
442.264	747.44
442.486	773.44
442.707	659.44
442.928	634.44
443.149	644.44
443.371	640.44
443.592	700.44
443.813	774.44
444.034	840.44
444.255	723.44
444.476	622.44
444.698	618.44
444.919	609.44
445.14	723.44
445.361	682.44
445.582	620.44
445.803	693.44
446.024	810.44
446.245	820.44
446.466	770.44
446.687	662.44
446.908	624.44
447.129	596.44
447.35	547.44
447.571	552.44
447.792	559.44
448.013	575.44
448.234	592.44
448.455	632.44
448.675	756.44
448.896	858.44
449.117	718.44
449.338	705.44
449.559	795.44
449.779	873.44
450	727.44
450.221	617.44
450.442	580.44
450.662	555.44
450.883	563.44
451.104	593.44
451.324	553.44
451.545	540.44
451.766	528.44
451.986	507.44
452.207	482.44
452.428	495.44
452.648	504.44
452.869	494.44
453.089	526.44
453.31	516.44
453.53	508.44
453.751	487.44
453.971	501.44
454.192	504.44
454.412	493.44
454.633	512.44
454.853	493.44
455.073	486.44
455.294	542.44
455.514	605.44
455.734	579.44
455.955	500.44
456.175	479.44
456.395	471.44
456.616	462.44
456.836	476.44
457.056	481.44
457.276	473.44
457.497	470.44
457.717	461.44
457.937	483.44
458.157	472.44
458.377	473.44
458.598	502.44
458.818	587.44
459.038	684.44
459.258	692.44
459.478	593.44
459.698	534.44
459.918	526.44
460.138	502.44
460.358	540.44
460.578	534.44
460.798	528.44
461.018	526.44
461.238	500.44
461.458	527.44
461.678	525.44
461.898	510.44
462.118	502.44
462.338	556.44
462.558	520.44
462.777	520.44
462.997	558.44
463.217	561.44
463.437	562.44
463.657	553.44
463.876	549.44
464.096	565.44
464.316	529.44
464.536	556.44
464.755	566.44
464.975	567.44
465.195	603.44
465.414	704.44
465.634	628.44
465.854	568.44
466.073	525.44
466.293	510.44
466.512	515.44
466.732	504.44
466.951	511.44
467.171	512.44
467.391	529.44
467.61	515.44
467.829	547.44
468.049	524.44
468.268	517.44
468.488	504.44
468.707	486.44
468.927	488.44
469.146	503.44
469.365	517.44
469.585	498.44
469.804	540.44
470.023	517.44
470.243	504.44
470.462	541.44
470.681	536.44
470.901	522.44
471.12	517.44
471.339	499.44
471.558	536.44
471.777	504.44
471.997	522.44
472.216	525.44
472.435	566.44
472.654	542.44
472.873	522.44
473.092	536.44
473.311	513.44
473.53	527.44
473.749	525.44
473.968	581.44
474.187	675.44
474.406	690.44
474.625	610.44
474.844	551.44
475.063	543.44
475.282	562.44
475.501	534.44
475.72	540.44
475.939	548.44
476.158	556.44
476.377	527.44
476.596	547.44
476.814	532.44
477.033	532.44
477.252	553.44
477.471	583.44
477.69	564.44
477.908	568.44
478.127	584.44
478.346	535.44
478.564	573.44
478.783	574.44
479.002	566.44
479.22	604.44
479.439	610.44
479.658	632.44
479.876	632.44
480.095	623.44
480.313	660.44
480.532	646.44
480.751	633.44
480.969	635.44
481.188	680.44
481.406	741.44
481.624	664.44
481.843	638.44
482.061	615.44
482.28	642.44
482.498	618.44
482.717	610.44
482.935	630.44
483.153	605.44
483.372	605.44
483.59	614.44
483.808	636.44
484.027	605.44
484.245	622.44
484.463	632.44
484.681	617.44
484.9	630.44
485.118	603.44
485.336	621.44
485.554	663.44
485.772	663.44
485.99	644.44
486.209	656.44
486.427	676.44
486.645	672.44
486.863	698.44
487.081	674.44
487.299	691.44
487.517	659.44
487.735	685.44
487.953	687.44
488.171	690.44
488.389	690.44
488.607	674.44
488.825	686.44
489.043	692.44
489.261	691.44
489.479	679.44
489.696	677.44
489.914	697.44
490.132	690.44
490.35	739.44
490.568	719.44
490.786	716.44
491.003	748.44
491.221	772.44
491.439	789.44
491.657	736.44
491.874	778.44
492.092	790.44
492.31	778.44
492.527	768.44
492.745	809.44
492.963	782.44
493.18	770.44
493.398	775.44
493.615	814.44
493.833	792.44
494.05	827.44
494.268	805.44
494.485	799.44
494.703	821.44
494.92	826.44
495.138	808.44
495.355	822.44
495.573	822.44
495.79	826.44
496.008	796.44
496.225	813.44
496.442	795.44
496.66	828.44
496.877	821.44
497.094	839.44
497.312	823.44
497.529	821.44
497.746	815.44
497.963	845.44
498.181	869.44
498.398	889.44
498.615	867.44
498.832	873.44
499.049	908.44
499.267	894.44
499.484	904.44
499.701	958.44
499.918	978.44
500.135	982.44
500.352	1014.44
500.569	1016.44
500.786	1035.44
501.003	1033.44
501.22	1040.44
501.437	995.44
501.654	982.44
501.871	968.44
