Data from 1970.PennyLincolnUp.Lamp.En5.5.200Scan.071719.P1._HRD10591_15-13-04-843.txt Node
Date: Thu Jul 18 15:13:04 EDT 2019
User: cochatt
Spectrometer: HR+D1059
Trigger mode: 1
Integration Time (sec): 1.000000E-1
Scans to average: 1
Electric dark correction enabled: true
Nonlinearity correction enabled: false
Boxcar width: 0
XAxis mode: Wavelengths
Number of Pixels in Spectrum: 2048
>>>>>Begin Spectral Data<<<<<
223.165	-9.31
223.4	-9.31
223.635	-9.31
223.869	-22.31
224.104	-10.31
224.338	-13.31
224.573	-14.31
224.808	-21.31
225.042	-17.31
225.277	-8.31
225.511	0.69
225.746	7.69
225.98	10.69
226.215	23.69
226.449	6.69
226.683	13.69
226.918	33.69
227.152	19.69
227.387	31.69
227.621	43.69
227.856	57.69
228.09	38.69
228.324	48.69
228.559	63.69
228.793	69.69
229.027	92.69
229.262	108.69
229.496	98.69
229.73	125.69
229.964	128.69
230.199	111.69
230.433	107.69
230.667	105.69
230.901	114.69
231.136	116.69
231.37	107.69
231.604	93.69
231.838	96.69
232.072	111.69
232.306	101.69
232.541	101.69
232.775	113.69
233.009	112.69
233.243	117.69
233.477	111.69
233.711	121.69
233.945	102.69
234.179	113.69
234.413	96.69
234.647	125.69
234.881	108.69
235.115	107.69
235.349	117.69
235.583	122.69
235.817	106.69
236.051	118.69
236.285	133.69
236.519	104.69
236.753	129.69
236.987	130.69
237.221	157.69
237.455	208.69
237.689	161.69
237.922	138.69
238.156	132.69
238.39	107.69
238.624	129.69
238.858	123.69
239.091	115.69
239.325	115.69
239.559	120.69
239.793	121.69
240.027	121.69
240.26	129.69
240.494	124.69
240.728	119.69
240.961	147.69
241.195	125.69
241.429	127.69
241.662	112.69
241.896	129.69
242.13	119.69
242.363	115.69
242.597	131.69
242.83	129.69
243.064	141.69
243.298	129.69
243.531	125.69
243.765	149.69
243.998	128.69
244.232	114.69
244.465	129.69
244.699	146.69
244.932	135.69
245.166	137.69
245.399	130.69
245.633	130.69
245.866	136.69
246.099	137.69
246.333	138.69
246.566	146.69
246.8	155.69
247.033	135.69
247.266	139.69
247.5	157.69
247.733	159.69
247.966	169.69
248.2	176.69
248.433	154.69
248.666	169.69
248.899	158.69
249.133	185.69
249.366	191.69
249.599	187.69
249.832	181.69
250.066	189.69
250.299	174.69
250.532	176.69
250.765	184.69
250.998	193.69
251.231	187.69
251.465	191.69
251.698	182.69
251.931	204.69
252.164	185.69
252.397	170.69
252.63	170.69
252.863	204.69
253.096	189.69
253.329	189.69
253.562	204.69
253.795	198.69
254.028	185.69
254.261	195.69
254.494	188.69
254.727	225.69
254.96	228.69
255.193	234.69
255.426	220.69
255.659	217.69
255.892	211.69
256.124	194.69
256.357	198.69
256.59	173.69
256.823	187.69
257.056	182.69
257.289	182.69
257.521	194.69
257.754	172.69
257.987	195.69
258.22	199.69
258.452	197.69
258.685	193.69
258.918	168.69
259.151	174.69
259.383	200.69
259.616	189.69
259.849	202.69
260.081	207.69
260.314	234.69
260.547	229.69
260.779	220.69
261.012	203.69
261.244	198.69
261.477	219.69
261.71	201.69
261.942	190.69
262.175	201.69
262.407	195.69
262.64	187.69
262.872	201.69
263.105	196.69
263.337	196.69
263.57	168.69
263.802	172.69
264.035	168.69
264.267	177.69
264.499	171.69
264.732	177.69
264.964	182.69
265.197	169.69
265.429	184.69
265.661	179.69
265.894	180.69
266.126	185.69
266.358	188.69
266.591	192.69
266.823	203.69
267.055	185.69
267.287	186.69
267.52	213.69
267.752	185.69
267.984	183.69
268.216	195.69
268.448	193.69
268.681	199.69
268.913	208.69
269.145	214.69
269.377	226.69
269.609	216.69
269.841	229.69
270.073	229.69
270.306	229.69
270.538	246.69
270.77	254.69
271.002	245.69
271.234	220.69
271.466	238.69
271.698	248.69
271.93	253.69
272.162	257.69
272.394	233.69
272.626	240.69
272.858	232.69
273.09	222.69
273.322	218.69
273.553	215.69
273.785	221.69
274.017	228.69
274.249	209.69
274.481	218.69
274.713	228.69
274.945	222.69
275.176	209.69
275.408	232.69
275.64	198.69
275.872	222.69
276.104	222.69
276.335	199.69
276.567	201.69
276.799	224.69
277.031	244.69
277.262	243.69
277.494	246.69
277.726	236.69
277.957	214.69
278.189	227.69
278.421	235.69
278.652	217.69
278.884	230.69
279.115	218.69
279.347	218.69
279.579	197.69
279.81	213.69
280.042	235.69
280.273	220.69
280.505	233.69
280.736	215.69
280.968	221.69
281.199	204.69
281.431	213.69
281.662	210.69
281.894	203.69
282.125	211.69
282.356	223.69
282.588	230.69
282.819	245.69
283.051	221.69
283.282	203.69
283.513	203.69
283.745	212.69
283.976	218.69
284.207	210.69
284.439	209.69
284.67	223.69
284.901	226.69
285.132	217.69
285.364	207.69
285.595	220.69
285.826	221.69
286.057	230.69
286.288	232.69
286.52	214.69
286.751	208.69
286.982	230.69
287.213	221.69
287.444	251.69
287.675	231.69
287.906	235.69
288.138	217.69
288.369	222.69
288.6	240.69
288.831	226.69
289.062	238.69
289.293	223.69
289.524	221.69
289.755	235.69
289.986	215.69
290.217	219.69
290.448	230.69
290.679	231.69
290.91	224.69
291.141	209.69
291.371	212.69
291.602	221.69
291.833	226.69
292.064	225.69
292.295	225.69
292.526	238.69
292.757	225.69
292.987	231.69
293.218	215.69
293.449	239.69
293.68	229.69
293.91	231.69
294.141	231.69
294.372	223.69
294.603	211.69
294.833	237.69
295.064	234.69
295.295	225.69
295.525	223.69
295.756	235.69
295.987	230.69
296.217	234.69
296.448	242.69
296.679	234.69
296.909	232.69
297.14	231.69
297.37	240.69
297.601	240.69
297.831	247.69
298.062	218.69
298.292	250.69
298.523	226.69
298.753	239.69
298.984	225.69
299.214	234.69
299.445	248.69
299.675	243.69
299.905	246.69
300.136	229.69
300.366	236.69
300.597	230.69
300.827	239.69
301.057	234.69
301.288	254.69
301.518	234.69
301.748	235.69
301.979	227.69
302.209	251.69
302.439	269.69
302.669	237.69
302.9	235.69
303.13	233.69
303.36	235.69
303.59	229.69
303.82	271.69
304.051	265.69
304.281	243.69
304.511	237.69
304.741	253.69
304.971	242.69
305.201	229.69
305.431	254.69
305.661	260.69
305.891	237.69
306.121	257.69
306.352	225.69
306.582	264.69
306.812	248.69
307.042	251.69
307.272	241.69
307.502	250.69
307.731	245.69
307.961	233.69
308.191	237.69
308.421	249.69
308.651	247.69
308.881	270.69
309.111	264.69
309.341	258.69
309.571	255.69
309.8	257.69
310.03	273.69
310.26	268.69
310.49	278.69
310.72	295.69
310.949	321.69
311.179	316.69
311.409	275.69
311.639	293.69
311.868	275.69
312.098	289.69
312.328	299.69
312.557	315.69
312.787	301.69
313.017	297.69
313.246	288.69
313.476	287.69
313.706	277.69
313.935	286.69
314.165	301.69
314.394	296.69
314.624	295.69
314.853	282.69
315.083	278.69
315.312	279.69
315.542	285.69
315.771	281.69
316.001	285.69
316.23	280.69
316.46	274.69
316.689	276.69
316.919	286.69
317.148	297.69
317.377	295.69
317.607	279.69
317.836	297.69
318.065	283.69
318.295	279.69
318.524	282.69
318.753	294.69
318.983	283.69
319.212	289.69
319.441	291.69
319.67	314.69
319.9	280.69
320.129	269.69
320.358	282.69
320.587	279.69
320.816	295.69
321.046	315.69
321.275	320.69
321.504	298.69
321.733	296.69
321.962	305.69
322.191	305.69
322.42	322.69
322.649	336.69
322.878	325.69
323.108	340.69
323.337	339.69
323.566	368.69
323.795	386.69
324.024	410.69
324.253	465.69
324.482	638.69
324.71	965.69
324.939	1435.69
325.168	1235.69
325.397	643.69
325.626	453.69
325.855	377.69
326.084	362.69
326.313	352.69
326.542	376.69
326.77	387.69
326.999	431.69
327.228	604.69
327.457	890.69
327.686	1070.69
327.914	712.69
328.143	503.69
328.372	429.69
328.6	406.69
328.829	401.69
329.058	424.69
329.287	389.69
329.515	382.69
329.744	387.69
329.972	351.69
330.201	380.69
330.43	375.69
330.658	412.69
330.887	423.69
331.115	423.69
331.344	380.69
331.572	353.69
331.801	350.69
332.03	347.69
332.258	341.69
332.486	339.69
332.715	347.69
332.943	348.69
333.172	337.69
333.4	342.69
333.629	334.69
333.857	362.69
334.085	357.69
334.314	362.69
334.542	367.69
334.771	378.69
334.999	364.69
335.227	351.69
335.455	354.69
335.684	340.69
335.912	353.69
336.14	323.69
336.369	341.69
336.597	336.69
336.825	339.69
337.053	342.69
337.281	347.69
337.51	325.69
337.738	322.69
337.966	328.69
338.194	361.69
338.422	317.69
338.65	323.69
338.878	336.69
339.106	329.69
339.334	324.69
339.562	333.69
339.79	315.69
340.018	320.69
340.246	338.69
340.474	327.69
340.702	329.69
340.93	339.69
341.158	303.69
341.386	330.69
341.614	331.69
341.842	344.69
342.07	329.69
342.298	334.69
342.526	320.69
342.754	325.69
342.981	318.69
343.209	322.69
343.437	332.69
343.665	315.69
343.893	347.69
344.12	313.69
344.348	318.69
344.576	325.69
344.804	333.69
345.031	339.69
345.259	362.69
345.487	349.69
345.714	321.69
345.942	342.69
346.17	347.69
346.397	346.69
346.625	327.69
346.853	315.69
347.08	320.69
347.308	328.69
347.535	328.69
347.763	326.69
347.99	333.69
348.218	311.69
348.445	321.69
348.673	328.69
348.9	332.69
349.128	336.69
349.355	310.69
349.583	319.69
349.81	310.69
350.037	304.69
350.265	306.69
350.492	316.69
350.72	321.69
350.947	320.69
351.174	331.69
351.402	338.69
351.629	329.69
351.856	346.69
352.083	339.69
352.311	348.69
352.538	329.69
352.765	333.69
352.992	328.69
353.22	322.69
353.447	312.69
353.674	316.69
353.901	321.69
354.128	307.69
354.355	304.69
354.583	305.69
354.81	307.69
355.037	305.69
355.264	305.69
355.491	317.69
355.718	302.69
355.945	300.69
356.172	315.69
356.399	304.69
356.626	317.69
356.853	320.69
357.08	309.69
357.307	321.69
357.534	323.69
357.761	316.69
357.988	325.69
358.215	302.69
358.441	310.69
358.668	329.69
358.895	331.69
359.122	348.69
359.349	323.69
359.576	333.69
359.802	337.69
360.029	351.69
360.256	379.69
360.483	359.69
360.709	328.69
360.936	338.69
361.163	330.69
361.39	333.69
361.616	333.69
361.843	344.69
362.07	342.69
362.296	336.69
362.523	337.69
362.749	332.69
362.976	343.69
363.203	333.69
363.429	330.69
363.656	329.69
363.882	326.69
364.109	326.69
364.335	326.69
364.562	328.69
364.788	341.69
365.015	347.69
365.241	324.69
365.468	338.69
365.694	326.69
365.92	318.69
366.147	331.69
366.373	314.69
366.599	335.69
366.826	351.69
367.052	319.69
367.278	317.69
367.505	326.69
367.731	338.69
367.957	345.69
368.184	334.69
368.41	333.69
368.636	322.69
368.862	345.69
369.089	331.69
369.315	345.69
369.541	332.69
369.767	325.69
369.993	309.69
370.219	340.69
370.445	345.69
370.672	328.69
370.898	342.69
371.124	339.69
371.35	336.69
371.576	344.69
371.802	341.69
372.028	328.69
372.254	323.69
372.48	324.69
372.706	331.69
372.932	327.69
373.158	344.69
373.384	330.69
373.61	337.69
373.835	347.69
374.061	337.69
374.287	333.69
374.513	351.69
374.739	344.69
374.965	344.69
375.191	338.69
375.416	353.69
375.642	332.69
375.868	360.69
376.094	341.69
376.319	339.69
376.545	344.69
376.771	334.69
376.997	348.69
377.222	339.69
377.448	342.69
377.674	343.69
377.899	325.69
378.125	336.69
378.35	338.69
378.576	330.69
378.802	317.69
379.027	353.69
379.253	341.69
379.478	335.69
379.704	345.69
379.929	339.69
380.155	334.69
380.38	318.69
380.606	337.69
380.831	353.69
381.057	356.69
381.282	353.69
381.507	340.69
381.733	345.69
381.958	344.69
382.184	364.69
382.409	340.69
382.634	356.69
382.86	346.69
383.085	369.69
383.31	351.69
383.535	344.69
383.761	337.69
383.986	359.69
384.211	336.69
384.436	356.69
384.662	364.69
384.887	364.69
385.112	362.69
385.337	359.69
385.562	366.69
385.787	357.69
386.013	379.69
386.238	370.69
386.463	366.69
386.688	366.69
386.913	386.69
387.138	374.69
387.363	370.69
387.588	374.69
387.813	377.69
388.038	343.69
388.263	368.69
388.488	365.69
388.713	382.69
388.938	365.69
389.163	366.69
389.387	379.69
389.612	354.69
389.837	397.69
390.062	367.69
390.287	370.69
390.512	368.69
390.736	376.69
390.961	364.69
391.186	378.69
391.411	379.69
391.636	364.69
391.86	371.69
392.085	379.69
392.31	370.69
392.534	383.69
392.759	404.69
392.984	384.69
393.208	409.69
393.433	465.69
393.658	487.69
393.882	413.69
394.107	372.69
394.331	366.69
394.556	365.69
394.78	363.69
395.005	378.69
395.229	370.69
395.454	401.69
395.678	395.69
395.903	417.69
396.127	415.69
396.352	415.69
396.576	396.69
396.801	439.69
397.025	449.69
397.249	434.69
397.474	404.69
397.698	405.69
397.922	406.69
398.147	407.69
398.371	408.69
398.595	445.69
398.82	411.69
399.044	415.69
399.268	427.69
399.492	434.69
399.717	464.69
399.941	481.69
400.165	523.69
400.389	509.69
400.613	479.69
400.837	434.69
401.062	448.69
401.286	435.69
401.51	432.69
401.734	407.69
401.958	426.69
402.182	419.69
402.406	413.69
402.63	410.69
402.854	435.69
403.078	404.69
403.302	397.69
403.526	434.69
403.75	432.69
403.974	437.69
404.198	418.69
404.422	431.69
404.645	442.69
404.869	448.69
405.093	467.69
405.317	495.69
405.541	502.69
405.765	476.69
405.988	465.69
406.212	459.69
406.436	462.69
406.66	480.69
406.883	459.69
407.107	486.69
407.331	517.69
407.555	587.69
407.778	565.69
408.002	506.69
408.226	497.69
408.449	471.69
408.673	475.69
408.896	507.69
409.12	561.69
409.344	512.69
409.567	475.69
409.791	474.69
410.014	419.69
410.238	447.69
410.461	447.69
410.685	442.69
410.908	425.69
411.132	464.69
411.355	498.69
411.578	475.69
411.802	443.69
412.025	445.69
412.249	456.69
412.472	457.69
412.695	488.69
412.919	477.69
413.142	459.69
413.365	431.69
413.589	453.69
413.812	442.69
414.035	428.69
414.258	426.69
414.482	413.69
414.705	422.69
414.928	391.69
415.151	433.69
415.374	431.69
415.597	430.69
415.821	425.69
416.044	413.69
416.267	417.69
416.49	412.69
416.713	434.69
416.936	418.69
417.159	423.69
417.382	438.69
417.605	422.69
417.828	446.69
418.051	442.69
418.274	435.69
418.497	425.69
418.72	417.69
418.943	426.69
419.166	450.69
419.389	456.69
419.611	455.69
419.834	424.69
420.057	427.69
420.28	437.69
420.503	447.69
420.726	434.69
420.948	449.69
421.171	481.69
421.394	507.69
421.617	438.69
421.839	448.69
422.062	450.69
422.285	466.69
422.507	518.69
422.73	586.69
422.953	561.69
423.175	501.69
423.398	456.69
423.621	469.69
423.843	445.69
424.066	465.69
424.288	461.69
424.511	503.69
424.733	544.69
424.956	583.69
425.178	573.69
425.401	575.69
425.623	586.69
425.846	510.69
426.068	464.69
426.291	512.69
426.513	483.69
426.735	488.69
426.958	537.69
427.18	590.69
427.402	690.69
427.625	718.69
427.847	649.69
428.069	571.69
428.292	505.69
428.514	478.69
428.736	453.69
428.958	453.69
429.181	455.69
429.403	462.69
429.625	477.69
429.847	470.69
430.069	540.69
430.292	529.69
430.514	451.69
430.736	433.69
430.958	441.69
431.18	421.69
431.402	431.69
431.624	409.69
431.846	411.69
432.068	413.69
432.29	413.69
432.512	429.69
432.734	426.69
432.956	432.69
433.178	441.69
433.4	435.69
433.622	414.69
433.844	449.69
434.066	428.69
434.287	420.69
434.509	431.69
434.731	423.69
434.953	437.69
435.175	438.69
435.397	479.69
435.618	487.69
435.84	524.69
436.062	589.69
436.284	616.69
436.505	542.69
436.727	491.69
436.949	465.69
437.17	445.69
437.392	458.69
437.614	464.69
437.835	481.69
438.057	548.69
438.278	647.69
438.5	655.69
438.721	679.69
438.943	669.69
439.165	548.69
439.386	498.69
439.608	478.69
439.829	486.69
440.05	513.69
440.272	547.69
440.493	515.69
440.715	471.69
440.936	457.69
441.158	453.69
441.379	468.69
441.6	454.69
441.822	457.69
442.043	489.69
442.264	573.69
442.486	611.69
442.707	529.69
442.928	496.69
443.149	516.69
443.371	509.69
443.592	561.69
443.813	621.69
444.034	642.69
444.255	569.69
444.476	493.69
444.698	489.69
444.919	460.69
445.14	579.69
445.361	517.69
445.582	501.69
445.803	547.69
446.024	639.69
446.245	645.69
446.466	618.69
446.687	511.69
446.908	486.69
447.129	466.69
447.35	457.69
447.571	443.69
447.792	439.69
448.013	457.69
448.234	462.69
448.455	519.69
448.675	591.69
448.896	681.69
449.117	605.69
449.338	540.69
449.559	615.69
449.779	730.69
450	605.69
450.221	479.69
450.442	450.69
450.662	432.69
450.883	431.69
451.104	447.69
451.324	448.69
451.545	425.69
451.766	409.69
451.986	414.69
452.207	394.69
452.428	395.69
452.648	394.69
452.869	389.69
453.089	402.69
453.31	434.69
453.53	394.69
453.751	410.69
453.971	406.69
454.192	428.69
454.412	393.69
454.633	425.69
454.853	398.69
455.073	406.69
455.294	410.69
455.514	475.69
455.734	477.69
455.955	416.69
456.175	387.69
456.395	377.69
456.616	397.69
456.836	385.69
457.056	369.69
457.276	343.69
457.497	409.69
457.717	395.69
457.937	382.69
458.157	389.69
458.377	404.69
458.598	415.69
458.818	434.69
459.038	505.69
459.258	527.69
459.478	449.69
459.698	415.69
459.918	413.69
460.138	427.69
460.358	417.69
460.578	426.69
460.798	443.69
461.018	433.69
461.238	421.69
461.458	418.69
461.678	402.69
461.898	423.69
462.118	433.69
462.338	446.69
462.558	457.69
462.777	440.69
462.997	466.69
463.217	441.69
463.437	458.69
463.657	434.69
463.876	454.69
464.096	454.69
464.316	457.69
464.536	458.69
464.755	455.69
464.975	460.69
465.195	471.69
465.414	530.69
465.634	493.69
465.854	455.69
466.073	431.69
466.293	415.69
466.512	407.69
466.732	430.69
466.951	410.69
467.171	435.69
467.391	414.69
467.61	425.69
467.829	437.69
468.049	413.69
468.268	421.69
468.488	410.69
468.707	400.69
468.927	408.69
469.146	389.69
469.365	392.69
469.585	410.69
469.804	379.69
470.023	410.69
470.243	430.69
470.462	432.69
470.681	425.69
470.901	429.69
471.12	435.69
471.339	439.69
471.558	427.69
471.777	417.69
471.997	406.69
472.216	426.69
472.435	447.69
472.654	432.69
472.873	413.69
473.092	421.69
473.311	420.69
473.53	426.69
473.749	441.69
473.968	436.69
474.187	504.69
474.406	551.69
474.625	461.69
474.844	441.69
475.063	408.69
475.282	424.69
475.501	446.69
475.72	435.69
475.939	456.69
476.158	439.69
476.377	454.69
476.596	424.69
476.814	444.69
477.033	441.69
477.252	443.69
477.471	450.69
477.69	458.69
477.908	463.69
478.127	465.69
478.346	454.69
478.564	441.69
478.783	465.69
479.002	478.69
479.22	476.69
479.439	497.69
479.658	496.69
479.876	501.69
480.095	513.69
480.313	548.69
480.532	519.69
480.751	484.69
480.969	502.69
481.188	532.69
481.406	546.69
481.624	521.69
481.843	508.69
482.061	513.69
482.28	530.69
482.498	485.69
482.717	496.69
482.935	483.69
483.153	490.69
483.372	483.69
483.59	488.69
483.808	507.69
484.027	513.69
484.245	497.69
484.463	508.69
484.681	523.69
484.9	487.69
485.118	518.69
485.336	542.69
485.554	517.69
485.772	509.69
485.99	494.69
486.209	508.69
486.427	521.69
486.645	538.69
486.863	538.69
487.081	566.69
487.299	555.69
487.517	527.69
487.735	542.69
487.953	543.69
488.171	549.69
488.389	547.69
488.607	559.69
488.825	554.69
489.043	537.69
489.261	532.69
489.479	562.69
489.696	535.69
489.914	554.69
490.132	553.69
490.35	573.69
490.568	577.69
490.786	564.69
491.003	581.69
491.221	620.69
491.439	611.69
491.657	612.69
491.874	624.69
492.092	663.69
492.31	641.69
492.527	646.69
492.745	656.69
492.963	621.69
493.18	649.69
493.398	624.69
493.615	659.69
493.833	628.69
494.05	630.69
494.268	627.69
494.485	647.69
494.703	636.69
494.92	637.69
495.138	635.69
495.355	655.69
495.573	656.69
495.79	624.69
496.008	663.69
496.225	661.69
496.442	625.69
496.66	657.69
496.877	636.69
497.094	683.69
497.312	648.69
497.529	650.69
497.746	663.69
497.963	682.69
498.181	691.69
498.398	678.69
498.615	709.69
498.832	678.69
499.049	759.69
499.267	719.69
499.484	770.69
499.701	783.69
499.918	805.69
500.135	831.69
500.352	837.69
500.569	840.69
500.786	846.69
501.003	832.69
501.22	827.69
501.437	808.69
501.654	771.69
501.871	793.69
502.088	764.69
