Data from 1970.PennyLincolnUp.Lamp.En5.5.200Scan.071719.P1._HRD10591_15-13-13-843.txt Node
Date: Thu Jul 18 15:13:13 EDT 2019
User: cochatt
Spectrometer: HR+D1059
Trigger mode: 1
Integration Time (sec): 1.000000E-1
Scans to average: 1
Electric dark correction enabled: true
Nonlinearity correction enabled: false
Boxcar width: 0
XAxis mode: Wavelengths
Number of Pixels in Spectrum: 2048
>>>>>Begin Spectral Data<<<<<
223.165	-9.81
223.4	-9.81
223.635	-9.81
223.869	-19.81
224.104	-17.81
224.338	-13.81
224.573	-14.81
224.808	-12.81
225.042	-8.81
225.277	-15.81
225.511	-11.81
225.746	13.19
225.98	9.19
226.215	20.19
226.449	23.19
226.683	22.19
226.918	21.19
227.152	16.19
227.387	27.19
227.621	38.19
227.856	42.19
228.09	43.19
228.324	60.19
228.559	73.19
228.793	75.19
229.027	87.19
229.262	106.19
229.496	97.19
229.73	127.19
229.964	156.19
230.199	130.19
230.433	92.19
230.667	111.19
230.901	101.19
231.136	103.19
231.37	114.19
231.604	116.19
231.838	123.19
232.072	109.19
232.306	101.19
232.541	117.19
232.775	109.19
233.009	111.19
233.243	96.19
233.477	112.19
233.711	103.19
233.945	109.19
234.179	116.19
234.413	116.19
234.647	98.19
234.881	107.19
235.115	108.19
235.349	107.19
235.583	107.19
235.817	107.19
236.051	120.19
236.285	110.19
236.519	125.19
236.753	128.19
236.987	134.19
237.221	157.19
237.455	196.19
237.689	162.19
237.922	126.19
238.156	119.19
238.39	126.19
238.624	128.19
238.858	119.19
239.091	115.19
239.325	116.19
239.559	121.19
239.793	118.19
240.027	124.19
240.26	123.19
240.494	147.19
240.728	139.19
240.961	140.19
241.195	138.19
241.429	120.19
241.662	126.19
241.896	128.19
242.13	118.19
242.363	139.19
242.597	117.19
242.83	132.19
243.064	109.19
243.298	128.19
243.531	119.19
243.765	132.19
243.998	124.19
244.232	140.19
244.465	144.19
244.699	138.19
244.932	155.19
245.166	131.19
245.399	144.19
245.633	150.19
245.866	126.19
246.099	149.19
246.333	142.19
246.566	138.19
246.8	152.19
247.033	147.19
247.266	148.19
247.5	148.19
247.733	139.19
247.966	157.19
248.2	173.19
248.433	163.19
248.666	160.19
248.899	168.19
249.133	163.19
249.366	193.19
249.599	175.19
249.832	162.19
250.066	180.19
250.299	167.19
250.532	166.19
250.765	198.19
250.998	202.19
251.231	203.19
251.465	196.19
251.698	177.19
251.931	203.19
252.164	188.19
252.397	186.19
252.63	194.19
252.863	204.19
253.096	197.19
253.329	208.19
253.562	209.19
253.795	197.19
254.028	222.19
254.261	202.19
254.494	205.19
254.727	230.19
254.96	245.19
255.193	242.19
255.426	210.19
255.659	196.19
255.892	205.19
256.124	196.19
256.357	209.19
256.59	202.19
256.823	201.19
257.056	190.19
257.289	190.19
257.521	207.19
257.754	201.19
257.987	193.19
258.22	199.19
258.452	191.19
258.685	176.19
258.918	186.19
259.151	202.19
259.383	220.19
259.616	212.19
259.849	185.19
260.081	192.19
260.314	219.19
260.547	248.19
260.779	218.19
261.012	205.19
261.244	190.19
261.477	192.19
261.71	202.19
261.942	195.19
262.175	202.19
262.407	206.19
262.64	194.19
262.872	175.19
263.105	197.19
263.337	182.19
263.57	193.19
263.802	205.19
264.035	181.19
264.267	196.19
264.499	192.19
264.732	191.19
264.964	168.19
265.197	192.19
265.429	179.19
265.661	182.19
265.894	188.19
266.126	184.19
266.358	180.19
266.591	187.19
266.823	185.19
267.055	193.19
267.287	195.19
267.52	196.19
267.752	190.19
267.984	185.19
268.216	196.19
268.448	191.19
268.681	189.19
268.913	196.19
269.145	226.19
269.377	230.19
269.609	222.19
269.841	227.19
270.073	223.19
270.306	263.19
270.538	265.19
270.77	260.19
271.002	239.19
271.234	240.19
271.466	248.19
271.698	264.19
271.93	269.19
272.162	260.19
272.394	254.19
272.626	241.19
272.858	234.19
273.09	232.19
273.322	216.19
273.553	225.19
273.785	211.19
274.017	220.19
274.249	228.19
274.481	206.19
274.713	219.19
274.945	210.19
275.176	213.19
275.408	220.19
275.64	222.19
275.872	212.19
276.104	213.19
276.335	222.19
276.567	215.19
276.799	250.19
277.031	252.19
277.262	257.19
277.494	252.19
277.726	227.19
277.957	217.19
278.189	242.19
278.421	237.19
278.652	227.19
278.884	220.19
279.115	218.19
279.347	227.19
279.579	214.19
279.81	205.19
280.042	206.19
280.273	209.19
280.505	220.19
280.736	219.19
280.968	221.19
281.199	218.19
281.431	219.19
281.662	212.19
281.894	217.19
282.125	217.19
282.356	221.19
282.588	234.19
282.819	254.19
283.051	236.19
283.282	217.19
283.513	208.19
283.745	205.19
283.976	234.19
284.207	240.19
284.439	220.19
284.67	221.19
284.901	227.19
285.132	235.19
285.364	218.19
285.595	200.19
285.826	213.19
286.057	241.19
286.288	238.19
286.52	212.19
286.751	227.19
286.982	227.19
287.213	231.19
287.444	227.19
287.675	220.19
287.906	221.19
288.138	246.19
288.369	239.19
288.6	248.19
288.831	226.19
289.062	242.19
289.293	229.19
289.524	233.19
289.755	236.19
289.986	249.19
290.217	217.19
290.448	225.19
290.679	217.19
290.91	225.19
291.141	240.19
291.371	230.19
291.602	228.19
291.833	223.19
292.064	234.19
292.295	232.19
292.526	227.19
292.757	230.19
292.987	228.19
293.218	216.19
293.449	232.19
293.68	225.19
293.91	244.19
294.141	221.19
294.372	214.19
294.603	225.19
294.833	237.19
295.064	230.19
295.295	235.19
295.525	210.19
295.756	233.19
295.987	234.19
296.217	270.19
296.448	274.19
296.679	233.19
296.909	243.19
297.14	241.19
297.37	245.19
297.601	246.19
297.831	243.19
298.062	239.19
298.292	233.19
298.523	238.19
298.753	254.19
298.984	244.19
299.214	238.19
299.445	240.19
299.675	234.19
299.905	244.19
300.136	233.19
300.366	235.19
300.597	250.19
300.827	245.19
301.057	236.19
301.288	272.19
301.518	264.19
301.748	263.19
301.979	269.19
302.209	267.19
302.439	266.19
302.669	258.19
302.9	268.19
303.13	259.19
303.36	260.19
303.59	259.19
303.82	266.19
304.051	277.19
304.281	279.19
304.511	261.19
304.741	260.19
304.971	253.19
305.201	266.19
305.431	259.19
305.661	261.19
305.891	265.19
306.121	254.19
306.352	262.19
306.582	271.19
306.812	260.19
307.042	246.19
307.272	258.19
307.502	260.19
307.731	258.19
307.961	254.19
308.191	268.19
308.421	256.19
308.651	263.19
308.881	266.19
309.111	274.19
309.341	285.19
309.571	285.19
309.8	288.19
310.03	298.19
310.26	281.19
310.49	288.19
310.72	310.19
310.949	292.19
311.179	321.19
311.409	316.19
311.639	290.19
311.868	299.19
312.098	293.19
312.328	308.19
312.557	301.19
312.787	326.19
313.017	318.19
313.246	303.19
313.476	296.19
313.706	286.19
313.935	302.19
314.165	325.19
314.394	314.19
314.624	315.19
314.853	306.19
315.083	271.19
315.312	314.19
315.542	306.19
315.771	304.19
316.001	306.19
316.23	310.19
316.46	310.19
316.689	304.19
316.919	305.19
317.148	296.19
317.377	311.19
317.607	306.19
317.836	298.19
318.065	304.19
318.295	292.19
318.524	290.19
318.753	289.19
318.983	308.19
319.212	312.19
319.441	311.19
319.67	309.19
319.9	324.19
320.129	302.19
320.358	301.19
320.587	320.19
320.816	312.19
321.046	328.19
321.275	313.19
321.504	316.19
321.733	324.19
321.962	312.19
322.191	301.19
322.42	331.19
322.649	355.19
322.878	337.19
323.108	357.19
323.337	389.19
323.566	402.19
323.795	392.19
324.024	448.19
324.253	547.19
324.482	732.19
324.71	1118.19
324.939	1582.19
325.168	1389.19
325.397	713.19
325.626	527.19
325.855	418.19
326.084	407.19
326.313	391.19
326.542	392.19
326.77	436.19
326.999	518.19
327.228	668.19
327.457	998.19
327.686	1205.19
327.914	821.19
328.143	547.19
328.372	489.19
328.6	455.19
328.829	444.19
329.058	451.19
329.287	467.19
329.515	427.19
329.744	396.19
329.972	393.19
330.201	399.19
330.43	440.19
330.658	466.19
330.887	484.19
331.115	474.19
331.344	407.19
331.572	379.19
331.801	391.19
332.03	387.19
332.258	377.19
332.486	360.19
332.715	358.19
332.943	348.19
333.172	345.19
333.4	365.19
333.629	369.19
333.857	373.19
334.085	358.19
334.314	373.19
334.542	402.19
334.771	409.19
334.999	399.19
335.227	374.19
335.455	373.19
335.684	341.19
335.912	347.19
336.14	341.19
336.369	368.19
336.597	361.19
336.825	367.19
337.053	349.19
337.281	344.19
337.51	357.19
337.738	365.19
337.966	349.19
338.194	382.19
338.422	361.19
338.65	354.19
338.878	350.19
339.106	342.19
339.334	334.19
339.562	349.19
339.79	337.19
340.018	338.19
340.246	356.19
340.474	348.19
340.702	344.19
340.93	347.19
341.158	345.19
341.386	345.19
341.614	340.19
341.842	358.19
342.07	317.19
342.298	327.19
342.526	324.19
342.754	348.19
342.981	337.19
343.209	338.19
343.437	347.19
343.665	340.19
343.893	355.19
344.12	343.19
344.348	336.19
344.576	350.19
344.804	332.19
345.031	369.19
345.259	374.19
345.487	349.19
345.714	347.19
345.942	364.19
346.17	348.19
346.397	352.19
346.625	340.19
346.853	356.19
347.08	339.19
347.308	341.19
347.535	334.19
347.763	346.19
347.99	346.19
348.218	358.19
348.445	344.19
348.673	338.19
348.9	352.19
349.128	347.19
349.355	324.19
349.583	345.19
349.81	325.19
350.037	307.19
350.265	324.19
350.492	338.19
350.72	325.19
350.947	317.19
351.174	332.19
351.402	332.19
351.629	341.19
351.856	356.19
352.083	357.19
352.311	347.19
352.538	338.19
352.765	370.19
352.992	349.19
353.22	340.19
353.447	340.19
353.674	329.19
353.901	347.19
354.128	336.19
354.355	326.19
354.583	326.19
354.81	331.19
355.037	333.19
355.264	326.19
355.491	326.19
355.718	329.19
355.945	326.19
356.172	320.19
356.399	314.19
356.626	326.19
356.853	313.19
357.08	317.19
357.307	324.19
357.534	298.19
357.761	309.19
357.988	321.19
358.215	339.19
358.441	322.19
358.668	338.19
358.895	333.19
359.122	339.19
359.349	330.19
359.576	341.19
359.802	357.19
360.029	372.19
360.256	384.19
360.483	373.19
360.709	350.19
360.936	363.19
361.163	337.19
361.39	350.19
361.616	346.19
361.843	347.19
362.07	350.19
362.296	343.19
362.523	352.19
362.749	353.19
362.976	343.19
363.203	343.19
363.429	330.19
363.656	348.19
363.882	321.19
364.109	345.19
364.335	333.19
364.562	343.19
364.788	344.19
365.015	328.19
365.241	334.19
365.468	340.19
365.694	359.19
365.92	342.19
366.147	356.19
366.373	360.19
366.599	325.19
366.826	342.19
367.052	331.19
367.278	335.19
367.505	339.19
367.731	355.19
367.957	328.19
368.184	347.19
368.41	351.19
368.636	346.19
368.862	354.19
369.089	347.19
369.315	345.19
369.541	357.19
369.767	357.19
369.993	339.19
370.219	333.19
370.445	355.19
370.672	343.19
370.898	348.19
371.124	335.19
371.35	348.19
371.576	340.19
371.802	345.19
372.028	340.19
372.254	352.19
372.48	335.19
372.706	343.19
372.932	346.19
373.158	350.19
373.384	356.19
373.61	343.19
373.835	332.19
374.061	349.19
374.287	352.19
374.513	352.19
374.739	351.19
374.965	335.19
375.191	349.19
375.416	363.19
375.642	358.19
375.868	347.19
376.094	346.19
376.319	359.19
376.545	360.19
376.771	355.19
376.997	365.19
377.222	349.19
377.448	353.19
377.674	354.19
377.899	339.19
378.125	350.19
378.35	345.19
378.576	340.19
378.802	347.19
379.027	362.19
379.253	340.19
379.478	350.19
379.704	338.19
379.929	355.19
380.155	353.19
380.38	351.19
380.606	373.19
380.831	340.19
381.057	340.19
381.282	350.19
381.507	357.19
381.733	357.19
381.958	348.19
382.184	347.19
382.409	361.19
382.634	370.19
382.86	366.19
383.085	373.19
383.31	374.19
383.535	330.19
383.761	378.19
383.986	344.19
384.211	374.19
384.436	373.19
384.662	360.19
384.887	372.19
385.112	379.19
385.337	368.19
385.562	380.19
385.787	385.19
386.013	392.19
386.238	410.19
386.463	375.19
386.688	384.19
386.913	362.19
387.138	384.19
387.363	361.19
387.588	390.19
387.813	378.19
388.038	371.19
388.263	370.19
388.488	380.19
388.713	376.19
388.938	384.19
389.163	383.19
389.387	380.19
389.612	366.19
389.837	360.19
390.062	342.19
390.287	384.19
390.512	378.19
390.736	378.19
390.961	376.19
391.186	358.19
391.411	379.19
391.636	395.19
391.86	390.19
392.085	393.19
392.31	376.19
392.534	362.19
392.759	384.19
392.984	391.19
393.208	372.19
393.433	396.19
393.658	398.19
393.882	380.19
394.107	387.19
394.331	378.19
394.556	359.19
394.78	372.19
395.005	383.19
395.229	384.19
395.454	381.19
395.678	388.19
395.903	394.19
396.127	420.19
396.352	429.19
396.576	398.19
396.801	387.19
397.025	404.19
397.249	408.19
397.474	396.19
397.698	425.19
397.922	401.19
398.147	436.19
398.371	432.19
398.595	402.19
398.82	434.19
399.044	430.19
399.268	434.19
399.492	469.19
399.717	467.19
399.941	490.19
400.165	526.19
400.389	529.19
400.613	488.19
400.837	439.19
401.062	426.19
401.286	438.19
401.51	438.19
401.734	433.19
401.958	440.19
402.182	430.19
402.406	444.19
402.63	416.19
402.854	458.19
403.078	469.19
403.302	458.19
403.526	432.19
403.75	439.19
403.974	416.19
404.198	438.19
404.422	446.19
404.645	465.19
404.869	486.19
405.093	488.19
405.317	511.19
405.541	536.19
405.765	483.19
405.988	484.19
406.212	472.19
406.436	482.19
406.66	501.19
406.883	465.19
407.107	514.19
407.331	546.19
407.555	557.19
407.778	593.19
408.002	519.19
408.226	509.19
408.449	486.19
408.673	500.19
408.896	494.19
409.12	557.19
409.344	523.19
409.567	494.19
409.791	466.19
410.014	456.19
410.238	444.19
410.461	433.19
410.685	450.19
410.908	470.19
411.132	494.19
411.355	524.19
411.578	506.19
411.802	481.19
412.025	444.19
412.249	454.19
412.472	462.19
412.695	484.19
412.919	504.19
413.142	453.19
413.365	458.19
413.589	449.19
413.812	453.19
414.035	441.19
414.258	429.19
414.482	432.19
414.705	428.19
414.928	423.19
415.151	422.19
415.374	428.19
415.597	424.19
415.821	442.19
416.044	436.19
416.267	436.19
416.49	447.19
416.713	429.19
416.936	436.19
417.159	446.19
417.382	426.19
417.605	441.19
417.828	459.19
418.051	440.19
418.274	462.19
418.497	445.19
418.72	442.19
418.943	435.19
419.166	457.19
419.389	472.19
419.611	453.19
419.834	457.19
420.057	467.19
420.28	464.19
420.503	449.19
420.726	449.19
420.948	469.19
421.171	496.19
421.394	537.19
421.617	486.19
421.839	470.19
422.062	469.19
422.285	462.19
422.507	524.19
422.73	578.19
422.953	540.19
423.175	505.19
423.398	467.19
423.621	473.19
423.843	481.19
424.066	477.19
424.288	480.19
424.511	496.19
424.733	568.19
424.956	621.19
425.178	593.19
425.401	572.19
425.623	595.19
425.846	526.19
426.068	477.19
426.291	488.19
426.513	499.19
426.735	506.19
426.958	554.19
427.18	609.19
427.402	710.19
427.625	800.19
427.847	701.19
428.069	612.19
428.292	538.19
428.514	497.19
428.736	472.19
428.958	479.19
429.181	465.19
429.403	493.19
429.625	457.19
429.847	493.19
430.069	546.19
430.292	549.19
430.514	480.19
430.736	459.19
430.958	465.19
431.18	441.19
431.402	447.19
431.624	443.19
431.846	422.19
432.068	413.19
432.29	444.19
432.512	426.19
432.734	450.19
432.956	423.19
433.178	452.19
433.4	448.19
433.622	446.19
433.844	462.19
434.066	437.19
434.287	436.19
434.509	445.19
434.731	436.19
434.953	433.19
435.175	448.19
435.397	512.19
435.618	496.19
435.84	535.19
436.062	613.19
436.284	675.19
436.505	589.19
436.727	536.19
436.949	487.19
437.17	477.19
437.392	474.19
437.614	490.19
437.835	509.19
438.057	591.19
438.278	671.19
438.5	687.19
438.721	738.19
438.943	713.19
439.165	563.19
439.386	544.19
439.608	527.19
439.829	514.19
440.05	547.19
440.272	577.19
440.493	525.19
440.715	500.19
440.936	474.19
441.158	461.19
441.379	460.19
441.6	467.19
441.822	507.19
442.043	546.19
442.264	612.19
442.486	630.19
442.707	549.19
442.928	512.19
443.149	526.19
443.371	537.19
443.592	556.19
443.813	646.19
444.034	690.19
444.255	611.19
444.476	531.19
444.698	517.19
444.919	500.19
445.14	619.19
445.361	559.19
445.582	523.19
445.803	560.19
446.024	676.19
446.245	699.19
446.466	630.19
446.687	514.19
446.908	500.19
447.129	480.19
447.35	481.19
447.571	487.19
447.792	481.19
448.013	467.19
448.234	501.19
448.455	540.19
448.675	630.19
448.896	720.19
449.117	624.19
449.338	597.19
449.559	650.19
449.779	759.19
450	618.19
450.221	519.19
450.442	482.19
450.662	460.19
450.883	459.19
451.104	465.19
451.324	474.19
451.545	473.19
451.766	419.19
451.986	450.19
452.207	425.19
452.428	408.19
452.648	394.19
452.869	408.19
453.089	423.19
453.31	440.19
453.53	429.19
453.751	426.19
453.971	403.19
454.192	434.19
454.412	421.19
454.633	414.19
454.853	419.19
455.073	414.19
455.294	451.19
455.514	489.19
455.734	473.19
455.955	412.19
456.175	403.19
456.395	401.19
456.616	390.19
456.836	383.19
457.056	370.19
457.276	390.19
457.497	392.19
457.717	400.19
457.937	426.19
458.157	408.19
458.377	396.19
458.598	418.19
458.818	464.19
459.038	514.19
459.258	553.19
459.478	481.19
459.698	464.19
459.918	444.19
460.138	426.19
460.358	450.19
460.578	453.19
460.798	433.19
461.018	421.19
461.238	458.19
461.458	432.19
461.678	444.19
461.898	428.19
462.118	425.19
462.338	450.19
462.558	460.19
462.777	459.19
462.997	451.19
463.217	447.19
463.437	473.19
463.657	451.19
463.876	443.19
464.096	466.19
464.316	459.19
464.536	459.19
464.755	469.19
464.975	477.19
465.195	512.19
465.414	550.19
465.634	503.19
465.854	467.19
466.073	468.19
466.293	443.19
466.512	425.19
466.732	430.19
466.951	418.19
467.171	441.19
467.391	440.19
467.61	437.19
467.829	424.19
468.049	416.19
468.268	435.19
468.488	437.19
468.707	417.19
468.927	416.19
469.146	424.19
469.365	442.19
469.585	424.19
469.804	432.19
470.023	452.19
470.243	460.19
470.462	456.19
470.681	439.19
470.901	439.19
471.12	435.19
471.339	443.19
471.558	439.19
471.777	454.19
471.997	424.19
472.216	426.19
472.435	475.19
472.654	446.19
472.873	430.19
473.092	434.19
473.311	454.19
473.53	438.19
473.749	440.19
473.968	461.19
474.187	548.19
474.406	600.19
474.625	500.19
474.844	462.19
475.063	463.19
475.282	460.19
475.501	446.19
475.72	441.19
475.939	436.19
476.158	457.19
476.377	448.19
476.596	427.19
476.814	468.19
477.033	453.19
477.252	456.19
477.471	465.19
477.69	472.19
477.908	468.19
478.127	478.19
478.346	499.19
478.564	476.19
478.783	490.19
479.002	487.19
479.22	494.19
479.439	494.19
479.658	516.19
479.876	520.19
480.095	503.19
480.313	535.19
480.532	568.19
480.751	532.19
480.969	531.19
481.188	561.19
481.406	582.19
481.624	560.19
481.843	539.19
482.061	500.19
482.28	506.19
482.498	525.19
482.717	508.19
482.935	494.19
483.153	510.19
483.372	514.19
483.59	530.19
483.808	506.19
484.027	523.19
484.245	524.19
484.463	542.19
484.681	519.19
484.9	537.19
485.118	529.19
485.336	536.19
485.554	540.19
485.772	546.19
485.99	544.19
486.209	549.19
486.427	566.19
486.645	557.19
486.863	590.19
487.081	578.19
487.299	567.19
487.517	571.19
487.735	556.19
487.953	550.19
488.171	564.19
488.389	558.19
488.607	560.19
488.825	576.19
489.043	555.19
489.261	569.19
489.479	565.19
489.696	573.19
489.914	589.19
490.132	595.19
490.35	577.19
490.568	592.19
490.786	600.19
491.003	633.19
491.221	626.19
491.439	644.19
491.657	640.19
491.874	624.19
492.092	665.19
492.31	635.19
492.527	650.19
492.745	636.19
492.963	651.19
493.18	683.19
493.398	707.19
493.615	684.19
493.833	655.19
494.05	669.19
494.268	674.19
494.485	676.19
494.703	656.19
494.92	655.19
495.138	676.19
495.355	674.19
495.573	672.19
495.79	682.19
496.008	699.19
496.225	698.19
496.442	671.19
496.66	683.19
496.877	675.19
497.094	684.19
497.312	684.19
497.529	681.19
497.746	700.19
497.963	712.19
498.181	709.19
498.398	721.19
498.615	720.19
498.832	738.19
499.049	760.19
499.267	774.19
499.484	766.19
499.701	773.19
499.918	803.19
500.135	841.19
500.352	842.19
500.569	838.19
500.786	878.19
501.003	855.19
501.22	838.19
501.437	830.19
501.654	821.19
501.871	827.19
502.088	808.19
