Data from 1970.PennyLincolnUp.Lamp.En5.5.200Scan.071719.P1._HRD10591_15-16-01-841.txt Node
Date: Thu Jul 18 15:16:01 EDT 2019
User: cochatt
Spectrometer: HR+D1059
Trigger mode: 1
Integration Time (sec): 1.000000E-1
Scans to average: 1
Electric dark correction enabled: true
Nonlinearity correction enabled: false
Boxcar width: 0
XAxis mode: Wavelengths
Number of Pixels in Spectrum: 2048
>>>>>Begin Spectral Data<<<<<
223.165	-8.38
223.4	-8.38
223.635	-8.38
223.869	-10.38
224.104	-8.38
224.338	-17.38
224.573	-11.38
224.808	-20.38
225.042	-4.38
225.277	-2.38
225.511	-4.38
225.746	-2.38
225.98	13.62
226.215	10.62
226.449	12.62
226.683	11.62
226.918	17.62
227.152	23.62
227.387	31.62
227.621	48.62
227.856	32.62
228.09	33.62
228.324	35.62
228.559	42.62
228.793	70.62
229.027	96.62
229.262	112.62
229.496	138.62
229.73	139.62
229.964	175.62
230.199	131.62
230.433	126.62
230.667	120.62
230.901	134.62
231.136	124.62
231.37	117.62
231.604	115.62
231.838	114.62
232.072	120.62
232.306	120.62
232.541	105.62
232.775	119.62
233.009	116.62
233.243	126.62
233.477	108.62
233.711	123.62
233.945	105.62
234.179	124.62
234.413	123.62
234.647	119.62
234.881	114.62
235.115	131.62
235.349	118.62
235.583	120.62
235.817	129.62
236.051	132.62
236.285	130.62
236.519	125.62
236.753	126.62
236.987	152.62
237.221	198.62
237.455	265.62
237.689	220.62
237.922	170.62
238.156	140.62
238.39	135.62
238.624	123.62
238.858	132.62
239.091	129.62
239.325	127.62
239.559	130.62
239.793	123.62
240.027	141.62
240.26	160.62
240.494	172.62
240.728	167.62
240.961	154.62
241.195	138.62
241.429	143.62
241.662	145.62
241.896	147.62
242.13	136.62
242.363	140.62
242.597	138.62
242.83	147.62
243.064	159.62
243.298	138.62
243.531	153.62
243.765	134.62
243.998	137.62
244.232	125.62
244.465	154.62
244.699	150.62
244.932	153.62
245.166	149.62
245.399	151.62
245.633	134.62
245.866	145.62
246.099	156.62
246.333	154.62
246.566	156.62
246.8	169.62
247.033	157.62
247.266	164.62
247.5	180.62
247.733	180.62
247.966	182.62
248.2	177.62
248.433	193.62
248.666	191.62
248.899	204.62
249.133	243.62
249.366	251.62
249.599	214.62
249.832	204.62
250.066	200.62
250.299	196.62
250.532	211.62
250.765	224.62
250.998	246.62
251.231	264.62
251.465	227.62
251.698	234.62
251.931	226.62
252.164	209.62
252.397	220.62
252.63	219.62
252.863	232.62
253.096	235.62
253.329	255.62
253.562	255.62
253.795	261.62
254.028	225.62
254.261	231.62
254.494	267.62
254.727	266.62
254.96	312.62
255.193	312.62
255.426	281.62
255.659	255.62
255.892	250.62
256.124	263.62
256.357	263.62
256.59	258.62
256.823	245.62
257.056	224.62
257.289	239.62
257.521	209.62
257.754	221.62
257.987	223.62
258.22	230.62
258.452	217.62
258.685	224.62
258.918	226.62
259.151	236.62
259.383	218.62
259.616	219.62
259.849	246.62
260.081	239.62
260.314	275.62
260.547	297.62
260.779	266.62
261.012	253.62
261.244	261.62
261.477	254.62
261.71	234.62
261.942	255.62
262.175	248.62
262.407	239.62
262.64	233.62
262.872	216.62
263.105	215.62
263.337	211.62
263.57	223.62
263.802	207.62
264.035	229.62
264.267	228.62
264.499	224.62
264.732	224.62
264.964	209.62
265.197	233.62
265.429	242.62
265.661	221.62
265.894	218.62
266.126	225.62
266.358	213.62
266.591	213.62
266.823	231.62
267.055	225.62
267.287	242.62
267.52	239.62
267.752	232.62
267.984	221.62
268.216	240.62
268.448	246.62
268.681	245.62
268.913	251.62
269.145	266.62
269.377	296.62
269.609	301.62
269.841	277.62
270.073	277.62
270.306	296.62
270.538	345.62
270.77	338.62
271.002	337.62
271.234	335.62
271.466	334.62
271.698	349.62
271.93	342.62
272.162	331.62
272.394	344.62
272.626	324.62
272.858	325.62
273.09	289.62
273.322	293.62
273.553	276.62
273.785	282.62
274.017	276.62
274.249	281.62
274.481	262.62
274.713	270.62
274.945	293.62
275.176	293.62
275.408	261.62
275.64	263.62
275.872	285.62
276.104	269.62
276.335	270.62
276.567	283.62
276.799	301.62
277.031	325.62
277.262	331.62
277.494	330.62
277.726	329.62
277.957	314.62
278.189	294.62
278.421	292.62
278.652	275.62
278.884	283.62
279.115	275.62
279.347	272.62
279.579	248.62
279.81	276.62
280.042	271.62
280.273	267.62
280.505	270.62
280.736	259.62
280.968	268.62
281.199	265.62
281.431	257.62
281.662	276.62
281.894	262.62
282.125	263.62
282.356	300.62
282.588	319.62
282.819	322.62
283.051	284.62
283.282	280.62
283.513	273.62
283.745	258.62
283.976	286.62
284.207	290.62
284.439	285.62
284.67	271.62
284.901	274.62
285.132	269.62
285.364	282.62
285.595	280.62
285.826	284.62
286.057	297.62
286.288	278.62
286.52	272.62
286.751	284.62
286.982	283.62
287.213	278.62
287.444	287.62
287.675	288.62
287.906	305.62
288.138	301.62
288.369	307.62
288.6	320.62
288.831	306.62
289.062	304.62
289.293	299.62
289.524	299.62
289.755	280.62
289.986	289.62
290.217	284.62
290.448	301.62
290.679	282.62
290.91	294.62
291.141	296.62
291.371	278.62
291.602	281.62
291.833	284.62
292.064	296.62
292.295	285.62
292.526	285.62
292.757	275.62
292.987	268.62
293.218	278.62
293.449	301.62
293.68	291.62
293.91	287.62
294.141	284.62
294.372	297.62
294.603	285.62
294.833	280.62
295.064	289.62
295.295	286.62
295.525	287.62
295.756	309.62
295.987	303.62
296.217	328.62
296.448	319.62
296.679	304.62
296.909	313.62
297.14	295.62
297.37	292.62
297.601	292.62
297.831	284.62
298.062	286.62
298.292	288.62
298.523	292.62
298.753	322.62
298.984	303.62
299.214	290.62
299.445	306.62
299.675	300.62
299.905	304.62
300.136	310.62
300.366	293.62
300.597	309.62
300.827	327.62
301.057	303.62
301.288	337.62
301.518	321.62
301.748	338.62
301.979	325.62
302.209	328.62
302.439	329.62
302.669	319.62
302.9	338.62
303.13	337.62
303.36	312.62
303.59	331.62
303.82	331.62
304.051	332.62
304.281	317.62
304.511	329.62
304.741	322.62
304.971	300.62
305.201	330.62
305.431	311.62
305.661	323.62
305.891	309.62
306.121	311.62
306.352	324.62
306.582	348.62
306.812	325.62
307.042	325.62
307.272	345.62
307.502	303.62
307.731	355.62
307.961	325.62
308.191	336.62
308.421	334.62
308.651	353.62
308.881	353.62
309.111	351.62
309.341	328.62
309.571	356.62
309.8	374.62
310.03	379.62
310.26	396.62
310.49	383.62
310.72	404.62
310.949	419.62
311.179	426.62
311.409	408.62
311.639	373.62
311.868	389.62
312.098	405.62
312.328	424.62
312.557	434.62
312.787	435.62
313.017	423.62
313.246	426.62
313.476	392.62
313.706	380.62
313.935	365.62
314.165	413.62
314.394	433.62
314.624	414.62
314.853	405.62
315.083	398.62
315.312	380.62
315.542	374.62
315.771	393.62
316.001	397.62
316.23	385.62
316.46	358.62
316.689	377.62
316.919	397.62
317.148	420.62
317.377	425.62
317.607	403.62
317.836	377.62
318.065	381.62
318.295	393.62
318.524	372.62
318.753	372.62
318.983	371.62
319.212	405.62
319.441	373.62
319.67	417.62
319.9	413.62
320.129	394.62
320.358	385.62
320.587	415.62
320.816	420.62
321.046	409.62
321.275	427.62
321.504	402.62
321.733	411.62
321.962	421.62
322.191	449.62
322.42	453.62
322.649	462.62
322.878	476.62
323.108	494.62
323.337	559.62
323.566	527.62
323.795	589.62
324.024	669.62
324.253	808.62
324.482	1151.62
324.71	1756.62
324.939	2504.62
325.168	2191.62
325.397	1139.62
325.626	771.62
325.855	627.62
326.084	585.62
326.313	531.62
326.542	560.62
326.77	609.62
326.999	746.62
327.228	1043.62
327.457	1575.62
327.686	1959.62
327.914	1312.62
328.143	869.62
328.372	739.62
328.6	665.62
328.829	655.62
329.058	632.62
329.287	681.62
329.515	638.62
329.744	564.62
329.972	560.62
330.201	597.62
330.43	664.62
330.658	696.62
330.887	705.62
331.115	681.62
331.344	568.62
331.572	531.62
331.801	557.62
332.03	547.62
332.258	499.62
332.486	497.62
332.715	450.62
332.943	475.62
333.172	463.62
333.4	488.62
333.629	468.62
333.857	515.62
334.085	533.62
334.314	539.62
334.542	580.62
334.771	612.62
334.999	554.62
335.227	507.62
335.455	488.62
335.684	455.62
335.912	461.62
336.14	456.62
336.369	453.62
336.597	454.62
336.825	464.62
337.053	455.62
337.281	441.62
337.51	442.62
337.738	469.62
337.966	450.62
338.194	451.62
338.422	465.62
338.65	451.62
338.878	449.62
339.106	434.62
339.334	432.62
339.562	415.62
339.79	431.62
340.018	426.62
340.246	471.62
340.474	457.62
340.702	442.62
340.93	429.62
341.158	440.62
341.386	423.62
341.614	442.62
341.842	451.62
342.07	441.62
342.298	425.62
342.526	427.62
342.754	422.62
342.981	418.62
343.209	432.62
343.437	435.62
343.665	425.62
343.893	411.62
344.12	441.62
344.348	428.62
344.576	446.62
344.804	467.62
345.031	445.62
345.259	488.62
345.487	459.62
345.714	450.62
345.942	442.62
346.17	444.62
346.397	434.62
346.625	436.62
346.853	439.62
347.08	458.62
347.308	442.62
347.535	463.62
347.763	463.62
347.99	452.62
348.218	453.62
348.445	463.62
348.673	455.62
348.9	449.62
349.128	451.62
349.355	413.62
349.583	428.62
349.81	421.62
350.037	408.62
350.265	425.62
350.492	417.62
350.72	408.62
350.947	447.62
351.174	453.62
351.402	468.62
351.629	464.62
351.856	448.62
352.083	476.62
352.311	465.62
352.538	465.62
352.765	482.62
352.992	465.62
353.22	441.62
353.447	447.62
353.674	432.62
353.901	420.62
354.128	415.62
354.355	415.62
354.583	409.62
354.81	412.62
355.037	408.62
355.264	389.62
355.491	413.62
355.718	398.62
355.945	395.62
356.172	403.62
356.399	414.62
356.626	415.62
356.853	396.62
357.08	401.62
357.307	403.62
357.534	405.62
357.761	429.62
357.988	416.62
358.215	416.62
358.441	407.62
358.668	417.62
358.895	435.62
359.122	426.62
359.349	448.62
359.576	451.62
359.802	489.62
360.029	521.62
360.256	532.62
360.483	504.62
360.709	466.62
360.936	467.62
361.163	445.62
361.39	440.62
361.616	446.62
361.843	448.62
362.07	432.62
362.296	426.62
362.523	457.62
362.749	457.62
362.976	441.62
363.203	447.62
363.429	446.62
363.656	438.62
363.882	424.62
364.109	427.62
364.335	442.62
364.562	433.62
364.788	426.62
365.015	413.62
365.241	432.62
365.468	429.62
365.694	443.62
365.92	442.62
366.147	439.62
366.373	447.62
366.599	414.62
366.826	424.62
367.052	421.62
367.278	421.62
367.505	424.62
367.731	420.62
367.957	436.62
368.184	432.62
368.41	444.62
368.636	430.62
368.862	453.62
369.089	424.62
369.315	418.62
369.541	420.62
369.767	441.62
369.993	428.62
370.219	393.62
370.445	409.62
370.672	441.62
370.898	432.62
371.124	432.62
371.35	414.62
371.576	420.62
371.802	395.62
372.028	408.62
372.254	421.62
372.48	408.62
372.706	395.62
372.932	417.62
373.158	421.62
373.384	408.62
373.61	403.62
373.835	426.62
374.061	417.62
374.287	440.62
374.513	426.62
374.739	428.62
374.965	433.62
375.191	421.62
375.416	427.62
375.642	428.62
375.868	420.62
376.094	423.62
376.319	407.62
376.545	435.62
376.771	419.62
376.997	415.62
377.222	407.62
377.448	421.62
377.674	418.62
377.899	407.62
378.125	428.62
378.35	407.62
378.576	402.62
378.802	423.62
379.027	411.62
379.253	423.62
379.478	425.62
379.704	416.62
379.929	424.62
380.155	392.62
380.38	424.62
380.606	421.62
380.831	421.62
381.057	437.62
381.282	407.62
381.507	438.62
381.733	437.62
381.958	433.62
382.184	420.62
382.409	437.62
382.634	429.62
382.86	423.62
383.085	425.62
383.31	427.62
383.535	439.62
383.761	443.62
383.986	431.62
384.211	454.62
384.436	437.62
384.662	419.62
384.887	446.62
385.112	444.62
385.337	466.62
385.562	462.62
385.787	455.62
386.013	469.62
386.238	467.62
386.463	454.62
386.688	446.62
386.913	459.62
387.138	480.62
387.363	454.62
387.588	465.62
387.813	462.62
388.038	439.62
388.263	461.62
388.488	455.62
388.713	437.62
388.938	424.62
389.163	456.62
389.387	464.62
389.612	447.62
389.837	459.62
390.062	466.62
390.287	452.62
390.512	464.62
390.736	440.62
390.961	443.62
391.186	443.62
391.411	449.62
391.636	455.62
391.86	453.62
392.085	474.62
392.31	464.62
392.534	457.62
392.759	476.62
392.984	488.62
393.208	462.62
393.433	460.62
393.658	460.62
393.882	481.62
394.107	470.62
394.331	474.62
394.556	461.62
394.78	450.62
395.005	483.62
395.229	472.62
395.454	471.62
395.678	483.62
395.903	471.62
396.127	506.62
396.352	513.62
396.576	467.62
396.801	465.62
397.025	479.62
397.249	481.62
397.474	481.62
397.698	478.62
397.922	491.62
398.147	514.62
398.371	540.62
398.595	513.62
398.82	513.62
399.044	522.62
399.268	535.62
399.492	557.62
399.717	549.62
399.941	604.62
400.165	657.62
400.389	625.62
400.613	574.62
400.837	569.62
401.062	515.62
401.286	532.62
401.51	532.62
401.734	509.62
401.958	527.62
402.182	537.62
402.406	545.62
402.63	562.62
402.854	564.62
403.078	523.62
403.302	535.62
403.526	562.62
403.75	551.62
403.974	545.62
404.198	536.62
404.422	551.62
404.645	563.62
404.869	543.62
405.093	579.62
405.317	627.62
405.541	671.62
405.765	596.62
405.988	581.62
406.212	588.62
406.436	634.62
406.66	641.62
406.883	615.62
407.107	647.62
407.331	643.62
407.555	704.62
407.778	726.62
408.002	653.62
408.226	615.62
408.449	615.62
408.673	590.62
408.896	630.62
409.12	675.62
409.344	652.62
409.567	582.62
409.791	579.62
410.014	574.62
410.238	532.62
410.461	548.62
410.685	563.62
410.908	594.62
411.132	615.62
411.355	648.62
411.578	606.62
411.802	539.62
412.025	575.62
412.249	574.62
412.472	600.62
412.695	626.62
412.919	618.62
413.142	571.62
413.365	559.62
413.589	544.62
413.812	532.62
414.035	547.62
414.258	519.62
414.482	517.62
414.705	519.62
414.928	521.62
415.151	518.62
415.374	526.62
415.597	528.62
415.821	521.62
416.044	538.62
416.267	521.62
416.49	515.62
416.713	529.62
416.936	541.62
417.159	529.62
417.382	541.62
417.605	539.62
417.828	529.62
418.051	545.62
418.274	552.62
418.497	534.62
418.72	518.62
418.943	523.62
419.166	564.62
419.389	599.62
419.611	543.62
419.834	571.62
420.057	582.62
420.28	567.62
420.503	575.62
420.726	553.62
420.948	588.62
421.171	630.62
421.394	652.62
421.617	579.62
421.839	561.62
422.062	585.62
422.285	591.62
422.507	653.62
422.73	717.62
422.953	692.62
423.175	625.62
423.398	593.62
423.621	568.62
423.843	609.62
424.066	601.62
424.288	605.62
424.511	635.62
424.733	690.62
424.956	782.62
425.178	741.62
425.401	761.62
425.623	772.62
425.846	669.62
426.068	611.62
426.291	604.62
426.513	627.62
426.735	608.62
426.958	679.62
427.18	735.62
427.402	905.62
427.625	1009.62
427.847	913.62
428.069	787.62
428.292	713.62
428.514	634.62
428.736	594.62
428.958	597.62
429.181	581.62
429.403	565.62
429.625	578.62
429.847	629.62
430.069	710.62
430.292	701.62
430.514	620.62
430.736	578.62
430.958	574.62
431.18	550.62
431.402	535.62
431.624	522.62
431.846	549.62
432.068	544.62
432.29	520.62
432.512	535.62
432.734	541.62
432.956	553.62
433.178	551.62
433.4	565.62
433.622	554.62
433.844	553.62
434.066	556.62
434.287	531.62
434.509	541.62
434.731	548.62
434.953	564.62
435.175	570.62
435.397	592.62
435.618	634.62
435.84	671.62
436.062	753.62
436.284	836.62
436.505	749.62
436.727	646.62
436.949	601.62
437.17	612.62
437.392	604.62
437.614	633.62
437.835	645.62
438.057	756.62
438.278	845.62
438.5	849.62
438.721	909.62
438.943	871.62
439.165	744.62
439.386	668.62
439.608	644.62
439.829	651.62
440.05	705.62
440.272	742.62
440.493	691.62
440.715	617.62
440.936	627.62
441.158	591.62
441.379	601.62
441.6	595.62
441.822	627.62
442.043	675.62
442.264	779.62
442.486	801.62
442.707	713.62
442.928	644.62
443.149	631.62
443.371	667.62
443.592	731.62
443.813	803.62
444.034	859.62
444.255	734.62
444.476	653.62
444.698	626.62
444.919	615.62
445.14	732.62
445.361	691.62
445.582	677.62
445.803	743.62
446.024	853.62
446.245	873.62
446.466	823.62
446.687	703.62
446.908	648.62
447.129	583.62
447.35	586.62
447.571	595.62
447.792	602.62
448.013	588.62
448.234	616.62
448.455	673.62
448.675	767.62
448.896	884.62
449.117	793.62
449.338	747.62
449.559	817.62
449.779	919.62
450	761.62
450.221	662.62
450.442	610.62
450.662	598.62
450.883	579.62
451.104	615.62
451.324	600.62
451.545	552.62
451.766	536.62
451.986	515.62
452.207	507.62
452.428	512.62
452.648	532.62
452.869	539.62
453.089	527.62
453.31	552.62
453.53	537.62
453.751	501.62
453.971	507.62
454.192	560.62
454.412	550.62
454.633	502.62
454.853	499.62
455.073	508.62
455.294	560.62
455.514	641.62
455.734	601.62
455.955	507.62
456.175	497.62
456.395	475.62
456.616	497.62
456.836	479.62
457.056	499.62
457.276	476.62
457.497	488.62
457.717	484.62
457.937	490.62
458.157	507.62
458.377	505.62
458.598	534.62
458.818	588.62
459.038	693.62
459.258	724.62
459.478	610.62
459.698	536.62
459.918	529.62
460.138	534.62
460.358	529.62
460.578	523.62
460.798	530.62
461.018	541.62
461.238	515.62
461.458	533.62
461.678	523.62
461.898	522.62
462.118	515.62
462.338	524.62
462.558	536.62
462.777	538.62
462.997	555.62
463.217	577.62
463.437	545.62
463.657	556.62
463.876	546.62
464.096	559.62
464.316	567.62
464.536	569.62
464.755	578.62
464.975	592.62
465.195	637.62
465.414	736.62
465.634	689.62
465.854	595.62
466.073	540.62
466.293	552.62
466.512	539.62
466.732	551.62
466.951	515.62
467.171	506.62
467.391	539.62
467.61	539.62
467.829	519.62
468.049	566.62
468.268	557.62
468.488	530.62
468.707	494.62
468.927	514.62
469.146	516.62
469.365	525.62
469.585	516.62
469.804	538.62
470.023	528.62
470.243	511.62
470.462	545.62
470.681	593.62
470.901	555.62
471.12	529.62
471.339	534.62
471.558	540.62
471.777	560.62
471.997	511.62
472.216	538.62
472.435	610.62
472.654	575.62
472.873	536.62
473.092	530.62
473.311	528.62
473.53	557.62
473.749	572.62
473.968	609.62
474.187	716.62
474.406	758.62
474.625	631.62
474.844	565.62
475.063	563.62
475.282	557.62
475.501	556.62
475.72	564.62
475.939	555.62
476.158	555.62
476.377	560.62
476.596	548.62
476.814	567.62
477.033	565.62
477.252	560.62
477.471	547.62
477.69	573.62
477.908	595.62
478.127	608.62
478.346	577.62
478.564	596.62
478.783	577.62
479.002	590.62
479.22	604.62
479.439	599.62
479.658	642.62
479.876	637.62
480.095	627.62
480.313	669.62
480.532	696.62
480.751	681.62
480.969	692.62
481.188	788.62
481.406	836.62
481.624	712.62
481.843	673.62
482.061	659.62
482.28	667.62
482.498	670.62
482.717	657.62
482.935	647.62
483.153	673.62
483.372	660.62
483.59	651.62
483.808	645.62
484.027	658.62
484.245	653.62
484.463	651.62
484.681	659.62
484.9	643.62
485.118	656.62
485.336	673.62
485.554	644.62
485.772	676.62
485.99	651.62
486.209	663.62
486.427	692.62
486.645	692.62
486.863	730.62
487.081	714.62
487.299	731.62
487.517	679.62
487.735	700.62
487.953	687.62
488.171	707.62
488.389	712.62
488.607	698.62
488.825	716.62
489.043	692.62
489.261	714.62
489.479	728.62
489.696	732.62
489.914	724.62
490.132	736.62
490.35	731.62
490.568	746.62
490.786	760.62
491.003	760.62
491.221	803.62
491.439	812.62
491.657	823.62
491.874	833.62
492.092	817.62
492.31	851.62
492.527	833.62
492.745	844.62
492.963	828.62
493.18	827.62
493.398	855.62
493.615	847.62
493.833	867.62
494.05	829.62
494.268	837.62
494.485	851.62
494.703	855.62
494.92	840.62
495.138	856.62
495.355	866.62
495.573	849.62
495.79	823.62
496.008	873.62
496.225	868.62
496.442	840.62
496.66	829.62
496.877	851.62
497.094	847.62
497.312	851.62
497.529	866.62
497.746	882.62
497.963	874.62
498.181	905.62
498.398	931.62
498.615	877.62
498.832	910.62
499.049	913.62
499.267	940.62
499.484	949.62
499.701	967.62
499.918	937.62
500.135	1000.62
500.352	1031.62
500.569	1074.62
500.786	1037.62
501.003	1019.62
501.22	1050.62
501.437	1025.62
501.654	1008.62
501.871	1013.62
