Data from 1970.PennyLincolnUp.Lamp.En5.5.200Scan.071719.P1._HRD10591_15-14-50-842.txt Node
Date: Thu Jul 18 15:14:50 EDT 2019
User: cochatt
Spectrometer: HR+D1059
Trigger mode: 1
Integration Time (sec): 1.000000E-1
Scans to average: 1
Electric dark correction enabled: true
Nonlinearity correction enabled: false
Boxcar width: 0
XAxis mode: Wavelengths
Number of Pixels in Spectrum: 2048
>>>>>Begin Spectral Data<<<<<
223.165	-14.12
223.4	-14.12
223.635	-14.12
223.869	-18.12
224.104	-6.12
224.338	-14.12
224.573	-8.12
224.808	-10.12
225.042	3.88
225.277	-6.12
225.511	-16.12
225.746	-20.12
225.98	-3.12
226.215	9.88
226.449	15.88
226.683	24.88
226.918	31.88
227.152	29.88
227.387	54.88
227.621	31.88
227.856	32.88
228.09	37.88
228.324	37.88
228.559	37.88
228.793	66.88
229.027	112.88
229.262	118.88
229.496	123.88
229.73	146.88
229.964	159.88
230.199	132.88
230.433	145.88
230.667	122.88
230.901	106.88
231.136	118.88
231.37	118.88
231.604	127.88
231.838	124.88
232.072	130.88
232.306	112.88
232.541	113.88
232.775	114.88
233.009	126.88
233.243	102.88
233.477	105.88
233.711	106.88
233.945	114.88
234.179	115.88
234.413	128.88
234.647	112.88
234.881	123.88
235.115	130.88
235.349	120.88
235.583	116.88
235.817	122.88
236.051	146.88
236.285	127.88
236.519	126.88
236.753	131.88
236.987	157.88
237.221	206.88
237.455	255.88
237.689	224.88
237.922	156.88
238.156	149.88
238.39	142.88
238.624	131.88
238.858	139.88
239.091	113.88
239.325	127.88
239.559	134.88
239.793	132.88
240.027	152.88
240.26	140.88
240.494	169.88
240.728	168.88
240.961	159.88
241.195	155.88
241.429	176.88
241.662	143.88
241.896	147.88
242.13	150.88
242.363	123.88
242.597	136.88
242.83	152.88
243.064	135.88
243.298	139.88
243.531	153.88
243.765	158.88
243.998	152.88
244.232	145.88
244.465	147.88
244.699	147.88
244.932	140.88
245.166	144.88
245.399	163.88
245.633	144.88
245.866	140.88
246.099	159.88
246.333	156.88
246.566	150.88
246.8	169.88
247.033	164.88
247.266	160.88
247.5	168.88
247.733	186.88
247.966	178.88
248.2	195.88
248.433	180.88
248.666	190.88
248.899	201.88
249.133	193.88
249.366	227.88
249.599	205.88
249.832	198.88
250.066	203.88
250.299	191.88
250.532	200.88
250.765	209.88
250.998	256.88
251.231	245.88
251.465	227.88
251.698	226.88
251.931	217.88
252.164	214.88
252.397	226.88
252.63	231.88
252.863	232.88
253.096	256.88
253.329	244.88
253.562	246.88
253.795	223.88
254.028	244.88
254.261	254.88
254.494	252.88
254.727	290.88
254.96	322.88
255.193	304.88
255.426	283.88
255.659	249.88
255.892	254.88
256.124	254.88
256.357	271.88
256.59	251.88
256.823	232.88
257.056	226.88
257.289	224.88
257.521	226.88
257.754	232.88
257.987	233.88
258.22	227.88
258.452	225.88
258.685	225.88
258.918	231.88
259.151	224.88
259.383	231.88
259.616	247.88
259.849	240.88
260.081	243.88
260.314	266.88
260.547	263.88
260.779	262.88
261.012	256.88
261.244	256.88
261.477	246.88
261.71	243.88
261.942	242.88
262.175	247.88
262.407	220.88
262.64	213.88
262.872	223.88
263.105	232.88
263.337	221.88
263.57	213.88
263.802	218.88
264.035	211.88
264.267	221.88
264.499	219.88
264.732	220.88
264.964	214.88
265.197	215.88
265.429	220.88
265.661	232.88
265.894	220.88
266.126	226.88
266.358	225.88
266.591	222.88
266.823	225.88
267.055	239.88
267.287	239.88
267.52	242.88
267.752	234.88
267.984	223.88
268.216	236.88
268.448	210.88
268.681	250.88
268.913	256.88
269.145	264.88
269.377	305.88
269.609	287.88
269.841	287.88
270.073	278.88
270.306	308.88
270.538	327.88
270.77	334.88
271.002	328.88
271.234	306.88
271.466	302.88
271.698	318.88
271.93	336.88
272.162	344.88
272.394	328.88
272.626	332.88
272.858	299.88
273.09	283.88
273.322	320.88
273.553	265.88
273.785	279.88
274.017	257.88
274.249	274.88
274.481	270.88
274.713	268.88
274.945	256.88
275.176	266.88
275.408	289.88
275.64	279.88
275.872	266.88
276.104	263.88
276.335	265.88
276.567	286.88
276.799	305.88
277.031	302.88
277.262	346.88
277.494	330.88
277.726	305.88
277.957	297.88
278.189	271.88
278.421	282.88
278.652	275.88
278.884	274.88
279.115	256.88
279.347	267.88
279.579	270.88
279.81	251.88
280.042	256.88
280.273	256.88
280.505	273.88
280.736	272.88
280.968	263.88
281.199	278.88
281.431	278.88
281.662	262.88
281.894	263.88
282.125	276.88
282.356	287.88
282.588	325.88
282.819	327.88
283.051	258.88
283.282	268.88
283.513	272.88
283.745	277.88
283.976	287.88
284.207	264.88
284.439	284.88
284.67	282.88
284.901	271.88
285.132	279.88
285.364	283.88
285.595	280.88
285.826	253.88
286.057	262.88
286.288	274.88
286.52	280.88
286.751	276.88
286.982	256.88
287.213	278.88
287.444	267.88
287.675	287.88
287.906	287.88
288.138	288.88
288.369	296.88
288.6	316.88
288.831	293.88
289.062	284.88
289.293	278.88
289.524	278.88
289.755	257.88
289.986	285.88
290.217	257.88
290.448	277.88
290.679	310.88
290.91	287.88
291.141	270.88
291.371	291.88
291.602	282.88
291.833	297.88
292.064	270.88
292.295	264.88
292.526	281.88
292.757	286.88
292.987	272.88
293.218	279.88
293.449	284.88
293.68	285.88
293.91	275.88
294.141	288.88
294.372	285.88
294.603	282.88
294.833	286.88
295.064	289.88
295.295	295.88
295.525	291.88
295.756	282.88
295.987	316.88
296.217	327.88
296.448	337.88
296.679	296.88
296.909	280.88
297.14	293.88
297.37	286.88
297.601	274.88
297.831	294.88
298.062	290.88
298.292	281.88
298.523	316.88
298.753	296.88
298.984	290.88
299.214	292.88
299.445	296.88
299.675	298.88
299.905	305.88
300.136	305.88
300.366	311.88
300.597	284.88
300.827	306.88
301.057	308.88
301.288	336.88
301.518	308.88
301.748	298.88
301.979	308.88
302.209	314.88
302.439	322.88
302.669	329.88
302.9	310.88
303.13	313.88
303.36	332.88
303.59	319.88
303.82	315.88
304.051	332.88
304.281	305.88
304.511	309.88
304.741	331.88
304.971	329.88
305.201	325.88
305.431	321.88
305.661	318.88
305.891	318.88
306.121	335.88
306.352	331.88
306.582	328.88
306.812	310.88
307.042	317.88
307.272	333.88
307.502	315.88
307.731	318.88
307.961	311.88
308.191	325.88
308.421	337.88
308.651	325.88
308.881	303.88
309.111	355.88
309.341	342.88
309.571	356.88
309.8	366.88
310.03	392.88
310.26	381.88
310.49	397.88
310.72	392.88
310.949	397.88
311.179	412.88
311.409	378.88
311.639	370.88
311.868	379.88
312.098	407.88
312.328	399.88
312.557	416.88
312.787	414.88
313.017	407.88
313.246	404.88
313.476	387.88
313.706	385.88
313.935	393.88
314.165	405.88
314.394	410.88
314.624	418.88
314.853	394.88
315.083	391.88
315.312	375.88
315.542	383.88
315.771	370.88
316.001	387.88
316.23	376.88
316.46	369.88
316.689	376.88
316.919	399.88
317.148	386.88
317.377	407.88
317.607	386.88
317.836	414.88
318.065	385.88
318.295	380.88
318.524	368.88
318.753	389.88
318.983	386.88
319.212	388.88
319.441	393.88
319.67	406.88
319.9	387.88
320.129	374.88
320.358	400.88
320.587	384.88
320.816	390.88
321.046	389.88
321.275	412.88
321.504	408.88
321.733	410.88
321.962	432.88
322.191	419.88
322.42	450.88
322.649	476.88
322.878	480.88
323.108	505.88
323.337	496.88
323.566	556.88
323.795	594.88
324.024	641.88
324.253	798.88
324.482	1094.88
324.71	1747.88
324.939	2435.88
325.168	2167.88
325.397	1156.88
325.626	753.88
325.855	604.88
326.084	554.88
326.313	552.88
326.542	566.88
326.77	600.88
326.999	735.88
327.228	1011.88
327.457	1477.88
327.686	1828.88
327.914	1226.88
328.143	822.88
328.372	718.88
328.6	678.88
328.829	619.88
329.058	639.88
329.287	664.88
329.515	612.88
329.744	571.88
329.972	576.88
330.201	583.88
330.43	623.88
330.658	657.88
330.887	681.88
331.115	691.88
331.344	567.88
331.572	543.88
331.801	512.88
332.03	518.88
332.258	495.88
332.486	473.88
332.715	447.88
332.943	464.88
333.172	454.88
333.4	455.88
333.629	515.88
333.857	505.88
334.085	491.88
334.314	502.88
334.542	573.88
334.771	578.88
334.999	536.88
335.227	494.88
335.455	487.88
335.684	467.88
335.912	437.88
336.14	446.88
336.369	448.88
336.597	452.88
336.825	460.88
337.053	454.88
337.281	430.88
337.51	454.88
337.738	448.88
337.966	447.88
338.194	441.88
338.422	448.88
338.65	430.88
338.878	454.88
339.106	451.88
339.334	436.88
339.562	425.88
339.79	418.88
340.018	440.88
340.246	449.88
340.474	443.88
340.702	456.88
340.93	441.88
341.158	432.88
341.386	436.88
341.614	453.88
341.842	445.88
342.07	437.88
342.298	418.88
342.526	428.88
342.754	416.88
342.981	411.88
343.209	432.88
343.437	409.88
343.665	426.88
343.893	448.88
344.12	446.88
344.348	449.88
344.576	446.88
344.804	443.88
345.031	438.88
345.259	477.88
345.487	464.88
345.714	452.88
345.942	441.88
346.17	435.88
346.397	431.88
346.625	443.88
346.853	427.88
347.08	416.88
347.308	433.88
347.535	448.88
347.763	465.88
347.99	442.88
348.218	448.88
348.445	459.88
348.673	461.88
348.9	457.88
349.128	421.88
349.355	437.88
349.583	407.88
349.81	407.88
350.037	412.88
350.265	414.88
350.492	407.88
350.72	422.88
350.947	433.88
351.174	432.88
351.402	440.88
351.629	432.88
351.856	453.88
352.083	460.88
352.311	478.88
352.538	464.88
352.765	472.88
352.992	444.88
353.22	420.88
353.447	449.88
353.674	418.88
353.901	412.88
354.128	400.88
354.355	411.88
354.583	405.88
354.81	417.88
355.037	408.88
355.264	408.88
355.491	394.88
355.718	391.88
355.945	407.88
356.172	382.88
356.399	406.88
356.626	408.88
356.853	401.88
357.08	396.88
357.307	397.88
357.534	398.88
357.761	403.88
357.988	397.88
358.215	391.88
358.441	412.88
358.668	412.88
358.895	433.88
359.122	414.88
359.349	402.88
359.576	438.88
359.802	464.88
360.029	507.88
360.256	528.88
360.483	488.88
360.709	444.88
360.936	421.88
361.163	443.88
361.39	453.88
361.616	447.88
361.843	433.88
362.07	414.88
362.296	451.88
362.523	429.88
362.749	431.88
362.976	439.88
363.203	431.88
363.429	399.88
363.656	419.88
363.882	413.88
364.109	419.88
364.335	418.88
364.562	427.88
364.788	391.88
365.015	415.88
365.241	423.88
365.468	444.88
365.694	433.88
365.92	432.88
366.147	397.88
366.373	435.88
366.599	404.88
366.826	435.88
367.052	421.88
367.278	425.88
367.505	394.88
367.731	410.88
367.957	409.88
368.184	427.88
368.41	430.88
368.636	404.88
368.862	454.88
369.089	419.88
369.315	417.88
369.541	419.88
369.767	423.88
369.993	410.88
370.219	418.88
370.445	404.88
370.672	393.88
370.898	428.88
371.124	397.88
371.35	401.88
371.576	410.88
371.802	406.88
372.028	411.88
372.254	392.88
372.48	420.88
372.706	408.88
372.932	402.88
373.158	433.88
373.384	419.88
373.61	409.88
373.835	416.88
374.061	401.88
374.287	422.88
374.513	411.88
374.739	404.88
374.965	393.88
375.191	429.88
375.416	425.88
375.642	431.88
375.868	426.88
376.094	404.88
376.319	402.88
376.545	415.88
376.771	403.88
376.997	420.88
377.222	397.88
377.448	410.88
377.674	405.88
377.899	419.88
378.125	424.88
378.35	409.88
378.576	401.88
378.802	419.88
379.027	403.88
379.253	412.88
379.478	398.88
379.704	420.88
379.929	415.88
380.155	431.88
380.38	418.88
380.606	426.88
380.831	419.88
381.057	413.88
381.282	423.88
381.507	412.88
381.733	444.88
381.958	415.88
382.184	431.88
382.409	419.88
382.634	418.88
382.86	404.88
383.085	437.88
383.31	403.88
383.535	420.88
383.761	428.88
383.986	421.88
384.211	434.88
384.436	455.88
384.662	410.88
384.887	456.88
385.112	398.88
385.337	421.88
385.562	436.88
385.787	441.88
386.013	454.88
386.238	486.88
386.463	455.88
386.688	466.88
386.913	445.88
387.138	452.88
387.363	445.88
387.588	448.88
387.813	450.88
388.038	455.88
388.263	450.88
388.488	456.88
388.713	452.88
388.938	446.88
389.163	447.88
389.387	432.88
389.612	432.88
389.837	435.88
390.062	447.88
390.287	436.88
390.512	435.88
390.736	440.88
390.961	441.88
391.186	441.88
391.411	452.88
391.636	456.88
391.86	442.88
392.085	459.88
392.31	450.88
392.534	422.88
392.759	457.88
392.984	456.88
393.208	466.88
393.433	455.88
393.658	445.88
393.882	455.88
394.107	450.88
394.331	443.88
394.556	461.88
394.78	458.88
395.005	458.88
395.229	449.88
395.454	447.88
395.678	459.88
395.903	451.88
396.127	501.88
396.352	494.88
396.576	498.88
396.801	474.88
397.025	466.88
397.249	493.88
397.474	473.88
397.698	473.88
397.922	489.88
398.147	495.88
398.371	500.88
398.595	494.88
398.82	507.88
399.044	514.88
399.268	520.88
399.492	522.88
399.717	540.88
399.941	589.88
400.165	624.88
400.389	640.88
400.613	601.88
400.837	554.88
401.062	555.88
401.286	513.88
401.51	498.88
401.734	510.88
401.958	504.88
402.182	511.88
402.406	540.88
402.63	532.88
402.854	525.88
403.078	542.88
403.302	526.88
403.526	527.88
403.75	528.88
403.974	547.88
404.198	523.88
404.422	530.88
404.645	539.88
404.869	566.88
405.093	579.88
405.317	625.88
405.541	633.88
405.765	604.88
405.988	579.88
406.212	610.88
406.436	634.88
406.66	629.88
406.883	593.88
407.107	611.88
407.331	648.88
407.555	703.88
407.778	698.88
408.002	676.88
408.226	622.88
408.449	622.88
408.673	605.88
408.896	636.88
409.12	642.88
409.344	630.88
409.567	570.88
409.791	565.88
410.014	566.88
410.238	530.88
410.461	547.88
410.685	564.88
410.908	552.88
411.132	596.88
411.355	658.88
411.578	606.88
411.802	567.88
412.025	544.88
412.249	579.88
412.472	596.88
412.695	613.88
412.919	630.88
413.142	574.88
413.365	556.88
413.589	536.88
413.812	526.88
414.035	546.88
414.258	524.88
414.482	529.88
414.705	531.88
414.928	511.88
415.151	497.88
415.374	495.88
415.597	509.88
415.821	525.88
416.044	519.88
416.267	521.88
416.49	507.88
416.713	501.88
416.936	510.88
417.159	521.88
417.382	511.88
417.605	545.88
417.828	544.88
418.051	556.88
418.274	537.88
418.497	539.88
418.72	512.88
418.943	504.88
419.166	524.88
419.389	547.88
419.611	561.88
419.834	560.88
420.057	558.88
420.28	587.88
420.503	544.88
420.726	559.88
420.948	585.88
421.171	622.88
421.394	678.88
421.617	584.88
421.839	552.88
422.062	552.88
422.285	553.88
422.507	647.88
422.73	708.88
422.953	686.88
423.175	630.88
423.398	580.88
423.621	576.88
423.843	598.88
424.066	618.88
424.288	596.88
424.511	619.88
424.733	682.88
424.956	766.88
425.178	753.88
425.401	743.88
425.623	752.88
425.846	664.88
426.068	624.88
426.291	601.88
426.513	592.88
426.735	626.88
426.958	666.88
427.18	717.88
427.402	869.88
427.625	967.88
427.847	887.88
428.069	755.88
428.292	680.88
428.514	618.88
428.736	593.88
428.958	592.88
429.181	567.88
429.403	561.88
429.625	596.88
429.847	633.88
430.069	674.88
430.292	672.88
430.514	604.88
430.736	580.88
430.958	575.88
431.18	549.88
431.402	528.88
431.624	517.88
431.846	518.88
432.068	534.88
432.29	553.88
432.512	520.88
432.734	544.88
432.956	532.88
433.178	530.88
433.4	548.88
433.622	539.88
433.844	541.88
434.066	529.88
434.287	525.88
434.509	531.88
434.731	546.88
434.953	553.88
435.175	561.88
435.397	630.88
435.618	604.88
435.84	675.88
436.062	755.88
436.284	818.88
436.505	693.88
436.727	641.88
436.949	613.88
437.17	576.88
437.392	581.88
437.614	588.88
437.835	634.88
438.057	768.88
438.278	858.88
438.5	865.88
438.721	888.88
438.943	866.88
439.165	697.88
439.386	669.88
439.608	662.88
439.829	623.88
440.05	676.88
440.272	722.88
440.493	658.88
440.715	614.88
440.936	612.88
441.158	611.88
441.379	579.88
441.6	608.88
441.822	608.88
442.043	679.88
442.264	744.88
442.486	776.88
442.707	661.88
442.928	627.88
443.149	656.88
443.371	681.88
443.592	711.88
443.813	797.88
444.034	878.88
444.255	720.88
444.476	658.88
444.698	624.88
444.919	623.88
445.14	686.88
445.361	683.88
445.582	646.88
445.803	715.88
446.024	843.88
446.245	850.88
446.466	772.88
446.687	685.88
446.908	618.88
447.129	594.88
447.35	586.88
447.571	592.88
447.792	581.88
448.013	601.88
448.234	590.88
448.455	661.88
448.675	789.88
448.896	893.88
449.117	755.88
449.338	721.88
449.559	814.88
449.779	938.88
450	772.88
450.221	658.88
450.442	595.88
450.662	580.88
450.883	595.88
451.104	602.88
451.324	579.88
451.545	550.88
451.766	558.88
451.986	542.88
452.207	522.88
452.428	506.88
452.648	508.88
452.869	515.88
453.089	513.88
453.31	535.88
453.53	535.88
453.751	499.88
453.971	517.88
454.192	546.88
454.412	522.88
454.633	524.88
454.853	515.88
455.073	509.88
455.294	551.88
455.514	601.88
455.734	603.88
455.955	535.88
456.175	471.88
456.395	478.88
456.616	472.88
456.836	478.88
457.056	482.88
457.276	450.88
457.497	473.88
457.717	471.88
457.937	478.88
458.157	500.88
458.377	525.88
458.598	530.88
458.818	582.88
459.038	686.88
459.258	692.88
459.478	580.88
459.698	546.88
459.918	548.88
460.138	531.88
460.358	521.88
460.578	522.88
460.798	547.88
461.018	534.88
461.238	496.88
461.458	516.88
461.678	513.88
461.898	501.88
462.118	527.88
462.338	522.88
462.558	519.88
462.777	510.88
462.997	524.88
463.217	561.88
463.437	577.88
463.657	555.88
463.876	548.88
464.096	575.88
464.316	530.88
464.536	567.88
464.755	586.88
464.975	583.88
465.195	627.88
465.414	722.88
465.634	638.88
465.854	603.88
466.073	562.88
466.293	538.88
466.512	515.88
466.732	531.88
466.951	502.88
467.171	530.88
467.391	528.88
467.61	518.88
467.829	544.88
468.049	546.88
468.268	529.88
468.488	535.88
468.707	519.88
468.927	508.88
469.146	498.88
469.365	493.88
469.585	535.88
469.804	521.88
470.023	537.88
470.243	522.88
470.462	549.88
470.681	556.88
470.901	558.88
471.12	535.88
471.339	517.88
471.558	547.88
471.777	531.88
471.997	534.88
472.216	557.88
472.435	581.88
472.654	601.88
472.873	533.88
473.092	534.88
473.311	529.88
473.53	526.88
473.749	530.88
473.968	595.88
474.187	700.88
474.406	729.88
474.625	631.88
474.844	562.88
475.063	528.88
475.282	562.88
475.501	552.88
475.72	532.88
475.939	560.88
476.158	539.88
476.377	547.88
476.596	543.88
476.814	549.88
477.033	559.88
477.252	564.88
477.471	571.88
477.69	566.88
477.908	572.88
478.127	577.88
478.346	560.88
478.564	589.88
478.783	610.88
479.002	608.88
479.22	609.88
479.439	616.88
479.658	635.88
479.876	646.88
480.095	661.88
480.313	675.88
480.532	679.88
480.751	656.88
480.969	644.88
481.188	738.88
481.406	806.88
481.624	724.88
481.843	674.88
482.061	632.88
482.28	639.88
482.498	666.88
482.717	648.88
482.935	656.88
483.153	636.88
483.372	639.88
483.59	663.88
483.808	642.88
484.027	624.88
484.245	634.88
484.463	649.88
484.681	637.88
484.9	639.88
485.118	653.88
485.336	660.88
485.554	647.88
485.772	670.88
485.99	647.88
486.209	639.88
486.427	661.88
486.645	692.88
486.863	708.88
487.081	686.88
487.299	698.88
487.517	691.88
487.735	706.88
487.953	700.88
488.171	706.88
488.389	698.88
488.607	675.88
488.825	694.88
489.043	688.88
489.261	716.88
489.479	692.88
489.696	706.88
489.914	722.88
490.132	721.88
490.35	733.88
490.568	713.88
490.786	741.88
491.003	745.88
491.221	778.88
491.439	784.88
491.657	787.88
491.874	810.88
492.092	803.88
492.31	844.88
492.527	826.88
492.745	831.88
492.963	832.88
493.18	840.88
493.398	815.88
493.615	834.88
493.833	842.88
494.05	836.88
494.268	846.88
494.485	809.88
494.703	838.88
494.92	843.88
495.138	859.88
495.355	859.88
495.573	855.88
495.79	839.88
496.008	827.88
496.225	852.88
496.442	857.88
496.66	824.88
496.877	839.88
497.094	837.88
497.312	854.88
497.529	834.88
497.746	851.88
497.963	864.88
498.181	902.88
498.398	873.88
498.615	880.88
498.832	927.88
499.049	894.88
499.267	908.88
499.484	912.88
499.701	962.88
499.918	959.88
500.135	1033.88
500.352	1035.88
500.569	1010.88
500.786	1021.88
501.003	1042.88
501.22	1000.88
501.437	1003.88
501.654	993.88
501.871	985.88
