Data from 1970.PennyLincolnUp.Lamp.En5.5.200Scan.071719.P1._HRD10591_15-12-49-844.txt Node
Date: Thu Jul 18 15:12:49 EDT 2019
User: cochatt
Spectrometer: HR+D1059
Trigger mode: 1
Integration Time (sec): 1.000000E-1
Scans to average: 1
Electric dark correction enabled: true
Nonlinearity correction enabled: false
Boxcar width: 0
XAxis mode: Wavelengths
Number of Pixels in Spectrum: 2048
>>>>>Begin Spectral Data<<<<<
223.165	-16.56
223.4	-16.56
223.635	-16.56
223.869	-7.56
224.104	-4.56
224.338	-9.56
224.573	-15.56
224.808	-6.56
225.042	-1.56
225.277	-19.56
225.511	-13.56
225.746	-3.56
225.98	2.44
226.215	4.44
226.449	14.44
226.683	35.44
226.918	15.44
227.152	26.44
227.387	30.44
227.621	36.44
227.856	43.44
228.09	33.44
228.324	47.44
228.559	57.44
228.793	49.44
229.027	64.44
229.262	64.44
229.496	71.44
229.73	72.44
229.964	87.44
230.199	74.44
230.433	81.44
230.667	76.44
230.901	82.44
231.136	89.44
231.37	83.44
231.604	89.44
231.838	72.44
232.072	91.44
232.306	74.44
232.541	84.44
232.775	80.44
233.009	65.44
233.243	90.44
233.477	81.44
233.711	96.44
233.945	92.44
234.179	78.44
234.413	84.44
234.647	78.44
234.881	80.44
235.115	72.44
235.349	82.44
235.583	91.44
235.817	85.44
236.051	81.44
236.285	90.44
236.519	84.44
236.753	97.44
236.987	86.44
237.221	82.44
237.455	94.44
237.689	93.44
237.922	94.44
238.156	87.44
238.39	82.44
238.624	76.44
238.858	81.44
239.091	97.44
239.325	77.44
239.559	87.44
239.793	84.44
240.027	84.44
240.26	80.44
240.494	73.44
240.728	70.44
240.961	80.44
241.195	86.44
241.429	89.44
241.662	77.44
241.896	81.44
242.13	79.44
242.363	94.44
242.597	70.44
242.83	92.44
243.064	74.44
243.298	86.44
243.531	76.44
243.765	91.44
243.998	82.44
244.232	93.44
244.465	83.44
244.699	72.44
244.932	86.44
245.166	87.44
245.399	92.44
245.633	76.44
245.866	78.44
246.099	80.44
246.333	87.44
246.566	97.44
246.8	92.44
247.033	94.44
247.266	83.44
247.5	86.44
247.733	87.44
247.966	83.44
248.2	77.44
248.433	85.44
248.666	84.44
248.899	91.44
249.133	89.44
249.366	96.44
249.599	95.44
249.832	83.44
250.066	91.44
250.299	86.44
250.532	75.44
250.765	78.44
250.998	94.44
251.231	91.44
251.465	91.44
251.698	75.44
251.931	86.44
252.164	77.44
252.397	90.44
252.63	91.44
252.863	92.44
253.096	86.44
253.329	94.44
253.562	94.44
253.795	98.44
254.028	87.44
254.261	99.44
254.494	89.44
254.727	86.44
254.96	103.44
255.193	112.44
255.426	86.44
255.659	100.44
255.892	118.44
256.124	105.44
256.357	110.44
256.59	87.44
256.823	101.44
257.056	73.44
257.289	89.44
257.521	80.44
257.754	89.44
257.987	95.44
258.22	90.44
258.452	79.44
258.685	98.44
258.918	82.44
259.151	93.44
259.383	90.44
259.616	85.44
259.849	101.44
260.081	104.44
260.314	107.44
260.547	108.44
260.779	96.44
261.012	86.44
261.244	96.44
261.477	101.44
261.71	74.44
261.942	84.44
262.175	92.44
262.407	81.44
262.64	101.44
262.872	97.44
263.105	98.44
263.337	118.44
263.57	96.44
263.802	106.44
264.035	91.44
264.267	84.44
264.499	96.44
264.732	88.44
264.964	93.44
265.197	105.44
265.429	89.44
265.661	88.44
265.894	86.44
266.126	91.44
266.358	80.44
266.591	99.44
266.823	99.44
267.055	119.44
267.287	105.44
267.52	112.44
267.752	101.44
267.984	105.44
268.216	91.44
268.448	103.44
268.681	101.44
268.913	92.44
269.145	102.44
269.377	98.44
269.609	87.44
269.841	90.44
270.073	112.44
270.306	102.44
270.538	116.44
270.77	119.44
271.002	115.44
271.234	121.44
271.466	107.44
271.698	107.44
271.93	104.44
272.162	97.44
272.394	105.44
272.626	104.44
272.858	93.44
273.09	96.44
273.322	101.44
273.553	97.44
273.785	89.44
274.017	107.44
274.249	103.44
274.481	111.44
274.713	101.44
274.945	96.44
275.176	107.44
275.408	112.44
275.64	100.44
275.872	104.44
276.104	122.44
276.335	105.44
276.567	103.44
276.799	117.44
277.031	90.44
277.262	108.44
277.494	104.44
277.726	103.44
277.957	110.44
278.189	104.44
278.421	104.44
278.652	107.44
278.884	104.44
279.115	110.44
279.347	97.44
279.579	112.44
279.81	137.44
280.042	116.44
280.273	111.44
280.505	114.44
280.736	106.44
280.968	101.44
281.199	113.44
281.431	112.44
281.662	111.44
281.894	99.44
282.125	95.44
282.356	105.44
282.588	106.44
282.819	103.44
283.051	118.44
283.282	105.44
283.513	103.44
283.745	106.44
283.976	99.44
284.207	112.44
284.439	107.44
284.67	106.44
284.901	94.44
285.132	102.44
285.364	114.44
285.595	121.44
285.826	100.44
286.057	121.44
286.288	108.44
286.52	119.44
286.751	102.44
286.982	113.44
287.213	94.44
287.444	101.44
287.675	108.44
287.906	117.44
288.138	110.44
288.369	98.44
288.6	115.44
288.831	116.44
289.062	118.44
289.293	94.44
289.524	107.44
289.755	110.44
289.986	107.44
290.217	108.44
290.448	95.44
290.679	101.44
290.91	105.44
291.141	109.44
291.371	102.44
291.602	105.44
291.833	114.44
292.064	116.44
292.295	90.44
292.526	111.44
292.757	94.44
292.987	104.44
293.218	97.44
293.449	114.44
293.68	99.44
293.91	106.44
294.141	103.44
294.372	96.44
294.603	104.44
294.833	110.44
295.064	114.44
295.295	115.44
295.525	107.44
295.756	103.44
295.987	110.44
296.217	113.44
296.448	106.44
296.679	116.44
296.909	96.44
297.14	113.44
297.37	113.44
297.601	114.44
297.831	107.44
298.062	104.44
298.292	110.44
298.523	102.44
298.753	108.44
298.984	107.44
299.214	124.44
299.445	107.44
299.675	103.44
299.905	109.44
300.136	115.44
300.366	110.44
300.597	98.44
300.827	100.44
301.057	113.44
301.288	108.44
301.518	118.44
301.748	107.44
301.979	124.44
302.209	122.44
302.439	129.44
302.669	122.44
302.9	95.44
303.13	113.44
303.36	116.44
303.59	107.44
303.82	109.44
304.051	119.44
304.281	116.44
304.511	122.44
304.741	114.44
304.971	116.44
305.201	116.44
305.431	100.44
305.661	98.44
305.891	118.44
306.121	110.44
306.352	119.44
306.582	107.44
306.812	120.44
307.042	118.44
307.272	108.44
307.502	92.44
307.731	105.44
307.961	115.44
308.191	112.44
308.421	118.44
308.651	110.44
308.881	119.44
309.111	127.44
309.341	110.44
309.571	111.44
309.8	111.44
310.03	97.44
310.26	102.44
310.49	123.44
310.72	119.44
310.949	120.44
311.179	126.44
311.409	121.44
311.639	125.44
311.868	112.44
312.098	117.44
312.328	124.44
312.557	121.44
312.787	110.44
313.017	112.44
313.246	124.44
313.476	113.44
313.706	128.44
313.935	113.44
314.165	124.44
314.394	111.44
314.624	114.44
314.853	138.44
315.083	130.44
315.312	127.44
315.542	108.44
315.771	116.44
316.001	120.44
316.23	119.44
316.46	116.44
316.689	111.44
316.919	105.44
317.148	122.44
317.377	118.44
317.607	121.44
317.836	130.44
318.065	124.44
318.295	124.44
318.524	129.44
318.753	111.44
318.983	116.44
319.212	107.44
319.441	121.44
319.67	138.44
319.9	110.44
320.129	127.44
320.358	128.44
320.587	107.44
320.816	121.44
321.046	117.44
321.275	106.44
321.504	140.44
321.733	106.44
321.962	94.44
322.191	130.44
322.42	139.44
322.649	120.44
322.878	123.44
323.108	128.44
323.337	123.44
323.566	135.44
323.795	147.44
324.024	146.44
324.253	156.44
324.482	234.44
324.71	290.44
324.939	353.44
325.168	310.44
325.397	188.44
325.626	154.44
325.855	138.44
326.084	123.44
326.313	136.44
326.542	134.44
326.77	151.44
326.999	182.44
327.228	214.44
327.457	257.44
327.686	282.44
327.914	218.44
328.143	164.44
328.372	167.44
328.6	152.44
328.829	138.44
329.058	141.44
329.287	146.44
329.515	137.44
329.744	137.44
329.972	146.44
330.201	121.44
330.43	126.44
330.658	153.44
330.887	150.44
331.115	130.44
331.344	131.44
331.572	135.44
331.801	138.44
332.03	135.44
332.258	126.44
332.486	119.44
332.715	113.44
332.943	134.44
333.172	128.44
333.4	142.44
333.629	118.44
333.857	134.44
334.085	129.44
334.314	130.44
334.542	136.44
334.771	135.44
334.999	139.44
335.227	136.44
335.455	131.44
335.684	128.44
335.912	132.44
336.14	130.44
336.369	114.44
336.597	131.44
336.825	118.44
337.053	116.44
337.281	123.44
337.51	117.44
337.738	119.44
337.966	127.44
338.194	135.44
338.422	134.44
338.65	121.44
338.878	121.44
339.106	126.44
339.334	136.44
339.562	126.44
339.79	98.44
340.018	112.44
340.246	126.44
340.474	126.44
340.702	124.44
340.93	126.44
341.158	131.44
341.386	119.44
341.614	115.44
341.842	115.44
342.07	121.44
342.298	118.44
342.526	114.44
342.754	116.44
342.981	124.44
343.209	118.44
343.437	124.44
343.665	117.44
343.893	126.44
344.12	120.44
344.348	127.44
344.576	118.44
344.804	119.44
345.031	124.44
345.259	118.44
345.487	124.44
345.714	133.44
345.942	128.44
346.17	118.44
346.397	115.44
346.625	113.44
346.853	121.44
347.08	133.44
347.308	122.44
347.535	124.44
347.763	123.44
347.99	111.44
348.218	117.44
348.445	106.44
348.673	106.44
348.9	113.44
349.128	117.44
349.355	119.44
349.583	118.44
349.81	116.44
350.037	120.44
350.265	122.44
350.492	119.44
350.72	98.44
350.947	116.44
351.174	118.44
351.402	110.44
351.629	130.44
351.856	131.44
352.083	120.44
352.311	123.44
352.538	124.44
352.765	128.44
352.992	131.44
353.22	114.44
353.447	99.44
353.674	114.44
353.901	97.44
354.128	129.44
354.355	117.44
354.583	108.44
354.81	116.44
355.037	106.44
355.264	120.44
355.491	115.44
355.718	114.44
355.945	107.44
356.172	117.44
356.399	99.44
356.626	124.44
356.853	112.44
357.08	111.44
357.307	111.44
357.534	115.44
357.761	92.44
357.988	121.44
358.215	114.44
358.441	112.44
358.668	127.44
358.895	99.44
359.122	114.44
359.349	105.44
359.576	114.44
359.802	103.44
360.029	124.44
360.256	124.44
360.483	128.44
360.709	121.44
360.936	122.44
361.163	122.44
361.39	145.44
361.616	123.44
361.843	123.44
362.07	123.44
362.296	115.44
362.523	128.44
362.749	127.44
362.976	118.44
363.203	123.44
363.429	114.44
363.656	104.44
363.882	119.44
364.109	130.44
364.335	112.44
364.562	114.44
364.788	122.44
365.015	115.44
365.241	122.44
365.468	120.44
365.694	116.44
365.92	133.44
366.147	113.44
366.373	107.44
366.599	107.44
366.826	118.44
367.052	115.44
367.278	110.44
367.505	112.44
367.731	115.44
367.957	109.44
368.184	107.44
368.41	127.44
368.636	111.44
368.862	121.44
369.089	127.44
369.315	122.44
369.541	114.44
369.767	137.44
369.993	114.44
370.219	110.44
370.445	102.44
370.672	102.44
370.898	123.44
371.124	102.44
371.35	120.44
371.576	113.44
371.802	120.44
372.028	114.44
372.254	116.44
372.48	115.44
372.706	117.44
372.932	116.44
373.158	111.44
373.384	107.44
373.61	126.44
373.835	123.44
374.061	128.44
374.287	134.44
374.513	129.44
374.739	106.44
374.965	130.44
375.191	123.44
375.416	112.44
375.642	120.44
375.868	115.44
376.094	129.44
376.319	125.44
376.545	123.44
376.771	114.44
376.997	123.44
377.222	114.44
377.448	103.44
377.674	107.44
377.899	132.44
378.125	120.44
378.35	122.44
378.576	120.44
378.802	137.44
379.027	133.44
379.253	119.44
379.478	123.44
379.704	111.44
379.929	105.44
380.155	120.44
380.38	126.44
380.606	128.44
380.831	133.44
381.057	121.44
381.282	126.44
381.507	130.44
381.733	116.44
381.958	112.44
382.184	117.44
382.409	119.44
382.634	124.44
382.86	116.44
383.085	119.44
383.31	118.44
383.535	125.44
383.761	121.44
383.986	122.44
384.211	114.44
384.436	99.44
384.662	128.44
384.887	126.44
385.112	113.44
385.337	118.44
385.562	132.44
385.787	120.44
386.013	122.44
386.238	116.44
386.463	123.44
386.688	120.44
386.913	120.44
387.138	135.44
387.363	130.44
387.588	122.44
387.813	124.44
388.038	140.44
388.263	117.44
388.488	112.44
388.713	131.44
388.938	128.44
389.163	128.44
389.387	122.44
389.612	110.44
389.837	111.44
390.062	133.44
390.287	122.44
390.512	130.44
390.736	136.44
390.961	115.44
391.186	135.44
391.411	124.44
391.636	126.44
391.86	145.44
392.085	138.44
392.31	136.44
392.534	149.44
392.759	141.44
392.984	167.44
393.208	184.44
393.433	238.44
393.658	206.44
393.882	155.44
394.107	139.44
394.331	138.44
394.556	140.44
394.78	128.44
395.005	122.44
395.229	136.44
395.454	139.44
395.678	117.44
395.903	143.44
396.127	148.44
396.352	163.44
396.576	159.44
396.801	186.44
397.025	193.44
397.249	153.44
397.474	135.44
397.698	134.44
397.922	136.44
398.147	126.44
398.371	128.44
398.595	144.44
398.82	116.44
399.044	127.44
399.268	122.44
399.492	144.44
399.717	150.44
399.941	160.44
400.165	142.44
400.389	147.44
400.613	146.44
400.837	130.44
401.062	137.44
401.286	130.44
401.51	138.44
401.734	137.44
401.958	154.44
402.182	133.44
402.406	144.44
402.63	140.44
402.854	133.44
403.078	126.44
403.302	135.44
403.526	148.44
403.75	131.44
403.974	133.44
404.198	139.44
404.422	131.44
404.645	153.44
404.869	140.44
405.093	134.44
405.317	148.44
405.541	140.44
405.765	150.44
405.988	153.44
406.212	145.44
406.436	155.44
406.66	154.44
406.883	140.44
407.107	135.44
407.331	158.44
407.555	137.44
407.778	164.44
408.002	164.44
408.226	132.44
408.449	148.44
408.673	147.44
408.896	135.44
409.12	160.44
409.344	146.44
409.567	139.44
409.791	135.44
410.014	140.44
410.238	144.44
410.461	152.44
410.685	147.44
410.908	134.44
411.132	154.44
411.355	161.44
411.578	147.44
411.802	150.44
412.025	135.44
412.249	131.44
412.472	156.44
412.695	162.44
412.919	128.44
413.142	136.44
413.365	154.44
413.589	136.44
413.812	141.44
414.035	142.44
414.258	136.44
414.482	146.44
414.705	139.44
414.928	144.44
415.151	136.44
415.374	130.44
415.597	148.44
415.821	128.44
416.044	134.44
416.267	136.44
416.49	116.44
416.713	135.44
416.936	132.44
417.159	146.44
417.382	133.44
417.605	152.44
417.828	143.44
418.051	135.44
418.274	136.44
418.497	146.44
418.72	125.44
418.943	146.44
419.166	138.44
419.389	139.44
419.611	134.44
419.834	135.44
420.057	135.44
420.28	134.44
420.503	146.44
420.726	132.44
420.948	135.44
421.171	152.44
421.394	164.44
421.617	147.44
421.839	141.44
422.062	151.44
422.285	158.44
422.507	142.44
422.73	160.44
422.953	164.44
423.175	140.44
423.398	138.44
423.621	143.44
423.843	147.44
424.066	136.44
424.288	139.44
424.511	147.44
424.733	169.44
424.956	151.44
425.178	171.44
425.401	150.44
425.623	158.44
425.846	156.44
426.068	144.44
426.291	133.44
426.513	147.44
426.735	155.44
426.958	147.44
427.18	172.44
427.402	189.44
427.625	189.44
427.847	177.44
428.069	174.44
428.292	136.44
428.514	134.44
428.736	140.44
428.958	154.44
429.181	137.44
429.403	150.44
429.625	130.44
429.847	137.44
430.069	156.44
430.292	162.44
430.514	150.44
430.736	139.44
430.958	140.44
431.18	140.44
431.402	154.44
431.624	136.44
431.846	122.44
432.068	120.44
432.29	140.44
432.512	136.44
432.734	152.44
432.956	145.44
433.178	141.44
433.4	138.44
433.622	132.44
433.844	136.44
434.066	147.44
434.287	140.44
434.509	141.44
434.731	128.44
434.953	133.44
435.175	142.44
435.397	144.44
435.618	147.44
435.84	153.44
436.062	158.44
436.284	176.44
436.505	164.44
436.727	154.44
436.949	123.44
437.17	142.44
437.392	144.44
437.614	136.44
437.835	149.44
438.057	162.44
438.278	168.44
438.5	179.44
438.721	179.44
438.943	175.44
439.165	165.44
439.386	150.44
439.608	151.44
439.829	150.44
440.05	145.44
440.272	168.44
440.493	159.44
440.715	141.44
440.936	138.44
441.158	146.44
441.379	152.44
441.6	147.44
441.822	162.44
442.043	132.44
442.264	168.44
442.486	184.44
442.707	137.44
442.928	148.44
443.149	142.44
443.371	138.44
443.592	154.44
443.813	183.44
444.034	180.44
444.255	153.44
444.476	151.44
444.698	157.44
444.919	144.44
445.14	281.44
445.361	214.44
445.582	156.44
445.803	159.44
446.024	178.44
446.245	199.44
446.466	167.44
446.687	164.44
446.908	155.44
447.129	150.44
447.35	128.44
447.571	136.44
447.792	153.44
448.013	150.44
448.234	140.44
448.455	137.44
448.675	165.44
448.896	163.44
449.117	159.44
449.338	145.44
449.559	172.44
449.779	180.44
450	167.44
450.221	146.44
450.442	131.44
450.662	151.44
450.883	142.44
451.104	146.44
451.324	144.44
451.545	133.44
451.766	126.44
451.986	142.44
452.207	118.44
452.428	129.44
452.648	133.44
452.869	146.44
453.089	121.44
453.31	135.44
453.53	120.44
453.751	146.44
453.971	126.44
454.192	124.44
454.412	129.44
454.633	144.44
454.853	130.44
455.073	148.44
455.294	128.44
455.514	145.44
455.734	144.44
455.955	127.44
456.175	117.44
456.395	124.44
456.616	127.44
456.836	151.44
457.056	120.44
457.276	114.44
457.497	121.44
457.717	119.44
457.937	125.44
458.157	139.44
458.377	151.44
458.598	143.44
458.818	151.44
459.038	148.44
459.258	131.44
459.478	147.44
459.698	113.44
459.918	123.44
460.138	120.44
460.358	156.44
460.578	147.44
460.798	135.44
461.018	134.44
461.238	143.44
461.458	136.44
461.678	134.44
461.898	124.44
462.118	135.44
462.338	129.44
462.558	129.44
462.777	136.44
462.997	138.44
463.217	141.44
463.437	151.44
463.657	155.44
463.876	132.44
464.096	138.44
464.316	146.44
464.536	140.44
464.755	137.44
464.975	140.44
465.195	154.44
465.414	155.44
465.634	142.44
465.854	142.44
466.073	137.44
466.293	136.44
466.512	134.44
466.732	134.44
466.951	149.44
467.171	135.44
467.391	135.44
467.61	150.44
467.829	142.44
468.049	140.44
468.268	139.44
468.488	137.44
468.707	132.44
468.927	132.44
469.146	138.44
469.365	152.44
469.585	138.44
469.804	139.44
470.023	136.44
470.243	140.44
470.462	153.44
470.681	165.44
470.901	138.44
471.12	144.44
471.339	151.44
471.558	152.44
471.777	135.44
471.997	138.44
472.216	131.44
472.435	120.44
472.654	146.44
472.873	117.44
473.092	107.44
473.311	124.44
473.53	138.44
473.749	142.44
473.968	138.44
474.187	144.44
474.406	144.44
474.625	137.44
474.844	124.44
475.063	135.44
475.282	142.44
475.501	140.44
475.72	134.44
475.939	149.44
476.158	146.44
476.377	146.44
476.596	132.44
476.814	139.44
477.033	148.44
477.252	131.44
477.471	143.44
477.69	133.44
477.908	137.44
478.127	141.44
478.346	143.44
478.564	144.44
478.783	153.44
479.002	145.44
479.22	143.44
479.439	143.44
479.658	165.44
479.876	147.44
480.095	149.44
480.313	141.44
480.532	156.44
480.751	141.44
480.969	157.44
481.188	136.44
481.406	164.44
481.624	135.44
481.843	133.44
482.061	150.44
482.28	135.44
482.498	147.44
482.717	144.44
482.935	140.44
483.153	140.44
483.372	168.44
483.59	146.44
483.808	152.44
484.027	146.44
484.245	165.44
484.463	151.44
484.681	163.44
484.9	142.44
485.118	154.44
485.336	138.44
485.554	141.44
485.772	135.44
485.99	148.44
486.209	137.44
486.427	132.44
486.645	167.44
486.863	167.44
487.081	164.44
487.299	158.44
487.517	149.44
487.735	149.44
487.953	162.44
488.171	155.44
488.389	150.44
488.607	130.44
488.825	154.44
489.043	149.44
489.261	164.44
489.479	161.44
489.696	162.44
489.914	145.44
490.132	147.44
490.35	155.44
490.568	155.44
490.786	167.44
491.003	169.44
491.221	161.44
491.439	168.44
491.657	182.44
491.874	166.44
492.092	175.44
492.31	183.44
492.527	198.44
492.745	179.44
492.963	168.44
493.18	174.44
493.398	177.44
493.615	158.44
493.833	183.44
494.05	158.44
494.268	165.44
494.485	178.44
494.703	183.44
494.92	187.44
495.138	170.44
495.355	200.44
495.573	170.44
495.79	163.44
496.008	171.44
496.225	152.44
496.442	178.44
496.66	163.44
496.877	167.44
497.094	178.44
497.312	166.44
497.529	182.44
497.746	164.44
497.963	176.44
498.181	174.44
498.398	177.44
498.615	177.44
498.832	176.44
499.049	172.44
499.267	176.44
499.484	194.44
499.701	186.44
499.918	182.44
500.135	209.44
500.352	215.44
500.569	214.44
500.786	219.44
501.003	211.44
501.22	221.44
501.437	194.44
501.654	192.44
501.871	202.44
502.088	179.44
502.305	178.44
502.522	186.44
502.739	172.44
502.956	167.44
503.172	185.44
503.389	162.44
503.606	177.44
503.823	167.44
504.04	184.44
504.256	160.44
504.473	163.44
504.69	150.44
