Data from 1970.PennyLincolnUp.Lamp.En5.5.200Scan.071719.P1._HRD10591_15-14-24-841.txt Node
Date: Thu Jul 18 15:14:24 EDT 2019
User: cochatt
Spectrometer: HR+D1059
Trigger mode: 1
Integration Time (sec): 1.000000E-1
Scans to average: 1
Electric dark correction enabled: true
Nonlinearity correction enabled: false
Boxcar width: 0
XAxis mode: Wavelengths
Number of Pixels in Spectrum: 2048
>>>>>Begin Spectral Data<<<<<
223.165	-11.81
223.4	-11.81
223.635	-11.81
223.869	-17.81
224.104	-13.81
224.338	-16.81
224.573	-12.81
224.808	-3.81
225.042	-14.81
225.277	-14.81
225.511	1.19
225.746	-10.81
225.98	22.19
226.215	2.19
226.449	13.19
226.683	18.19
226.918	34.19
227.152	26.19
227.387	30.19
227.621	41.19
227.856	52.19
228.09	31.19
228.324	41.19
228.559	61.19
228.793	68.19
229.027	114.19
229.262	108.19
229.496	103.19
229.73	135.19
229.964	159.19
230.199	136.19
230.433	120.19
230.667	115.19
230.901	114.19
231.136	122.19
231.37	121.19
231.604	109.19
231.838	116.19
232.072	95.19
232.306	101.19
232.541	122.19
232.775	117.19
233.009	117.19
233.243	118.19
233.477	113.19
233.711	122.19
233.945	103.19
234.179	125.19
234.413	114.19
234.647	101.19
234.881	108.19
235.115	132.19
235.349	107.19
235.583	138.19
235.817	119.19
236.051	129.19
236.285	135.19
236.519	130.19
236.753	134.19
236.987	157.19
237.221	190.19
237.455	238.19
237.689	217.19
237.922	152.19
238.156	137.19
238.39	139.19
238.624	136.19
238.858	121.19
239.091	123.19
239.325	134.19
239.559	132.19
239.793	121.19
240.027	134.19
240.26	144.19
240.494	148.19
240.728	141.19
240.961	145.19
241.195	145.19
241.429	143.19
241.662	132.19
241.896	152.19
242.13	119.19
242.363	138.19
242.597	118.19
242.83	157.19
243.064	123.19
243.298	149.19
243.531	140.19
243.765	150.19
243.998	147.19
244.232	143.19
244.465	142.19
244.699	157.19
244.932	146.19
245.166	143.19
245.399	151.19
245.633	153.19
245.866	145.19
246.099	151.19
246.333	151.19
246.566	154.19
246.8	148.19
247.033	153.19
247.266	173.19
247.5	146.19
247.733	149.19
247.966	177.19
248.2	182.19
248.433	181.19
248.666	189.19
248.899	189.19
249.133	204.19
249.366	222.19
249.599	209.19
249.832	203.19
250.066	189.19
250.299	182.19
250.532	202.19
250.765	224.19
250.998	229.19
251.231	234.19
251.465	234.19
251.698	206.19
251.931	223.19
252.164	208.19
252.397	219.19
252.63	213.19
252.863	221.19
253.096	233.19
253.329	228.19
253.562	235.19
253.795	246.19
254.028	259.19
254.261	225.19
254.494	243.19
254.727	264.19
254.96	286.19
255.193	315.19
255.426	275.19
255.659	256.19
255.892	244.19
256.124	250.19
256.357	248.19
256.59	237.19
256.823	233.19
257.056	239.19
257.289	218.19
257.521	221.19
257.754	201.19
257.987	218.19
258.22	236.19
258.452	215.19
258.685	216.19
258.918	212.19
259.151	211.19
259.383	223.19
259.616	233.19
259.849	235.19
260.081	204.19
260.314	259.19
260.547	271.19
260.779	257.19
261.012	247.19
261.244	223.19
261.477	227.19
261.71	239.19
261.942	229.19
262.175	248.19
262.407	243.19
262.64	227.19
262.872	220.19
263.105	220.19
263.337	198.19
263.57	224.19
263.802	227.19
264.035	221.19
264.267	212.19
264.499	235.19
264.732	214.19
264.964	229.19
265.197	227.19
265.429	217.19
265.661	193.19
265.894	215.19
266.126	225.19
266.358	235.19
266.591	230.19
266.823	237.19
267.055	230.19
267.287	220.19
267.52	210.19
267.752	214.19
267.984	218.19
268.216	225.19
268.448	241.19
268.681	235.19
268.913	257.19
269.145	262.19
269.377	270.19
269.609	258.19
269.841	282.19
270.073	269.19
270.306	293.19
270.538	312.19
270.77	309.19
271.002	321.19
271.234	303.19
271.466	297.19
271.698	295.19
271.93	318.19
272.162	309.19
272.394	326.19
272.626	311.19
272.858	300.19
273.09	286.19
273.322	284.19
273.553	252.19
273.785	263.19
274.017	251.19
274.249	272.19
274.481	280.19
274.713	273.19
274.945	275.19
275.176	245.19
275.408	274.19
275.64	273.19
275.872	259.19
276.104	265.19
276.335	272.19
276.567	262.19
276.799	291.19
277.031	309.19
277.262	305.19
277.494	296.19
277.726	289.19
277.957	264.19
278.189	281.19
278.421	253.19
278.652	268.19
278.884	275.19
279.115	273.19
279.347	282.19
279.579	280.19
279.81	245.19
280.042	234.19
280.273	268.19
280.505	269.19
280.736	269.19
280.968	268.19
281.199	247.19
281.431	266.19
281.662	267.19
281.894	250.19
282.125	255.19
282.356	280.19
282.588	302.19
282.819	281.19
283.051	272.19
283.282	265.19
283.513	264.19
283.745	265.19
283.976	252.19
284.207	267.19
284.439	281.19
284.67	271.19
284.901	266.19
285.132	272.19
285.364	271.19
285.595	261.19
285.826	257.19
286.057	260.19
286.288	268.19
286.52	275.19
286.751	275.19
286.982	257.19
287.213	272.19
287.444	253.19
287.675	268.19
287.906	287.19
288.138	283.19
288.369	272.19
288.6	293.19
288.831	305.19
289.062	300.19
289.293	275.19
289.524	269.19
289.755	292.19
289.986	287.19
290.217	292.19
290.448	276.19
290.679	270.19
290.91	269.19
291.141	281.19
291.371	278.19
291.602	283.19
291.833	277.19
292.064	280.19
292.295	279.19
292.526	270.19
292.757	281.19
292.987	274.19
293.218	278.19
293.449	277.19
293.68	277.19
293.91	297.19
294.141	271.19
294.372	286.19
294.603	274.19
294.833	275.19
295.064	288.19
295.295	270.19
295.525	277.19
295.756	284.19
295.987	291.19
296.217	307.19
296.448	333.19
296.679	290.19
296.909	293.19
297.14	283.19
297.37	275.19
297.601	281.19
297.831	273.19
298.062	291.19
298.292	288.19
298.523	282.19
298.753	290.19
298.984	287.19
299.214	279.19
299.445	293.19
299.675	283.19
299.905	293.19
300.136	309.19
300.366	285.19
300.597	282.19
300.827	306.19
301.057	300.19
301.288	321.19
301.518	299.19
301.748	299.19
301.979	286.19
302.209	322.19
302.439	295.19
302.669	313.19
302.9	286.19
303.13	301.19
303.36	306.19
303.59	322.19
303.82	326.19
304.051	320.19
304.281	312.19
304.511	300.19
304.741	309.19
304.971	309.19
305.201	324.19
305.431	318.19
305.661	303.19
305.891	318.19
306.121	310.19
306.352	310.19
306.582	335.19
306.812	324.19
307.042	306.19
307.272	298.19
307.502	332.19
307.731	326.19
307.961	313.19
308.191	327.19
308.421	313.19
308.651	305.19
308.881	334.19
309.111	322.19
309.341	313.19
309.571	333.19
309.8	337.19
310.03	363.19
310.26	367.19
310.49	352.19
310.72	355.19
310.949	384.19
311.179	381.19
311.409	376.19
311.639	343.19
311.868	365.19
312.098	356.19
312.328	367.19
312.557	395.19
312.787	409.19
313.017	392.19
313.246	394.19
313.476	375.19
313.706	352.19
313.935	377.19
314.165	359.19
314.394	399.19
314.624	375.19
314.853	383.19
315.083	363.19
315.312	371.19
315.542	353.19
315.771	363.19
316.001	361.19
316.23	377.19
316.46	339.19
316.689	358.19
316.919	381.19
317.148	371.19
317.377	369.19
317.607	381.19
317.836	382.19
318.065	372.19
318.295	357.19
318.524	371.19
318.753	359.19
318.983	371.19
319.212	376.19
319.441	379.19
319.67	384.19
319.9	377.19
320.129	363.19
320.358	365.19
320.587	387.19
320.816	391.19
321.046	403.19
321.275	414.19
321.504	409.19
321.733	398.19
321.962	381.19
322.191	395.19
322.42	397.19
322.649	454.19
322.878	442.19
323.108	470.19
323.337	463.19
323.566	500.19
323.795	533.19
324.024	582.19
324.253	693.19
324.482	997.19
324.71	1501.19
324.939	2113.19
325.168	1831.19
325.397	981.19
325.626	691.19
325.855	590.19
326.084	518.19
326.313	535.19
326.542	521.19
326.77	549.19
326.999	655.19
327.228	895.19
327.457	1282.19
327.686	1563.19
327.914	1133.19
328.143	753.19
328.372	648.19
328.6	611.19
328.829	555.19
329.058	569.19
329.287	594.19
329.515	546.19
329.744	515.19
329.972	523.19
330.201	543.19
330.43	562.19
330.658	603.19
330.887	646.19
331.115	587.19
331.344	517.19
331.572	484.19
331.801	478.19
332.03	477.19
332.258	483.19
332.486	452.19
332.715	473.19
332.943	433.19
333.172	449.19
333.4	438.19
333.629	438.19
333.857	484.19
334.085	487.19
334.314	499.19
334.542	548.19
334.771	549.19
334.999	525.19
335.227	476.19
335.455	442.19
335.684	451.19
335.912	419.19
336.14	430.19
336.369	427.19
336.597	447.19
336.825	442.19
337.053	424.19
337.281	426.19
337.51	414.19
337.738	425.19
337.966	429.19
338.194	436.19
338.422	437.19
338.65	443.19
338.878	424.19
339.106	415.19
339.334	425.19
339.562	406.19
339.79	401.19
340.018	422.19
340.246	421.19
340.474	446.19
340.702	428.19
340.93	420.19
341.158	407.19
341.386	431.19
341.614	414.19
341.842	437.19
342.07	404.19
342.298	400.19
342.526	415.19
342.754	405.19
342.981	410.19
343.209	396.19
343.437	399.19
343.665	410.19
343.893	422.19
344.12	418.19
344.348	422.19
344.576	427.19
344.804	431.19
345.031	439.19
345.259	427.19
345.487	415.19
345.714	406.19
345.942	415.19
346.17	406.19
346.397	404.19
346.625	431.19
346.853	413.19
347.08	396.19
347.308	409.19
347.535	430.19
347.763	414.19
347.99	427.19
348.218	428.19
348.445	437.19
348.673	421.19
348.9	406.19
349.128	395.19
349.355	409.19
349.583	385.19
349.81	397.19
350.037	414.19
350.265	409.19
350.492	405.19
350.72	412.19
350.947	422.19
351.174	429.19
351.402	422.19
351.629	409.19
351.856	425.19
352.083	423.19
352.311	428.19
352.538	435.19
352.765	411.19
352.992	428.19
353.22	439.19
353.447	399.19
353.674	417.19
353.901	390.19
354.128	395.19
354.355	390.19
354.583	393.19
354.81	388.19
355.037	383.19
355.264	379.19
355.491	390.19
355.718	370.19
355.945	378.19
356.172	395.19
356.399	378.19
356.626	376.19
356.853	394.19
357.08	388.19
357.307	388.19
357.534	395.19
357.761	409.19
357.988	381.19
358.215	376.19
358.441	387.19
358.668	407.19
358.895	419.19
359.122	405.19
359.349	420.19
359.576	435.19
359.802	436.19
360.029	472.19
360.256	483.19
360.483	460.19
360.709	429.19
360.936	431.19
361.163	426.19
361.39	424.19
361.616	415.19
361.843	428.19
362.07	441.19
362.296	415.19
362.523	418.19
362.749	430.19
362.976	412.19
363.203	425.19
363.429	394.19
363.656	407.19
363.882	406.19
364.109	417.19
364.335	413.19
364.562	399.19
364.788	421.19
365.015	405.19
365.241	400.19
365.468	412.19
365.694	430.19
365.92	435.19
366.147	401.19
366.373	397.19
366.599	395.19
366.826	413.19
367.052	421.19
367.278	386.19
367.505	404.19
367.731	421.19
367.957	413.19
368.184	415.19
368.41	411.19
368.636	410.19
368.862	422.19
369.089	407.19
369.315	413.19
369.541	397.19
369.767	392.19
369.993	409.19
370.219	411.19
370.445	409.19
370.672	395.19
370.898	393.19
371.124	408.19
371.35	412.19
371.576	401.19
371.802	419.19
372.028	396.19
372.254	405.19
372.48	389.19
372.706	405.19
372.932	415.19
373.158	408.19
373.384	399.19
373.61	406.19
373.835	406.19
374.061	407.19
374.287	419.19
374.513	428.19
374.739	410.19
374.965	408.19
375.191	406.19
375.416	425.19
375.642	423.19
375.868	428.19
376.094	414.19
376.319	404.19
376.545	394.19
376.771	390.19
376.997	402.19
377.222	399.19
377.448	414.19
377.674	396.19
377.899	412.19
378.125	396.19
378.35	422.19
378.576	407.19
378.802	391.19
379.027	405.19
379.253	400.19
379.478	381.19
379.704	407.19
379.929	405.19
380.155	412.19
380.38	404.19
380.606	414.19
380.831	399.19
381.057	391.19
381.282	423.19
381.507	395.19
381.733	428.19
381.958	431.19
382.184	416.19
382.409	427.19
382.634	427.19
382.86	413.19
383.085	437.19
383.31	430.19
383.535	423.19
383.761	406.19
383.986	423.19
384.211	423.19
384.436	422.19
384.662	427.19
384.887	428.19
385.112	435.19
385.337	442.19
385.562	420.19
385.787	424.19
386.013	451.19
386.238	453.19
386.463	425.19
386.688	431.19
386.913	430.19
387.138	423.19
387.363	444.19
387.588	410.19
387.813	425.19
388.038	421.19
388.263	445.19
388.488	428.19
388.713	439.19
388.938	421.19
389.163	433.19
389.387	451.19
389.612	424.19
389.837	433.19
390.062	456.19
390.287	435.19
390.512	453.19
390.736	460.19
390.961	438.19
391.186	449.19
391.411	435.19
391.636	434.19
391.86	439.19
392.085	451.19
392.31	432.19
392.534	460.19
392.759	439.19
392.984	454.19
393.208	444.19
393.433	450.19
393.658	437.19
393.882	422.19
394.107	439.19
394.331	449.19
394.556	441.19
394.78	446.19
395.005	436.19
395.229	444.19
395.454	458.19
395.678	454.19
395.903	449.19
396.127	496.19
396.352	500.19
396.576	458.19
396.801	459.19
397.025	481.19
397.249	472.19
397.474	458.19
397.698	479.19
397.922	483.19
398.147	493.19
398.371	488.19
398.595	464.19
398.82	486.19
399.044	504.19
399.268	518.19
399.492	550.19
399.717	532.19
399.941	574.19
400.165	606.19
400.389	623.19
400.613	572.19
400.837	517.19
401.062	508.19
401.286	498.19
401.51	485.19
401.734	498.19
401.958	503.19
402.182	493.19
402.406	509.19
402.63	507.19
402.854	494.19
403.078	515.19
403.302	534.19
403.526	510.19
403.75	537.19
403.974	499.19
404.198	517.19
404.422	517.19
404.645	545.19
404.869	531.19
405.093	558.19
405.317	615.19
405.541	658.19
405.765	579.19
405.988	537.19
406.212	565.19
406.436	575.19
406.66	628.19
406.883	556.19
407.107	600.19
407.331	643.19
407.555	693.19
407.778	694.19
408.002	652.19
408.226	595.19
408.449	576.19
408.673	545.19
408.896	629.19
409.12	623.19
409.344	622.19
409.567	563.19
409.791	573.19
410.014	554.19
410.238	545.19
410.461	524.19
410.685	546.19
410.908	573.19
411.132	579.19
411.355	622.19
411.578	609.19
411.802	559.19
412.025	540.19
412.249	529.19
412.472	566.19
412.695	604.19
412.919	599.19
413.142	563.19
413.365	541.19
413.589	551.19
413.812	544.19
414.035	527.19
414.258	526.19
414.482	495.19
414.705	485.19
414.928	471.19
415.151	498.19
415.374	511.19
415.597	477.19
415.821	500.19
416.044	503.19
416.267	534.19
416.49	494.19
416.713	493.19
416.936	491.19
417.159	505.19
417.382	529.19
417.605	520.19
417.828	538.19
418.051	553.19
418.274	540.19
418.497	518.19
418.72	508.19
418.943	506.19
419.166	528.19
419.389	542.19
419.611	544.19
419.834	533.19
420.057	515.19
420.28	553.19
420.503	518.19
420.726	551.19
420.948	542.19
421.171	598.19
421.394	642.19
421.617	568.19
421.839	556.19
422.062	537.19
422.285	559.19
422.507	641.19
422.73	673.19
422.953	677.19
423.175	600.19
423.398	561.19
423.621	570.19
423.843	576.19
424.066	590.19
424.288	599.19
424.511	605.19
424.733	652.19
424.956	734.19
425.178	706.19
425.401	712.19
425.623	713.19
425.846	630.19
426.068	597.19
426.291	579.19
426.513	569.19
426.735	609.19
426.958	631.19
427.18	723.19
427.402	802.19
427.625	942.19
427.847	842.19
428.069	727.19
428.292	671.19
428.514	614.19
428.736	576.19
428.958	565.19
429.181	585.19
429.403	540.19
429.625	574.19
429.847	590.19
430.069	672.19
430.292	653.19
430.514	581.19
430.736	540.19
430.958	551.19
431.18	532.19
431.402	535.19
431.624	530.19
431.846	497.19
432.068	529.19
432.29	500.19
432.512	495.19
432.734	509.19
432.956	540.19
433.178	539.19
433.4	531.19
433.622	533.19
433.844	527.19
434.066	513.19
434.287	503.19
434.509	499.19
434.731	553.19
434.953	529.19
435.175	556.19
435.397	571.19
435.618	601.19
435.84	640.19
436.062	709.19
436.284	774.19
436.505	662.19
436.727	603.19
436.949	565.19
437.17	543.19
437.392	584.19
437.614	551.19
437.835	610.19
438.057	721.19
438.278	809.19
438.5	813.19
438.721	853.19
438.943	834.19
439.165	684.19
439.386	629.19
439.608	631.19
439.829	610.19
440.05	615.19
440.272	679.19
440.493	647.19
440.715	611.19
440.936	569.19
441.158	555.19
441.379	537.19
441.6	571.19
441.822	578.19
442.043	640.19
442.264	734.19
442.486	748.19
442.707	641.19
442.928	611.19
443.149	613.19
443.371	637.19
443.592	675.19
443.813	747.19
444.034	822.19
444.255	701.19
444.476	619.19
444.698	578.19
444.919	590.19
445.14	711.19
445.361	677.19
445.582	633.19
445.803	682.19
446.024	774.19
446.245	797.19
446.466	724.19
446.687	675.19
446.908	597.19
447.129	567.19
447.35	561.19
447.571	558.19
447.792	549.19
448.013	547.19
448.234	589.19
448.455	634.19
448.675	733.19
448.896	845.19
449.117	743.19
449.338	714.19
449.559	783.19
449.779	869.19
450	734.19
450.221	627.19
450.442	556.19
450.662	551.19
450.883	558.19
451.104	563.19
451.324	561.19
451.545	532.19
451.766	494.19
451.986	507.19
452.207	495.19
452.428	475.19
452.648	498.19
452.869	494.19
453.089	513.19
453.31	530.19
453.53	502.19
453.751	505.19
453.971	505.19
454.192	538.19
454.412	521.19
454.633	501.19
454.853	484.19
455.073	487.19
455.294	526.19
455.514	582.19
455.734	577.19
455.955	501.19
456.175	459.19
456.395	473.19
456.616	486.19
456.836	459.19
457.056	458.19
457.276	461.19
457.497	477.19
457.717	476.19
457.937	457.19
458.157	488.19
458.377	479.19
458.598	508.19
458.818	573.19
459.038	638.19
459.258	657.19
459.478	565.19
459.698	524.19
459.918	503.19
460.138	495.19
460.358	530.19
460.578	513.19
460.798	508.19
461.018	517.19
461.238	521.19
461.458	499.19
461.678	499.19
461.898	508.19
462.118	502.19
462.338	534.19
462.558	510.19
462.777	507.19
462.997	533.19
463.217	558.19
463.437	539.19
463.657	529.19
463.876	536.19
464.096	548.19
464.316	541.19
464.536	542.19
464.755	532.19
464.975	546.19
465.195	607.19
465.414	673.19
465.634	587.19
465.854	551.19
466.073	546.19
466.293	529.19
466.512	519.19
466.732	499.19
466.951	511.19
467.171	505.19
467.391	528.19
467.61	517.19
467.829	507.19
468.049	509.19
468.268	518.19
468.488	515.19
468.707	504.19
468.927	492.19
469.146	504.19
469.365	497.19
469.585	499.19
469.804	503.19
470.023	526.19
470.243	505.19
470.462	512.19
470.681	535.19
470.901	523.19
471.12	518.19
471.339	518.19
471.558	503.19
471.777	527.19
471.997	500.19
472.216	529.19
472.435	569.19
472.654	554.19
472.873	515.19
473.092	518.19
473.311	503.19
473.53	514.19
473.749	534.19
473.968	592.19
474.187	652.19
474.406	711.19
474.625	582.19
474.844	540.19
475.063	517.19
475.282	544.19
475.501	531.19
475.72	535.19
475.939	553.19
476.158	535.19
476.377	545.19
476.596	535.19
476.814	513.19
477.033	533.19
477.252	543.19
477.471	554.19
477.69	533.19
477.908	561.19
478.127	563.19
478.346	563.19
478.564	571.19
478.783	573.19
479.002	550.19
479.22	590.19
479.439	610.19
479.658	634.19
479.876	630.19
480.095	617.19
480.313	655.19
480.532	639.19
480.751	640.19
480.969	630.19
481.188	703.19
481.406	773.19
481.624	686.19
481.843	627.19
482.061	617.19
482.28	605.19
482.498	597.19
482.717	620.19
482.935	604.19
483.153	618.19
483.372	647.19
483.59	613.19
483.808	613.19
484.027	629.19
484.245	611.19
484.463	627.19
484.681	647.19
484.9	614.19
485.118	605.19
485.336	620.19
485.554	626.19
485.772	646.19
485.99	642.19
486.209	639.19
486.427	655.19
486.645	657.19
486.863	683.19
487.081	677.19
487.299	643.19
487.517	653.19
487.735	666.19
487.953	693.19
488.171	697.19
488.389	670.19
488.607	691.19
488.825	673.19
489.043	668.19
489.261	680.19
489.479	668.19
489.696	690.19
489.914	705.19
490.132	718.19
490.35	693.19
490.568	696.19
490.786	698.19
491.003	718.19
491.221	755.19
491.439	781.19
491.657	746.19
491.874	789.19
492.092	789.19
492.31	810.19
492.527	789.19
492.745	803.19
492.963	774.19
493.18	791.19
493.398	833.19
493.615	784.19
493.833	805.19
494.05	809.19
494.268	818.19
494.485	799.19
494.703	821.19
494.92	811.19
495.138	789.19
495.355	833.19
495.573	805.19
495.79	791.19
496.008	814.19
496.225	814.19
496.442	803.19
496.66	821.19
496.877	781.19
497.094	827.19
497.312	835.19
497.529	828.19
497.746	851.19
497.963	836.19
498.181	854.19
498.398	861.19
498.615	858.19
498.832	885.19
499.049	873.19
499.267	885.19
499.484	899.19
499.701	901.19
499.918	912.19
500.135	971.19
500.352	1017.19
500.569	971.19
500.786	990.19
501.003	993.19
501.22	987.19
501.437	972.19
501.654	968.19
501.871	973.19
