Data from 1970.PennyLincolnUp.Lamp.En5.5.200Scan.071719.P1._HRD10591_15-13-11-843.txt Node
Date: Thu Jul 18 15:13:11 EDT 2019
User: cochatt
Spectrometer: HR+D1059
Trigger mode: 1
Integration Time (sec): 1.000000E-1
Scans to average: 1
Electric dark correction enabled: true
Nonlinearity correction enabled: false
Boxcar width: 0
XAxis mode: Wavelengths
Number of Pixels in Spectrum: 2048
>>>>>Begin Spectral Data<<<<<
223.165	-19.81
223.4	-19.81
223.635	-19.81
223.869	-15.81
224.104	-9.81
224.338	-7.81
224.573	-21.81
224.808	-7.81
225.042	-3.81
225.277	7.19
225.511	-3.81
225.746	4.19
225.98	3.19
226.215	-1.81
226.449	7.19
226.683	20.19
226.918	27.19
227.152	23.19
227.387	28.19
227.621	41.19
227.856	35.19
228.09	34.19
228.324	63.19
228.559	56.19
228.793	64.19
229.027	99.19
229.262	112.19
229.496	108.19
229.73	112.19
229.964	154.19
230.199	117.19
230.433	114.19
230.667	124.19
230.901	103.19
231.136	112.19
231.37	110.19
231.604	114.19
231.838	110.19
232.072	121.19
232.306	100.19
232.541	108.19
232.775	99.19
233.009	116.19
233.243	97.19
233.477	116.19
233.711	112.19
233.945	116.19
234.179	122.19
234.413	117.19
234.647	107.19
234.881	101.19
235.115	100.19
235.349	106.19
235.583	115.19
235.817	107.19
236.051	125.19
236.285	109.19
236.519	115.19
236.753	130.19
236.987	123.19
237.221	166.19
237.455	192.19
237.689	162.19
237.922	123.19
238.156	134.19
238.39	126.19
238.624	128.19
238.858	112.19
239.091	115.19
239.325	116.19
239.559	129.19
239.793	107.19
240.027	124.19
240.26	128.19
240.494	141.19
240.728	140.19
240.961	128.19
241.195	138.19
241.429	128.19
241.662	132.19
241.896	119.19
242.13	112.19
242.363	128.19
242.597	131.19
242.83	141.19
243.064	132.19
243.298	132.19
243.531	131.19
243.765	134.19
243.998	140.19
244.232	140.19
244.465	121.19
244.699	124.19
244.932	123.19
245.166	143.19
245.399	132.19
245.633	134.19
245.866	143.19
246.099	138.19
246.333	132.19
246.566	134.19
246.8	156.19
247.033	144.19
247.266	145.19
247.5	142.19
247.733	157.19
247.966	165.19
248.2	165.19
248.433	161.19
248.666	174.19
248.899	175.19
249.133	180.19
249.366	190.19
249.599	182.19
249.832	193.19
250.066	190.19
250.299	158.19
250.532	171.19
250.765	204.19
250.998	216.19
251.231	206.19
251.465	206.19
251.698	185.19
251.931	198.19
252.164	188.19
252.397	202.19
252.63	189.19
252.863	193.19
253.096	202.19
253.329	200.19
253.562	196.19
253.795	197.19
254.028	196.19
254.261	204.19
254.494	210.19
254.727	235.19
254.96	245.19
255.193	228.19
255.426	228.19
255.659	225.19
255.892	231.19
256.124	215.19
256.357	231.19
256.59	217.19
256.823	189.19
257.056	196.19
257.289	195.19
257.521	206.19
257.754	186.19
257.987	201.19
258.22	206.19
258.452	182.19
258.685	184.19
258.918	195.19
259.151	206.19
259.383	196.19
259.616	197.19
259.849	202.19
260.081	215.19
260.314	217.19
260.547	242.19
260.779	205.19
261.012	202.19
261.244	195.19
261.477	205.19
261.71	195.19
261.942	202.19
262.175	220.19
262.407	201.19
262.64	182.19
262.872	192.19
263.105	184.19
263.337	186.19
263.57	203.19
263.802	176.19
264.035	187.19
264.267	187.19
264.499	183.19
264.732	190.19
264.964	198.19
265.197	178.19
265.429	180.19
265.661	179.19
265.894	172.19
266.126	183.19
266.358	187.19
266.591	199.19
266.823	190.19
267.055	188.19
267.287	205.19
267.52	198.19
267.752	207.19
267.984	216.19
268.216	206.19
268.448	194.19
268.681	216.19
268.913	207.19
269.145	225.19
269.377	228.19
269.609	226.19
269.841	217.19
270.073	228.19
270.306	238.19
270.538	251.19
270.77	266.19
271.002	251.19
271.234	263.19
271.466	242.19
271.698	269.19
271.93	267.19
272.162	271.19
272.394	253.19
272.626	266.19
272.858	254.19
273.09	247.19
273.322	246.19
273.553	221.19
273.785	232.19
274.017	229.19
274.249	230.19
274.481	234.19
274.713	227.19
274.945	216.19
275.176	226.19
275.408	234.19
275.64	232.19
275.872	225.19
276.104	218.19
276.335	219.19
276.567	224.19
276.799	231.19
277.031	260.19
277.262	252.19
277.494	263.19
277.726	245.19
277.957	253.19
278.189	249.19
278.421	232.19
278.652	212.19
278.884	224.19
279.115	209.19
279.347	216.19
279.579	232.19
279.81	215.19
280.042	224.19
280.273	229.19
280.505	228.19
280.736	224.19
280.968	227.19
281.199	212.19
281.431	203.19
281.662	216.19
281.894	235.19
282.125	217.19
282.356	234.19
282.588	246.19
282.819	249.19
283.051	235.19
283.282	228.19
283.513	232.19
283.745	229.19
283.976	244.19
284.207	227.19
284.439	235.19
284.67	218.19
284.901	246.19
285.132	226.19
285.364	220.19
285.595	218.19
285.826	221.19
286.057	219.19
286.288	233.19
286.52	219.19
286.751	235.19
286.982	225.19
287.213	221.19
287.444	237.19
287.675	241.19
287.906	255.19
288.138	262.19
288.369	242.19
288.6	234.19
288.831	237.19
289.062	244.19
289.293	242.19
289.524	247.19
289.755	249.19
289.986	228.19
290.217	230.19
290.448	216.19
290.679	228.19
290.91	245.19
291.141	234.19
291.371	242.19
291.602	250.19
291.833	238.19
292.064	242.19
292.295	253.19
292.526	256.19
292.757	241.19
292.987	219.19
293.218	244.19
293.449	240.19
293.68	242.19
293.91	234.19
294.141	222.19
294.372	245.19
294.603	236.19
294.833	241.19
295.064	252.19
295.295	243.19
295.525	253.19
295.756	237.19
295.987	244.19
296.217	259.19
296.448	269.19
296.679	249.19
296.909	244.19
297.14	237.19
297.37	230.19
297.601	255.19
297.831	221.19
298.062	220.19
298.292	236.19
298.523	243.19
298.753	258.19
298.984	243.19
299.214	251.19
299.445	252.19
299.675	250.19
299.905	254.19
300.136	250.19
300.366	260.19
300.597	256.19
300.827	256.19
301.057	258.19
301.288	269.19
301.518	250.19
301.748	253.19
301.979	262.19
302.209	259.19
302.439	250.19
302.669	256.19
302.9	257.19
303.13	262.19
303.36	256.19
303.59	265.19
303.82	288.19
304.051	270.19
304.281	264.19
304.511	277.19
304.741	240.19
304.971	262.19
305.201	284.19
305.431	269.19
305.661	264.19
305.891	262.19
306.121	266.19
306.352	269.19
306.582	287.19
306.812	266.19
307.042	266.19
307.272	267.19
307.502	257.19
307.731	268.19
307.961	286.19
308.191	263.19
308.421	279.19
308.651	275.19
308.881	279.19
309.111	280.19
309.341	282.19
309.571	270.19
309.8	288.19
310.03	297.19
310.26	313.19
310.49	316.19
310.72	310.19
310.949	315.19
311.179	327.19
311.409	299.19
311.639	286.19
311.868	300.19
312.098	301.19
312.328	286.19
312.557	314.19
312.787	312.19
313.017	331.19
313.246	309.19
313.476	288.19
313.706	297.19
313.935	293.19
314.165	314.19
314.394	305.19
314.624	326.19
314.853	307.19
315.083	312.19
315.312	306.19
315.542	292.19
315.771	295.19
316.001	294.19
316.23	313.19
316.46	298.19
316.689	327.19
316.919	316.19
317.148	318.19
317.377	323.19
317.607	309.19
317.836	313.19
318.065	304.19
318.295	313.19
318.524	300.19
318.753	299.19
318.983	305.19
319.212	314.19
319.441	316.19
319.67	324.19
319.9	295.19
320.129	296.19
320.358	318.19
320.587	304.19
320.816	318.19
321.046	334.19
321.275	305.19
321.504	320.19
321.733	318.19
321.962	332.19
322.191	357.19
322.42	352.19
322.649	363.19
322.878	376.19
323.108	376.19
323.337	383.19
323.566	390.19
323.795	426.19
324.024	454.19
324.253	519.19
324.482	733.19
324.71	1122.19
324.939	1613.19
325.168	1396.19
325.397	726.19
325.626	539.19
325.855	422.19
326.084	390.19
326.313	397.19
326.542	400.19
326.77	435.19
326.999	511.19
327.228	669.19
327.457	986.19
327.686	1192.19
327.914	811.19
328.143	533.19
328.372	482.19
328.6	448.19
328.829	425.19
329.058	460.19
329.287	460.19
329.515	444.19
329.744	393.19
329.972	417.19
330.201	417.19
330.43	424.19
330.658	442.19
330.887	481.19
331.115	471.19
331.344	402.19
331.572	398.19
331.801	410.19
332.03	381.19
332.258	386.19
332.486	369.19
332.715	356.19
332.943	357.19
333.172	361.19
333.4	361.19
333.629	356.19
333.857	387.19
334.085	373.19
334.314	384.19
334.542	409.19
334.771	429.19
334.999	393.19
335.227	387.19
335.455	380.19
335.684	390.19
335.912	358.19
336.14	376.19
336.369	330.19
336.597	362.19
336.825	379.19
337.053	368.19
337.281	344.19
337.51	355.19
337.738	357.19
337.966	350.19
338.194	372.19
338.422	360.19
338.65	358.19
338.878	351.19
339.106	357.19
339.334	353.19
339.562	349.19
339.79	344.19
340.018	374.19
340.246	346.19
340.474	375.19
340.702	358.19
340.93	365.19
341.158	351.19
341.386	354.19
341.614	365.19
341.842	359.19
342.07	338.19
342.298	353.19
342.526	340.19
342.754	331.19
342.981	332.19
343.209	347.19
343.437	339.19
343.665	346.19
343.893	355.19
344.12	349.19
344.348	347.19
344.576	349.19
344.804	386.19
345.031	363.19
345.259	392.19
345.487	357.19
345.714	356.19
345.942	342.19
346.17	345.19
346.397	349.19
346.625	352.19
346.853	355.19
347.08	360.19
347.308	355.19
347.535	373.19
347.763	360.19
347.99	363.19
348.218	378.19
348.445	370.19
348.673	361.19
348.9	351.19
349.128	357.19
349.355	328.19
349.583	329.19
349.81	348.19
350.037	330.19
350.265	343.19
350.492	330.19
350.72	333.19
350.947	343.19
351.174	354.19
351.402	356.19
351.629	333.19
351.856	345.19
352.083	365.19
352.311	363.19
352.538	346.19
352.765	369.19
352.992	328.19
353.22	358.19
353.447	364.19
353.674	336.19
353.901	338.19
354.128	312.19
354.355	321.19
354.583	340.19
354.81	337.19
355.037	339.19
355.264	312.19
355.491	306.19
355.718	329.19
355.945	343.19
356.172	331.19
356.399	324.19
356.626	326.19
356.853	346.19
357.08	330.19
357.307	325.19
357.534	327.19
357.761	333.19
357.988	321.19
358.215	353.19
358.441	344.19
358.668	335.19
358.895	348.19
359.122	335.19
359.349	362.19
359.576	355.19
359.802	349.19
360.029	410.19
360.256	390.19
360.483	375.19
360.709	374.19
360.936	347.19
361.163	356.19
361.39	360.19
361.616	348.19
361.843	353.19
362.07	356.19
362.296	375.19
362.523	350.19
362.749	359.19
362.976	354.19
363.203	343.19
363.429	350.19
363.656	354.19
363.882	346.19
364.109	345.19
364.335	333.19
364.562	333.19
364.788	335.19
365.015	356.19
365.241	340.19
365.468	366.19
365.694	335.19
365.92	341.19
366.147	340.19
366.373	340.19
366.599	353.19
366.826	349.19
367.052	348.19
367.278	370.19
367.505	358.19
367.731	342.19
367.957	361.19
368.184	349.19
368.41	340.19
368.636	341.19
368.862	371.19
369.089	370.19
369.315	343.19
369.541	350.19
369.767	338.19
369.993	387.19
370.219	370.19
370.445	344.19
370.672	349.19
370.898	360.19
371.124	316.19
371.35	355.19
371.576	339.19
371.802	355.19
372.028	355.19
372.254	354.19
372.48	348.19
372.706	342.19
372.932	365.19
373.158	348.19
373.384	362.19
373.61	352.19
373.835	360.19
374.061	352.19
374.287	355.19
374.513	365.19
374.739	349.19
374.965	358.19
375.191	354.19
375.416	369.19
375.642	373.19
375.868	371.19
376.094	349.19
376.319	357.19
376.545	350.19
376.771	347.19
376.997	350.19
377.222	370.19
377.448	343.19
377.674	343.19
377.899	347.19
378.125	357.19
378.35	370.19
378.576	352.19
378.802	350.19
379.027	353.19
379.253	370.19
379.478	366.19
379.704	367.19
379.929	360.19
380.155	364.19
380.38	360.19
380.606	368.19
380.831	352.19
381.057	370.19
381.282	366.19
381.507	365.19
381.733	374.19
381.958	373.19
382.184	358.19
382.409	390.19
382.634	350.19
382.86	365.19
383.085	373.19
383.31	379.19
383.535	358.19
383.761	366.19
383.986	373.19
384.211	378.19
384.436	363.19
384.662	376.19
384.887	378.19
385.112	368.19
385.337	375.19
385.562	388.19
385.787	376.19
386.013	386.19
386.238	412.19
386.463	422.19
386.688	393.19
386.913	386.19
387.138	393.19
387.363	385.19
387.588	386.19
387.813	377.19
388.038	384.19
388.263	384.19
388.488	393.19
388.713	396.19
388.938	390.19
389.163	396.19
389.387	398.19
389.612	381.19
389.837	381.19
390.062	377.19
390.287	396.19
390.512	376.19
390.736	397.19
390.961	412.19
391.186	390.19
391.411	395.19
391.636	383.19
391.86	397.19
392.085	393.19
392.31	394.19
392.534	404.19
392.759	405.19
392.984	416.19
393.208	401.19
393.433	396.19
393.658	418.19
393.882	396.19
394.107	374.19
394.331	382.19
394.556	379.19
394.78	400.19
395.005	393.19
395.229	388.19
395.454	386.19
395.678	407.19
395.903	414.19
396.127	418.19
396.352	438.19
396.576	408.19
396.801	410.19
397.025	418.19
397.249	427.19
397.474	421.19
397.698	427.19
397.922	443.19
398.147	423.19
398.371	421.19
398.595	417.19
398.82	429.19
399.044	456.19
399.268	461.19
399.492	463.19
399.717	506.19
399.941	516.19
400.165	544.19
400.389	535.19
400.613	504.19
400.837	479.19
401.062	465.19
401.286	427.19
401.51	440.19
401.734	446.19
401.958	444.19
402.182	444.19
402.406	448.19
402.63	458.19
402.854	450.19
403.078	451.19
403.302	470.19
403.526	466.19
403.75	474.19
403.974	438.19
404.198	463.19
404.422	466.19
404.645	453.19
404.869	471.19
405.093	464.19
405.317	525.19
405.541	547.19
405.765	491.19
405.988	482.19
406.212	492.19
406.436	519.19
406.66	534.19
406.883	518.19
407.107	524.19
407.331	535.19
407.555	624.19
407.778	606.19
408.002	581.19
408.226	525.19
408.449	514.19
408.673	501.19
408.896	528.19
409.12	563.19
409.344	550.19
409.567	497.19
409.791	479.19
410.014	483.19
410.238	473.19
410.461	480.19
410.685	454.19
410.908	484.19
411.132	522.19
411.355	530.19
411.578	523.19
411.802	483.19
412.025	470.19
412.249	481.19
412.472	499.19
412.695	517.19
412.919	526.19
413.142	472.19
413.365	456.19
413.589	470.19
413.812	445.19
414.035	438.19
414.258	460.19
414.482	437.19
414.705	454.19
414.928	434.19
415.151	462.19
415.374	442.19
415.597	429.19
415.821	453.19
416.044	437.19
416.267	449.19
416.49	460.19
416.713	434.19
416.936	447.19
417.159	452.19
417.382	455.19
417.605	452.19
417.828	448.19
418.051	451.19
418.274	475.19
418.497	434.19
418.72	429.19
418.943	450.19
419.166	442.19
419.389	477.19
419.611	480.19
419.834	462.19
420.057	476.19
420.28	469.19
420.503	468.19
420.726	480.19
420.948	480.19
421.171	516.19
421.394	542.19
421.617	483.19
421.839	477.19
422.062	456.19
422.285	484.19
422.507	525.19
422.73	605.19
422.953	569.19
423.175	493.19
423.398	467.19
423.621	492.19
423.843	509.19
424.066	501.19
424.288	537.19
424.511	520.19
424.733	566.19
424.956	627.19
425.178	614.19
425.401	619.19
425.623	621.19
425.846	544.19
426.068	508.19
426.291	517.19
426.513	527.19
426.735	526.19
426.958	579.19
427.18	622.19
427.402	726.19
427.625	789.19
427.847	708.19
428.069	630.19
428.292	566.19
428.514	537.19
428.736	478.19
428.958	498.19
429.181	478.19
429.403	468.19
429.625	485.19
429.847	524.19
430.069	576.19
430.292	573.19
430.514	513.19
430.736	455.19
430.958	450.19
431.18	449.19
431.402	448.19
431.624	433.19
431.846	440.19
432.068	444.19
432.29	456.19
432.512	461.19
432.734	477.19
432.956	439.19
433.178	478.19
433.4	459.19
433.622	441.19
433.844	457.19
434.066	449.19
434.287	453.19
434.509	434.19
434.731	460.19
434.953	471.19
435.175	483.19
435.397	493.19
435.618	503.19
435.84	516.19
436.062	619.19
436.284	675.19
436.505	569.19
436.727	539.19
436.949	485.19
437.17	488.19
437.392	496.19
437.614	484.19
437.835	518.19
438.057	592.19
438.278	693.19
438.5	699.19
438.721	760.19
438.943	712.19
439.165	594.19
439.386	562.19
439.608	516.19
439.829	531.19
440.05	545.19
440.272	576.19
440.493	553.19
440.715	523.19
440.936	504.19
441.158	476.19
441.379	496.19
441.6	483.19
441.822	490.19
442.043	578.19
442.264	635.19
442.486	668.19
442.707	561.19
442.928	538.19
443.149	530.19
443.371	551.19
443.592	608.19
443.813	655.19
444.034	709.19
444.255	578.19
444.476	532.19
444.698	516.19
444.919	521.19
445.14	622.19
445.361	576.19
445.582	560.19
445.803	594.19
446.024	683.19
446.245	693.19
446.466	627.19
446.687	548.19
446.908	519.19
447.129	502.19
447.35	491.19
447.571	480.19
447.792	478.19
448.013	492.19
448.234	483.19
448.455	540.19
448.675	646.19
448.896	696.19
449.117	658.19
449.338	570.19
449.559	696.19
449.779	758.19
450	632.19
450.221	537.19
450.442	477.19
450.662	480.19
450.883	478.19
451.104	478.19
451.324	455.19
451.545	459.19
451.766	432.19
451.986	421.19
452.207	436.19
452.428	425.19
452.648	400.19
452.869	411.19
453.089	435.19
453.31	442.19
453.53	405.19
453.751	411.19
453.971	421.19
454.192	443.19
454.412	413.19
454.633	439.19
454.853	418.19
455.073	441.19
455.294	460.19
455.514	489.19
455.734	499.19
455.955	442.19
456.175	423.19
456.395	407.19
456.616	405.19
456.836	402.19
457.056	407.19
457.276	410.19
457.497	417.19
457.717	396.19
457.937	425.19
458.157	403.19
458.377	418.19
458.598	436.19
458.818	472.19
459.038	537.19
459.258	573.19
459.478	479.19
459.698	450.19
459.918	444.19
460.138	449.19
460.358	432.19
460.578	442.19
460.798	439.19
461.018	460.19
461.238	439.19
461.458	443.19
461.678	444.19
461.898	457.19
462.118	452.19
462.338	445.19
462.558	471.19
462.777	474.19
462.997	476.19
463.217	498.19
463.437	501.19
463.657	488.19
463.876	467.19
464.096	487.19
464.316	488.19
464.536	484.19
464.755	508.19
464.975	486.19
465.195	500.19
465.414	577.19
465.634	520.19
465.854	482.19
466.073	469.19
466.293	461.19
466.512	432.19
466.732	425.19
466.951	418.19
467.171	440.19
467.391	439.19
467.61	434.19
467.829	474.19
468.049	452.19
468.268	438.19
468.488	436.19
468.707	454.19
468.927	422.19
469.146	433.19
469.365	424.19
469.585	422.19
469.804	433.19
470.023	459.19
470.243	431.19
470.462	450.19
470.681	451.19
470.901	461.19
471.12	465.19
471.339	453.19
471.558	443.19
471.777	447.19
471.997	454.19
472.216	456.19
472.435	466.19
472.654	464.19
472.873	433.19
473.092	456.19
473.311	448.19
473.53	438.19
473.749	449.19
473.968	475.19
474.187	548.19
474.406	587.19
474.625	490.19
474.844	464.19
475.063	444.19
475.282	473.19
475.501	447.19
475.72	447.19
475.939	458.19
476.158	441.19
476.377	454.19
476.596	452.19
476.814	487.19
477.033	472.19
477.252	468.19
477.471	476.19
477.69	487.19
477.908	473.19
478.127	501.19
478.346	455.19
478.564	497.19
478.783	506.19
479.002	504.19
479.22	484.19
479.439	525.19
479.658	518.19
479.876	530.19
480.095	562.19
480.313	566.19
480.532	552.19
480.751	550.19
480.969	545.19
481.188	590.19
481.406	621.19
481.624	562.19
481.843	522.19
482.061	545.19
482.28	513.19
482.498	514.19
482.717	533.19
482.935	546.19
483.153	526.19
483.372	539.19
483.59	535.19
483.808	522.19
484.027	504.19
484.245	529.19
484.463	521.19
484.681	541.19
484.9	524.19
485.118	541.19
485.336	528.19
485.554	548.19
485.772	557.19
485.99	549.19
486.209	546.19
486.427	547.19
486.645	536.19
486.863	578.19
487.081	553.19
487.299	585.19
487.517	575.19
487.735	553.19
487.953	592.19
488.171	580.19
488.389	562.19
488.607	573.19
488.825	600.19
489.043	584.19
489.261	581.19
489.479	582.19
489.696	570.19
489.914	591.19
490.132	603.19
490.35	589.19
490.568	602.19
490.786	629.19
491.003	626.19
491.221	611.19
491.439	646.19
491.657	667.19
491.874	666.19
492.092	660.19
492.31	664.19
492.527	651.19
492.745	683.19
492.963	676.19
493.18	668.19
493.398	659.19
493.615	686.19
493.833	683.19
494.05	663.19
494.268	679.19
494.485	681.19
494.703	669.19
494.92	699.19
495.138	712.19
495.355	697.19
495.573	706.19
495.79	676.19
496.008	705.19
496.225	710.19
496.442	689.19
496.66	694.19
496.877	699.19
497.094	681.19
497.312	695.19
497.529	708.19
497.746	685.19
497.963	694.19
498.181	733.19
498.398	736.19
498.615	742.19
498.832	756.19
499.049	754.19
499.267	791.19
499.484	805.19
499.701	828.19
499.918	842.19
500.135	876.19
500.352	893.19
500.569	912.19
500.786	896.19
501.003	887.19
501.22	888.19
501.437	859.19
501.654	838.19
501.871	840.19
502.088	819.19
