Data from 1970.PennyLincolnUp.Lamp.En5.5.200Scan.071719.P1._HRD10591_15-15-07-842.txt Node
Date: Thu Jul 18 15:15:07 EDT 2019
User: cochatt
Spectrometer: HR+D1059
Trigger mode: 1
Integration Time (sec): 1.000000E-1
Scans to average: 1
Electric dark correction enabled: true
Nonlinearity correction enabled: false
Boxcar width: 0
XAxis mode: Wavelengths
Number of Pixels in Spectrum: 2048
>>>>>Begin Spectral Data<<<<<
223.165	-29.38
223.4	-29.38
223.635	-29.38
223.869	-13.38
224.104	-18.38
224.338	-5.38
224.573	-13.38
224.808	-5.38
225.042	-7.38
225.277	-13.38
225.511	2.62
225.746	5.62
225.98	-3.38
226.215	7.62
226.449	9.62
226.683	21.62
226.918	36.62
227.152	25.62
227.387	28.62
227.621	40.62
227.856	44.62
228.09	43.62
228.324	65.62
228.559	56.62
228.793	55.62
229.027	113.62
229.262	113.62
229.496	114.62
229.73	147.62
229.964	180.62
230.199	150.62
230.433	131.62
230.667	130.62
230.901	135.62
231.136	125.62
231.37	130.62
231.604	122.62
231.838	124.62
232.072	111.62
232.306	115.62
232.541	119.62
232.775	128.62
233.009	121.62
233.243	124.62
233.477	116.62
233.711	127.62
233.945	132.62
234.179	120.62
234.413	127.62
234.647	140.62
234.881	132.62
235.115	137.62
235.349	107.62
235.583	120.62
235.817	135.62
236.051	136.62
236.285	149.62
236.519	125.62
236.753	144.62
236.987	164.62
237.221	206.62
237.455	269.62
237.689	233.62
237.922	162.62
238.156	156.62
238.39	149.62
238.624	137.62
238.858	126.62
239.091	127.62
239.325	133.62
239.559	120.62
239.793	134.62
240.027	140.62
240.26	146.62
240.494	165.62
240.728	150.62
240.961	170.62
241.195	167.62
241.429	143.62
241.662	161.62
241.896	154.62
242.13	148.62
242.363	148.62
242.597	146.62
242.83	155.62
243.064	164.62
243.298	154.62
243.531	150.62
243.765	143.62
243.998	152.62
244.232	158.62
244.465	149.62
244.699	152.62
244.932	170.62
245.166	170.62
245.399	158.62
245.633	160.62
245.866	153.62
246.099	159.62
246.333	163.62
246.566	157.62
246.8	160.62
247.033	171.62
247.266	180.62
247.5	185.62
247.733	199.62
247.966	201.62
248.2	187.62
248.433	189.62
248.666	189.62
248.899	204.62
249.133	216.62
249.366	242.62
249.599	231.62
249.832	212.62
250.066	209.62
250.299	196.62
250.532	230.62
250.765	215.62
250.998	272.62
251.231	270.62
251.465	226.62
251.698	247.62
251.931	232.62
252.164	213.62
252.397	210.62
252.63	237.62
252.863	225.62
253.096	252.62
253.329	258.62
253.562	261.62
253.795	266.62
254.028	246.62
254.261	230.62
254.494	262.62
254.727	276.62
254.96	297.62
255.193	295.62
255.426	272.62
255.659	260.62
255.892	262.62
256.124	267.62
256.357	297.62
256.59	272.62
256.823	259.62
257.056	242.62
257.289	239.62
257.521	242.62
257.754	231.62
257.987	240.62
258.22	235.62
258.452	232.62
258.685	239.62
258.918	229.62
259.151	230.62
259.383	230.62
259.616	242.62
259.849	258.62
260.081	245.62
260.314	281.62
260.547	270.62
260.779	279.62
261.012	256.62
261.244	256.62
261.477	244.62
261.71	237.62
261.942	263.62
262.175	244.62
262.407	245.62
262.64	249.62
262.872	239.62
263.105	235.62
263.337	230.62
263.57	235.62
263.802	218.62
264.035	227.62
264.267	208.62
264.499	223.62
264.732	227.62
264.964	212.62
265.197	231.62
265.429	239.62
265.661	214.62
265.894	223.62
266.126	224.62
266.358	226.62
266.591	239.62
266.823	243.62
267.055	226.62
267.287	243.62
267.52	246.62
267.752	243.62
267.984	248.62
268.216	238.62
268.448	246.62
268.681	237.62
268.913	267.62
269.145	273.62
269.377	301.62
269.609	310.62
269.841	292.62
270.073	302.62
270.306	333.62
270.538	337.62
270.77	338.62
271.002	327.62
271.234	321.62
271.466	324.62
271.698	341.62
271.93	354.62
272.162	337.62
272.394	344.62
272.626	340.62
272.858	322.62
273.09	300.62
273.322	299.62
273.553	297.62
273.785	288.62
274.017	287.62
274.249	298.62
274.481	275.62
274.713	277.62
274.945	284.62
275.176	282.62
275.408	288.62
275.64	283.62
275.872	291.62
276.104	270.62
276.335	291.62
276.567	298.62
276.799	292.62
277.031	339.62
277.262	338.62
277.494	339.62
277.726	324.62
277.957	320.62
278.189	292.62
278.421	286.62
278.652	278.62
278.884	279.62
279.115	282.62
279.347	278.62
279.579	284.62
279.81	261.62
280.042	270.62
280.273	280.62
280.505	272.62
280.736	274.62
280.968	278.62
281.199	272.62
281.431	278.62
281.662	267.62
281.894	268.62
282.125	281.62
282.356	303.62
282.588	322.62
282.819	335.62
283.051	305.62
283.282	266.62
283.513	267.62
283.745	293.62
283.976	286.62
284.207	274.62
284.439	287.62
284.67	290.62
284.901	272.62
285.132	276.62
285.364	278.62
285.595	301.62
285.826	293.62
286.057	292.62
286.288	261.62
286.52	263.62
286.751	297.62
286.982	280.62
287.213	297.62
287.444	282.62
287.675	290.62
287.906	296.62
288.138	308.62
288.369	307.62
288.6	295.62
288.831	317.62
289.062	312.62
289.293	312.62
289.524	272.62
289.755	292.62
289.986	286.62
290.217	296.62
290.448	307.62
290.679	288.62
290.91	288.62
291.141	292.62
291.371	279.62
291.602	273.62
291.833	278.62
292.064	317.62
292.295	299.62
292.526	299.62
292.757	312.62
292.987	281.62
293.218	295.62
293.449	297.62
293.68	290.62
293.91	298.62
294.141	299.62
294.372	284.62
294.603	282.62
294.833	304.62
295.064	265.62
295.295	286.62
295.525	280.62
295.756	303.62
295.987	311.62
296.217	333.62
296.448	344.62
296.679	320.62
296.909	299.62
297.14	300.62
297.37	306.62
297.601	306.62
297.831	312.62
298.062	310.62
298.292	327.62
298.523	315.62
298.753	303.62
298.984	304.62
299.214	295.62
299.445	320.62
299.675	326.62
299.905	326.62
300.136	328.62
300.366	317.62
300.597	328.62
300.827	324.62
301.057	319.62
301.288	335.62
301.518	326.62
301.748	311.62
301.979	334.62
302.209	325.62
302.439	334.62
302.669	343.62
302.9	346.62
303.13	320.62
303.36	343.62
303.59	328.62
303.82	355.62
304.051	354.62
304.281	333.62
304.511	341.62
304.741	342.62
304.971	339.62
305.201	324.62
305.431	318.62
305.661	326.62
305.891	333.62
306.121	354.62
306.352	360.62
306.582	336.62
306.812	318.62
307.042	348.62
307.272	340.62
307.502	350.62
307.731	330.62
307.961	321.62
308.191	335.62
308.421	337.62
308.651	348.62
308.881	340.62
309.111	367.62
309.341	362.62
309.571	360.62
309.8	389.62
310.03	374.62
310.26	381.62
310.49	383.62
310.72	411.62
310.949	410.62
311.179	427.62
311.409	415.62
311.639	393.62
311.868	398.62
312.098	393.62
312.328	401.62
312.557	434.62
312.787	453.62
313.017	436.62
313.246	410.62
313.476	386.62
313.706	392.62
313.935	395.62
314.165	416.62
314.394	430.62
314.624	411.62
314.853	408.62
315.083	407.62
315.312	415.62
315.542	388.62
315.771	391.62
316.001	381.62
316.23	390.62
316.46	403.62
316.689	387.62
316.919	394.62
317.148	381.62
317.377	399.62
317.607	414.62
317.836	404.62
318.065	398.62
318.295	394.62
318.524	413.62
318.753	370.62
318.983	394.62
319.212	395.62
319.441	396.62
319.67	415.62
319.9	416.62
320.129	419.62
320.358	404.62
320.587	408.62
320.816	420.62
321.046	432.62
321.275	436.62
321.504	429.62
321.733	423.62
321.962	414.62
322.191	450.62
322.42	468.62
322.649	487.62
322.878	505.62
323.108	498.62
323.337	523.62
323.566	547.62
323.795	582.62
324.024	660.62
324.253	790.62
324.482	1135.62
324.71	1764.62
324.939	2568.62
325.168	2163.62
325.397	1175.62
325.626	766.62
325.855	647.62
326.084	591.62
326.313	573.62
326.542	557.62
326.77	616.62
326.999	756.62
327.228	1008.62
327.457	1570.62
327.686	1883.62
327.914	1333.62
328.143	850.62
328.372	722.62
328.6	678.62
328.829	641.62
329.058	646.62
329.287	653.62
329.515	607.62
329.744	592.62
329.972	566.62
330.201	606.62
330.43	648.62
330.658	690.62
330.887	707.62
331.115	688.62
331.344	568.62
331.572	538.62
331.801	538.62
332.03	546.62
332.258	506.62
332.486	488.62
332.715	451.62
332.943	479.62
333.172	476.62
333.4	484.62
333.629	509.62
333.857	517.62
334.085	528.62
334.314	548.62
334.542	570.62
334.771	600.62
334.999	544.62
335.227	473.62
335.455	489.62
335.684	455.62
335.912	470.62
336.14	456.62
336.369	472.62
336.597	503.62
336.825	476.62
337.053	464.62
337.281	468.62
337.51	456.62
337.738	469.62
337.966	464.62
338.194	480.62
338.422	462.62
338.65	470.62
338.878	446.62
339.106	451.62
339.334	453.62
339.562	426.62
339.79	416.62
340.018	440.62
340.246	450.62
340.474	474.62
340.702	448.62
340.93	430.62
341.158	442.62
341.386	463.62
341.614	455.62
341.842	455.62
342.07	450.62
342.298	456.62
342.526	444.62
342.754	441.62
342.981	435.62
343.209	441.62
343.437	446.62
343.665	443.62
343.893	452.62
344.12	446.62
344.348	450.62
344.576	472.62
344.804	454.62
345.031	479.62
345.259	497.62
345.487	480.62
345.714	460.62
345.942	457.62
346.17	454.62
346.397	438.62
346.625	442.62
346.853	437.62
347.08	435.62
347.308	455.62
347.535	443.62
347.763	469.62
347.99	468.62
348.218	449.62
348.445	475.62
348.673	455.62
348.9	463.62
349.128	428.62
349.355	406.62
349.583	421.62
349.81	442.62
350.037	430.62
350.265	418.62
350.492	419.62
350.72	426.62
350.947	429.62
351.174	459.62
351.402	463.62
351.629	468.62
351.856	465.62
352.083	467.62
352.311	464.62
352.538	458.62
352.765	486.62
352.992	468.62
353.22	466.62
353.447	448.62
353.674	443.62
353.901	422.62
354.128	405.62
354.355	420.62
354.583	411.62
354.81	443.62
355.037	406.62
355.264	406.62
355.491	406.62
355.718	399.62
355.945	403.62
356.172	429.62
356.399	393.62
356.626	402.62
356.853	408.62
357.08	430.62
357.307	419.62
357.534	413.62
357.761	404.62
357.988	410.62
358.215	389.62
358.441	410.62
358.668	423.62
358.895	417.62
359.122	419.62
359.349	431.62
359.576	451.62
359.802	482.62
360.029	531.62
360.256	516.62
360.483	490.62
360.709	470.62
360.936	452.62
361.163	464.62
361.39	481.62
361.616	464.62
361.843	469.62
362.07	477.62
362.296	455.62
362.523	436.62
362.749	457.62
362.976	436.62
363.203	455.62
363.429	425.62
363.656	443.62
363.882	449.62
364.109	422.62
364.335	431.62
364.562	444.62
364.788	440.62
365.015	436.62
365.241	447.62
365.468	428.62
365.694	448.62
365.92	436.62
366.147	458.62
366.373	437.62
366.599	454.62
366.826	445.62
367.052	409.62
367.278	451.62
367.505	415.62
367.731	424.62
367.957	424.62
368.184	442.62
368.41	439.62
368.636	440.62
368.862	461.62
369.089	445.62
369.315	421.62
369.541	420.62
369.767	453.62
369.993	451.62
370.219	446.62
370.445	425.62
370.672	431.62
370.898	415.62
371.124	429.62
371.35	414.62
371.576	424.62
371.802	425.62
372.028	406.62
372.254	423.62
372.48	421.62
372.706	430.62
372.932	439.62
373.158	420.62
373.384	418.62
373.61	429.62
373.835	431.62
374.061	409.62
374.287	435.62
374.513	444.62
374.739	438.62
374.965	456.62
375.191	427.62
375.416	446.62
375.642	425.62
375.868	439.62
376.094	420.62
376.319	430.62
376.545	420.62
376.771	434.62
376.997	414.62
377.222	428.62
377.448	398.62
377.674	413.62
377.899	422.62
378.125	432.62
378.35	424.62
378.576	422.62
378.802	410.62
379.027	437.62
379.253	400.62
379.478	434.62
379.704	447.62
379.929	434.62
380.155	446.62
380.38	431.62
380.606	456.62
380.831	443.62
381.057	429.62
381.282	442.62
381.507	434.62
381.733	439.62
381.958	424.62
382.184	453.62
382.409	463.62
382.634	421.62
382.86	452.62
383.085	445.62
383.31	436.62
383.535	431.62
383.761	457.62
383.986	436.62
384.211	430.62
384.436	445.62
384.662	450.62
384.887	450.62
385.112	459.62
385.337	446.62
385.562	455.62
385.787	467.62
386.013	476.62
386.238	481.62
386.463	468.62
386.688	452.62
386.913	450.62
387.138	454.62
387.363	446.62
387.588	442.62
387.813	466.62
388.038	483.62
388.263	462.62
388.488	450.62
388.713	448.62
388.938	471.62
389.163	481.62
389.387	453.62
389.612	451.62
389.837	455.62
390.062	461.62
390.287	458.62
390.512	467.62
390.736	458.62
390.961	468.62
391.186	478.62
391.411	472.62
391.636	467.62
391.86	479.62
392.085	467.62
392.31	486.62
392.534	456.62
392.759	461.62
392.984	457.62
393.208	463.62
393.433	459.62
393.658	479.62
393.882	462.62
394.107	487.62
394.331	465.62
394.556	472.62
394.78	466.62
395.005	481.62
395.229	468.62
395.454	466.62
395.678	476.62
395.903	489.62
396.127	506.62
396.352	512.62
396.576	489.62
396.801	476.62
397.025	468.62
397.249	490.62
397.474	488.62
397.698	524.62
397.922	514.62
398.147	523.62
398.371	534.62
398.595	504.62
398.82	512.62
399.044	541.62
399.268	522.62
399.492	532.62
399.717	565.62
399.941	606.62
400.165	616.62
400.389	651.62
400.613	596.62
400.837	562.62
401.062	544.62
401.286	554.62
401.51	536.62
401.734	528.62
401.958	559.62
402.182	537.62
402.406	564.62
402.63	541.62
402.854	533.62
403.078	576.62
403.302	548.62
403.526	542.62
403.75	543.62
403.974	547.62
404.198	542.62
404.422	570.62
404.645	585.62
404.869	555.62
405.093	615.62
405.317	653.62
405.541	683.62
405.765	614.62
405.988	594.62
406.212	616.62
406.436	626.62
406.66	644.62
406.883	620.62
407.107	620.62
407.331	670.62
407.555	758.62
407.778	725.62
408.002	675.62
408.226	626.62
408.449	605.62
408.673	613.62
408.896	653.62
409.12	692.62
409.344	667.62
409.567	589.62
409.791	575.62
410.014	555.62
410.238	558.62
410.461	563.62
410.685	559.62
410.908	569.62
411.132	627.62
411.355	651.62
411.578	630.62
411.802	592.62
412.025	558.62
412.249	583.62
412.472	587.62
412.695	666.62
412.919	630.62
413.142	590.62
413.365	570.62
413.589	549.62
413.812	534.62
414.035	538.62
414.258	532.62
414.482	543.62
414.705	529.62
414.928	535.62
415.151	542.62
415.374	533.62
415.597	536.62
415.821	528.62
416.044	511.62
416.267	569.62
416.49	538.62
416.713	537.62
416.936	544.62
417.159	548.62
417.382	549.62
417.605	557.62
417.828	578.62
418.051	588.62
418.274	550.62
418.497	519.62
418.72	555.62
418.943	540.62
419.166	560.62
419.389	566.62
419.611	581.62
419.834	588.62
420.057	588.62
420.28	560.62
420.503	555.62
420.726	583.62
420.948	588.62
421.171	622.62
421.394	676.62
421.617	584.62
421.839	551.62
422.062	570.62
422.285	573.62
422.507	633.62
422.73	741.62
422.953	735.62
423.175	658.62
423.398	598.62
423.621	583.62
423.843	624.62
424.066	636.62
424.288	630.62
424.511	645.62
424.733	698.62
424.956	790.62
425.178	784.62
425.401	738.62
425.623	760.62
425.846	664.62
426.068	628.62
426.291	627.62
426.513	614.62
426.735	644.62
426.958	666.62
427.18	770.62
427.402	900.62
427.625	987.62
427.847	933.62
428.069	808.62
428.292	694.62
428.514	668.62
428.736	596.62
428.958	585.62
429.181	589.62
429.403	581.62
429.625	613.62
429.847	640.62
430.069	700.62
430.292	713.62
430.514	636.62
430.736	578.62
430.958	576.62
431.18	569.62
431.402	563.62
431.624	524.62
431.846	528.62
432.068	527.62
432.29	559.62
432.512	555.62
432.734	573.62
432.956	557.62
433.178	581.62
433.4	577.62
433.622	532.62
433.844	560.62
434.066	547.62
434.287	551.62
434.509	542.62
434.731	568.62
434.953	551.62
435.175	597.62
435.397	602.62
435.618	623.62
435.84	674.62
436.062	792.62
436.284	828.62
436.505	718.62
436.727	644.62
436.949	636.62
437.17	590.62
437.392	585.62
437.614	598.62
437.835	645.62
438.057	768.62
438.278	858.62
438.5	879.62
438.721	935.62
438.943	907.62
439.165	736.62
439.386	658.62
439.608	646.62
439.829	651.62
440.05	695.62
440.272	730.62
440.493	703.62
440.715	644.62
440.936	604.62
441.158	594.62
441.379	603.62
441.6	596.62
441.822	618.62
442.043	674.62
442.264	754.62
442.486	809.62
442.707	731.62
442.928	670.62
443.149	649.62
443.371	680.62
443.592	724.62
443.813	815.62
444.034	861.62
444.255	742.62
444.476	664.62
444.698	609.62
444.919	610.62
445.14	713.62
445.361	706.62
445.582	685.62
445.803	750.62
446.024	851.62
446.245	871.62
446.466	797.62
446.687	698.62
446.908	640.62
447.129	609.62
447.35	598.62
447.571	607.62
447.792	592.62
448.013	558.62
448.234	605.62
448.455	670.62
448.675	798.62
448.896	930.62
449.117	804.62
449.338	725.62
449.559	842.62
449.779	924.62
450	814.62
450.221	664.62
450.442	603.62
450.662	609.62
450.883	589.62
451.104	623.62
451.324	596.62
451.545	564.62
451.766	556.62
451.986	528.62
452.207	524.62
452.428	542.62
452.648	523.62
452.869	536.62
453.089	568.62
453.31	563.62
453.53	539.62
453.751	538.62
453.971	523.62
454.192	578.62
454.412	553.62
454.633	536.62
454.853	503.62
455.073	521.62
455.294	543.62
455.514	626.62
455.734	619.62
455.955	525.62
456.175	504.62
456.395	491.62
456.616	498.62
456.836	515.62
457.056	475.62
457.276	469.62
457.497	469.62
457.717	483.62
457.937	506.62
458.157	510.62
458.377	528.62
458.598	538.62
458.818	614.62
459.038	720.62
459.258	699.62
459.478	637.62
459.698	557.62
459.918	536.62
460.138	555.62
460.358	528.62
460.578	530.62
460.798	550.62
461.018	554.62
461.238	532.62
461.458	526.62
461.678	538.62
461.898	547.62
462.118	566.62
462.338	568.62
462.558	576.62
462.777	571.62
462.997	574.62
463.217	575.62
463.437	583.62
463.657	562.62
463.876	576.62
464.096	576.62
464.316	594.62
464.536	593.62
464.755	574.62
464.975	581.62
465.195	648.62
465.414	734.62
465.634	651.62
465.854	605.62
466.073	562.62
466.293	569.62
466.512	544.62
466.732	561.62
466.951	530.62
467.171	528.62
467.391	538.62
467.61	534.62
467.829	560.62
468.049	569.62
468.268	554.62
468.488	524.62
468.707	554.62
468.927	540.62
469.146	535.62
469.365	526.62
469.585	498.62
469.804	528.62
470.023	528.62
470.243	528.62
470.462	555.62
470.681	576.62
470.901	578.62
471.12	562.62
471.339	534.62
471.558	543.62
471.777	557.62
471.997	532.62
472.216	533.62
472.435	582.62
472.654	603.62
472.873	558.62
473.092	545.62
473.311	551.62
473.53	564.62
473.749	572.62
473.968	623.62
474.187	722.62
474.406	744.62
474.625	615.62
474.844	559.62
475.063	553.62
475.282	539.62
475.501	551.62
475.72	567.62
475.939	556.62
476.158	557.62
476.377	548.62
476.596	557.62
476.814	553.62
477.033	578.62
477.252	576.62
477.471	573.62
477.69	587.62
477.908	582.62
478.127	585.62
478.346	615.62
478.564	604.62
478.783	599.62
479.002	616.62
479.22	615.62
479.439	631.62
479.658	655.62
479.876	686.62
480.095	687.62
480.313	702.62
480.532	664.62
480.751	660.62
480.969	685.62
481.188	784.62
481.406	820.62
481.624	739.62
481.843	666.62
482.061	677.62
482.28	669.62
482.498	672.62
482.717	663.62
482.935	663.62
483.153	636.62
483.372	645.62
483.59	652.62
483.808	642.62
484.027	630.62
484.245	665.62
484.463	691.62
484.681	663.62
484.9	653.62
485.118	657.62
485.336	675.62
485.554	682.62
485.772	667.62
485.99	674.62
486.209	666.62
486.427	676.62
486.645	715.62
486.863	732.62
487.081	745.62
487.299	718.62
487.517	698.62
487.735	689.62
487.953	715.62
488.171	734.62
488.389	710.62
488.607	708.62
488.825	704.62
489.043	720.62
489.261	708.62
489.479	716.62
489.696	708.62
489.914	744.62
490.132	751.62
490.35	728.62
490.568	763.62
490.786	756.62
491.003	779.62
491.221	804.62
491.439	811.62
491.657	821.62
491.874	857.62
492.092	841.62
492.31	851.62
492.527	837.62
492.745	839.62
492.963	847.62
493.18	847.62
493.398	862.62
493.615	835.62
493.833	872.62
494.05	871.62
494.268	876.62
494.485	854.62
494.703	865.62
494.92	863.62
495.138	855.62
495.355	863.62
495.573	842.62
495.79	853.62
496.008	873.62
496.225	840.62
496.442	844.62
496.66	870.62
496.877	864.62
497.094	869.62
497.312	872.62
497.529	882.62
497.746	877.62
497.963	876.62
498.181	903.62
498.398	932.62
498.615	918.62
498.832	897.62
499.049	925.62
499.267	950.62
499.484	935.62
499.701	972.62
499.918	979.62
500.135	1030.62
500.352	1051.62
500.569	1067.62
500.786	1063.62
501.003	1035.62
501.22	1041.62
501.437	1022.62
501.654	1021.62
501.871	1038.62
