Data from 1970.PennyLincolnUp.Lamp.En5.5.200Scan.071719.P1._HRD10591_15-14-27-842.txt Node
Date: Thu Jul 18 15:14:27 EDT 2019
User: cochatt
Spectrometer: HR+D1059
Trigger mode: 1
Integration Time (sec): 1.000000E-1
Scans to average: 1
Electric dark correction enabled: true
Nonlinearity correction enabled: false
Boxcar width: 0
XAxis mode: Wavelengths
Number of Pixels in Spectrum: 2048
>>>>>Begin Spectral Data<<<<<
223.165	-22.31
223.4	-22.31
223.635	-22.31
223.869	-7.31
224.104	-20.31
224.338	-8.31
224.573	-16.31
224.808	-10.31
225.042	-13.31
225.277	-13.31
225.511	-7.31
225.746	3.69
225.98	15.69
226.215	20.69
226.449	19.69
226.683	9.69
226.918	28.69
227.152	20.69
227.387	43.69
227.621	20.69
227.856	58.69
228.09	53.69
228.324	35.69
228.559	52.69
228.793	43.69
229.027	100.69
229.262	104.69
229.496	112.69
229.73	149.69
229.964	175.69
230.199	146.69
230.433	116.69
230.667	118.69
230.901	109.69
231.136	107.69
231.37	102.69
231.604	117.69
231.838	117.69
232.072	133.69
232.306	148.69
232.541	120.69
232.775	120.69
233.009	112.69
233.243	112.69
233.477	106.69
233.711	122.69
233.945	113.69
234.179	116.69
234.413	119.69
234.647	120.69
234.881	121.69
235.115	99.69
235.349	127.69
235.583	113.69
235.817	132.69
236.051	146.69
236.285	141.69
236.519	123.69
236.753	135.69
236.987	149.69
237.221	205.69
237.455	267.69
237.689	204.69
237.922	152.69
238.156	138.69
238.39	150.69
238.624	140.69
238.858	140.69
239.091	133.69
239.325	135.69
239.559	129.69
239.793	132.69
240.027	130.69
240.26	164.69
240.494	180.69
240.728	168.69
240.961	164.69
241.195	157.69
241.429	146.69
241.662	153.69
241.896	154.69
242.13	154.69
242.363	133.69
242.597	138.69
242.83	136.69
243.064	141.69
243.298	140.69
243.531	158.69
243.765	164.69
243.998	140.69
244.232	147.69
244.465	154.69
244.699	169.69
244.932	164.69
245.166	148.69
245.399	153.69
245.633	163.69
245.866	168.69
246.099	159.69
246.333	155.69
246.566	146.69
246.8	165.69
247.033	171.69
247.266	189.69
247.5	182.69
247.733	187.69
247.966	180.69
248.2	190.69
248.433	190.69
248.666	185.69
248.899	226.69
249.133	231.69
249.366	217.69
249.599	212.69
249.832	211.69
250.066	203.69
250.299	214.69
250.532	201.69
250.765	219.69
250.998	223.69
251.231	268.69
251.465	253.69
251.698	229.69
251.931	227.69
252.164	215.69
252.397	212.69
252.63	220.69
252.863	220.69
253.096	242.69
253.329	266.69
253.562	244.69
253.795	247.69
254.028	242.69
254.261	248.69
254.494	261.69
254.727	305.69
254.96	331.69
255.193	313.69
255.426	292.69
255.659	265.69
255.892	265.69
256.124	281.69
256.357	259.69
256.59	244.69
256.823	241.69
257.056	238.69
257.289	248.69
257.521	236.69
257.754	240.69
257.987	220.69
258.22	244.69
258.452	244.69
258.685	236.69
258.918	218.69
259.151	213.69
259.383	245.69
259.616	241.69
259.849	245.69
260.081	260.69
260.314	289.69
260.547	276.69
260.779	272.69
261.012	260.69
261.244	252.69
261.477	252.69
261.71	229.69
261.942	237.69
262.175	248.69
262.407	258.69
262.64	234.69
262.872	249.69
263.105	232.69
263.337	226.69
263.57	226.69
263.802	222.69
264.035	219.69
264.267	221.69
264.499	233.69
264.732	217.69
264.964	234.69
265.197	220.69
265.429	233.69
265.661	224.69
265.894	228.69
266.126	237.69
266.358	236.69
266.591	231.69
266.823	229.69
267.055	224.69
267.287	227.69
267.52	230.69
267.752	228.69
267.984	245.69
268.216	236.69
268.448	240.69
268.681	250.69
268.913	260.69
269.145	281.69
269.377	290.69
269.609	309.69
269.841	283.69
270.073	291.69
270.306	297.69
270.538	336.69
270.77	353.69
271.002	321.69
271.234	304.69
271.466	319.69
271.698	342.69
271.93	348.69
272.162	338.69
272.394	333.69
272.626	352.69
272.858	324.69
273.09	301.69
273.322	301.69
273.553	286.69
273.785	270.69
274.017	283.69
274.249	288.69
274.481	276.69
274.713	278.69
274.945	276.69
275.176	267.69
275.408	253.69
275.64	265.69
275.872	256.69
276.104	274.69
276.335	275.69
276.567	280.69
276.799	322.69
277.031	346.69
277.262	317.69
277.494	346.69
277.726	316.69
277.957	306.69
278.189	296.69
278.421	285.69
278.652	295.69
278.884	279.69
279.115	272.69
279.347	267.69
279.579	259.69
279.81	267.69
280.042	270.69
280.273	275.69
280.505	289.69
280.736	249.69
280.968	262.69
281.199	262.69
281.431	269.69
281.662	266.69
281.894	272.69
282.125	278.69
282.356	292.69
282.588	305.69
282.819	314.69
283.051	274.69
283.282	284.69
283.513	273.69
283.745	274.69
283.976	287.69
284.207	282.69
284.439	295.69
284.67	280.69
284.901	269.69
285.132	264.69
285.364	289.69
285.595	249.69
285.826	284.69
286.057	288.69
286.288	264.69
286.52	296.69
286.751	263.69
286.982	298.69
287.213	269.69
287.444	280.69
287.675	310.69
287.906	291.69
288.138	290.69
288.369	329.69
288.6	312.69
288.831	288.69
289.062	321.69
289.293	300.69
289.524	277.69
289.755	288.69
289.986	280.69
290.217	288.69
290.448	285.69
290.679	280.69
290.91	296.69
291.141	288.69
291.371	265.69
291.602	288.69
291.833	285.69
292.064	293.69
292.295	283.69
292.526	282.69
292.757	285.69
292.987	289.69
293.218	280.69
293.449	285.69
293.68	294.69
293.91	289.69
294.141	284.69
294.372	290.69
294.603	282.69
294.833	281.69
295.064	295.69
295.295	288.69
295.525	284.69
295.756	316.69
295.987	302.69
296.217	341.69
296.448	343.69
296.679	301.69
296.909	309.69
297.14	316.69
297.37	293.69
297.601	296.69
297.831	292.69
298.062	310.69
298.292	298.69
298.523	324.69
298.753	297.69
298.984	288.69
299.214	326.69
299.445	309.69
299.675	310.69
299.905	318.69
300.136	308.69
300.366	305.69
300.597	322.69
300.827	310.69
301.057	320.69
301.288	315.69
301.518	320.69
301.748	326.69
301.979	318.69
302.209	319.69
302.439	312.69
302.669	327.69
302.9	330.69
303.13	308.69
303.36	325.69
303.59	333.69
303.82	330.69
304.051	327.69
304.281	304.69
304.511	326.69
304.741	314.69
304.971	325.69
305.201	314.69
305.431	318.69
305.661	339.69
305.891	324.69
306.121	310.69
306.352	324.69
306.582	335.69
306.812	342.69
307.042	341.69
307.272	321.69
307.502	332.69
307.731	334.69
307.961	317.69
308.191	333.69
308.421	336.69
308.651	352.69
308.881	349.69
309.111	346.69
309.341	329.69
309.571	363.69
309.8	374.69
310.03	384.69
310.26	369.69
310.49	388.69
310.72	410.69
310.949	384.69
311.179	413.69
311.409	382.69
311.639	380.69
311.868	376.69
312.098	379.69
312.328	396.69
312.557	422.69
312.787	425.69
313.017	422.69
313.246	402.69
313.476	398.69
313.706	400.69
313.935	399.69
314.165	398.69
314.394	404.69
314.624	421.69
314.853	403.69
315.083	384.69
315.312	390.69
315.542	371.69
315.771	369.69
316.001	370.69
316.23	386.69
316.46	370.69
316.689	369.69
316.919	391.69
317.148	404.69
317.377	420.69
317.607	399.69
317.836	386.69
318.065	391.69
318.295	396.69
318.524	382.69
318.753	390.69
318.983	376.69
319.212	386.69
319.441	393.69
319.67	436.69
319.9	402.69
320.129	398.69
320.358	403.69
320.587	405.69
320.816	404.69
321.046	414.69
321.275	415.69
321.504	414.69
321.733	414.69
321.962	441.69
322.191	456.69
322.42	458.69
322.649	492.69
322.878	491.69
323.108	513.69
323.337	533.69
323.566	542.69
323.795	597.69
324.024	638.69
324.253	782.69
324.482	1124.69
324.71	1719.69
324.939	2392.69
325.168	2130.69
325.397	1167.69
325.626	760.69
325.855	643.69
326.084	561.69
326.313	549.69
326.542	549.69
326.77	603.69
326.999	715.69
327.228	983.69
327.457	1487.69
327.686	1841.69
327.914	1286.69
328.143	836.69
328.372	736.69
328.6	661.69
328.829	626.69
329.058	640.69
329.287	658.69
329.515	642.69
329.744	563.69
329.972	553.69
330.201	581.69
330.43	641.69
330.658	664.69
330.887	690.69
331.115	683.69
331.344	591.69
331.572	523.69
331.801	539.69
332.03	521.69
332.258	497.69
332.486	473.69
332.715	445.69
332.943	447.69
333.172	461.69
333.4	501.69
333.629	482.69
333.857	508.69
334.085	506.69
334.314	515.69
334.542	587.69
334.771	577.69
334.999	526.69
335.227	480.69
335.455	468.69
335.684	465.69
335.912	461.69
336.14	459.69
336.369	455.69
336.597	464.69
336.825	459.69
337.053	465.69
337.281	452.69
337.51	461.69
337.738	462.69
337.966	468.69
338.194	477.69
338.422	450.69
338.65	470.69
338.878	453.69
339.106	442.69
339.334	446.69
339.562	432.69
339.79	432.69
340.018	435.69
340.246	444.69
340.474	460.69
340.702	455.69
340.93	439.69
341.158	438.69
341.386	429.69
341.614	450.69
341.842	431.69
342.07	448.69
342.298	453.69
342.526	421.69
342.754	410.69
342.981	413.69
343.209	436.69
343.437	423.69
343.665	444.69
343.893	462.69
344.12	445.69
344.348	439.69
344.576	441.69
344.804	470.69
345.031	478.69
345.259	475.69
345.487	477.69
345.714	455.69
345.942	453.69
346.17	440.69
346.397	438.69
346.625	440.69
346.853	441.69
347.08	441.69
347.308	436.69
347.535	463.69
347.763	470.69
347.99	457.69
348.218	456.69
348.445	470.69
348.673	459.69
348.9	426.69
349.128	430.69
349.355	427.69
349.583	448.69
349.81	412.69
350.037	416.69
350.265	417.69
350.492	437.69
350.72	398.69
350.947	437.69
351.174	450.69
351.402	455.69
351.629	451.69
351.856	449.69
352.083	461.69
352.311	485.69
352.538	464.69
352.765	487.69
352.992	471.69
353.22	450.69
353.447	453.69
353.674	437.69
353.901	436.69
354.128	422.69
354.355	413.69
354.583	430.69
354.81	401.69
355.037	418.69
355.264	414.69
355.491	396.69
355.718	407.69
355.945	423.69
356.172	411.69
356.399	403.69
356.626	397.69
356.853	426.69
357.08	417.69
357.307	414.69
357.534	399.69
357.761	417.69
357.988	397.69
358.215	387.69
358.441	410.69
358.668	437.69
358.895	432.69
359.122	433.69
359.349	425.69
359.576	452.69
359.802	489.69
360.029	496.69
360.256	522.69
360.483	507.69
360.709	465.69
360.936	435.69
361.163	440.69
361.39	466.69
361.616	456.69
361.843	443.69
362.07	455.69
362.296	475.69
362.523	456.69
362.749	454.69
362.976	435.69
363.203	440.69
363.429	427.69
363.656	438.69
363.882	414.69
364.109	417.69
364.335	423.69
364.562	411.69
364.788	406.69
365.015	421.69
365.241	429.69
365.468	453.69
365.694	433.69
365.92	457.69
366.147	438.69
366.373	432.69
366.599	430.69
366.826	436.69
367.052	436.69
367.278	423.69
367.505	419.69
367.731	440.69
367.957	420.69
368.184	427.69
368.41	448.69
368.636	448.69
368.862	449.69
369.089	440.69
369.315	437.69
369.541	434.69
369.767	418.69
369.993	422.69
370.219	427.69
370.445	421.69
370.672	419.69
370.898	427.69
371.124	407.69
371.35	449.69
371.576	412.69
371.802	412.69
372.028	426.69
372.254	432.69
372.48	410.69
372.706	436.69
372.932	414.69
373.158	411.69
373.384	419.69
373.61	414.69
373.835	440.69
374.061	433.69
374.287	446.69
374.513	436.69
374.739	424.69
374.965	444.69
375.191	441.69
375.416	433.69
375.642	438.69
375.868	439.69
376.094	424.69
376.319	413.69
376.545	426.69
376.771	429.69
376.997	412.69
377.222	437.69
377.448	420.69
377.674	417.69
377.899	420.69
378.125	406.69
378.35	433.69
378.576	424.69
378.802	412.69
379.027	436.69
379.253	427.69
379.478	415.69
379.704	410.69
379.929	424.69
380.155	438.69
380.38	432.69
380.606	448.69
380.831	421.69
381.057	424.69
381.282	440.69
381.507	434.69
381.733	419.69
381.958	425.69
382.184	423.69
382.409	432.69
382.634	422.69
382.86	424.69
383.085	438.69
383.31	453.69
383.535	432.69
383.761	446.69
383.986	432.69
384.211	433.69
384.436	463.69
384.662	449.69
384.887	453.69
385.112	457.69
385.337	461.69
385.562	454.69
385.787	456.69
386.013	462.69
386.238	474.69
386.463	467.69
386.688	483.69
386.913	473.69
387.138	454.69
387.363	448.69
387.588	462.69
387.813	464.69
388.038	456.69
388.263	464.69
388.488	451.69
388.713	463.69
388.938	448.69
389.163	436.69
389.387	454.69
389.612	461.69
389.837	460.69
390.062	449.69
390.287	453.69
390.512	471.69
390.736	469.69
390.961	467.69
391.186	443.69
391.411	463.69
391.636	461.69
391.86	456.69
392.085	472.69
392.31	469.69
392.534	469.69
392.759	463.69
392.984	465.69
393.208	465.69
393.433	464.69
393.658	482.69
393.882	460.69
394.107	433.69
394.331	472.69
394.556	468.69
394.78	464.69
395.005	461.69
395.229	447.69
395.454	480.69
395.678	455.69
395.903	471.69
396.127	513.69
396.352	511.69
396.576	497.69
396.801	503.69
397.025	492.69
397.249	452.69
397.474	493.69
397.698	489.69
397.922	510.69
398.147	520.69
398.371	534.69
398.595	526.69
398.82	508.69
399.044	510.69
399.268	529.69
399.492	568.69
399.717	580.69
399.941	618.69
400.165	644.69
400.389	642.69
400.613	587.69
400.837	554.69
401.062	556.69
401.286	532.69
401.51	510.69
401.734	519.69
401.958	526.69
402.182	522.69
402.406	544.69
402.63	550.69
402.854	518.69
403.078	545.69
403.302	567.69
403.526	554.69
403.75	556.69
403.974	544.69
404.198	536.69
404.422	564.69
404.645	562.69
404.869	566.69
405.093	602.69
405.317	623.69
405.541	660.69
405.765	608.69
405.988	598.69
406.212	616.69
406.436	610.69
406.66	633.69
406.883	610.69
407.107	606.69
407.331	650.69
407.555	736.69
407.778	731.69
408.002	669.69
408.226	642.69
408.449	605.69
408.673	602.69
408.896	624.69
409.12	699.69
409.344	646.69
409.567	588.69
409.791	564.69
410.014	553.69
410.238	557.69
410.461	547.69
410.685	556.69
410.908	591.69
411.132	604.69
411.355	634.69
411.578	596.69
411.802	578.69
412.025	561.69
412.249	561.69
412.472	592.69
412.695	662.69
412.919	610.69
413.142	586.69
413.365	551.69
413.589	546.69
413.812	550.69
414.035	527.69
414.258	542.69
414.482	522.69
414.705	525.69
414.928	548.69
415.151	517.69
415.374	504.69
415.597	528.69
415.821	516.69
416.044	524.69
416.267	506.69
416.49	526.69
416.713	535.69
416.936	520.69
417.159	537.69
417.382	544.69
417.605	544.69
417.828	547.69
418.051	562.69
418.274	542.69
418.497	518.69
418.72	525.69
418.943	548.69
419.166	545.69
419.389	554.69
419.611	553.69
419.834	594.69
420.057	554.69
420.28	574.69
420.503	543.69
420.726	565.69
420.948	607.69
421.171	635.69
421.394	660.69
421.617	590.69
421.839	584.69
422.062	553.69
422.285	590.69
422.507	633.69
422.73	742.69
422.953	715.69
423.175	632.69
423.398	604.69
423.621	597.69
423.843	641.69
424.066	616.69
424.288	617.69
424.511	640.69
424.733	704.69
424.956	798.69
425.178	743.69
425.401	744.69
425.623	786.69
425.846	652.69
426.068	618.69
426.291	618.69
426.513	608.69
426.735	644.69
426.958	662.69
427.18	748.69
427.402	877.69
427.625	984.69
427.847	907.69
428.069	796.69
428.292	681.69
428.514	633.69
428.736	604.69
428.958	594.69
429.181	597.69
429.403	574.69
429.625	590.69
429.847	643.69
430.069	702.69
430.292	697.69
430.514	597.69
430.736	576.69
430.958	568.69
431.18	551.69
431.402	543.69
431.624	552.69
431.846	546.69
432.068	537.69
432.29	536.69
432.512	532.69
432.734	555.69
432.956	546.69
433.178	556.69
433.4	573.69
433.622	537.69
433.844	534.69
434.066	531.69
434.287	537.69
434.509	553.69
434.731	551.69
434.953	551.69
435.175	590.69
435.397	595.69
435.618	630.69
435.84	673.69
436.062	788.69
436.284	816.69
436.505	700.69
436.727	665.69
436.949	620.69
437.17	581.69
437.392	582.69
437.614	611.69
437.835	633.69
438.057	760.69
438.278	876.69
438.5	873.69
438.721	925.69
438.943	884.69
439.165	722.69
439.386	660.69
439.608	652.69
439.829	642.69
440.05	672.69
440.272	718.69
440.493	700.69
440.715	637.69
440.936	613.69
441.158	610.69
441.379	604.69
441.6	582.69
441.822	640.69
442.043	656.69
442.264	747.69
442.486	794.69
442.707	708.69
442.928	649.69
443.149	660.69
443.371	688.69
443.592	728.69
443.813	825.69
444.034	885.69
444.255	748.69
444.476	655.69
444.698	617.69
444.919	615.69
445.14	710.69
445.361	701.69
445.582	693.69
445.803	742.69
446.024	850.69
446.245	846.69
446.466	804.69
446.687	708.69
446.908	652.69
447.129	614.69
447.35	612.69
447.571	574.69
447.792	567.69
448.013	615.69
448.234	610.69
448.455	676.69
448.675	778.69
448.896	894.69
449.117	767.69
449.338	727.69
449.559	856.69
449.779	928.69
450	770.69
450.221	661.69
450.442	615.69
450.662	571.69
450.883	600.69
451.104	605.69
451.324	580.69
451.545	560.69
451.766	578.69
451.986	539.69
452.207	517.69
452.428	525.69
452.648	512.69
452.869	540.69
453.089	530.69
453.31	550.69
453.53	530.69
453.751	526.69
453.971	532.69
454.192	577.69
454.412	534.69
454.633	531.69
454.853	548.69
455.073	518.69
455.294	556.69
455.514	619.69
455.734	616.69
455.955	523.69
456.175	494.69
456.395	476.69
456.616	479.69
456.836	498.69
457.056	483.69
457.276	482.69
457.497	499.69
457.717	493.69
457.937	506.69
458.157	501.69
458.377	516.69
458.598	530.69
458.818	583.69
459.038	700.69
459.258	700.69
459.478	599.69
459.698	562.69
459.918	555.69
460.138	510.69
460.358	518.69
460.578	554.69
460.798	541.69
461.018	567.69
461.238	534.69
461.458	521.69
461.678	534.69
461.898	532.69
462.118	528.69
462.338	543.69
462.558	563.69
462.777	556.69
462.997	567.69
463.217	551.69
463.437	588.69
463.657	569.69
463.876	562.69
464.096	561.69
464.316	557.69
464.536	561.69
464.755	589.69
464.975	593.69
465.195	611.69
465.414	733.69
465.634	649.69
465.854	593.69
466.073	572.69
466.293	545.69
466.512	540.69
466.732	534.69
466.951	532.69
467.171	531.69
467.391	520.69
467.61	538.69
467.829	542.69
468.049	568.69
468.268	536.69
468.488	531.69
468.707	518.69
468.927	514.69
469.146	513.69
469.365	517.69
469.585	507.69
469.804	514.69
470.023	578.69
470.243	555.69
470.462	557.69
470.681	565.69
470.901	555.69
471.12	547.69
471.339	556.69
471.558	535.69
471.777	554.69
471.997	525.69
472.216	540.69
472.435	603.69
472.654	583.69
472.873	542.69
473.092	550.69
473.311	546.69
473.53	546.69
473.749	563.69
473.968	598.69
474.187	699.69
474.406	747.69
474.625	619.69
474.844	579.69
475.063	562.69
475.282	552.69
475.501	543.69
475.72	523.69
475.939	557.69
476.158	565.69
476.377	560.69
476.596	546.69
476.814	574.69
477.033	613.69
477.252	590.69
477.471	564.69
477.69	577.69
477.908	602.69
478.127	604.69
478.346	582.69
478.564	609.69
478.783	597.69
479.002	607.69
479.22	618.69
479.439	637.69
479.658	658.69
479.876	688.69
480.095	664.69
480.313	710.69
480.532	670.69
480.751	646.69
480.969	669.69
481.188	758.69
481.406	804.69
481.624	712.69
481.843	677.69
482.061	664.69
482.28	663.69
482.498	633.69
482.717	669.69
482.935	641.69
483.153	639.69
483.372	638.69
483.59	646.69
483.808	641.69
484.027	653.69
484.245	681.69
484.463	663.69
484.681	660.69
484.9	660.69
485.118	646.69
485.336	636.69
485.554	667.69
485.772	680.69
485.99	675.69
486.209	665.69
486.427	692.69
486.645	706.69
486.863	719.69
487.081	708.69
487.299	686.69
487.517	712.69
487.735	696.69
487.953	680.69
488.171	706.69
488.389	720.69
488.607	683.69
488.825	730.69
489.043	708.69
489.261	711.69
489.479	738.69
489.696	718.69
489.914	728.69
490.132	734.69
490.35	721.69
490.568	729.69
490.786	755.69
491.003	772.69
491.221	797.69
491.439	809.69
491.657	812.69
491.874	830.69
492.092	812.69
492.31	840.69
492.527	837.69
492.745	831.69
492.963	837.69
493.18	840.69
493.398	854.69
493.615	880.69
493.833	884.69
494.05	844.69
494.268	837.69
494.485	849.69
494.703	858.69
494.92	858.69
495.138	865.69
495.355	842.69
495.573	883.69
495.79	849.69
496.008	858.69
496.225	841.69
496.442	859.69
496.66	866.69
496.877	858.69
497.094	853.69
497.312	882.69
497.529	863.69
497.746	898.69
497.963	867.69
498.181	906.69
498.398	884.69
498.615	883.69
498.832	925.69
499.049	912.69
499.267	915.69
499.484	937.69
499.701	970.69
499.918	976.69
500.135	1036.69
500.352	1061.69
500.569	1043.69
500.786	1039.69
501.003	1051.69
501.22	1056.69
501.437	1021.69
501.654	987.69
501.871	1001.69
