Data from 1970.PennyLincolnUp.Lamp.En5.5.200Scan.071719.P1._HRD10591_15-14-43-842.txt Node
Date: Thu Jul 18 15:14:43 EDT 2019
User: cochatt
Spectrometer: HR+D1059
Trigger mode: 1
Integration Time (sec): 1.000000E-1
Scans to average: 1
Electric dark correction enabled: true
Nonlinearity correction enabled: false
Boxcar width: 0
XAxis mode: Wavelengths
Number of Pixels in Spectrum: 2048
>>>>>Begin Spectral Data<<<<<
223.165	-20.62
223.4	-20.62
223.635	-20.62
223.869	-22.62
224.104	-7.62
224.338	-28.62
224.573	-23.62
224.808	-16.62
225.042	3.38
225.277	-12.62
225.511	0.38
225.746	15.38
225.98	12.38
226.215	7.38
226.449	21.38
226.683	15.38
226.918	23.38
227.152	33.38
227.387	43.38
227.621	35.38
227.856	42.38
228.09	42.38
228.324	45.38
228.559	62.38
228.793	77.38
229.027	107.38
229.262	109.38
229.496	137.38
229.73	145.38
229.964	158.38
230.199	150.38
230.433	120.38
230.667	123.38
230.901	119.38
231.136	127.38
231.37	125.38
231.604	120.38
231.838	110.38
232.072	112.38
232.306	114.38
232.541	129.38
232.775	121.38
233.009	124.38
233.243	112.38
233.477	127.38
233.711	115.38
233.945	121.38
234.179	112.38
234.413	129.38
234.647	112.38
234.881	121.38
235.115	116.38
235.349	107.38
235.583	129.38
235.817	133.38
236.051	138.38
236.285	155.38
236.519	146.38
236.753	150.38
236.987	163.38
237.221	198.38
237.455	251.38
237.689	205.38
237.922	158.38
238.156	153.38
238.39	146.38
238.624	134.38
238.858	139.38
239.091	152.38
239.325	145.38
239.559	139.38
239.793	131.38
240.027	139.38
240.26	152.38
240.494	181.38
240.728	174.38
240.961	159.38
241.195	152.38
241.429	145.38
241.662	148.38
241.896	143.38
242.13	139.38
242.363	142.38
242.597	140.38
242.83	134.38
243.064	153.38
243.298	151.38
243.531	150.38
243.765	164.38
243.998	137.38
244.232	167.38
244.465	139.38
244.699	153.38
244.932	151.38
245.166	145.38
245.399	148.38
245.633	149.38
245.866	170.38
246.099	143.38
246.333	159.38
246.566	175.38
246.8	163.38
247.033	170.38
247.266	175.38
247.5	168.38
247.733	194.38
247.966	188.38
248.2	182.38
248.433	208.38
248.666	193.38
248.899	206.38
249.133	203.38
249.366	232.38
249.599	219.38
249.832	217.38
250.066	208.38
250.299	213.38
250.532	216.38
250.765	233.38
250.998	262.38
251.231	246.38
251.465	238.38
251.698	236.38
251.931	220.38
252.164	217.38
252.397	208.38
252.63	218.38
252.863	231.38
253.096	253.38
253.329	256.38
253.562	257.38
253.795	241.38
254.028	244.38
254.261	241.38
254.494	259.38
254.727	287.38
254.96	307.38
255.193	321.38
255.426	269.38
255.659	273.38
255.892	250.38
256.124	264.38
256.357	263.38
256.59	261.38
256.823	233.38
257.056	235.38
257.289	245.38
257.521	234.38
257.754	233.38
257.987	222.38
258.22	213.38
258.452	203.38
258.685	223.38
258.918	231.38
259.151	217.38
259.383	232.38
259.616	233.38
259.849	235.38
260.081	249.38
260.314	298.38
260.547	311.38
260.779	284.38
261.012	256.38
261.244	251.38
261.477	256.38
261.71	241.38
261.942	250.38
262.175	256.38
262.407	268.38
262.64	229.38
262.872	220.38
263.105	219.38
263.337	225.38
263.57	218.38
263.802	217.38
264.035	220.38
264.267	216.38
264.499	224.38
264.732	221.38
264.964	203.38
265.197	220.38
265.429	216.38
265.661	235.38
265.894	219.38
266.126	244.38
266.358	235.38
266.591	221.38
266.823	242.38
267.055	239.38
267.287	238.38
267.52	247.38
267.752	240.38
267.984	228.38
268.216	211.38
268.448	243.38
268.681	238.38
268.913	265.38
269.145	277.38
269.377	302.38
269.609	289.38
269.841	287.38
270.073	281.38
270.306	321.38
270.538	336.38
270.77	353.38
271.002	305.38
271.234	314.38
271.466	333.38
271.698	347.38
271.93	335.38
272.162	355.38
272.394	326.38
272.626	317.38
272.858	297.38
273.09	297.38
273.322	293.38
273.553	274.38
273.785	271.38
274.017	292.38
274.249	287.38
274.481	284.38
274.713	283.38
274.945	275.38
275.176	258.38
275.408	293.38
275.64	262.38
275.872	272.38
276.104	270.38
276.335	279.38
276.567	289.38
276.799	288.38
277.031	326.38
277.262	331.38
277.494	344.38
277.726	323.38
277.957	309.38
278.189	311.38
278.421	284.38
278.652	271.38
278.884	281.38
279.115	269.38
279.347	283.38
279.579	279.38
279.81	263.38
280.042	279.38
280.273	282.38
280.505	273.38
280.736	265.38
280.968	280.38
281.199	272.38
281.431	263.38
281.662	272.38
281.894	262.38
282.125	280.38
282.356	286.38
282.588	316.38
282.819	324.38
283.051	279.38
283.282	277.38
283.513	294.38
283.745	263.38
283.976	281.38
284.207	273.38
284.439	283.38
284.67	279.38
284.901	275.38
285.132	276.38
285.364	267.38
285.595	280.38
285.826	294.38
286.057	286.38
286.288	279.38
286.52	278.38
286.751	276.38
286.982	281.38
287.213	278.38
287.444	277.38
287.675	291.38
287.906	294.38
288.138	313.38
288.369	295.38
288.6	300.38
288.831	311.38
289.062	301.38
289.293	293.38
289.524	290.38
289.755	280.38
289.986	280.38
290.217	277.38
290.448	289.38
290.679	302.38
290.91	300.38
291.141	275.38
291.371	276.38
291.602	273.38
291.833	288.38
292.064	276.38
292.295	276.38
292.526	295.38
292.757	280.38
292.987	277.38
293.218	279.38
293.449	284.38
293.68	278.38
293.91	281.38
294.141	293.38
294.372	284.38
294.603	268.38
294.833	284.38
295.064	298.38
295.295	299.38
295.525	283.38
295.756	280.38
295.987	303.38
296.217	339.38
296.448	336.38
296.679	309.38
296.909	309.38
297.14	289.38
297.37	297.38
297.601	309.38
297.831	294.38
298.062	289.38
298.292	286.38
298.523	300.38
298.753	287.38
298.984	309.38
299.214	316.38
299.445	292.38
299.675	307.38
299.905	309.38
300.136	301.38
300.366	299.38
300.597	307.38
300.827	304.38
301.057	313.38
301.288	343.38
301.518	318.38
301.748	320.38
301.979	308.38
302.209	308.38
302.439	313.38
302.669	307.38
302.9	317.38
303.13	323.38
303.36	319.38
303.59	320.38
303.82	323.38
304.051	325.38
304.281	316.38
304.511	323.38
304.741	325.38
304.971	315.38
305.201	307.38
305.431	330.38
305.661	332.38
305.891	320.38
306.121	320.38
306.352	333.38
306.582	327.38
306.812	328.38
307.042	334.38
307.272	322.38
307.502	344.38
307.731	336.38
307.961	321.38
308.191	327.38
308.421	326.38
308.651	328.38
308.881	344.38
309.111	351.38
309.341	322.38
309.571	353.38
309.8	354.38
310.03	373.38
310.26	365.38
310.49	373.38
310.72	391.38
310.949	389.38
311.179	402.38
311.409	388.38
311.639	393.38
311.868	391.38
312.098	380.38
312.328	383.38
312.557	422.38
312.787	419.38
313.017	432.38
313.246	401.38
313.476	398.38
313.706	374.38
313.935	361.38
314.165	383.38
314.394	409.38
314.624	400.38
314.853	399.38
315.083	380.38
315.312	389.38
315.542	366.38
315.771	362.38
316.001	368.38
316.23	393.38
316.46	364.38
316.689	387.38
316.919	384.38
317.148	393.38
317.377	403.38
317.607	375.38
317.836	403.38
318.065	398.38
318.295	367.38
318.524	367.38
318.753	402.38
318.983	367.38
319.212	385.38
319.441	402.38
319.67	395.38
319.9	393.38
320.129	376.38
320.358	379.38
320.587	385.38
320.816	401.38
321.046	387.38
321.275	426.38
321.504	404.38
321.733	397.38
321.962	416.38
322.191	413.38
322.42	444.38
322.649	471.38
322.878	472.38
323.108	496.38
323.337	513.38
323.566	550.38
323.795	592.38
324.024	661.38
324.253	769.38
324.482	1087.38
324.71	1742.38
324.939	2481.38
325.168	2103.38
325.397	1141.38
325.626	753.38
325.855	641.38
326.084	580.38
326.313	547.38
326.542	561.38
326.77	615.38
326.999	734.38
327.228	1006.38
327.457	1497.38
327.686	1834.38
327.914	1242.38
328.143	825.38
328.372	729.38
328.6	685.38
328.829	629.38
329.058	656.38
329.287	650.38
329.515	592.38
329.744	573.38
329.972	566.38
330.201	593.38
330.43	632.38
330.658	660.38
330.887	688.38
331.115	664.38
331.344	569.38
331.572	511.38
331.801	521.38
332.03	550.38
332.258	488.38
332.486	461.38
332.715	462.38
332.943	457.38
333.172	480.38
333.4	472.38
333.629	490.38
333.857	496.38
334.085	500.38
334.314	528.38
334.542	545.38
334.771	591.38
334.999	517.38
335.227	494.38
335.455	479.38
335.684	473.38
335.912	461.38
336.14	456.38
336.369	445.38
336.597	461.38
336.825	467.38
337.053	452.38
337.281	462.38
337.51	449.38
337.738	458.38
337.966	451.38
338.194	455.38
338.422	474.38
338.65	432.38
338.878	448.38
339.106	444.38
339.334	437.38
339.562	437.38
339.79	411.38
340.018	430.38
340.246	447.38
340.474	443.38
340.702	459.38
340.93	453.38
341.158	427.38
341.386	464.38
341.614	449.38
341.842	435.38
342.07	441.38
342.298	426.38
342.526	421.38
342.754	419.38
342.981	418.38
343.209	412.38
343.437	435.38
343.665	413.38
343.893	424.38
344.12	427.38
344.348	433.38
344.576	431.38
344.804	431.38
345.031	456.38
345.259	478.38
345.487	479.38
345.714	443.38
345.942	420.38
346.17	451.38
346.397	440.38
346.625	438.38
346.853	433.38
347.08	410.38
347.308	431.38
347.535	445.38
347.763	447.38
347.99	429.38
348.218	465.38
348.445	473.38
348.673	448.38
348.9	449.38
349.128	433.38
349.355	428.38
349.583	421.38
349.81	391.38
350.037	409.38
350.265	422.38
350.492	415.38
350.72	435.38
350.947	416.38
351.174	444.38
351.402	440.38
351.629	457.38
351.856	430.38
352.083	427.38
352.311	455.38
352.538	448.38
352.765	463.38
352.992	458.38
353.22	463.38
353.447	457.38
353.674	417.38
353.901	409.38
354.128	419.38
354.355	404.38
354.583	413.38
354.81	399.38
355.037	407.38
355.264	390.38
355.491	409.38
355.718	402.38
355.945	403.38
356.172	386.38
356.399	407.38
356.626	395.38
356.853	387.38
357.08	408.38
357.307	403.38
357.534	414.38
357.761	402.38
357.988	407.38
358.215	403.38
358.441	417.38
358.668	401.38
358.895	396.38
359.122	415.38
359.349	452.38
359.576	442.38
359.802	441.38
360.029	515.38
360.256	513.38
360.483	495.38
360.709	456.38
360.936	452.38
361.163	432.38
361.39	456.38
361.616	443.38
361.843	416.38
362.07	427.38
362.296	463.38
362.523	441.38
362.749	435.38
362.976	439.38
363.203	436.38
363.429	417.38
363.656	416.38
363.882	428.38
364.109	427.38
364.335	424.38
364.562	443.38
364.788	414.38
365.015	425.38
365.241	410.38
365.468	414.38
365.694	413.38
365.92	421.38
366.147	433.38
366.373	419.38
366.599	410.38
366.826	405.38
367.052	439.38
367.278	419.38
367.505	426.38
367.731	438.38
367.957	413.38
368.184	416.38
368.41	436.38
368.636	437.38
368.862	440.38
369.089	422.38
369.315	427.38
369.541	423.38
369.767	421.38
369.993	419.38
370.219	431.38
370.445	412.38
370.672	423.38
370.898	400.38
371.124	405.38
371.35	418.38
371.576	411.38
371.802	386.38
372.028	400.38
372.254	420.38
372.48	407.38
372.706	401.38
372.932	409.38
373.158	403.38
373.384	415.38
373.61	416.38
373.835	422.38
374.061	404.38
374.287	425.38
374.513	422.38
374.739	442.38
374.965	428.38
375.191	414.38
375.416	450.38
375.642	427.38
375.868	418.38
376.094	419.38
376.319	428.38
376.545	415.38
376.771	411.38
376.997	399.38
377.222	409.38
377.448	424.38
377.674	398.38
377.899	410.38
378.125	395.38
378.35	399.38
378.576	414.38
378.802	422.38
379.027	402.38
379.253	416.38
379.478	427.38
379.704	428.38
379.929	415.38
380.155	437.38
380.38	425.38
380.606	442.38
380.831	410.38
381.057	411.38
381.282	412.38
381.507	436.38
381.733	405.38
381.958	422.38
382.184	416.38
382.409	439.38
382.634	428.38
382.86	424.38
383.085	395.38
383.31	415.38
383.535	442.38
383.761	432.38
383.986	418.38
384.211	417.38
384.436	427.38
384.662	429.38
384.887	429.38
385.112	432.38
385.337	449.38
385.562	465.38
385.787	443.38
386.013	463.38
386.238	437.38
386.463	455.38
386.688	456.38
386.913	428.38
387.138	446.38
387.363	445.38
387.588	444.38
387.813	455.38
388.038	439.38
388.263	457.38
388.488	436.38
388.713	442.38
388.938	447.38
389.163	454.38
389.387	449.38
389.612	428.38
389.837	445.38
390.062	438.38
390.287	455.38
390.512	447.38
390.736	436.38
390.961	462.38
391.186	462.38
391.411	439.38
391.636	452.38
391.86	469.38
392.085	475.38
392.31	465.38
392.534	444.38
392.759	425.38
392.984	455.38
393.208	464.38
393.433	463.38
393.658	468.38
393.882	453.38
394.107	448.38
394.331	455.38
394.556	453.38
394.78	447.38
395.005	435.38
395.229	465.38
395.454	466.38
395.678	471.38
395.903	517.38
396.127	506.38
396.352	477.38
396.576	480.38
396.801	455.38
397.025	460.38
397.249	474.38
397.474	473.38
397.698	464.38
397.922	478.38
398.147	512.38
398.371	502.38
398.595	493.38
398.82	505.38
399.044	521.38
399.268	505.38
399.492	533.38
399.717	542.38
399.941	593.38
400.165	618.38
400.389	623.38
400.613	581.38
400.837	550.38
401.062	521.38
401.286	536.38
401.51	518.38
401.734	528.38
401.958	505.38
402.182	496.38
402.406	523.38
402.63	529.38
402.854	516.38
403.078	521.38
403.302	531.38
403.526	516.38
403.75	513.38
403.974	507.38
404.198	504.38
404.422	524.38
404.645	547.38
404.869	544.38
405.093	603.38
405.317	607.38
405.541	639.38
405.765	590.38
405.988	568.38
406.212	579.38
406.436	614.38
406.66	632.38
406.883	599.38
407.107	606.38
407.331	663.38
407.555	703.38
407.778	729.38
408.002	663.38
408.226	620.38
408.449	581.38
408.673	582.38
408.896	627.38
409.12	649.38
409.344	634.38
409.567	575.38
409.791	559.38
410.014	523.38
410.238	547.38
410.461	550.38
410.685	550.38
410.908	543.38
411.132	607.38
411.355	647.38
411.578	621.38
411.802	551.38
412.025	539.38
412.249	575.38
412.472	567.38
412.695	616.38
412.919	614.38
413.142	559.38
413.365	549.38
413.589	537.38
413.812	508.38
414.035	534.38
414.258	520.38
414.482	508.38
414.705	507.38
414.928	510.38
415.151	514.38
415.374	519.38
415.597	514.38
415.821	486.38
416.044	531.38
416.267	512.38
416.49	521.38
416.713	521.38
416.936	529.38
417.159	519.38
417.382	528.38
417.605	506.38
417.828	554.38
418.051	563.38
418.274	529.38
418.497	519.38
418.72	548.38
418.943	541.38
419.166	527.38
419.389	547.38
419.611	556.38
419.834	539.38
420.057	580.38
420.28	555.38
420.503	533.38
420.726	541.38
420.948	563.38
421.171	603.38
421.394	627.38
421.617	573.38
421.839	559.38
422.062	574.38
422.285	560.38
422.507	624.38
422.73	704.38
422.953	665.38
423.175	607.38
423.398	597.38
423.621	570.38
423.843	581.38
424.066	608.38
424.288	603.38
424.511	622.38
424.733	665.38
424.956	772.38
425.178	735.38
425.401	752.38
425.623	758.38
425.846	640.38
426.068	628.38
426.291	617.38
426.513	592.38
426.735	604.38
426.958	654.38
427.18	745.38
427.402	839.38
427.625	984.38
427.847	888.38
428.069	774.38
428.292	678.38
428.514	615.38
428.736	587.38
428.958	603.38
429.181	576.38
429.403	554.38
429.625	591.38
429.847	579.38
430.069	670.38
430.292	691.38
430.514	581.38
430.736	571.38
430.958	565.38
431.18	543.38
431.402	545.38
431.624	513.38
431.846	527.38
432.068	530.38
432.29	515.38
432.512	538.38
432.734	527.38
432.956	544.38
433.178	534.38
433.4	552.38
433.622	533.38
433.844	516.38
434.066	536.38
434.287	524.38
434.509	527.38
434.731	542.38
434.953	547.38
435.175	568.38
435.397	603.38
435.618	601.38
435.84	667.38
436.062	725.38
436.284	814.38
436.505	687.38
436.727	631.38
436.949	594.38
437.17	559.38
437.392	579.38
437.614	568.38
437.835	641.38
438.057	729.38
438.278	833.38
438.5	841.38
438.721	889.38
438.943	869.38
439.165	711.38
439.386	656.38
439.608	644.38
439.829	641.38
440.05	649.38
440.272	687.38
440.493	659.38
440.715	600.38
440.936	591.38
441.158	567.38
441.379	568.38
441.6	590.38
441.822	614.38
442.043	660.38
442.264	733.38
442.486	798.38
442.707	661.38
442.928	645.38
443.149	652.38
443.371	634.38
443.592	679.38
443.813	812.38
444.034	849.38
444.255	704.38
444.476	655.38
444.698	635.38
444.919	613.38
445.14	663.38
445.361	667.38
445.582	680.38
445.803	732.38
446.024	839.38
446.245	839.38
446.466	784.38
446.687	680.38
446.908	643.38
447.129	603.38
447.35	591.38
447.571	599.38
447.792	579.38
448.013	592.38
448.234	627.38
448.455	663.38
448.675	783.38
448.896	879.38
449.117	764.38
449.338	715.38
449.559	819.38
449.779	919.38
450	740.38
450.221	640.38
450.442	611.38
450.662	573.38
450.883	563.38
451.104	588.38
451.324	578.38
451.545	557.38
451.766	541.38
451.986	519.38
452.207	496.38
452.428	537.38
452.648	514.38
452.869	492.38
453.089	523.38
453.31	556.38
453.53	517.38
453.751	500.38
453.971	505.38
454.192	550.38
454.412	550.38
454.633	517.38
454.853	509.38
455.073	517.38
455.294	550.38
455.514	608.38
455.734	581.38
455.955	507.38
456.175	479.38
456.395	496.38
456.616	476.38
456.836	481.38
457.056	481.38
457.276	488.38
457.497	486.38
457.717	480.38
457.937	465.38
458.157	509.38
458.377	489.38
458.598	519.38
458.818	575.38
459.038	717.38
459.258	693.38
459.478	592.38
459.698	530.38
459.918	515.38
460.138	501.38
460.358	513.38
460.578	534.38
460.798	529.38
461.018	531.38
461.238	519.38
461.458	513.38
461.678	517.38
461.898	521.38
462.118	505.38
462.338	518.38
462.558	516.38
462.777	512.38
462.997	546.38
463.217	556.38
463.437	571.38
463.657	559.38
463.876	530.38
464.096	543.38
464.316	555.38
464.536	553.38
464.755	565.38
464.975	585.38
465.195	633.38
465.414	736.38
465.634	646.38
465.854	570.38
466.073	582.38
466.293	549.38
466.512	525.38
466.732	517.38
466.951	506.38
467.171	517.38
467.391	516.38
467.61	535.38
467.829	562.38
468.049	535.38
468.268	528.38
468.488	539.38
468.707	523.38
468.927	512.38
469.146	519.38
469.365	511.38
469.585	504.38
469.804	526.38
470.023	525.38
470.243	528.38
470.462	528.38
470.681	555.38
470.901	548.38
471.12	544.38
471.339	523.38
471.558	553.38
471.777	529.38
471.997	520.38
472.216	528.38
472.435	567.38
472.654	553.38
472.873	527.38
473.092	524.38
473.311	513.38
473.53	532.38
473.749	545.38
473.968	611.38
474.187	697.38
474.406	729.38
474.625	589.38
474.844	568.38
475.063	533.38
475.282	548.38
475.501	542.38
475.72	525.38
475.939	543.38
476.158	553.38
476.377	551.38
476.596	553.38
476.814	556.38
477.033	565.38
477.252	568.38
477.471	551.38
477.69	553.38
477.908	566.38
478.127	578.38
478.346	574.38
478.564	579.38
478.783	600.38
479.002	614.38
479.22	585.38
479.439	620.38
479.658	629.38
479.876	618.38
480.095	643.38
480.313	693.38
480.532	659.38
480.751	639.38
480.969	661.38
481.188	728.38
481.406	797.38
481.624	695.38
481.843	672.38
482.061	662.38
482.28	642.38
482.498	638.38
482.717	630.38
482.935	619.38
483.153	617.38
483.372	640.38
483.59	636.38
483.808	627.38
484.027	630.38
484.245	649.38
484.463	616.38
484.681	627.38
484.9	641.38
485.118	657.38
485.336	659.38
485.554	676.38
485.772	649.38
485.99	644.38
486.209	666.38
486.427	673.38
486.645	694.38
486.863	707.38
487.081	696.38
487.299	672.38
487.517	692.38
487.735	686.38
487.953	683.38
488.171	681.38
488.389	687.38
488.607	717.38
488.825	703.38
489.043	700.38
489.261	687.38
489.479	729.38
489.696	718.38
489.914	701.38
490.132	708.38
490.35	745.38
490.568	730.38
490.786	765.38
491.003	748.38
491.221	760.38
491.439	780.38
491.657	809.38
491.874	817.38
492.092	795.38
492.31	821.38
492.527	804.38
492.745	821.38
492.963	792.38
493.18	828.38
493.398	834.38
493.615	830.38
493.833	849.38
494.05	860.38
494.268	819.38
494.485	827.38
494.703	815.38
494.92	829.38
495.138	852.38
495.355	819.38
495.573	815.38
495.79	839.38
496.008	848.38
496.225	827.38
496.442	816.38
496.66	800.38
496.877	815.38
497.094	844.38
497.312	858.38
497.529	837.38
497.746	855.38
497.963	835.38
498.181	876.38
498.398	904.38
498.615	889.38
498.832	904.38
499.049	872.38
499.267	897.38
499.484	881.38
499.701	934.38
499.918	966.38
500.135	971.38
500.352	1004.38
500.569	1021.38
500.786	1031.38
501.003	1014.38
501.22	1015.38
501.437	965.38
501.654	971.38
501.871	997.38
