Data from 1970.PennyLincolnUp.Lamp.En5.5.200Scan.071719.P1._HRD10591_15-13-08-844.txt Node
Date: Thu Jul 18 15:13:08 EDT 2019
User: cochatt
Spectrometer: HR+D1059
Trigger mode: 1
Integration Time (sec): 1.000000E-1
Scans to average: 1
Electric dark correction enabled: true
Nonlinearity correction enabled: false
Boxcar width: 0
XAxis mode: Wavelengths
Number of Pixels in Spectrum: 2048
>>>>>Begin Spectral Data<<<<<
223.165	-27.94
223.4	-27.94
223.635	-27.94
223.869	-20.94
224.104	-17.94
224.338	-15.94
224.573	-22.94
224.808	-11.94
225.042	-16.94
225.277	2.06
225.511	8.06
225.746	6.06
225.98	6.06
226.215	29.06
226.449	29.06
226.683	3.06
226.918	27.06
227.152	24.06
227.387	47.06
227.621	31.06
227.856	43.06
228.09	28.06
228.324	48.06
228.559	56.06
228.793	72.06
229.027	80.06
229.262	102.06
229.496	115.06
229.73	115.06
229.964	130.06
230.199	124.06
230.433	102.06
230.667	108.06
230.901	114.06
231.136	117.06
231.37	98.06
231.604	101.06
231.838	119.06
232.072	107.06
232.306	96.06
232.541	103.06
232.775	107.06
233.009	106.06
233.243	102.06
233.477	92.06
233.711	115.06
233.945	110.06
234.179	106.06
234.413	113.06
234.647	110.06
234.881	112.06
235.115	98.06
235.349	112.06
235.583	117.06
235.817	104.06
236.051	109.06
236.285	123.06
236.519	112.06
236.753	127.06
236.987	140.06
237.221	162.06
237.455	194.06
237.689	161.06
237.922	136.06
238.156	136.06
238.39	129.06
238.624	111.06
238.858	125.06
239.091	106.06
239.325	116.06
239.559	107.06
239.793	124.06
240.027	116.06
240.26	132.06
240.494	156.06
240.728	136.06
240.961	133.06
241.195	140.06
241.429	127.06
241.662	118.06
241.896	125.06
242.13	124.06
242.363	131.06
242.597	121.06
242.83	124.06
243.064	119.06
243.298	112.06
243.531	118.06
243.765	123.06
243.998	137.06
244.232	144.06
244.465	158.06
244.699	124.06
244.932	138.06
245.166	153.06
245.399	128.06
245.633	138.06
245.866	144.06
246.099	113.06
246.333	134.06
246.566	140.06
246.8	142.06
247.033	155.06
247.266	147.06
247.5	154.06
247.733	158.06
247.966	171.06
248.2	167.06
248.433	153.06
248.666	154.06
248.899	143.06
249.133	167.06
249.366	193.06
249.599	187.06
249.832	155.06
250.066	170.06
250.299	171.06
250.532	166.06
250.765	182.06
250.998	208.06
251.231	212.06
251.465	197.06
251.698	190.06
251.931	188.06
252.164	202.06
252.397	198.06
252.63	202.06
252.863	195.06
253.096	201.06
253.329	208.06
253.562	205.06
253.795	194.06
254.028	199.06
254.261	200.06
254.494	192.06
254.727	230.06
254.96	254.06
255.193	233.06
255.426	214.06
255.659	234.06
255.892	208.06
256.124	201.06
256.357	206.06
256.59	206.06
256.823	207.06
257.056	194.06
257.289	189.06
257.521	200.06
257.754	198.06
257.987	184.06
258.22	188.06
258.452	195.06
258.685	174.06
258.918	191.06
259.151	184.06
259.383	199.06
259.616	193.06
259.849	195.06
260.081	203.06
260.314	236.06
260.547	206.06
260.779	197.06
261.012	203.06
261.244	184.06
261.477	206.06
261.71	188.06
261.942	203.06
262.175	204.06
262.407	195.06
262.64	181.06
262.872	167.06
263.105	198.06
263.337	171.06
263.57	200.06
263.802	175.06
264.035	184.06
264.267	187.06
264.499	186.06
264.732	192.06
264.964	201.06
265.197	186.06
265.429	182.06
265.661	182.06
265.894	175.06
266.126	184.06
266.358	182.06
266.591	187.06
266.823	188.06
267.055	196.06
267.287	204.06
267.52	186.06
267.752	201.06
267.984	200.06
268.216	188.06
268.448	195.06
268.681	181.06
268.913	202.06
269.145	222.06
269.377	230.06
269.609	210.06
269.841	226.06
270.073	199.06
270.306	230.06
270.538	240.06
270.77	265.06
271.002	229.06
271.234	245.06
271.466	244.06
271.698	259.06
271.93	253.06
272.162	239.06
272.394	274.06
272.626	256.06
272.858	232.06
273.09	228.06
273.322	227.06
273.553	216.06
273.785	201.06
274.017	202.06
274.249	215.06
274.481	226.06
274.713	211.06
274.945	218.06
275.176	207.06
275.408	209.06
275.64	223.06
275.872	215.06
276.104	209.06
276.335	219.06
276.567	204.06
276.799	218.06
277.031	230.06
277.262	272.06
277.494	257.06
277.726	243.06
277.957	229.06
278.189	226.06
278.421	203.06
278.652	231.06
278.884	206.06
279.115	208.06
279.347	225.06
279.579	214.06
279.81	213.06
280.042	211.06
280.273	240.06
280.505	203.06
280.736	210.06
280.968	216.06
281.199	215.06
281.431	202.06
281.662	207.06
281.894	212.06
282.125	210.06
282.356	242.06
282.588	229.06
282.819	237.06
283.051	228.06
283.282	194.06
283.513	221.06
283.745	228.06
283.976	225.06
284.207	211.06
284.439	200.06
284.67	220.06
284.901	229.06
285.132	227.06
285.364	214.06
285.595	240.06
285.826	225.06
286.057	195.06
286.288	231.06
286.52	209.06
286.751	207.06
286.982	233.06
287.213	226.06
287.444	233.06
287.675	222.06
287.906	225.06
288.138	227.06
288.369	233.06
288.6	236.06
288.831	243.06
289.062	242.06
289.293	233.06
289.524	220.06
289.755	215.06
289.986	251.06
290.217	224.06
290.448	224.06
290.679	231.06
290.91	228.06
291.141	225.06
291.371	225.06
291.602	222.06
291.833	220.06
292.064	229.06
292.295	225.06
292.526	214.06
292.757	233.06
292.987	210.06
293.218	230.06
293.449	231.06
293.68	242.06
293.91	240.06
294.141	224.06
294.372	223.06
294.603	215.06
294.833	231.06
295.064	213.06
295.295	228.06
295.525	225.06
295.756	239.06
295.987	224.06
296.217	250.06
296.448	244.06
296.679	241.06
296.909	236.06
297.14	236.06
297.37	239.06
297.601	250.06
297.831	247.06
298.062	235.06
298.292	239.06
298.523	220.06
298.753	250.06
298.984	243.06
299.214	247.06
299.445	239.06
299.675	240.06
299.905	245.06
300.136	246.06
300.366	239.06
300.597	251.06
300.827	246.06
301.057	257.06
301.288	253.06
301.518	239.06
301.748	236.06
301.979	245.06
302.209	260.06
302.439	248.06
302.669	251.06
302.9	240.06
303.13	246.06
303.36	238.06
303.59	272.06
303.82	262.06
304.051	264.06
304.281	244.06
304.511	259.06
304.741	242.06
304.971	230.06
305.201	249.06
305.431	251.06
305.661	264.06
305.891	249.06
306.121	250.06
306.352	251.06
306.582	259.06
306.812	266.06
307.042	258.06
307.272	252.06
307.502	244.06
307.731	262.06
307.961	265.06
308.191	268.06
308.421	245.06
308.651	256.06
308.881	260.06
309.111	270.06
309.341	270.06
309.571	265.06
309.8	268.06
310.03	280.06
310.26	277.06
310.49	291.06
310.72	283.06
310.949	291.06
311.179	289.06
311.409	279.06
311.639	284.06
311.868	283.06
312.098	286.06
312.328	308.06
312.557	306.06
312.787	323.06
313.017	318.06
313.246	295.06
313.476	280.06
313.706	285.06
313.935	309.06
314.165	309.06
314.394	306.06
314.624	310.06
314.853	291.06
315.083	293.06
315.312	284.06
315.542	270.06
315.771	290.06
316.001	291.06
316.23	276.06
316.46	286.06
316.689	276.06
316.919	296.06
317.148	273.06
317.377	299.06
317.607	279.06
317.836	287.06
318.065	302.06
318.295	289.06
318.524	279.06
318.753	278.06
318.983	287.06
319.212	279.06
319.441	306.06
319.67	302.06
319.9	310.06
320.129	297.06
320.358	287.06
320.587	299.06
320.816	301.06
321.046	312.06
321.275	312.06
321.504	322.06
321.733	302.06
321.962	297.06
322.191	319.06
322.42	330.06
322.649	343.06
322.878	353.06
323.108	352.06
323.337	373.06
323.566	392.06
323.795	418.06
324.024	422.06
324.253	507.06
324.482	698.06
324.71	1065.06
324.939	1529.06
325.168	1302.06
325.397	715.06
325.626	471.06
325.855	410.06
326.084	376.06
326.313	382.06
326.542	378.06
326.77	411.06
326.999	470.06
327.228	626.06
327.457	935.06
327.686	1127.06
327.914	794.06
328.143	511.06
328.372	454.06
328.6	440.06
328.829	435.06
329.058	416.06
329.287	444.06
329.515	424.06
329.744	390.06
329.972	386.06
330.201	380.06
330.43	425.06
330.658	429.06
330.887	446.06
331.115	444.06
331.344	403.06
331.572	377.06
331.801	361.06
332.03	356.06
332.258	367.06
332.486	335.06
332.715	334.06
332.943	338.06
333.172	350.06
333.4	348.06
333.629	357.06
333.857	353.06
334.085	371.06
334.314	374.06
334.542	386.06
334.771	398.06
334.999	381.06
335.227	375.06
335.455	347.06
335.684	352.06
335.912	369.06
336.14	330.06
336.369	322.06
336.597	351.06
336.825	365.06
337.053	344.06
337.281	341.06
337.51	329.06
337.738	333.06
337.966	325.06
338.194	341.06
338.422	341.06
338.65	334.06
338.878	332.06
339.106	333.06
339.334	341.06
339.562	332.06
339.79	328.06
340.018	342.06
340.246	342.06
340.474	331.06
340.702	330.06
340.93	341.06
341.158	337.06
341.386	346.06
341.614	346.06
341.842	323.06
342.07	338.06
342.298	332.06
342.526	330.06
342.754	323.06
342.981	328.06
343.209	339.06
343.437	337.06
343.665	336.06
343.893	343.06
344.12	330.06
344.348	337.06
344.576	345.06
344.804	348.06
345.031	346.06
345.259	354.06
345.487	371.06
345.714	332.06
345.942	348.06
346.17	344.06
346.397	337.06
346.625	327.06
346.853	329.06
347.08	343.06
347.308	339.06
347.535	334.06
347.763	348.06
347.99	334.06
348.218	345.06
348.445	368.06
348.673	346.06
348.9	358.06
349.128	318.06
349.355	303.06
349.583	327.06
349.81	334.06
350.037	322.06
350.265	317.06
350.492	326.06
350.72	318.06
350.947	317.06
351.174	337.06
351.402	326.06
351.629	320.06
351.856	341.06
352.083	351.06
352.311	348.06
352.538	343.06
352.765	342.06
352.992	325.06
353.22	317.06
353.447	349.06
353.674	330.06
353.901	313.06
354.128	338.06
354.355	331.06
354.583	318.06
354.81	319.06
355.037	321.06
355.264	328.06
355.491	325.06
355.718	320.06
355.945	321.06
356.172	307.06
356.399	314.06
356.626	336.06
356.853	316.06
357.08	319.06
357.307	325.06
357.534	331.06
357.761	318.06
357.988	306.06
358.215	318.06
358.441	316.06
358.668	348.06
358.895	306.06
359.122	304.06
359.349	336.06
359.576	344.06
359.802	344.06
360.029	373.06
360.256	374.06
360.483	367.06
360.709	354.06
360.936	335.06
361.163	352.06
361.39	331.06
361.616	343.06
361.843	342.06
362.07	352.06
362.296	340.06
362.523	360.06
362.749	339.06
362.976	340.06
363.203	335.06
363.429	340.06
363.656	358.06
363.882	337.06
364.109	319.06
364.335	321.06
364.562	318.06
364.788	339.06
365.015	327.06
365.241	326.06
365.468	333.06
365.694	340.06
365.92	341.06
366.147	325.06
366.373	334.06
366.599	325.06
366.826	335.06
367.052	329.06
367.278	335.06
367.505	328.06
367.731	325.06
367.957	333.06
368.184	344.06
368.41	338.06
368.636	343.06
368.862	343.06
369.089	341.06
369.315	358.06
369.541	318.06
369.767	351.06
369.993	361.06
370.219	320.06
370.445	334.06
370.672	340.06
370.898	336.06
371.124	340.06
371.35	334.06
371.576	340.06
371.802	330.06
372.028	327.06
372.254	365.06
372.48	342.06
372.706	326.06
372.932	337.06
373.158	335.06
373.384	334.06
373.61	346.06
373.835	328.06
374.061	342.06
374.287	331.06
374.513	331.06
374.739	348.06
374.965	348.06
375.191	336.06
375.416	366.06
375.642	350.06
375.868	357.06
376.094	339.06
376.319	348.06
376.545	329.06
376.771	354.06
376.997	352.06
377.222	344.06
377.448	344.06
377.674	324.06
377.899	327.06
378.125	339.06
378.35	335.06
378.576	334.06
378.802	331.06
379.027	336.06
379.253	337.06
379.478	366.06
379.704	333.06
379.929	343.06
380.155	343.06
380.38	333.06
380.606	340.06
380.831	335.06
381.057	344.06
381.282	340.06
381.507	338.06
381.733	348.06
381.958	330.06
382.184	354.06
382.409	351.06
382.634	359.06
382.86	364.06
383.085	367.06
383.31	349.06
383.535	358.06
383.761	371.06
383.986	362.06
384.211	362.06
384.436	380.06
384.662	361.06
384.887	354.06
385.112	361.06
385.337	378.06
385.562	374.06
385.787	381.06
386.013	375.06
386.238	391.06
386.463	391.06
386.688	396.06
386.913	384.06
387.138	375.06
387.363	358.06
387.588	363.06
387.813	373.06
388.038	374.06
388.263	378.06
388.488	366.06
388.713	385.06
388.938	349.06
389.163	378.06
389.387	363.06
389.612	377.06
389.837	372.06
390.062	373.06
390.287	389.06
390.512	360.06
390.736	374.06
390.961	371.06
391.186	379.06
391.411	392.06
391.636	386.06
391.86	387.06
392.085	363.06
392.31	380.06
392.534	381.06
392.759	365.06
392.984	404.06
393.208	370.06
393.433	379.06
393.658	410.06
393.882	398.06
394.107	370.06
394.331	376.06
394.556	354.06
394.78	372.06
395.005	380.06
395.229	375.06
395.454	377.06
395.678	392.06
395.903	389.06
396.127	423.06
396.352	413.06
396.576	408.06
396.801	406.06
397.025	399.06
397.249	390.06
397.474	409.06
397.698	406.06
397.922	420.06
398.147	413.06
398.371	428.06
398.595	420.06
398.82	418.06
399.044	407.06
399.268	445.06
399.492	440.06
399.717	455.06
399.941	470.06
400.165	518.06
400.389	495.06
400.613	464.06
400.837	469.06
401.062	434.06
401.286	437.06
401.51	436.06
401.734	417.06
401.958	425.06
402.182	406.06
402.406	400.06
402.63	448.06
402.854	415.06
403.078	422.06
403.302	423.06
403.526	444.06
403.75	434.06
403.974	440.06
404.198	449.06
404.422	430.06
404.645	471.06
404.869	460.06
405.093	458.06
405.317	503.06
405.541	530.06
405.765	489.06
405.988	472.06
406.212	461.06
406.436	484.06
406.66	490.06
406.883	471.06
407.107	503.06
407.331	546.06
407.555	566.06
407.778	563.06
408.002	535.06
408.226	525.06
408.449	490.06
408.673	481.06
408.896	507.06
409.12	527.06
409.344	516.06
409.567	496.06
409.791	455.06
410.014	446.06
410.238	423.06
410.461	461.06
410.685	446.06
410.908	461.06
411.132	490.06
411.355	522.06
411.578	487.06
411.802	472.06
412.025	425.06
412.249	440.06
412.472	456.06
412.695	481.06
412.919	464.06
413.142	454.06
413.365	438.06
413.589	437.06
413.812	426.06
414.035	427.06
414.258	428.06
414.482	420.06
414.705	422.06
414.928	427.06
415.151	425.06
415.374	430.06
415.597	413.06
415.821	422.06
416.044	416.06
416.267	434.06
416.49	444.06
416.713	428.06
416.936	434.06
417.159	431.06
417.382	427.06
417.605	420.06
417.828	446.06
418.051	450.06
418.274	454.06
418.497	448.06
418.72	438.06
418.943	408.06
419.166	453.06
419.389	470.06
419.611	448.06
419.834	441.06
420.057	447.06
420.28	431.06
420.503	443.06
420.726	423.06
420.948	455.06
421.171	477.06
421.394	532.06
421.617	478.06
421.839	458.06
422.062	450.06
422.285	462.06
422.507	507.06
422.73	581.06
422.953	558.06
423.175	491.06
423.398	481.06
423.621	479.06
423.843	481.06
424.066	477.06
424.288	474.06
424.511	512.06
424.733	546.06
424.956	596.06
425.178	578.06
425.401	553.06
425.623	584.06
425.846	538.06
426.068	502.06
426.291	489.06
426.513	489.06
426.735	508.06
426.958	534.06
427.18	594.06
427.402	687.06
427.625	784.06
427.847	653.06
428.069	599.06
428.292	536.06
428.514	472.06
428.736	478.06
428.958	467.06
429.181	456.06
429.403	462.06
429.625	463.06
429.847	505.06
430.069	568.06
430.292	555.06
430.514	482.06
430.736	440.06
430.958	454.06
431.18	429.06
431.402	434.06
431.624	430.06
431.846	427.06
432.068	429.06
432.29	414.06
432.512	431.06
432.734	449.06
432.956	442.06
433.178	455.06
433.4	444.06
433.622	436.06
433.844	445.06
434.066	437.06
434.287	412.06
434.509	431.06
434.731	455.06
434.953	455.06
435.175	459.06
435.397	471.06
435.618	513.06
435.84	522.06
436.062	590.06
436.284	644.06
436.505	560.06
436.727	506.06
436.949	472.06
437.17	460.06
437.392	455.06
437.614	469.06
437.835	480.06
438.057	581.06
438.278	660.06
438.5	643.06
438.721	730.06
438.943	689.06
439.165	567.06
439.386	502.06
439.608	494.06
439.829	482.06
440.05	532.06
440.272	552.06
440.493	506.06
440.715	466.06
440.936	489.06
441.158	444.06
441.379	456.06
441.6	462.06
441.822	471.06
442.043	516.06
442.264	566.06
442.486	620.06
442.707	528.06
442.928	506.06
443.149	498.06
443.371	525.06
443.592	543.06
443.813	628.06
444.034	688.06
444.255	569.06
444.476	528.06
444.698	480.06
444.919	499.06
445.14	622.06
445.361	557.06
445.582	537.06
445.803	564.06
446.024	631.06
446.245	656.06
446.466	594.06
446.687	523.06
446.908	488.06
447.129	452.06
447.35	474.06
447.571	471.06
447.792	454.06
448.013	484.06
448.234	495.06
448.455	507.06
448.675	607.06
448.896	711.06
449.117	586.06
449.338	566.06
449.559	635.06
449.779	728.06
450	597.06
450.221	515.06
450.442	479.06
450.662	458.06
450.883	479.06
451.104	474.06
451.324	466.06
451.545	452.06
451.766	414.06
451.986	426.06
452.207	407.06
452.428	402.06
452.648	397.06
452.869	407.06
453.089	408.06
453.31	425.06
453.53	408.06
453.751	410.06
453.971	390.06
454.192	436.06
454.412	408.06
454.633	398.06
454.853	401.06
455.073	404.06
455.294	435.06
455.514	488.06
455.734	478.06
455.955	401.06
456.175	408.06
456.395	380.06
456.616	382.06
456.836	377.06
457.056	389.06
457.276	399.06
457.497	371.06
457.717	380.06
457.937	388.06
458.157	382.06
458.377	401.06
458.598	400.06
458.818	432.06
459.038	535.06
459.258	540.06
459.478	465.06
459.698	414.06
459.918	413.06
460.138	419.06
460.358	416.06
460.578	422.06
460.798	418.06
461.018	432.06
461.238	422.06
461.458	441.06
461.678	422.06
461.898	410.06
462.118	415.06
462.338	446.06
462.558	426.06
462.777	451.06
462.997	466.06
463.217	464.06
463.437	476.06
463.657	452.06
463.876	450.06
464.096	459.06
464.316	454.06
464.536	456.06
464.755	447.06
464.975	455.06
465.195	477.06
465.414	533.06
465.634	491.06
465.854	446.06
466.073	431.06
466.293	430.06
466.512	434.06
466.732	403.06
466.951	408.06
467.171	424.06
467.391	428.06
467.61	428.06
467.829	423.06
468.049	445.06
468.268	413.06
468.488	417.06
468.707	404.06
468.927	412.06
469.146	425.06
469.365	416.06
469.585	427.06
469.804	420.06
470.023	432.06
470.243	435.06
470.462	442.06
470.681	441.06
470.901	458.06
471.12	432.06
471.339	440.06
471.558	442.06
471.777	428.06
471.997	415.06
472.216	444.06
472.435	467.06
472.654	418.06
472.873	403.06
473.092	420.06
473.311	427.06
473.53	439.06
473.749	432.06
473.968	464.06
474.187	541.06
474.406	551.06
474.625	469.06
474.844	462.06
475.063	437.06
475.282	447.06
475.501	437.06
475.72	439.06
475.939	443.06
476.158	431.06
476.377	454.06
476.596	442.06
476.814	440.06
477.033	471.06
477.252	458.06
477.471	457.06
477.69	458.06
477.908	468.06
478.127	454.06
478.346	467.06
478.564	460.06
478.783	475.06
479.002	491.06
479.22	479.06
479.439	497.06
479.658	517.06
479.876	502.06
480.095	503.06
480.313	524.06
480.532	520.06
480.751	508.06
480.969	509.06
481.188	557.06
481.406	600.06
481.624	539.06
481.843	495.06
482.061	554.06
482.28	516.06
482.498	487.06
482.717	502.06
482.935	518.06
483.153	504.06
483.372	523.06
483.59	520.06
483.808	501.06
484.027	517.06
484.245	511.06
484.463	516.06
484.681	518.06
484.9	519.06
485.118	516.06
485.336	528.06
485.554	498.06
485.772	528.06
485.99	504.06
486.209	534.06
486.427	521.06
486.645	541.06
486.863	549.06
487.081	545.06
487.299	572.06
487.517	546.06
487.735	549.06
487.953	553.06
488.171	561.06
488.389	535.06
488.607	578.06
488.825	549.06
489.043	552.06
489.261	571.06
489.479	555.06
489.696	568.06
489.914	564.06
490.132	571.06
490.35	592.06
490.568	596.06
490.786	596.06
491.003	616.06
491.221	623.06
491.439	615.06
491.657	608.06
491.874	626.06
492.092	654.06
492.31	634.06
492.527	631.06
492.745	636.06
492.963	667.06
493.18	640.06
493.398	672.06
493.615	659.06
493.833	655.06
494.05	664.06
494.268	681.06
494.485	626.06
494.703	680.06
494.92	646.06
495.138	646.06
495.355	657.06
495.573	647.06
495.79	643.06
496.008	655.06
496.225	636.06
496.442	652.06
496.66	668.06
496.877	679.06
497.094	660.06
497.312	678.06
497.529	692.06
497.746	666.06
497.963	690.06
498.181	692.06
498.398	698.06
498.615	702.06
498.832	742.06
499.049	730.06
499.267	737.06
499.484	743.06
499.701	751.06
499.918	810.06
500.135	822.06
500.352	845.06
500.569	839.06
500.786	879.06
501.003	846.06
501.22	822.06
501.437	812.06
501.654	797.06
501.871	798.06
502.088	780.06
