Data from 1970.PennyLincolnUp.Lamp.En5.5.200Scan.071719.P1._HRD10591_15-13-17-844.txt Node
Date: Thu Jul 18 15:13:17 EDT 2019
User: cochatt
Spectrometer: HR+D1059
Trigger mode: 1
Integration Time (sec): 1.000000E-1
Scans to average: 1
Electric dark correction enabled: true
Nonlinearity correction enabled: false
Boxcar width: 0
XAxis mode: Wavelengths
Number of Pixels in Spectrum: 2048
>>>>>Begin Spectral Data<<<<<
223.165	-13.56
223.4	-13.56
223.635	-13.56
223.869	-8.56
224.104	-23.56
224.338	-10.56
224.573	-19.56
224.808	-22.56
225.042	-4.56
225.277	-7.56
225.511	7.44
225.746	3.44
225.98	14.44
226.215	12.44
226.449	26.44
226.683	6.44
226.918	14.44
227.152	25.44
227.387	24.44
227.621	32.44
227.856	40.44
228.09	38.44
228.324	52.44
228.559	58.44
228.793	69.44
229.027	86.44
229.262	97.44
229.496	101.44
229.73	117.44
229.964	136.44
230.199	125.44
230.433	100.44
230.667	101.44
230.901	99.44
231.136	108.44
231.37	112.44
231.604	106.44
231.838	101.44
232.072	96.44
232.306	118.44
232.541	115.44
232.775	99.44
233.009	118.44
233.243	110.44
233.477	116.44
233.711	121.44
233.945	104.44
234.179	105.44
234.413	123.44
234.647	98.44
234.881	100.44
235.115	109.44
235.349	100.44
235.583	115.44
235.817	118.44
236.051	107.44
236.285	110.44
236.519	118.44
236.753	118.44
236.987	130.44
237.221	184.44
237.455	192.44
237.689	163.44
237.922	130.44
238.156	140.44
238.39	128.44
238.624	133.44
238.858	104.44
239.091	110.44
239.325	97.44
239.559	115.44
239.793	120.44
240.027	121.44
240.26	125.44
240.494	136.44
240.728	138.44
240.961	146.44
241.195	135.44
241.429	129.44
241.662	124.44
241.896	119.44
242.13	130.44
242.363	137.44
242.597	134.44
242.83	137.44
243.064	132.44
243.298	131.44
243.531	123.44
243.765	130.44
243.998	130.44
244.232	116.44
244.465	136.44
244.699	142.44
244.932	143.44
245.166	130.44
245.399	135.44
245.633	132.44
245.866	148.44
246.099	141.44
246.333	125.44
246.566	140.44
246.8	138.44
247.033	155.44
247.266	154.44
247.5	153.44
247.733	167.44
247.966	174.44
248.2	169.44
248.433	171.44
248.666	170.44
248.899	163.44
249.133	177.44
249.366	184.44
249.599	188.44
249.832	182.44
250.066	176.44
250.299	168.44
250.532	192.44
250.765	177.44
250.998	205.44
251.231	211.44
251.465	204.44
251.698	196.44
251.931	202.44
252.164	181.44
252.397	193.44
252.63	192.44
252.863	203.44
253.096	196.44
253.329	209.44
253.562	208.44
253.795	203.44
254.028	201.44
254.261	205.44
254.494	216.44
254.727	237.44
254.96	249.44
255.193	246.44
255.426	217.44
255.659	213.44
255.892	221.44
256.124	216.44
256.357	212.44
256.59	217.44
256.823	191.44
257.056	210.44
257.289	209.44
257.521	178.44
257.754	201.44
257.987	204.44
258.22	183.44
258.452	193.44
258.685	192.44
258.918	184.44
259.151	183.44
259.383	200.44
259.616	210.44
259.849	200.44
260.081	186.44
260.314	205.44
260.547	228.44
260.779	218.44
261.012	219.44
261.244	204.44
261.477	188.44
261.71	186.44
261.942	197.44
262.175	215.44
262.407	213.44
262.64	189.44
262.872	188.44
263.105	185.44
263.337	199.44
263.57	196.44
263.802	177.44
264.035	194.44
264.267	197.44
264.499	190.44
264.732	195.44
264.964	178.44
265.197	185.44
265.429	181.44
265.661	193.44
265.894	190.44
266.126	194.44
266.358	189.44
266.591	200.44
266.823	178.44
267.055	198.44
267.287	209.44
267.52	193.44
267.752	184.44
267.984	196.44
268.216	186.44
268.448	201.44
268.681	203.44
268.913	207.44
269.145	216.44
269.377	217.44
269.609	233.44
269.841	228.44
270.073	221.44
270.306	225.44
270.538	269.44
270.77	287.44
271.002	246.44
271.234	254.44
271.466	253.44
271.698	261.44
271.93	282.44
272.162	277.44
272.394	277.44
272.626	253.44
272.858	240.44
273.09	248.44
273.322	219.44
273.553	212.44
273.785	213.44
274.017	227.44
274.249	225.44
274.481	219.44
274.713	224.44
274.945	219.44
275.176	224.44
275.408	221.44
275.64	216.44
275.872	225.44
276.104	218.44
276.335	206.44
276.567	217.44
276.799	242.44
277.031	258.44
277.262	268.44
277.494	261.44
277.726	260.44
277.957	234.44
278.189	233.44
278.421	232.44
278.652	218.44
278.884	215.44
279.115	215.44
279.347	204.44
279.579	226.44
279.81	225.44
280.042	232.44
280.273	219.44
280.505	220.44
280.736	198.44
280.968	218.44
281.199	227.44
281.431	223.44
281.662	228.44
281.894	218.44
282.125	203.44
282.356	237.44
282.588	243.44
282.819	262.44
283.051	218.44
283.282	220.44
283.513	220.44
283.745	244.44
283.976	234.44
284.207	240.44
284.439	226.44
284.67	230.44
284.901	241.44
285.132	222.44
285.364	222.44
285.595	218.44
285.826	230.44
286.057	227.44
286.288	225.44
286.52	236.44
286.751	234.44
286.982	234.44
287.213	219.44
287.444	227.44
287.675	242.44
287.906	233.44
288.138	244.44
288.369	237.44
288.6	260.44
288.831	237.44
289.062	253.44
289.293	246.44
289.524	238.44
289.755	227.44
289.986	230.44
290.217	230.44
290.448	224.44
290.679	232.44
290.91	249.44
291.141	230.44
291.371	230.44
291.602	252.44
291.833	246.44
292.064	238.44
292.295	230.44
292.526	236.44
292.757	239.44
292.987	230.44
293.218	225.44
293.449	237.44
293.68	244.44
293.91	254.44
294.141	236.44
294.372	260.44
294.603	240.44
294.833	226.44
295.064	237.44
295.295	240.44
295.525	228.44
295.756	237.44
295.987	243.44
296.217	265.44
296.448	268.44
296.679	260.44
296.909	232.44
297.14	251.44
297.37	242.44
297.601	234.44
297.831	232.44
298.062	258.44
298.292	237.44
298.523	241.44
298.753	238.44
298.984	240.44
299.214	250.44
299.445	241.44
299.675	260.44
299.905	245.44
300.136	252.44
300.366	243.44
300.597	246.44
300.827	268.44
301.057	255.44
301.288	266.44
301.518	253.44
301.748	252.44
301.979	257.44
302.209	242.44
302.439	277.44
302.669	262.44
302.9	264.44
303.13	250.44
303.36	248.44
303.59	256.44
303.82	269.44
304.051	242.44
304.281	273.44
304.511	279.44
304.741	247.44
304.971	243.44
305.201	241.44
305.431	262.44
305.661	274.44
305.891	260.44
306.121	251.44
306.352	266.44
306.582	273.44
306.812	263.44
307.042	274.44
307.272	269.44
307.502	273.44
307.731	271.44
307.961	267.44
308.191	279.44
308.421	247.44
308.651	275.44
308.881	282.44
309.111	282.44
309.341	274.44
309.571	270.44
309.8	294.44
310.03	297.44
310.26	290.44
310.49	313.44
310.72	316.44
310.949	316.44
311.179	358.44
311.409	297.44
311.639	301.44
311.868	297.44
312.098	308.44
312.328	301.44
312.557	306.44
312.787	316.44
313.017	333.44
313.246	317.44
313.476	292.44
313.706	310.44
313.935	294.44
314.165	315.44
314.394	323.44
314.624	312.44
314.853	306.44
315.083	322.44
315.312	308.44
315.542	291.44
315.771	290.44
316.001	297.44
316.23	320.44
316.46	300.44
316.689	305.44
316.919	309.44
317.148	314.44
317.377	320.44
317.607	300.44
317.836	318.44
318.065	310.44
318.295	300.44
318.524	297.44
318.753	300.44
318.983	300.44
319.212	310.44
319.441	328.44
319.67	312.44
319.9	319.44
320.129	298.44
320.358	326.44
320.587	329.44
320.816	297.44
321.046	315.44
321.275	312.44
321.504	308.44
321.733	316.44
321.962	332.44
322.191	340.44
322.42	340.44
322.649	364.44
322.878	357.44
323.108	350.44
323.337	393.44
323.566	402.44
323.795	400.44
324.024	473.44
324.253	519.44
324.482	731.44
324.71	1133.44
324.939	1633.44
325.168	1433.44
325.397	761.44
325.626	525.44
325.855	459.44
326.084	424.44
326.313	411.44
326.542	397.44
326.77	441.44
326.999	522.44
327.228	701.44
327.457	1033.44
327.686	1229.44
327.914	857.44
328.143	593.44
328.372	507.44
328.6	470.44
328.829	470.44
329.058	462.44
329.287	473.44
329.515	437.44
329.744	413.44
329.972	418.44
330.201	410.44
330.43	447.44
330.658	479.44
330.887	503.44
331.115	480.44
331.344	427.44
331.572	404.44
331.801	390.44
332.03	399.44
332.258	394.44
332.486	378.44
332.715	372.44
332.943	372.44
333.172	371.44
333.4	361.44
333.629	356.44
333.857	386.44
334.085	388.44
334.314	396.44
334.542	403.44
334.771	421.44
334.999	394.44
335.227	392.44
335.455	378.44
335.684	349.44
335.912	372.44
336.14	354.44
336.369	344.44
336.597	346.44
336.825	358.44
337.053	349.44
337.281	340.44
337.51	370.44
337.738	376.44
337.966	345.44
338.194	370.44
338.422	344.44
338.65	353.44
338.878	377.44
339.106	349.44
339.334	343.44
339.562	336.44
339.79	349.44
340.018	349.44
340.246	361.44
340.474	362.44
340.702	373.44
340.93	352.44
341.158	372.44
341.386	337.44
341.614	342.44
341.842	374.44
342.07	368.44
342.298	347.44
342.526	345.44
342.754	338.44
342.981	341.44
343.209	329.44
343.437	336.44
343.665	352.44
343.893	360.44
344.12	346.44
344.348	358.44
344.576	357.44
344.804	348.44
345.031	355.44
345.259	364.44
345.487	361.44
345.714	356.44
345.942	340.44
346.17	355.44
346.397	356.44
346.625	344.44
346.853	336.44
347.08	340.44
347.308	329.44
347.535	357.44
347.763	369.44
347.99	350.44
348.218	375.44
348.445	348.44
348.673	358.44
348.9	361.44
349.128	338.44
349.355	345.44
349.583	330.44
349.81	349.44
350.037	329.44
350.265	349.44
350.492	324.44
350.72	338.44
350.947	354.44
351.174	350.44
351.402	339.44
351.629	349.44
351.856	364.44
352.083	357.44
352.311	360.44
352.538	358.44
352.765	339.44
352.992	369.44
353.22	348.44
353.447	342.44
353.674	346.44
353.901	324.44
354.128	331.44
354.355	342.44
354.583	338.44
354.81	328.44
355.037	342.44
355.264	319.44
355.491	330.44
355.718	335.44
355.945	312.44
356.172	334.44
356.399	336.44
356.626	344.44
356.853	338.44
357.08	323.44
357.307	323.44
357.534	325.44
357.761	328.44
357.988	339.44
358.215	308.44
358.441	316.44
358.668	331.44
358.895	340.44
359.122	339.44
359.349	341.44
359.576	336.44
359.802	364.44
360.029	389.44
360.256	386.44
360.483	371.44
360.709	357.44
360.936	368.44
361.163	364.44
361.39	355.44
361.616	350.44
361.843	370.44
362.07	352.44
362.296	352.44
362.523	348.44
362.749	373.44
362.976	349.44
363.203	352.44
363.429	334.44
363.656	335.44
363.882	353.44
364.109	346.44
364.335	336.44
364.562	353.44
364.788	354.44
365.015	342.44
365.241	370.44
365.468	342.44
365.694	335.44
365.92	345.44
366.147	332.44
366.373	335.44
366.599	336.44
366.826	339.44
367.052	337.44
367.278	340.44
367.505	348.44
367.731	347.44
367.957	348.44
368.184	344.44
368.41	371.44
368.636	360.44
368.862	361.44
369.089	350.44
369.315	370.44
369.541	334.44
369.767	357.44
369.993	347.44
370.219	350.44
370.445	334.44
370.672	363.44
370.898	346.44
371.124	339.44
371.35	345.44
371.576	336.44
371.802	334.44
372.028	329.44
372.254	329.44
372.48	360.44
372.706	358.44
372.932	348.44
373.158	363.44
373.384	340.44
373.61	338.44
373.835	332.44
374.061	348.44
374.287	346.44
374.513	361.44
374.739	360.44
374.965	346.44
375.191	349.44
375.416	347.44
375.642	353.44
375.868	356.44
376.094	344.44
376.319	356.44
376.545	324.44
376.771	361.44
376.997	364.44
377.222	363.44
377.448	347.44
377.674	348.44
377.899	364.44
378.125	355.44
378.35	341.44
378.576	342.44
378.802	356.44
379.027	343.44
379.253	346.44
379.478	352.44
379.704	347.44
379.929	360.44
380.155	348.44
380.38	361.44
380.606	347.44
380.831	361.44
381.057	360.44
381.282	361.44
381.507	355.44
381.733	353.44
381.958	369.44
382.184	352.44
382.409	370.44
382.634	353.44
382.86	365.44
383.085	358.44
383.31	368.44
383.535	368.44
383.761	357.44
383.986	374.44
384.211	373.44
384.436	362.44
384.662	375.44
384.887	371.44
385.112	374.44
385.337	372.44
385.562	375.44
385.787	372.44
386.013	383.44
386.238	391.44
386.463	384.44
386.688	365.44
386.913	372.44
387.138	388.44
387.363	384.44
387.588	387.44
387.813	380.44
388.038	411.44
388.263	384.44
388.488	388.44
388.713	393.44
388.938	388.44
389.163	365.44
389.387	379.44
389.612	384.44
389.837	378.44
390.062	383.44
390.287	386.44
390.512	379.44
390.736	363.44
390.961	380.44
391.186	382.44
391.411	417.44
391.636	387.44
391.86	376.44
392.085	382.44
392.31	390.44
392.534	396.44
392.759	400.44
392.984	374.44
393.208	381.44
393.433	398.44
393.658	406.44
393.882	384.44
394.107	365.44
394.331	382.44
394.556	389.44
394.78	384.44
395.005	384.44
395.229	391.44
395.454	389.44
395.678	401.44
395.903	393.44
396.127	410.44
396.352	436.44
396.576	397.44
396.801	416.44
397.025	408.44
397.249	413.44
397.474	406.44
397.698	403.44
397.922	412.44
398.147	445.44
398.371	434.44
398.595	434.44
398.82	434.44
399.044	433.44
399.268	458.44
399.492	474.44
399.717	477.44
399.941	500.44
400.165	536.44
400.389	534.44
400.613	472.44
400.837	454.44
401.062	452.44
401.286	445.44
401.51	442.44
401.734	401.44
401.958	419.44
402.182	432.44
402.406	456.44
402.63	462.44
402.854	455.44
403.078	428.44
403.302	468.44
403.526	421.44
403.75	466.44
403.974	448.44
404.198	455.44
404.422	458.44
404.645	454.44
404.869	450.44
405.093	455.44
405.317	491.44
405.541	539.44
405.765	496.44
405.988	485.44
406.212	467.44
406.436	499.44
406.66	506.44
406.883	488.44
407.107	512.44
407.331	553.44
407.555	574.44
407.778	582.44
408.002	549.44
408.226	508.44
408.449	504.44
408.673	504.44
408.896	530.44
409.12	551.44
409.344	506.44
409.567	505.44
409.791	455.44
410.014	463.44
410.238	478.44
410.461	480.44
410.685	459.44
410.908	484.44
411.132	534.44
411.355	524.44
411.578	475.44
411.802	458.44
412.025	445.44
412.249	457.44
412.472	503.44
412.695	486.44
412.919	489.44
413.142	454.44
413.365	442.44
413.589	450.44
413.812	446.44
414.035	436.44
414.258	440.44
414.482	427.44
414.705	426.44
414.928	430.44
415.151	433.44
415.374	430.44
415.597	442.44
415.821	426.44
416.044	434.44
416.267	447.44
416.49	454.44
416.713	412.44
416.936	434.44
417.159	422.44
417.382	447.44
417.605	418.44
417.828	438.44
418.051	460.44
418.274	440.44
418.497	444.44
418.72	432.44
418.943	415.44
419.166	455.44
419.389	483.44
419.611	443.44
419.834	474.44
420.057	463.44
420.28	494.44
420.503	458.44
420.726	469.44
420.948	467.44
421.171	483.44
421.394	545.44
421.617	463.44
421.839	454.44
422.062	458.44
422.285	478.44
422.507	517.44
422.73	605.44
422.953	563.44
423.175	513.44
423.398	487.44
423.621	459.44
423.843	473.44
424.066	512.44
424.288	486.44
424.511	505.44
424.733	579.44
424.956	610.44
425.178	590.44
425.401	576.44
425.623	619.44
425.846	546.44
426.068	516.44
426.291	501.44
426.513	491.44
426.735	516.44
426.958	534.44
427.18	610.44
427.402	725.44
427.625	748.44
427.847	712.44
428.069	604.44
428.292	552.44
428.514	500.44
428.736	492.44
428.958	475.44
429.181	460.44
429.403	470.44
429.625	493.44
429.847	516.44
430.069	562.44
430.292	558.44
430.514	494.44
430.736	464.44
430.958	461.44
431.18	440.44
431.402	425.44
431.624	446.44
431.846	417.44
432.068	423.44
432.29	451.44
432.512	444.44
432.734	470.44
432.956	445.44
433.178	478.44
433.4	471.44
433.622	446.44
433.844	448.44
434.066	421.44
434.287	444.44
434.509	440.44
434.731	459.44
434.953	469.44
435.175	482.44
435.397	484.44
435.618	515.44
435.84	521.44
436.062	616.44
436.284	648.44
436.505	574.44
436.727	528.44
436.949	492.44
437.17	476.44
437.392	472.44
437.614	475.44
437.835	510.44
438.057	570.44
438.278	685.44
438.5	664.44
438.721	736.44
438.943	702.44
439.165	576.44
439.386	525.44
439.608	529.44
439.829	526.44
440.05	544.44
440.272	586.44
440.493	543.44
440.715	483.44
440.936	491.44
441.158	481.44
441.379	494.44
441.6	492.44
441.822	500.44
442.043	549.44
442.264	613.44
442.486	653.44
442.707	570.44
442.928	524.44
443.149	521.44
443.371	548.44
443.592	600.44
443.813	650.44
444.034	682.44
444.255	603.44
444.476	516.44
444.698	521.44
444.919	500.44
445.14	603.44
445.361	550.44
445.582	517.44
445.803	584.44
446.024	666.44
446.245	688.44
446.466	617.44
446.687	530.44
446.908	493.44
447.129	477.44
447.35	471.44
447.571	486.44
447.792	450.44
448.013	472.44
448.234	500.44
448.455	528.44
448.675	624.44
448.896	707.44
449.117	633.44
449.338	605.44
449.559	696.44
449.779	765.44
450	627.44
450.221	506.44
450.442	498.44
450.662	481.44
450.883	479.44
451.104	485.44
451.324	486.44
451.545	461.44
451.766	432.44
451.986	413.44
452.207	424.44
452.428	422.44
452.648	408.44
452.869	409.44
453.089	442.44
453.31	429.44
453.53	428.44
453.751	414.44
453.971	418.44
454.192	445.44
454.412	428.44
454.633	413.44
454.853	391.44
455.073	401.44
455.294	438.44
455.514	485.44
455.734	481.44
455.955	424.44
456.175	384.44
456.395	402.44
456.616	379.44
456.836	405.44
457.056	398.44
457.276	386.44
457.497	418.44
457.717	376.44
457.937	387.44
458.157	404.44
458.377	391.44
458.598	445.44
458.818	466.44
459.038	537.44
459.258	553.44
459.478	483.44
459.698	450.44
459.918	456.44
460.138	444.44
460.358	432.44
460.578	427.44
460.798	445.44
461.018	456.44
461.238	420.44
461.458	437.44
461.678	437.44
461.898	449.44
462.118	448.44
462.338	448.44
462.558	441.44
462.777	459.44
462.997	457.44
463.217	439.44
463.437	487.44
463.657	497.44
463.876	447.44
464.096	448.44
464.316	465.44
464.536	462.44
464.755	462.44
464.975	480.44
465.195	516.44
465.414	585.44
465.634	502.44
465.854	484.44
466.073	470.44
466.293	446.44
466.512	446.44
466.732	438.44
466.951	433.44
467.171	417.44
467.391	437.44
467.61	428.44
467.829	444.44
468.049	420.44
468.268	427.44
468.488	435.44
468.707	422.44
468.927	420.44
469.146	412.44
469.365	419.44
469.585	412.44
469.804	442.44
470.023	445.44
470.243	416.44
470.462	434.44
470.681	463.44
470.901	452.44
471.12	421.44
471.339	431.44
471.558	443.44
471.777	456.44
471.997	438.44
472.216	442.44
472.435	459.44
472.654	441.44
472.873	444.44
473.092	434.44
473.311	451.44
473.53	428.44
473.749	452.44
473.968	489.44
474.187	569.44
474.406	586.44
474.625	485.44
474.844	466.44
475.063	449.44
475.282	436.44
475.501	435.44
475.72	448.44
475.939	455.44
476.158	453.44
476.377	460.44
476.596	428.44
476.814	451.44
477.033	454.44
477.252	458.44
477.471	454.44
477.69	469.44
477.908	468.44
478.127	481.44
478.346	481.44
478.564	451.44
478.783	471.44
479.002	503.44
479.22	500.44
479.439	520.44
479.658	531.44
479.876	553.44
480.095	534.44
480.313	560.44
480.532	545.44
480.751	523.44
480.969	545.44
481.188	558.44
481.406	619.44
481.624	545.44
481.843	533.44
482.061	523.44
482.28	544.44
482.498	506.44
482.717	534.44
482.935	502.44
483.153	515.44
483.372	532.44
483.59	522.44
483.808	524.44
484.027	526.44
484.245	497.44
484.463	527.44
484.681	540.44
484.9	561.44
485.118	568.44
485.336	530.44
485.554	526.44
485.772	546.44
485.99	557.44
486.209	531.44
486.427	550.44
486.645	547.44
486.863	581.44
487.081	567.44
487.299	571.44
487.517	580.44
487.735	569.44
487.953	574.44
488.171	590.44
488.389	554.44
488.607	553.44
488.825	566.44
489.043	581.44
489.261	579.44
489.479	586.44
489.696	598.44
489.914	601.44
490.132	584.44
490.35	590.44
490.568	630.44
490.786	618.44
491.003	626.44
491.221	637.44
491.439	616.44
491.657	640.44
491.874	637.44
492.092	644.44
492.31	664.44
492.527	672.44
492.745	672.44
492.963	660.44
493.18	658.44
493.398	663.44
493.615	692.44
493.833	699.44
494.05	694.44
494.268	686.44
494.485	674.44
494.703	674.44
494.92	698.44
495.138	692.44
495.355	682.44
495.573	662.44
495.79	670.44
496.008	723.44
496.225	688.44
496.442	669.44
496.66	692.44
496.877	688.44
497.094	659.44
497.312	689.44
497.529	706.44
497.746	704.44
497.963	717.44
498.181	724.44
498.398	740.44
498.615	733.44
498.832	748.44
499.049	722.44
499.267	747.44
499.484	756.44
499.701	812.44
499.918	820.44
500.135	856.44
500.352	862.44
500.569	865.44
500.786	856.44
501.003	866.44
501.22	866.44
501.437	849.44
501.654	801.44
501.871	796.44
502.088	797.44
