Data from 1970.PennyLincolnUp.Lamp.En5.5.200Scan.071719.P1._HRD10591_15-14-55-841.txt Node
Date: Thu Jul 18 15:14:55 EDT 2019
User: cochatt
Spectrometer: HR+D1059
Trigger mode: 1
Integration Time (sec): 1.000000E-1
Scans to average: 1
Electric dark correction enabled: true
Nonlinearity correction enabled: false
Boxcar width: 0
XAxis mode: Wavelengths
Number of Pixels in Spectrum: 2048
>>>>>Begin Spectral Data<<<<<
223.165	-28.44
223.4	-28.44
223.635	-28.44
223.869	-8.44
224.104	-17.44
224.338	-15.44
224.573	-11.44
224.808	-0.44
225.042	-8.44
225.277	-6.44
225.511	-6.44
225.746	0.56
225.98	9.56
226.215	3.56
226.449	12.56
226.683	23.56
226.918	15.56
227.152	37.56
227.387	35.56
227.621	52.56
227.856	42.56
228.09	45.56
228.324	47.56
228.559	47.56
228.793	71.56
229.027	118.56
229.262	122.56
229.496	135.56
229.73	136.56
229.964	154.56
230.199	142.56
230.433	132.56
230.667	129.56
230.901	116.56
231.136	112.56
231.37	113.56
231.604	124.56
231.838	126.56
232.072	124.56
232.306	116.56
232.541	120.56
232.775	127.56
233.009	117.56
233.243	122.56
233.477	119.56
233.711	112.56
233.945	133.56
234.179	125.56
234.413	118.56
234.647	117.56
234.881	122.56
235.115	125.56
235.349	136.56
235.583	129.56
235.817	143.56
236.051	138.56
236.285	125.56
236.519	150.56
236.753	144.56
236.987	152.56
237.221	200.56
237.455	257.56
237.689	215.56
237.922	163.56
238.156	158.56
238.39	137.56
238.624	139.56
238.858	124.56
239.091	127.56
239.325	133.56
239.559	141.56
239.793	144.56
240.027	156.56
240.26	160.56
240.494	174.56
240.728	154.56
240.961	157.56
241.195	171.56
241.429	154.56
241.662	151.56
241.896	161.56
242.13	153.56
242.363	140.56
242.597	149.56
242.83	152.56
243.064	141.56
243.298	154.56
243.531	155.56
243.765	151.56
243.998	160.56
244.232	147.56
244.465	152.56
244.699	164.56
244.932	155.56
245.166	153.56
245.399	168.56
245.633	161.56
245.866	160.56
246.099	147.56
246.333	175.56
246.566	163.56
246.8	168.56
247.033	160.56
247.266	176.56
247.5	182.56
247.733	172.56
247.966	193.56
248.2	191.56
248.433	208.56
248.666	215.56
248.899	213.56
249.133	237.56
249.366	247.56
249.599	204.56
249.832	216.56
250.066	210.56
250.299	216.56
250.532	223.56
250.765	223.56
250.998	250.56
251.231	251.56
251.465	237.56
251.698	238.56
251.931	227.56
252.164	214.56
252.397	223.56
252.63	226.56
252.863	232.56
253.096	252.56
253.329	257.56
253.562	252.56
253.795	238.56
254.028	255.56
254.261	252.56
254.494	252.56
254.727	267.56
254.96	327.56
255.193	293.56
255.426	277.56
255.659	264.56
255.892	275.56
256.124	285.56
256.357	260.56
256.59	239.56
256.823	248.56
257.056	227.56
257.289	249.56
257.521	233.56
257.754	236.56
257.987	221.56
258.22	244.56
258.452	236.56
258.685	238.56
258.918	247.56
259.151	224.56
259.383	234.56
259.616	235.56
259.849	248.56
260.081	263.56
260.314	265.56
260.547	277.56
260.779	292.56
261.012	266.56
261.244	248.56
261.477	264.56
261.71	238.56
261.942	224.56
262.175	246.56
262.407	281.56
262.64	251.56
262.872	259.56
263.105	238.56
263.337	228.56
263.57	238.56
263.802	220.56
264.035	246.56
264.267	220.56
264.499	216.56
264.732	223.56
264.964	235.56
265.197	234.56
265.429	225.56
265.661	233.56
265.894	239.56
266.126	235.56
266.358	232.56
266.591	226.56
266.823	232.56
267.055	243.56
267.287	239.56
267.52	255.56
267.752	226.56
267.984	240.56
268.216	237.56
268.448	227.56
268.681	257.56
268.913	266.56
269.145	269.56
269.377	302.56
269.609	290.56
269.841	298.56
270.073	309.56
270.306	318.56
270.538	324.56
270.77	332.56
271.002	326.56
271.234	307.56
271.466	309.56
271.698	337.56
271.93	336.56
272.162	342.56
272.394	321.56
272.626	340.56
272.858	313.56
273.09	298.56
273.322	296.56
273.553	288.56
273.785	277.56
274.017	293.56
274.249	281.56
274.481	288.56
274.713	277.56
274.945	281.56
275.176	286.56
275.408	292.56
275.64	288.56
275.872	269.56
276.104	285.56
276.335	292.56
276.567	293.56
276.799	317.56
277.031	332.56
277.262	340.56
277.494	351.56
277.726	308.56
277.957	314.56
278.189	311.56
278.421	311.56
278.652	284.56
278.884	283.56
279.115	277.56
279.347	292.56
279.579	296.56
279.81	275.56
280.042	270.56
280.273	284.56
280.505	276.56
280.736	265.56
280.968	267.56
281.199	283.56
281.431	284.56
281.662	277.56
281.894	265.56
282.125	295.56
282.356	298.56
282.588	317.56
282.819	313.56
283.051	273.56
283.282	270.56
283.513	276.56
283.745	280.56
283.976	301.56
284.207	291.56
284.439	285.56
284.67	289.56
284.901	289.56
285.132	276.56
285.364	290.56
285.595	271.56
285.826	291.56
286.057	284.56
286.288	292.56
286.52	296.56
286.751	265.56
286.982	280.56
287.213	301.56
287.444	295.56
287.675	304.56
287.906	307.56
288.138	315.56
288.369	283.56
288.6	308.56
288.831	301.56
289.062	307.56
289.293	290.56
289.524	293.56
289.755	300.56
289.986	291.56
290.217	302.56
290.448	290.56
290.679	292.56
290.91	294.56
291.141	309.56
291.371	296.56
291.602	288.56
291.833	282.56
292.064	293.56
292.295	317.56
292.526	312.56
292.757	296.56
292.987	287.56
293.218	276.56
293.449	296.56
293.68	285.56
293.91	305.56
294.141	280.56
294.372	277.56
294.603	292.56
294.833	285.56
295.064	286.56
295.295	296.56
295.525	304.56
295.756	296.56
295.987	321.56
296.217	347.56
296.448	323.56
296.679	312.56
296.909	303.56
297.14	311.56
297.37	298.56
297.601	299.56
297.831	301.56
298.062	306.56
298.292	295.56
298.523	298.56
298.753	321.56
298.984	308.56
299.214	307.56
299.445	311.56
299.675	317.56
299.905	336.56
300.136	310.56
300.366	310.56
300.597	310.56
300.827	311.56
301.057	330.56
301.288	351.56
301.518	325.56
301.748	310.56
301.979	325.56
302.209	339.56
302.439	318.56
302.669	328.56
302.9	323.56
303.13	329.56
303.36	343.56
303.59	351.56
303.82	340.56
304.051	331.56
304.281	318.56
304.511	325.56
304.741	330.56
304.971	334.56
305.201	342.56
305.431	333.56
305.661	346.56
305.891	321.56
306.121	331.56
306.352	350.56
306.582	340.56
306.812	339.56
307.042	347.56
307.272	325.56
307.502	341.56
307.731	359.56
307.961	333.56
308.191	331.56
308.421	334.56
308.651	340.56
308.881	337.56
309.111	352.56
309.341	348.56
309.571	357.56
309.8	361.56
310.03	383.56
310.26	414.56
310.49	391.56
310.72	401.56
310.949	437.56
311.179	424.56
311.409	399.56
311.639	392.56
311.868	398.56
312.098	394.56
312.328	406.56
312.557	440.56
312.787	441.56
313.017	436.56
313.246	417.56
313.476	415.56
313.706	390.56
313.935	380.56
314.165	405.56
314.394	423.56
314.624	412.56
314.853	396.56
315.083	399.56
315.312	383.56
315.542	384.56
315.771	383.56
316.001	362.56
316.23	371.56
316.46	382.56
316.689	401.56
316.919	398.56
317.148	414.56
317.377	389.56
317.607	395.56
317.836	384.56
318.065	405.56
318.295	411.56
318.524	405.56
318.753	405.56
318.983	394.56
319.212	386.56
319.441	415.56
319.67	409.56
319.9	407.56
320.129	396.56
320.358	391.56
320.587	413.56
320.816	428.56
321.046	445.56
321.275	423.56
321.504	425.56
321.733	421.56
321.962	422.56
322.191	460.56
322.42	460.56
322.649	450.56
322.878	479.56
323.108	489.56
323.337	524.56
323.566	579.56
323.795	614.56
324.024	648.56
324.253	785.56
324.482	1130.56
324.71	1730.56
324.939	2451.56
325.168	2124.56
325.397	1129.56
325.626	756.56
325.855	635.56
326.084	587.56
326.313	575.56
326.542	581.56
326.77	617.56
326.999	732.56
327.228	1029.56
327.457	1529.56
327.686	1873.56
327.914	1282.56
328.143	845.56
328.372	719.56
328.6	669.56
328.829	641.56
329.058	638.56
329.287	664.56
329.515	628.56
329.744	575.56
329.972	560.56
330.201	609.56
330.43	647.56
330.658	655.56
330.887	726.56
331.115	646.56
331.344	587.56
331.572	563.56
331.801	540.56
332.03	545.56
332.258	503.56
332.486	481.56
332.715	495.56
332.943	481.56
333.172	476.56
333.4	487.56
333.629	499.56
333.857	511.56
334.085	516.56
334.314	524.56
334.542	595.56
334.771	608.56
334.999	547.56
335.227	527.56
335.455	487.56
335.684	480.56
335.912	452.56
336.14	439.56
336.369	465.56
336.597	441.56
336.825	483.56
337.053	476.56
337.281	459.56
337.51	452.56
337.738	483.56
337.966	461.56
338.194	464.56
338.422	454.56
338.65	442.56
338.878	441.56
339.106	441.56
339.334	451.56
339.562	445.56
339.79	424.56
340.018	455.56
340.246	442.56
340.474	455.56
340.702	447.56
340.93	453.56
341.158	444.56
341.386	447.56
341.614	451.56
341.842	444.56
342.07	451.56
342.298	470.56
342.526	443.56
342.754	431.56
342.981	444.56
343.209	420.56
343.437	427.56
343.665	419.56
343.893	447.56
344.12	456.56
344.348	443.56
344.576	450.56
344.804	475.56
345.031	457.56
345.259	460.56
345.487	457.56
345.714	444.56
345.942	467.56
346.17	431.56
346.397	443.56
346.625	463.56
346.853	449.56
347.08	445.56
347.308	480.56
347.535	469.56
347.763	451.56
347.99	453.56
348.218	451.56
348.445	450.56
348.673	478.56
348.9	451.56
349.128	456.56
349.355	447.56
349.583	445.56
349.81	436.56
350.037	428.56
350.265	419.56
350.492	417.56
350.72	423.56
350.947	428.56
351.174	438.56
351.402	469.56
351.629	449.56
351.856	460.56
352.083	472.56
352.311	465.56
352.538	456.56
352.765	468.56
352.992	480.56
353.22	481.56
353.447	448.56
353.674	444.56
353.901	425.56
354.128	419.56
354.355	424.56
354.583	427.56
354.81	406.56
355.037	403.56
355.264	401.56
355.491	413.56
355.718	410.56
355.945	399.56
356.172	390.56
356.399	408.56
356.626	412.56
356.853	389.56
357.08	414.56
357.307	395.56
357.534	409.56
357.761	406.56
357.988	414.56
358.215	411.56
358.441	406.56
358.668	425.56
358.895	438.56
359.122	423.56
359.349	430.56
359.576	451.56
359.802	447.56
360.029	533.56
360.256	543.56
360.483	503.56
360.709	452.56
360.936	448.56
361.163	478.56
361.39	456.56
361.616	476.56
361.843	446.56
362.07	460.56
362.296	464.56
362.523	452.56
362.749	449.56
362.976	449.56
363.203	436.56
363.429	430.56
363.656	439.56
363.882	428.56
364.109	423.56
364.335	427.56
364.562	442.56
364.788	445.56
365.015	433.56
365.241	435.56
365.468	413.56
365.694	430.56
365.92	449.56
366.147	435.56
366.373	411.56
366.599	424.56
366.826	427.56
367.052	428.56
367.278	426.56
367.505	430.56
367.731	432.56
367.957	401.56
368.184	442.56
368.41	448.56
368.636	456.56
368.862	463.56
369.089	456.56
369.315	433.56
369.541	447.56
369.767	438.56
369.993	409.56
370.219	412.56
370.445	411.56
370.672	441.56
370.898	437.56
371.124	429.56
371.35	437.56
371.576	441.56
371.802	437.56
372.028	426.56
372.254	425.56
372.48	415.56
372.706	423.56
372.932	456.56
373.158	437.56
373.384	430.56
373.61	411.56
373.835	442.56
374.061	423.56
374.287	426.56
374.513	437.56
374.739	456.56
374.965	432.56
375.191	416.56
375.416	451.56
375.642	449.56
375.868	430.56
376.094	428.56
376.319	414.56
376.545	431.56
376.771	432.56
376.997	441.56
377.222	426.56
377.448	432.56
377.674	431.56
377.899	432.56
378.125	427.56
378.35	425.56
378.576	416.56
378.802	438.56
379.027	455.56
379.253	428.56
379.478	446.56
379.704	421.56
379.929	433.56
380.155	435.56
380.38	425.56
380.606	433.56
380.831	438.56
381.057	443.56
381.282	432.56
381.507	418.56
381.733	440.56
381.958	434.56
382.184	445.56
382.409	444.56
382.634	463.56
382.86	425.56
383.085	432.56
383.31	449.56
383.535	453.56
383.761	437.56
383.986	445.56
384.211	453.56
384.436	453.56
384.662	444.56
384.887	477.56
385.112	459.56
385.337	465.56
385.562	472.56
385.787	449.56
386.013	479.56
386.238	472.56
386.463	466.56
386.688	453.56
386.913	452.56
387.138	470.56
387.363	464.56
387.588	460.56
387.813	455.56
388.038	473.56
388.263	467.56
388.488	457.56
388.713	475.56
388.938	476.56
389.163	458.56
389.387	485.56
389.612	443.56
389.837	473.56
390.062	485.56
390.287	474.56
390.512	444.56
390.736	458.56
390.961	479.56
391.186	470.56
391.411	454.56
391.636	467.56
391.86	485.56
392.085	475.56
392.31	459.56
392.534	487.56
392.759	480.56
392.984	489.56
393.208	486.56
393.433	507.56
393.658	465.56
393.882	461.56
394.107	465.56
394.331	464.56
394.556	458.56
394.78	469.56
395.005	485.56
395.229	485.56
395.454	478.56
395.678	506.56
395.903	525.56
396.127	525.56
396.352	544.56
396.576	501.56
396.801	501.56
397.025	487.56
397.249	523.56
397.474	515.56
397.698	513.56
397.922	506.56
398.147	519.56
398.371	527.56
398.595	546.56
398.82	522.56
399.044	515.56
399.268	563.56
399.492	569.56
399.717	599.56
399.941	617.56
400.165	643.56
400.389	651.56
400.613	595.56
400.837	579.56
401.062	571.56
401.286	573.56
401.51	550.56
401.734	549.56
401.958	519.56
402.182	537.56
402.406	554.56
402.63	561.56
402.854	571.56
403.078	540.56
403.302	555.56
403.526	553.56
403.75	557.56
403.974	548.56
404.198	554.56
404.422	571.56
404.645	591.56
404.869	606.56
405.093	605.56
405.317	648.56
405.541	715.56
405.765	627.56
405.988	593.56
406.212	613.56
406.436	633.56
406.66	645.56
406.883	606.56
407.107	661.56
407.331	671.56
407.555	753.56
407.778	721.56
408.002	692.56
408.226	627.56
408.449	653.56
408.673	653.56
408.896	665.56
409.12	698.56
409.344	656.56
409.567	617.56
409.791	593.56
410.014	574.56
410.238	571.56
410.461	593.56
410.685	561.56
410.908	594.56
411.132	627.56
411.355	656.56
411.578	650.56
411.802	587.56
412.025	588.56
412.249	581.56
412.472	589.56
412.695	645.56
412.919	639.56
413.142	605.56
413.365	561.56
413.589	567.56
413.812	547.56
414.035	543.56
414.258	549.56
414.482	534.56
414.705	529.56
414.928	538.56
415.151	541.56
415.374	539.56
415.597	519.56
415.821	527.56
416.044	542.56
416.267	550.56
416.49	551.56
416.713	548.56
416.936	571.56
417.159	532.56
417.382	538.56
417.605	547.56
417.828	575.56
418.051	588.56
418.274	577.56
418.497	558.56
418.72	566.56
418.943	533.56
419.166	536.56
419.389	584.56
419.611	583.56
419.834	587.56
420.057	606.56
420.28	580.56
420.503	563.56
420.726	579.56
420.948	591.56
421.171	656.56
421.394	661.56
421.617	629.56
421.839	552.56
422.062	583.56
422.285	591.56
422.507	637.56
422.73	718.56
422.953	704.56
423.175	632.56
423.398	593.56
423.621	604.56
423.843	612.56
424.066	634.56
424.288	611.56
424.511	657.56
424.733	716.56
424.956	789.56
425.178	772.56
425.401	746.56
425.623	785.56
425.846	679.56
426.068	620.56
426.291	618.56
426.513	605.56
426.735	637.56
426.958	699.56
427.18	779.56
427.402	871.56
427.625	982.56
427.847	874.56
428.069	812.56
428.292	696.56
428.514	663.56
428.736	621.56
428.958	625.56
429.181	605.56
429.403	571.56
429.625	629.56
429.847	651.56
430.069	727.56
430.292	704.56
430.514	603.56
430.736	596.56
430.958	574.56
431.18	553.56
431.402	568.56
431.624	551.56
431.846	540.56
432.068	531.56
432.29	576.56
432.512	536.56
432.734	545.56
432.956	539.56
433.178	560.56
433.4	584.56
433.622	560.56
433.844	557.56
434.066	536.56
434.287	548.56
434.509	551.56
434.731	574.56
434.953	569.56
435.175	559.56
435.397	620.56
435.618	658.56
435.84	668.56
436.062	801.56
436.284	870.56
436.505	720.56
436.727	662.56
436.949	628.56
437.17	607.56
437.392	595.56
437.614	605.56
437.835	648.56
438.057	740.56
438.278	865.56
438.5	845.56
438.721	904.56
438.943	901.56
439.165	760.56
439.386	668.56
439.608	658.56
439.829	653.56
440.05	671.56
440.272	758.56
440.493	705.56
440.715	666.56
440.936	608.56
441.158	608.56
441.379	607.56
441.6	606.56
441.822	628.56
442.043	681.56
442.264	785.56
442.486	812.56
442.707	733.56
442.928	659.56
443.149	649.56
443.371	651.56
443.592	708.56
443.813	839.56
444.034	897.56
444.255	734.56
444.476	649.56
444.698	635.56
444.919	635.56
445.14	706.56
445.361	713.56
445.582	686.56
445.803	739.56
446.024	835.56
446.245	846.56
446.466	785.56
446.687	693.56
446.908	635.56
447.129	606.56
447.35	581.56
447.571	571.56
447.792	603.56
448.013	597.56
448.234	627.56
448.455	679.56
448.675	796.56
448.896	896.56
449.117	789.56
449.338	725.56
449.559	849.56
449.779	934.56
450	775.56
450.221	657.56
450.442	599.56
450.662	596.56
450.883	593.56
451.104	647.56
451.324	593.56
451.545	587.56
451.766	561.56
451.986	550.56
452.207	537.56
452.428	536.56
452.648	537.56
452.869	544.56
453.089	521.56
453.31	573.56
453.53	558.56
453.751	541.56
453.971	532.56
454.192	570.56
454.412	548.56
454.633	519.56
454.853	523.56
455.073	537.56
455.294	569.56
455.514	620.56
455.734	625.56
455.955	540.56
456.175	511.56
456.395	474.56
456.616	487.56
456.836	493.56
457.056	490.56
457.276	486.56
457.497	505.56
457.717	502.56
457.937	509.56
458.157	487.56
458.377	496.56
458.598	545.56
458.818	616.56
459.038	692.56
459.258	717.56
459.478	611.56
459.698	574.56
459.918	528.56
460.138	552.56
460.358	552.56
460.578	538.56
460.798	541.56
461.018	559.56
461.238	551.56
461.458	533.56
461.678	537.56
461.898	528.56
462.118	544.56
462.338	554.56
462.558	576.56
462.777	557.56
462.997	570.56
463.217	576.56
463.437	565.56
463.657	536.56
463.876	576.56
464.096	575.56
464.316	568.56
464.536	575.56
464.755	569.56
464.975	579.56
465.195	639.56
465.414	767.56
465.634	680.56
465.854	620.56
466.073	561.56
466.293	580.56
466.512	547.56
466.732	554.56
466.951	534.56
467.171	548.56
467.391	555.56
467.61	558.56
467.829	569.56
468.049	531.56
468.268	558.56
468.488	537.56
468.707	510.56
468.927	507.56
469.146	525.56
469.365	525.56
469.585	503.56
469.804	552.56
470.023	543.56
470.243	539.56
470.462	564.56
470.681	579.56
470.901	568.56
471.12	553.56
471.339	567.56
471.558	571.56
471.777	552.56
471.997	528.56
472.216	569.56
472.435	613.56
472.654	595.56
472.873	561.56
473.092	523.56
473.311	552.56
473.53	559.56
473.749	560.56
473.968	620.56
474.187	724.56
474.406	746.56
474.625	636.56
474.844	560.56
475.063	563.56
475.282	542.56
475.501	560.56
475.72	560.56
475.939	583.56
476.158	561.56
476.377	568.56
476.596	599.56
476.814	592.56
477.033	583.56
477.252	577.56
477.471	586.56
477.69	586.56
477.908	607.56
478.127	596.56
478.346	570.56
478.564	580.56
478.783	606.56
479.002	610.56
479.22	624.56
479.439	623.56
479.658	638.56
479.876	683.56
480.095	676.56
480.313	715.56
480.532	651.56
480.751	668.56
480.969	695.56
481.188	749.56
481.406	849.56
481.624	721.56
481.843	679.56
482.061	681.56
482.28	654.56
482.498	649.56
482.717	663.56
482.935	696.56
483.153	656.56
483.372	657.56
483.59	666.56
483.808	637.56
484.027	664.56
484.245	661.56
484.463	656.56
484.681	663.56
484.9	686.56
485.118	674.56
485.336	653.56
485.554	671.56
485.772	687.56
485.99	678.56
486.209	675.56
486.427	688.56
486.645	677.56
486.863	707.56
487.081	747.56
487.299	709.56
487.517	728.56
487.735	713.56
487.953	708.56
488.171	711.56
488.389	711.56
488.607	696.56
488.825	715.56
489.043	685.56
489.261	702.56
489.479	701.56
489.696	711.56
489.914	731.56
490.132	773.56
490.35	744.56
490.568	773.56
490.786	761.56
491.003	791.56
491.221	798.56
491.439	800.56
491.657	838.56
491.874	821.56
492.092	835.56
492.31	826.56
492.527	840.56
492.745	798.56
492.963	823.56
493.18	840.56
493.398	877.56
493.615	861.56
493.833	843.56
494.05	858.56
494.268	853.56
494.485	858.56
494.703	851.56
494.92	884.56
495.138	886.56
495.355	880.56
495.573	838.56
495.79	835.56
496.008	861.56
496.225	856.56
496.442	867.56
496.66	849.56
496.877	855.56
497.094	845.56
497.312	867.56
497.529	880.56
497.746	879.56
497.963	892.56
498.181	911.56
498.398	911.56
498.615	921.56
498.832	923.56
499.049	919.56
499.267	941.56
499.484	964.56
499.701	981.56
499.918	1011.56
500.135	1015.56
500.352	1048.56
500.569	1067.56
500.786	1054.56
501.003	1073.56
501.22	1045.56
501.437	1038.56
501.654	1027.56
501.871	1035.56
