Data from 1970.PennyLincolnUp.Lamp.En5.5.200Scan.071719.P1._HRD10591_15-15-10-841.txt Node
Date: Thu Jul 18 15:15:10 EDT 2019
User: cochatt
Spectrometer: HR+D1059
Trigger mode: 1
Integration Time (sec): 1.000000E-1
Scans to average: 1
Electric dark correction enabled: true
Nonlinearity correction enabled: false
Boxcar width: 0
XAxis mode: Wavelengths
Number of Pixels in Spectrum: 2048
>>>>>Begin Spectral Data<<<<<
223.165	-29.12
223.4	-29.12
223.635	-29.12
223.869	-7.12
224.104	-12.12
224.338	-10.12
224.573	-20.12
224.808	-18.12
225.042	1.88
225.277	-14.12
225.511	6.88
225.746	10.88
225.98	-10.12
226.215	7.88
226.449	14.88
226.683	22.88
226.918	28.88
227.152	26.88
227.387	33.88
227.621	53.88
227.856	48.88
228.09	49.88
228.324	62.88
228.559	53.88
228.793	71.88
229.027	114.88
229.262	118.88
229.496	122.88
229.73	156.88
229.964	181.88
230.199	144.88
230.433	130.88
230.667	126.88
230.901	124.88
231.136	121.88
231.37	143.88
231.604	120.88
231.838	109.88
232.072	114.88
232.306	127.88
232.541	121.88
232.775	112.88
233.009	125.88
233.243	125.88
233.477	133.88
233.711	117.88
233.945	110.88
234.179	131.88
234.413	129.88
234.647	126.88
234.881	125.88
235.115	137.88
235.349	131.88
235.583	133.88
235.817	137.88
236.051	144.88
236.285	155.88
236.519	123.88
236.753	155.88
236.987	152.88
237.221	199.88
237.455	261.88
237.689	214.88
237.922	157.88
238.156	144.88
238.39	135.88
238.624	151.88
238.858	138.88
239.091	140.88
239.325	144.88
239.559	129.88
239.793	142.88
240.027	147.88
240.26	148.88
240.494	175.88
240.728	175.88
240.961	191.88
241.195	172.88
241.429	150.88
241.662	143.88
241.896	136.88
242.13	160.88
242.363	139.88
242.597	148.88
242.83	145.88
243.064	139.88
243.298	153.88
243.531	161.88
243.765	153.88
243.998	144.88
244.232	153.88
244.465	164.88
244.699	157.88
244.932	177.88
245.166	157.88
245.399	154.88
245.633	161.88
245.866	154.88
246.099	157.88
246.333	167.88
246.566	159.88
246.8	168.88
247.033	158.88
247.266	184.88
247.5	183.88
247.733	180.88
247.966	188.88
248.2	193.88
248.433	193.88
248.666	173.88
248.899	216.88
249.133	230.88
249.366	245.88
249.599	229.88
249.832	232.88
250.066	199.88
250.299	201.88
250.532	203.88
250.765	248.88
250.998	266.88
251.231	277.88
251.465	240.88
251.698	239.88
251.931	238.88
252.164	242.88
252.397	238.88
252.63	221.88
252.863	229.88
253.096	241.88
253.329	262.88
253.562	273.88
253.795	265.88
254.028	249.88
254.261	263.88
254.494	265.88
254.727	287.88
254.96	323.88
255.193	324.88
255.426	294.88
255.659	247.88
255.892	266.88
256.124	265.88
256.357	272.88
256.59	255.88
256.823	241.88
257.056	240.88
257.289	230.88
257.521	245.88
257.754	245.88
257.987	238.88
258.22	234.88
258.452	237.88
258.685	240.88
258.918	245.88
259.151	229.88
259.383	240.88
259.616	247.88
259.849	249.88
260.081	257.88
260.314	283.88
260.547	272.88
260.779	271.88
261.012	278.88
261.244	239.88
261.477	253.88
261.71	245.88
261.942	263.88
262.175	246.88
262.407	249.88
262.64	238.88
262.872	247.88
263.105	247.88
263.337	241.88
263.57	245.88
263.802	249.88
264.035	240.88
264.267	221.88
264.499	222.88
264.732	226.88
264.964	242.88
265.197	236.88
265.429	225.88
265.661	238.88
265.894	217.88
266.126	200.88
266.358	225.88
266.591	243.88
266.823	238.88
267.055	237.88
267.287	252.88
267.52	267.88
267.752	227.88
267.984	238.88
268.216	230.88
268.448	246.88
268.681	240.88
268.913	283.88
269.145	295.88
269.377	291.88
269.609	314.88
269.841	282.88
270.073	289.88
270.306	311.88
270.538	353.88
270.77	346.88
271.002	344.88
271.234	331.88
271.466	325.88
271.698	346.88
271.93	357.88
272.162	345.88
272.394	359.88
272.626	349.88
272.858	312.88
273.09	309.88
273.322	306.88
273.553	274.88
273.785	282.88
274.017	262.88
274.249	294.88
274.481	268.88
274.713	270.88
274.945	280.88
275.176	289.88
275.408	279.88
275.64	285.88
275.872	276.88
276.104	296.88
276.335	279.88
276.567	289.88
276.799	313.88
277.031	342.88
277.262	321.88
277.494	330.88
277.726	336.88
277.957	302.88
278.189	294.88
278.421	275.88
278.652	292.88
278.884	293.88
279.115	296.88
279.347	284.88
279.579	289.88
279.81	282.88
280.042	270.88
280.273	286.88
280.505	272.88
280.736	265.88
280.968	272.88
281.199	264.88
281.431	270.88
281.662	283.88
281.894	271.88
282.125	288.88
282.356	301.88
282.588	309.88
282.819	333.88
283.051	298.88
283.282	269.88
283.513	287.88
283.745	272.88
283.976	282.88
284.207	273.88
284.439	269.88
284.67	295.88
284.901	297.88
285.132	287.88
285.364	289.88
285.595	287.88
285.826	273.88
286.057	269.88
286.288	296.88
286.52	294.88
286.751	280.88
286.982	287.88
287.213	270.88
287.444	291.88
287.675	283.88
287.906	285.88
288.138	326.88
288.369	316.88
288.6	315.88
288.831	283.88
289.062	309.88
289.293	289.88
289.524	298.88
289.755	286.88
289.986	287.88
290.217	314.88
290.448	275.88
290.679	293.88
290.91	290.88
291.141	289.88
291.371	298.88
291.602	285.88
291.833	317.88
292.064	287.88
292.295	291.88
292.526	294.88
292.757	287.88
292.987	295.88
293.218	285.88
293.449	299.88
293.68	305.88
293.91	277.88
294.141	294.88
294.372	296.88
294.603	271.88
294.833	284.88
295.064	298.88
295.295	298.88
295.525	314.88
295.756	294.88
295.987	323.88
296.217	346.88
296.448	337.88
296.679	314.88
296.909	304.88
297.14	305.88
297.37	303.88
297.601	306.88
297.831	293.88
298.062	303.88
298.292	319.88
298.523	297.88
298.753	296.88
298.984	323.88
299.214	317.88
299.445	309.88
299.675	304.88
299.905	342.88
300.136	328.88
300.366	322.88
300.597	303.88
300.827	322.88
301.057	321.88
301.288	352.88
301.518	331.88
301.748	315.88
301.979	327.88
302.209	342.88
302.439	337.88
302.669	326.88
302.9	336.88
303.13	345.88
303.36	338.88
303.59	329.88
303.82	348.88
304.051	354.88
304.281	321.88
304.511	337.88
304.741	344.88
304.971	311.88
305.201	323.88
305.431	306.88
305.661	335.88
305.891	329.88
306.121	347.88
306.352	332.88
306.582	332.88
306.812	339.88
307.042	327.88
307.272	343.88
307.502	352.88
307.731	351.88
307.961	347.88
308.191	330.88
308.421	340.88
308.651	354.88
308.881	339.88
309.111	353.88
309.341	356.88
309.571	363.88
309.8	380.88
310.03	381.88
310.26	403.88
310.49	398.88
310.72	397.88
310.949	407.88
311.179	433.88
311.409	407.88
311.639	395.88
311.868	396.88
312.098	405.88
312.328	399.88
312.557	414.88
312.787	450.88
313.017	430.88
313.246	422.88
313.476	401.88
313.706	383.88
313.935	389.88
314.165	419.88
314.394	428.88
314.624	424.88
314.853	415.88
315.083	389.88
315.312	386.88
315.542	392.88
315.771	384.88
316.001	385.88
316.23	387.88
316.46	390.88
316.689	393.88
316.919	401.88
317.148	423.88
317.377	395.88
317.607	391.88
317.836	418.88
318.065	384.88
318.295	381.88
318.524	391.88
318.753	378.88
318.983	386.88
319.212	381.88
319.441	404.88
319.67	425.88
319.9	430.88
320.129	407.88
320.358	418.88
320.587	416.88
320.816	422.88
321.046	411.88
321.275	438.88
321.504	435.88
321.733	431.88
321.962	449.88
322.191	443.88
322.42	426.88
322.649	490.88
322.878	502.88
323.108	503.88
323.337	557.88
323.566	561.88
323.795	588.88
324.024	641.88
324.253	807.88
324.482	1129.88
324.71	1799.88
324.939	2530.88
325.168	2172.88
325.397	1157.88
325.626	775.88
325.855	634.88
326.084	581.88
326.313	567.88
326.542	590.88
326.77	597.88
326.999	742.88
327.228	1046.88
327.457	1534.88
327.686	1905.88
327.914	1319.88
328.143	851.88
328.372	729.88
328.6	658.88
328.829	640.88
329.058	635.88
329.287	671.88
329.515	625.88
329.744	583.88
329.972	578.88
330.201	606.88
330.43	660.88
330.658	651.88
330.887	707.88
331.115	670.88
331.344	591.88
331.572	544.88
331.801	540.88
332.03	532.88
332.258	508.88
332.486	494.88
332.715	475.88
332.943	487.88
333.172	474.88
333.4	487.88
333.629	501.88
333.857	505.88
334.085	499.88
334.314	527.88
334.542	572.88
334.771	606.88
334.999	550.88
335.227	513.88
335.455	482.88
335.684	496.88
335.912	486.88
336.14	469.88
336.369	471.88
336.597	466.88
336.825	479.88
337.053	456.88
337.281	451.88
337.51	455.88
337.738	455.88
337.966	446.88
338.194	468.88
338.422	454.88
338.65	457.88
338.878	441.88
339.106	449.88
339.334	436.88
339.562	453.88
339.79	430.88
340.018	448.88
340.246	477.88
340.474	450.88
340.702	465.88
340.93	439.88
341.158	439.88
341.386	443.88
341.614	432.88
341.842	454.88
342.07	450.88
342.298	440.88
342.526	446.88
342.754	433.88
342.981	424.88
343.209	445.88
343.437	455.88
343.665	453.88
343.893	443.88
344.12	439.88
344.348	440.88
344.576	446.88
344.804	454.88
345.031	484.88
345.259	472.88
345.487	479.88
345.714	469.88
345.942	458.88
346.17	464.88
346.397	451.88
346.625	438.88
346.853	424.88
347.08	456.88
347.308	449.88
347.535	462.88
347.763	459.88
347.99	455.88
348.218	457.88
348.445	455.88
348.673	462.88
348.9	467.88
349.128	447.88
349.355	425.88
349.583	441.88
349.81	439.88
350.037	434.88
350.265	421.88
350.492	430.88
350.72	432.88
350.947	430.88
351.174	467.88
351.402	469.88
351.629	444.88
351.856	463.88
352.083	463.88
352.311	473.88
352.538	478.88
352.765	493.88
352.992	481.88
353.22	460.88
353.447	451.88
353.674	427.88
353.901	431.88
354.128	422.88
354.355	438.88
354.583	412.88
354.81	421.88
355.037	414.88
355.264	395.88
355.491	417.88
355.718	386.88
355.945	407.88
356.172	410.88
356.399	415.88
356.626	413.88
356.853	410.88
357.08	410.88
357.307	423.88
357.534	422.88
357.761	411.88
357.988	426.88
358.215	409.88
358.441	433.88
358.668	425.88
358.895	421.88
359.122	453.88
359.349	443.88
359.576	451.88
359.802	459.88
360.029	510.88
360.256	549.88
360.483	507.88
360.709	470.88
360.936	479.88
361.163	453.88
361.39	490.88
361.616	454.88
361.843	453.88
362.07	452.88
362.296	455.88
362.523	437.88
362.749	441.88
362.976	467.88
363.203	448.88
363.429	418.88
363.656	428.88
363.882	445.88
364.109	456.88
364.335	453.88
364.562	418.88
364.788	441.88
365.015	453.88
365.241	449.88
365.468	428.88
365.694	433.88
365.92	450.88
366.147	431.88
366.373	409.88
366.599	455.88
366.826	428.88
367.052	411.88
367.278	439.88
367.505	428.88
367.731	451.88
367.957	441.88
368.184	450.88
368.41	455.88
368.636	441.88
368.862	449.88
369.089	443.88
369.315	446.88
369.541	435.88
369.767	443.88
369.993	428.88
370.219	428.88
370.445	421.88
370.672	421.88
370.898	430.88
371.124	432.88
371.35	424.88
371.576	437.88
371.802	436.88
372.028	431.88
372.254	442.88
372.48	450.88
372.706	417.88
372.932	416.88
373.158	443.88
373.384	433.88
373.61	430.88
373.835	433.88
374.061	415.88
374.287	439.88
374.513	439.88
374.739	446.88
374.965	448.88
375.191	439.88
375.416	457.88
375.642	433.88
375.868	434.88
376.094	430.88
376.319	426.88
376.545	448.88
376.771	444.88
376.997	415.88
377.222	408.88
377.448	418.88
377.674	411.88
377.899	427.88
378.125	438.88
378.35	426.88
378.576	442.88
378.802	428.88
379.027	428.88
379.253	425.88
379.478	445.88
379.704	436.88
379.929	451.88
380.155	433.88
380.38	437.88
380.606	426.88
380.831	435.88
381.057	437.88
381.282	421.88
381.507	422.88
381.733	422.88
381.958	432.88
382.184	432.88
382.409	443.88
382.634	454.88
382.86	440.88
383.085	410.88
383.31	440.88
383.535	465.88
383.761	445.88
383.986	453.88
384.211	453.88
384.436	444.88
384.662	455.88
384.887	450.88
385.112	428.88
385.337	459.88
385.562	470.88
385.787	427.88
386.013	441.88
386.238	474.88
386.463	467.88
386.688	456.88
386.913	450.88
387.138	448.88
387.363	469.88
387.588	444.88
387.813	456.88
388.038	467.88
388.263	479.88
388.488	450.88
388.713	478.88
388.938	464.88
389.163	476.88
389.387	470.88
389.612	447.88
389.837	431.88
390.062	461.88
390.287	467.88
390.512	475.88
390.736	482.88
390.961	487.88
391.186	469.88
391.411	453.88
391.636	468.88
391.86	469.88
392.085	476.88
392.31	480.88
392.534	471.88
392.759	474.88
392.984	459.88
393.208	481.88
393.433	483.88
393.658	479.88
393.882	476.88
394.107	459.88
394.331	483.88
394.556	465.88
394.78	464.88
395.005	468.88
395.229	485.88
395.454	489.88
395.678	488.88
395.903	461.88
396.127	530.88
396.352	510.88
396.576	470.88
396.801	481.88
397.025	505.88
397.249	492.88
397.474	494.88
397.698	505.88
397.922	497.88
398.147	546.88
398.371	537.88
398.595	511.88
398.82	519.88
399.044	505.88
399.268	542.88
399.492	572.88
399.717	596.88
399.941	595.88
400.165	642.88
400.389	648.88
400.613	609.88
400.837	537.88
401.062	528.88
401.286	549.88
401.51	542.88
401.734	524.88
401.958	531.88
402.182	541.88
402.406	532.88
402.63	553.88
402.854	546.88
403.078	546.88
403.302	542.88
403.526	583.88
403.75	566.88
403.974	549.88
404.198	511.88
404.422	561.88
404.645	576.88
404.869	577.88
405.093	597.88
405.317	648.88
405.541	653.88
405.765	634.88
405.988	604.88
406.212	601.88
406.436	611.88
406.66	643.88
406.883	609.88
407.107	638.88
407.331	666.88
407.555	732.88
407.778	758.88
408.002	671.88
408.226	618.88
408.449	610.88
408.673	610.88
408.896	657.88
409.12	689.88
409.344	651.88
409.567	607.88
409.791	593.88
410.014	567.88
410.238	557.88
410.461	523.88
410.685	587.88
410.908	583.88
411.132	609.88
411.355	662.88
411.578	661.88
411.802	592.88
412.025	569.88
412.249	577.88
412.472	587.88
412.695	658.88
412.919	630.88
413.142	574.88
413.365	571.88
413.589	545.88
413.812	538.88
414.035	538.88
414.258	514.88
414.482	537.88
414.705	528.88
414.928	531.88
415.151	519.88
415.374	525.88
415.597	527.88
415.821	543.88
416.044	541.88
416.267	525.88
416.49	539.88
416.713	527.88
416.936	535.88
417.159	539.88
417.382	534.88
417.605	541.88
417.828	556.88
418.051	575.88
418.274	539.88
418.497	552.88
418.72	551.88
418.943	531.88
419.166	545.88
419.389	598.88
419.611	574.88
419.834	568.88
420.057	585.88
420.28	562.88
420.503	552.88
420.726	563.88
420.948	569.88
421.171	624.88
421.394	675.88
421.617	609.88
421.839	585.88
422.062	574.88
422.285	573.88
422.507	648.88
422.73	728.88
422.953	719.88
423.175	650.88
423.398	607.88
423.621	583.88
423.843	619.88
424.066	609.88
424.288	617.88
424.511	647.88
424.733	720.88
424.956	781.88
425.178	750.88
425.401	740.88
425.623	781.88
425.846	689.88
426.068	664.88
426.291	613.88
426.513	642.88
426.735	636.88
426.958	684.88
427.18	799.88
427.402	911.88
427.625	989.88
427.847	903.88
428.069	793.88
428.292	729.88
428.514	645.88
428.736	591.88
428.958	602.88
429.181	577.88
429.403	590.88
429.625	598.88
429.847	635.88
430.069	718.88
430.292	705.88
430.514	607.88
430.736	591.88
430.958	594.88
431.18	550.88
431.402	566.88
431.624	537.88
431.846	558.88
432.068	537.88
432.29	544.88
432.512	546.88
432.734	551.88
432.956	578.88
433.178	538.88
433.4	575.88
433.622	540.88
433.844	544.88
434.066	527.88
434.287	545.88
434.509	518.88
434.731	579.88
434.953	592.88
435.175	589.88
435.397	610.88
435.618	634.88
435.84	687.88
436.062	746.88
436.284	847.88
436.505	735.88
436.727	651.88
436.949	625.88
437.17	608.88
437.392	575.88
437.614	607.88
437.835	655.88
438.057	742.88
438.278	860.88
438.5	837.88
438.721	907.88
438.943	907.88
439.165	744.88
439.386	651.88
439.608	667.88
439.829	658.88
440.05	681.88
440.272	723.88
440.493	696.88
440.715	639.88
440.936	587.88
441.158	619.88
441.379	588.88
441.6	603.88
441.822	621.88
442.043	629.88
442.264	769.88
442.486	798.88
442.707	700.88
442.928	665.88
443.149	660.88
443.371	684.88
443.592	718.88
443.813	823.88
444.034	879.88
444.255	733.88
444.476	664.88
444.698	655.88
444.919	627.88
445.14	707.88
445.361	681.88
445.582	683.88
445.803	770.88
446.024	838.88
446.245	874.88
446.466	802.88
446.687	689.88
446.908	664.88
447.129	603.88
447.35	601.88
447.571	597.88
447.792	589.88
448.013	601.88
448.234	639.88
448.455	683.88
448.675	798.88
448.896	894.88
449.117	817.88
449.338	768.88
449.559	850.88
449.779	954.88
450	778.88
450.221	653.88
450.442	631.88
450.662	586.88
450.883	567.88
451.104	600.88
451.324	590.88
451.545	575.88
451.766	550.88
451.986	535.88
452.207	523.88
452.428	539.88
452.648	520.88
452.869	547.88
453.089	531.88
453.31	557.88
453.53	535.88
453.751	521.88
453.971	552.88
454.192	557.88
454.412	522.88
454.633	526.88
454.853	534.88
455.073	533.88
455.294	569.88
455.514	633.88
455.734	634.88
455.955	522.88
456.175	521.88
456.395	487.88
456.616	485.88
456.836	492.88
457.056	489.88
457.276	472.88
457.497	478.88
457.717	504.88
457.937	515.88
458.157	507.88
458.377	526.88
458.598	550.88
458.818	596.88
459.038	698.88
459.258	711.88
459.478	598.88
459.698	560.88
459.918	533.88
460.138	532.88
460.358	546.88
460.578	535.88
460.798	539.88
461.018	520.88
461.238	531.88
461.458	547.88
461.678	526.88
461.898	545.88
462.118	525.88
462.338	554.88
462.558	540.88
462.777	543.88
462.997	555.88
463.217	554.88
463.437	554.88
463.657	565.88
463.876	569.88
464.096	586.88
464.316	584.88
464.536	567.88
464.755	589.88
464.975	572.88
465.195	656.88
465.414	767.88
465.634	671.88
465.854	594.88
466.073	578.88
466.293	545.88
466.512	528.88
466.732	539.88
466.951	543.88
467.171	532.88
467.391	525.88
467.61	565.88
467.829	543.88
468.049	557.88
468.268	541.88
468.488	529.88
468.707	534.88
468.927	538.88
469.146	514.88
469.365	532.88
469.585	521.88
469.804	509.88
470.023	542.88
470.243	538.88
470.462	550.88
470.681	592.88
470.901	574.88
471.12	546.88
471.339	552.88
471.558	542.88
471.777	527.88
471.997	549.88
472.216	551.88
472.435	604.88
472.654	589.88
472.873	550.88
473.092	535.88
473.311	538.88
473.53	545.88
473.749	551.88
473.968	633.88
474.187	737.88
474.406	751.88
474.625	630.88
474.844	563.88
475.063	567.88
475.282	543.88
475.501	538.88
475.72	553.88
475.939	551.88
476.158	543.88
476.377	573.88
476.596	562.88
476.814	558.88
477.033	609.88
477.252	582.88
477.471	581.88
477.69	571.88
477.908	608.88
478.127	577.88
478.346	594.88
478.564	600.88
478.783	601.88
479.002	618.88
479.22	645.88
479.439	637.88
479.658	652.88
479.876	682.88
480.095	654.88
480.313	681.88
480.532	664.88
480.751	685.88
480.969	682.88
481.188	766.88
481.406	806.88
481.624	727.88
481.843	674.88
482.061	672.88
482.28	681.88
482.498	647.88
482.717	668.88
482.935	652.88
483.153	647.88
483.372	631.88
483.59	641.88
483.808	674.88
484.027	640.88
484.245	658.88
484.463	661.88
484.681	671.88
484.9	658.88
485.118	638.88
485.336	685.88
485.554	651.88
485.772	675.88
485.99	685.88
486.209	687.88
486.427	710.88
486.645	701.88
486.863	711.88
487.081	721.88
487.299	725.88
487.517	705.88
487.735	703.88
487.953	711.88
488.171	724.88
488.389	757.88
488.607	712.88
488.825	728.88
489.043	716.88
489.261	741.88
489.479	734.88
489.696	733.88
489.914	715.88
490.132	745.88
490.35	745.88
490.568	748.88
490.786	751.88
491.003	766.88
491.221	797.88
491.439	823.88
491.657	817.88
491.874	821.88
492.092	827.88
492.31	827.88
492.527	855.88
492.745	853.88
492.963	862.88
493.18	850.88
493.398	866.88
493.615	858.88
493.833	847.88
494.05	863.88
494.268	843.88
494.485	840.88
494.703	865.88
494.92	866.88
495.138	859.88
495.355	854.88
495.573	874.88
495.79	863.88
496.008	892.88
496.225	875.88
496.442	869.88
496.66	860.88
496.877	848.88
497.094	878.88
497.312	866.88
497.529	869.88
497.746	918.88
497.963	909.88
498.181	909.88
498.398	876.88
498.615	908.88
498.832	917.88
499.049	906.88
499.267	925.88
499.484	997.88
499.701	1011.88
499.918	986.88
500.135	1027.88
500.352	1090.88
500.569	1088.88
500.786	1085.88
501.003	1048.88
501.22	1029.88
501.437	1027.88
501.654	1013.88
