Data from 1970.PennyLincolnUp.Lamp.En5.5.200Scan.071719.P1._HRD10591_15-13-42-846.txt Node
Date: Thu Jul 18 15:13:42 EDT 2019
User: cochatt
Spectrometer: HR+D1059
Trigger mode: 1
Integration Time (sec): 1.000000E-1
Scans to average: 1
Electric dark correction enabled: true
Nonlinearity correction enabled: false
Boxcar width: 0
XAxis mode: Wavelengths
Number of Pixels in Spectrum: 2048
>>>>>Begin Spectral Data<<<<<
223.165	-25.19
223.4	-25.19
223.635	-25.19
223.869	-28.19
224.104	-25.19
224.338	-6.19
224.573	-9.19
224.808	-2.19
225.042	-19.19
225.277	-8.19
225.511	-9.19
225.746	11.81
225.98	5.81
226.215	14.81
226.449	11.81
226.683	16.81
226.918	33.81
227.152	37.81
227.387	20.81
227.621	33.81
227.856	43.81
228.09	42.81
228.324	45.81
228.559	67.81
228.793	69.81
229.027	118.81
229.262	126.81
229.496	119.81
229.73	140.81
229.964	148.81
230.199	129.81
230.433	113.81
230.667	117.81
230.901	124.81
231.136	115.81
231.37	126.81
231.604	122.81
231.838	118.81
232.072	109.81
232.306	120.81
232.541	117.81
232.775	124.81
233.009	118.81
233.243	115.81
233.477	113.81
233.711	121.81
233.945	103.81
234.179	115.81
234.413	131.81
234.647	120.81
234.881	124.81
235.115	108.81
235.349	128.81
235.583	128.81
235.817	121.81
236.051	118.81
236.285	126.81
236.519	127.81
236.753	133.81
236.987	162.81
237.221	179.81
237.455	220.81
237.689	195.81
237.922	133.81
238.156	134.81
238.39	123.81
238.624	126.81
238.858	124.81
239.091	126.81
239.325	133.81
239.559	115.81
239.793	115.81
240.027	130.81
240.26	136.81
240.494	167.81
240.728	156.81
240.961	146.81
241.195	132.81
241.429	141.81
241.662	146.81
241.896	118.81
242.13	128.81
242.363	123.81
242.597	140.81
242.83	146.81
243.064	137.81
243.298	146.81
243.531	145.81
243.765	138.81
243.998	140.81
244.232	138.81
244.465	129.81
244.699	144.81
244.932	144.81
245.166	148.81
245.399	153.81
245.633	140.81
245.866	164.81
246.099	154.81
246.333	148.81
246.566	158.81
246.8	152.81
247.033	158.81
247.266	170.81
247.5	160.81
247.733	151.81
247.966	179.81
248.2	174.81
248.433	192.81
248.666	172.81
248.899	194.81
249.133	197.81
249.366	216.81
249.599	200.81
249.832	188.81
250.066	188.81
250.299	196.81
250.532	219.81
250.765	200.81
250.998	230.81
251.231	256.81
251.465	230.81
251.698	220.81
251.931	218.81
252.164	201.81
252.397	214.81
252.63	221.81
252.863	216.81
253.096	221.81
253.329	240.81
253.562	233.81
253.795	241.81
254.028	230.81
254.261	225.81
254.494	236.81
254.727	283.81
254.96	295.81
255.193	299.81
255.426	258.81
255.659	239.81
255.892	241.81
256.124	238.81
256.357	237.81
256.59	233.81
256.823	208.81
257.056	210.81
257.289	212.81
257.521	204.81
257.754	214.81
257.987	203.81
258.22	210.81
258.452	233.81
258.685	215.81
258.918	220.81
259.151	231.81
259.383	221.81
259.616	220.81
259.849	235.81
260.081	244.81
260.314	246.81
260.547	236.81
260.779	250.81
261.012	229.81
261.244	246.81
261.477	219.81
261.71	229.81
261.942	219.81
262.175	210.81
262.407	236.81
262.64	204.81
262.872	211.81
263.105	211.81
263.337	224.81
263.57	224.81
263.802	209.81
264.035	208.81
264.267	208.81
264.499	211.81
264.732	209.81
264.964	218.81
265.197	221.81
265.429	226.81
265.661	206.81
265.894	212.81
266.126	214.81
266.358	206.81
266.591	211.81
266.823	221.81
267.055	220.81
267.287	202.81
267.52	212.81
267.752	213.81
267.984	223.81
268.216	233.81
268.448	224.81
268.681	215.81
268.913	227.81
269.145	253.81
269.377	262.81
269.609	266.81
269.841	260.81
270.073	274.81
270.306	282.81
270.538	312.81
270.77	314.81
271.002	291.81
271.234	290.81
271.466	300.81
271.698	301.81
271.93	305.81
272.162	304.81
272.394	291.81
272.626	285.81
272.858	280.81
273.09	271.81
273.322	281.81
273.553	255.81
273.785	258.81
274.017	266.81
274.249	254.81
274.481	273.81
274.713	264.81
274.945	256.81
275.176	238.81
275.408	256.81
275.64	256.81
275.872	260.81
276.104	255.81
276.335	267.81
276.567	266.81
276.799	293.81
277.031	289.81
277.262	282.81
277.494	311.81
277.726	302.81
277.957	279.81
278.189	259.81
278.421	266.81
278.652	260.81
278.884	248.81
279.115	261.81
279.347	272.81
279.579	260.81
279.81	266.81
280.042	256.81
280.273	268.81
280.505	243.81
280.736	258.81
280.968	240.81
281.199	249.81
281.431	246.81
281.662	247.81
281.894	242.81
282.125	244.81
282.356	277.81
282.588	301.81
282.819	261.81
283.051	276.81
283.282	248.81
283.513	262.81
283.745	263.81
283.976	257.81
284.207	269.81
284.439	274.81
284.67	259.81
284.901	265.81
285.132	249.81
285.364	246.81
285.595	263.81
285.826	257.81
286.057	258.81
286.288	265.81
286.52	268.81
286.751	249.81
286.982	265.81
287.213	262.81
287.444	232.81
287.675	271.81
287.906	248.81
288.138	276.81
288.369	285.81
288.6	277.81
288.831	267.81
289.062	291.81
289.293	258.81
289.524	268.81
289.755	276.81
289.986	274.81
290.217	276.81
290.448	264.81
290.679	257.81
290.91	275.81
291.141	257.81
291.371	258.81
291.602	257.81
291.833	276.81
292.064	254.81
292.295	254.81
292.526	261.81
292.757	256.81
292.987	245.81
293.218	251.81
293.449	276.81
293.68	279.81
293.91	264.81
294.141	265.81
294.372	284.81
294.603	278.81
294.833	270.81
295.064	254.81
295.295	269.81
295.525	286.81
295.756	272.81
295.987	288.81
296.217	287.81
296.448	295.81
296.679	283.81
296.909	266.81
297.14	271.81
297.37	275.81
297.601	269.81
297.831	289.81
298.062	277.81
298.292	278.81
298.523	285.81
298.753	282.81
298.984	266.81
299.214	280.81
299.445	294.81
299.675	282.81
299.905	297.81
300.136	312.81
300.366	301.81
300.597	296.81
300.827	292.81
301.057	305.81
301.288	295.81
301.518	302.81
301.748	298.81
301.979	292.81
302.209	289.81
302.439	305.81
302.669	285.81
302.9	304.81
303.13	284.81
303.36	302.81
303.59	322.81
303.82	308.81
304.051	309.81
304.281	311.81
304.511	301.81
304.741	288.81
304.971	287.81
305.201	281.81
305.431	300.81
305.661	300.81
305.891	292.81
306.121	303.81
306.352	311.81
306.582	312.81
306.812	304.81
307.042	310.81
307.272	321.81
307.502	298.81
307.731	301.81
307.961	288.81
308.191	314.81
308.421	313.81
308.651	309.81
308.881	319.81
309.111	326.81
309.341	328.81
309.571	316.81
309.8	329.81
310.03	353.81
310.26	320.81
310.49	326.81
310.72	363.81
310.949	365.81
311.179	378.81
311.409	368.81
311.639	362.81
311.868	338.81
312.098	340.81
312.328	357.81
312.557	352.81
312.787	381.81
313.017	386.81
313.246	363.81
313.476	352.81
313.706	348.81
313.935	353.81
314.165	379.81
314.394	388.81
314.624	377.81
314.853	359.81
315.083	350.81
315.312	350.81
315.542	347.81
315.771	334.81
316.001	342.81
316.23	351.81
316.46	358.81
316.689	357.81
316.919	345.81
317.148	371.81
317.377	378.81
317.607	351.81
317.836	356.81
318.065	361.81
318.295	352.81
318.524	358.81
318.753	336.81
318.983	338.81
319.212	347.81
319.441	364.81
319.67	372.81
319.9	369.81
320.129	361.81
320.358	332.81
320.587	359.81
320.816	388.81
321.046	378.81
321.275	372.81
321.504	370.81
321.733	360.81
321.962	384.81
322.191	380.81
322.42	396.81
322.649	422.81
322.878	410.81
323.108	440.81
323.337	455.81
323.566	497.81
323.795	526.81
324.024	552.81
324.253	651.81
324.482	914.81
324.71	1444.81
324.939	2014.81
325.168	1762.81
325.397	948.81
325.626	660.81
325.855	535.81
326.084	493.81
326.313	487.81
326.542	502.81
326.77	523.81
326.999	612.81
327.228	844.81
327.457	1281.81
327.686	1529.81
327.914	1067.81
328.143	720.81
328.372	624.81
328.6	582.81
328.829	562.81
329.058	574.81
329.287	551.81
329.515	545.81
329.744	519.81
329.972	489.81
330.201	490.81
330.43	562.81
330.658	585.81
330.887	596.81
331.115	580.81
331.344	506.81
331.572	445.81
331.801	483.81
332.03	457.81
332.258	441.81
332.486	436.81
332.715	403.81
332.943	432.81
333.172	435.81
333.4	422.81
333.629	423.81
333.857	448.81
334.085	457.81
334.314	480.81
334.542	508.81
334.771	501.81
334.999	458.81
335.227	450.81
335.455	433.81
335.684	406.81
335.912	416.81
336.14	394.81
336.369	412.81
336.597	413.81
336.825	414.81
337.053	424.81
337.281	405.81
337.51	406.81
337.738	407.81
337.966	413.81
338.194	414.81
338.422	422.81
338.65	384.81
338.878	398.81
339.106	405.81
339.334	392.81
339.562	406.81
339.79	420.81
340.018	418.81
340.246	414.81
340.474	421.81
340.702	409.81
340.93	389.81
341.158	421.81
341.386	405.81
341.614	417.81
341.842	417.81
342.07	395.81
342.298	392.81
342.526	400.81
342.754	384.81
342.981	369.81
343.209	394.81
343.437	393.81
343.665	398.81
343.893	396.81
344.12	404.81
344.348	404.81
344.576	406.81
344.804	440.81
345.031	409.81
345.259	435.81
345.487	420.81
345.714	414.81
345.942	410.81
346.17	394.81
346.397	397.81
346.625	388.81
346.853	389.81
347.08	398.81
347.308	408.81
347.535	411.81
347.763	417.81
347.99	413.81
348.218	416.81
348.445	418.81
348.673	415.81
348.9	406.81
349.128	394.81
349.355	372.81
349.583	384.81
349.81	379.81
350.037	388.81
350.265	396.81
350.492	382.81
350.72	387.81
350.947	371.81
351.174	395.81
351.402	418.81
351.629	420.81
351.856	396.81
352.083	417.81
352.311	428.81
352.538	425.81
352.765	418.81
352.992	434.81
353.22	427.81
353.447	403.81
353.674	408.81
353.901	374.81
354.128	378.81
354.355	381.81
354.583	371.81
354.81	382.81
355.037	408.81
355.264	389.81
355.491	380.81
355.718	388.81
355.945	369.81
356.172	363.81
356.399	374.81
356.626	375.81
356.853	355.81
357.08	388.81
357.307	386.81
357.534	387.81
357.761	385.81
357.988	376.81
358.215	379.81
358.441	388.81
358.668	380.81
358.895	387.81
359.122	380.81
359.349	389.81
359.576	419.81
359.802	423.81
360.029	429.81
360.256	465.81
360.483	461.81
360.709	423.81
360.936	417.81
361.163	425.81
361.39	414.81
361.616	420.81
361.843	385.81
362.07	422.81
362.296	404.81
362.523	410.81
362.749	399.81
362.976	403.81
363.203	418.81
363.429	394.81
363.656	403.81
363.882	378.81
364.109	387.81
364.335	383.81
364.562	380.81
364.788	370.81
365.015	398.81
365.241	403.81
365.468	388.81
365.694	408.81
365.92	403.81
366.147	393.81
366.373	396.81
366.599	403.81
366.826	383.81
367.052	377.81
367.278	394.81
367.505	386.81
367.731	419.81
367.957	412.81
368.184	390.81
368.41	442.81
368.636	420.81
368.862	406.81
369.089	413.81
369.315	408.81
369.541	377.81
369.767	380.81
369.993	385.81
370.219	406.81
370.445	385.81
370.672	396.81
370.898	393.81
371.124	391.81
371.35	385.81
371.576	400.81
371.802	396.81
372.028	401.81
372.254	396.81
372.48	406.81
372.706	398.81
372.932	409.81
373.158	384.81
373.384	408.81
373.61	413.81
373.835	408.81
374.061	386.81
374.287	399.81
374.513	410.81
374.739	403.81
374.965	410.81
375.191	392.81
375.416	403.81
375.642	392.81
375.868	416.81
376.094	410.81
376.319	397.81
376.545	377.81
376.771	399.81
376.997	389.81
377.222	408.81
377.448	399.81
377.674	393.81
377.899	376.81
378.125	402.81
378.35	389.81
378.576	402.81
378.802	415.81
379.027	396.81
379.253	400.81
379.478	406.81
379.704	384.81
379.929	396.81
380.155	419.81
380.38	409.81
380.606	395.81
380.831	390.81
381.057	394.81
381.282	388.81
381.507	382.81
381.733	411.81
381.958	403.81
382.184	405.81
382.409	412.81
382.634	390.81
382.86	409.81
383.085	410.81
383.31	415.81
383.535	402.81
383.761	417.81
383.986	402.81
384.211	405.81
384.436	406.81
384.662	418.81
384.887	411.81
385.112	426.81
385.337	422.81
385.562	419.81
385.787	442.81
386.013	430.81
386.238	454.81
386.463	434.81
386.688	421.81
386.913	416.81
387.138	436.81
387.363	438.81
387.588	419.81
387.813	436.81
388.038	436.81
388.263	427.81
388.488	416.81
388.713	436.81
388.938	445.81
389.163	449.81
389.387	415.81
389.612	420.81
389.837	435.81
390.062	428.81
390.287	440.81
390.512	429.81
390.736	450.81
390.961	416.81
391.186	443.81
391.411	454.81
391.636	461.81
391.86	451.81
392.085	426.81
392.31	438.81
392.534	452.81
392.759	447.81
392.984	446.81
393.208	421.81
393.433	443.81
393.658	463.81
393.882	447.81
394.107	425.81
394.331	441.81
394.556	420.81
394.78	429.81
395.005	442.81
395.229	429.81
395.454	442.81
395.678	443.81
395.903	470.81
396.127	471.81
396.352	486.81
396.576	449.81
396.801	441.81
397.025	464.81
397.249	452.81
397.474	483.81
397.698	462.81
397.922	462.81
398.147	470.81
398.371	471.81
398.595	475.81
398.82	500.81
399.044	480.81
399.268	500.81
399.492	517.81
399.717	538.81
399.941	553.81
400.165	580.81
400.389	596.81
400.613	548.81
400.837	520.81
401.062	518.81
401.286	516.81
401.51	504.81
401.734	487.81
401.958	475.81
402.182	481.81
402.406	476.81
402.63	522.81
402.854	506.81
403.078	504.81
403.302	515.81
403.526	519.81
403.75	508.81
403.974	507.81
404.198	505.81
404.422	516.81
404.645	536.81
404.869	511.81
405.093	539.81
405.317	595.81
405.541	635.81
405.765	566.81
405.988	538.81
406.212	553.81
406.436	577.81
406.66	599.81
406.883	560.81
407.107	579.81
407.331	630.81
407.555	686.81
407.778	686.81
408.002	635.81
408.226	580.81
408.449	555.81
408.673	560.81
408.896	592.81
409.12	644.81
409.344	612.81
409.567	564.81
409.791	563.81
410.014	519.81
410.238	542.81
410.461	516.81
410.685	532.81
410.908	552.81
411.132	564.81
411.355	593.81
411.578	603.81
411.802	536.81
412.025	500.81
412.249	532.81
412.472	563.81
412.695	585.81
412.919	586.81
413.142	526.81
413.365	523.81
413.589	507.81
413.812	491.81
414.035	505.81
414.258	489.81
414.482	488.81
414.705	504.81
414.928	493.81
415.151	496.81
415.374	510.81
415.597	506.81
415.821	473.81
416.044	509.81
416.267	497.81
416.49	503.81
416.713	486.81
416.936	488.81
417.159	488.81
417.382	501.81
417.605	512.81
417.828	508.81
418.051	518.81
418.274	516.81
418.497	510.81
418.72	526.81
418.943	515.81
419.166	514.81
419.389	539.81
419.611	514.81
419.834	518.81
420.057	541.81
420.28	538.81
420.503	514.81
420.726	539.81
420.948	551.81
421.171	604.81
421.394	625.81
421.617	544.81
421.839	527.81
422.062	541.81
422.285	548.81
422.507	589.81
422.73	676.81
422.953	644.81
423.175	579.81
423.398	561.81
423.621	550.81
423.843	584.81
424.066	549.81
424.288	546.81
424.511	586.81
424.733	624.81
424.956	701.81
425.178	693.81
425.401	725.81
425.623	701.81
425.846	615.81
426.068	560.81
426.291	548.81
426.513	574.81
426.735	581.81
426.958	635.81
427.18	691.81
427.402	814.81
427.625	912.81
427.847	802.81
428.069	690.81
428.292	626.81
428.514	590.81
428.736	554.81
428.958	547.81
429.181	533.81
429.403	524.81
429.625	546.81
429.847	582.81
430.069	640.81
430.292	640.81
430.514	558.81
430.736	553.81
430.958	550.81
431.18	524.81
431.402	505.81
431.624	502.81
431.846	494.81
432.068	493.81
432.29	501.81
432.512	498.81
432.734	510.81
432.956	515.81
433.178	530.81
433.4	521.81
433.622	529.81
433.844	514.81
434.066	493.81
434.287	514.81
434.509	492.81
434.731	512.81
434.953	499.81
435.175	570.81
435.397	564.81
435.618	575.81
435.84	620.81
436.062	717.81
436.284	754.81
436.505	632.81
436.727	576.81
436.949	537.81
437.17	530.81
437.392	552.81
437.614	562.81
437.835	598.81
438.057	677.81
438.278	772.81
438.5	792.81
438.721	822.81
438.943	811.81
439.165	665.81
439.386	606.81
439.608	611.81
439.829	600.81
440.05	620.81
440.272	633.81
440.493	602.81
440.715	577.81
440.936	552.81
441.158	562.81
441.379	534.81
441.6	561.81
441.822	582.81
442.043	628.81
442.264	680.81
442.486	722.81
442.707	651.81
442.928	612.81
443.149	578.81
443.371	600.81
443.592	672.81
443.813	757.81
444.034	804.81
444.255	698.81
444.476	593.81
444.698	572.81
444.919	564.81
445.14	684.81
445.361	630.81
445.582	633.81
445.803	698.81
446.024	777.81
446.245	774.81
446.466	720.81
446.687	635.81
446.908	583.81
447.129	552.81
447.35	541.81
447.571	540.81
447.792	534.81
448.013	557.81
448.234	560.81
448.455	627.81
448.675	720.81
448.896	812.81
449.117	739.81
449.338	662.81
449.559	783.81
449.779	857.81
450	710.81
450.221	600.81
450.442	572.81
450.662	540.81
450.883	520.81
451.104	568.81
451.324	533.81
451.545	502.81
451.766	509.81
451.986	501.81
452.207	489.81
452.428	466.81
452.648	488.81
452.869	491.81
453.089	503.81
453.31	510.81
453.53	488.81
453.751	479.81
453.971	487.81
454.192	490.81
454.412	522.81
454.633	475.81
454.853	464.81
455.073	466.81
455.294	486.81
455.514	584.81
455.734	570.81
455.955	508.81
456.175	473.81
456.395	473.81
456.616	456.81
456.836	456.81
457.056	451.81
457.276	455.81
457.497	452.81
457.717	445.81
457.937	461.81
458.157	475.81
458.377	484.81
458.598	473.81
458.818	546.81
459.038	616.81
459.258	620.81
459.478	560.81
459.698	520.81
459.918	509.81
460.138	502.81
460.358	501.81
460.578	496.81
460.798	501.81
461.018	489.81
461.238	493.81
461.458	507.81
461.678	493.81
461.898	514.81
462.118	506.81
462.338	520.81
462.558	515.81
462.777	523.81
462.997	526.81
463.217	554.81
463.437	542.81
463.657	540.81
463.876	514.81
464.096	521.81
464.316	517.81
464.536	569.81
464.755	538.81
464.975	538.81
465.195	586.81
465.414	672.81
465.634	596.81
465.854	550.81
466.073	512.81
466.293	511.81
466.512	502.81
466.732	495.81
466.951	507.81
467.171	491.81
467.391	501.81
467.61	518.81
467.829	516.81
468.049	501.81
468.268	500.81
468.488	476.81
468.707	492.81
468.927	474.81
469.146	466.81
469.365	481.81
469.585	485.81
469.804	491.81
470.023	491.81
470.243	490.81
470.462	510.81
470.681	509.81
470.901	500.81
471.12	531.81
471.339	517.81
471.558	510.81
471.777	514.81
471.997	488.81
472.216	506.81
472.435	518.81
472.654	524.81
472.873	478.81
473.092	510.81
473.311	482.81
473.53	493.81
473.749	505.81
473.968	552.81
474.187	646.81
474.406	652.81
474.625	571.81
474.844	520.81
475.063	497.81
475.282	497.81
475.501	518.81
475.72	522.81
475.939	534.81
476.158	514.81
476.377	525.81
476.596	530.81
476.814	547.81
477.033	541.81
477.252	539.81
477.471	533.81
477.69	566.81
477.908	532.81
478.127	545.81
478.346	548.81
478.564	557.81
478.783	552.81
479.002	565.81
479.22	583.81
479.439	570.81
479.658	609.81
479.876	595.81
480.095	626.81
480.313	639.81
480.532	624.81
480.751	607.81
480.969	637.81
481.188	677.81
481.406	712.81
481.624	655.81
481.843	613.81
482.061	608.81
482.28	623.81
482.498	587.81
482.717	627.81
482.935	602.81
483.153	598.81
483.372	589.81
483.59	603.81
483.808	602.81
484.027	585.81
484.245	599.81
484.463	593.81
484.681	628.81
484.9	606.81
485.118	626.81
485.336	608.81
485.554	614.81
485.772	644.81
485.99	617.81
486.209	620.81
486.427	616.81
486.645	637.81
486.863	673.81
487.081	680.81
487.299	674.81
487.517	654.81
487.735	645.81
487.953	650.81
488.171	634.81
488.389	655.81
488.607	652.81
488.825	650.81
489.043	644.81
489.261	658.81
489.479	638.81
489.696	678.81
489.914	661.81
490.132	672.81
490.35	698.81
490.568	674.81
490.786	692.81
491.003	717.81
491.221	724.81
491.439	750.81
491.657	769.81
491.874	747.81
492.092	731.81
492.31	767.81
492.527	746.81
492.745	772.81
492.963	774.81
493.18	778.81
493.398	798.81
493.615	799.81
493.833	786.81
494.05	784.81
494.268	747.81
494.485	780.81
494.703	784.81
494.92	770.81
495.138	798.81
495.355	786.81
495.573	786.81
495.79	779.81
496.008	790.81
496.225	789.81
496.442	793.81
496.66	788.81
496.877	776.81
497.094	772.81
497.312	794.81
497.529	803.81
497.746	831.81
497.963	810.81
498.181	856.81
498.398	836.81
498.615	842.81
498.832	865.81
499.049	851.81
499.267	878.81
499.484	886.81
499.701	925.81
499.918	915.81
500.135	937.81
500.352	1014.81
500.569	976.81
500.786	980.81
501.003	1017.81
501.22	975.81
501.437	967.81
501.654	930.81
501.871	949.81
