Data from 1970.PennyLincolnUp.Lamp.En5.5.200Scan.071719.P1._HRD10591_15-14-57-842.txt Node
Date: Thu Jul 18 15:14:57 EDT 2019
User: cochatt
Spectrometer: HR+D1059
Trigger mode: 1
Integration Time (sec): 1.000000E-1
Scans to average: 1
Electric dark correction enabled: true
Nonlinearity correction enabled: false
Boxcar width: 0
XAxis mode: Wavelengths
Number of Pixels in Spectrum: 2048
>>>>>Begin Spectral Data<<<<<
223.165	-10.75
223.4	-10.75
223.635	-10.75
223.869	-7.75
224.104	-17.75
224.338	-19.75
224.573	-19.75
224.808	-10.75
225.042	-13.75
225.277	-18.75
225.511	5.25
225.746	0.25
225.98	10.25
226.215	4.25
226.449	20.25
226.683	32.25
226.918	19.25
227.152	27.25
227.387	27.25
227.621	28.25
227.856	41.25
228.09	28.25
228.324	58.25
228.559	35.25
228.793	67.25
229.027	112.25
229.262	119.25
229.496	145.25
229.73	135.25
229.964	164.25
230.199	128.25
230.433	120.25
230.667	120.25
230.901	116.25
231.136	128.25
231.37	120.25
231.604	115.25
231.838	108.25
232.072	126.25
232.306	132.25
232.541	96.25
232.775	131.25
233.009	120.25
233.243	105.25
233.477	112.25
233.711	116.25
233.945	108.25
234.179	122.25
234.413	138.25
234.647	120.25
234.881	105.25
235.115	126.25
235.349	112.25
235.583	136.25
235.817	137.25
236.051	125.25
236.285	124.25
236.519	146.25
236.753	133.25
236.987	151.25
237.221	206.25
237.455	261.25
237.689	212.25
237.922	147.25
238.156	124.25
238.39	154.25
238.624	133.25
238.858	128.25
239.091	142.25
239.325	125.25
239.559	130.25
239.793	142.25
240.027	143.25
240.26	148.25
240.494	163.25
240.728	157.25
240.961	154.25
241.195	164.25
241.429	154.25
241.662	148.25
241.896	129.25
242.13	146.25
242.363	153.25
242.597	146.25
242.83	128.25
243.064	158.25
243.298	164.25
243.531	148.25
243.765	152.25
243.998	148.25
244.232	143.25
244.465	139.25
244.699	162.25
244.932	159.25
245.166	158.25
245.399	156.25
245.633	146.25
245.866	148.25
246.099	155.25
246.333	153.25
246.566	159.25
246.8	146.25
247.033	162.25
247.266	169.25
247.5	188.25
247.733	197.25
247.966	184.25
248.2	190.25
248.433	198.25
248.666	192.25
248.899	210.25
249.133	215.25
249.366	220.25
249.599	219.25
249.832	193.25
250.066	201.25
250.299	213.25
250.532	205.25
250.765	220.25
250.998	233.25
251.231	234.25
251.465	225.25
251.698	226.25
251.931	240.25
252.164	221.25
252.397	233.25
252.63	224.25
252.863	235.25
253.096	228.25
253.329	250.25
253.562	253.25
253.795	238.25
254.028	236.25
254.261	252.25
254.494	269.25
254.727	283.25
254.96	315.25
255.193	317.25
255.426	293.25
255.659	262.25
255.892	278.25
256.124	263.25
256.357	260.25
256.59	240.25
256.823	227.25
257.056	249.25
257.289	219.25
257.521	222.25
257.754	235.25
257.987	240.25
258.22	242.25
258.452	243.25
258.685	219.25
258.918	214.25
259.151	230.25
259.383	237.25
259.616	236.25
259.849	248.25
260.081	258.25
260.314	273.25
260.547	284.25
260.779	288.25
261.012	265.25
261.244	247.25
261.477	243.25
261.71	245.25
261.942	253.25
262.175	256.25
262.407	255.25
262.64	242.25
262.872	227.25
263.105	231.25
263.337	222.25
263.57	227.25
263.802	223.25
264.035	218.25
264.267	214.25
264.499	210.25
264.732	237.25
264.964	217.25
265.197	205.25
265.429	230.25
265.661	222.25
265.894	233.25
266.126	227.25
266.358	226.25
266.591	249.25
266.823	226.25
267.055	242.25
267.287	231.25
267.52	232.25
267.752	239.25
267.984	256.25
268.216	223.25
268.448	248.25
268.681	243.25
268.913	274.25
269.145	269.25
269.377	302.25
269.609	280.25
269.841	288.25
270.073	275.25
270.306	321.25
270.538	340.25
270.77	330.25
271.002	337.25
271.234	304.25
271.466	341.25
271.698	345.25
271.93	343.25
272.162	353.25
272.394	365.25
272.626	329.25
272.858	324.25
273.09	285.25
273.322	295.25
273.553	289.25
273.785	284.25
274.017	278.25
274.249	286.25
274.481	293.25
274.713	286.25
274.945	280.25
275.176	269.25
275.408	266.25
275.64	288.25
275.872	280.25
276.104	271.25
276.335	284.25
276.567	291.25
276.799	300.25
277.031	318.25
277.262	343.25
277.494	318.25
277.726	335.25
277.957	306.25
278.189	291.25
278.421	278.25
278.652	275.25
278.884	274.25
279.115	281.25
279.347	294.25
279.579	280.25
279.81	264.25
280.042	287.25
280.273	268.25
280.505	266.25
280.736	276.25
280.968	263.25
281.199	291.25
281.431	265.25
281.662	268.25
281.894	267.25
282.125	272.25
282.356	297.25
282.588	318.25
282.819	311.25
283.051	296.25
283.282	267.25
283.513	278.25
283.745	277.25
283.976	283.25
284.207	292.25
284.439	268.25
284.67	284.25
284.901	276.25
285.132	260.25
285.364	269.25
285.595	274.25
285.826	284.25
286.057	279.25
286.288	272.25
286.52	292.25
286.751	266.25
286.982	291.25
287.213	275.25
287.444	277.25
287.675	278.25
287.906	302.25
288.138	306.25
288.369	290.25
288.6	299.25
288.831	294.25
289.062	291.25
289.293	270.25
289.524	284.25
289.755	308.25
289.986	279.25
290.217	291.25
290.448	296.25
290.679	295.25
290.91	283.25
291.141	285.25
291.371	282.25
291.602	288.25
291.833	297.25
292.064	287.25
292.295	296.25
292.526	288.25
292.757	286.25
292.987	275.25
293.218	277.25
293.449	303.25
293.68	304.25
293.91	285.25
294.141	281.25
294.372	287.25
294.603	288.25
294.833	277.25
295.064	284.25
295.295	286.25
295.525	285.25
295.756	296.25
295.987	304.25
296.217	325.25
296.448	348.25
296.679	320.25
296.909	296.25
297.14	309.25
297.37	301.25
297.601	324.25
297.831	308.25
298.062	266.25
298.292	307.25
298.523	305.25
298.753	316.25
298.984	308.25
299.214	284.25
299.445	307.25
299.675	308.25
299.905	322.25
300.136	322.25
300.366	300.25
300.597	306.25
300.827	326.25
301.057	336.25
301.288	322.25
301.518	320.25
301.748	320.25
301.979	304.25
302.209	316.25
302.439	333.25
302.669	316.25
302.9	349.25
303.13	315.25
303.36	332.25
303.59	325.25
303.82	333.25
304.051	341.25
304.281	344.25
304.511	334.25
304.741	323.25
304.971	327.25
305.201	310.25
305.431	308.25
305.661	330.25
305.891	338.25
306.121	326.25
306.352	336.25
306.582	351.25
306.812	336.25
307.042	325.25
307.272	328.25
307.502	345.25
307.731	317.25
307.961	341.25
308.191	336.25
308.421	331.25
308.651	334.25
308.881	320.25
309.111	357.25
309.341	349.25
309.571	354.25
309.8	375.25
310.03	374.25
310.26	398.25
310.49	396.25
310.72	403.25
310.949	410.25
311.179	420.25
311.409	401.25
311.639	388.25
311.868	392.25
312.098	404.25
312.328	396.25
312.557	417.25
312.787	450.25
313.017	421.25
313.246	384.25
313.476	391.25
313.706	376.25
313.935	389.25
314.165	406.25
314.394	434.25
314.624	425.25
314.853	414.25
315.083	380.25
315.312	381.25
315.542	377.25
315.771	375.25
316.001	371.25
316.23	380.25
316.46	374.25
316.689	380.25
316.919	397.25
317.148	413.25
317.377	408.25
317.607	394.25
317.836	397.25
318.065	378.25
318.295	371.25
318.524	380.25
318.753	378.25
318.983	393.25
319.212	383.25
319.441	394.25
319.67	390.25
319.9	387.25
320.129	399.25
320.358	381.25
320.587	415.25
320.816	416.25
321.046	409.25
321.275	419.25
321.504	426.25
321.733	411.25
321.962	435.25
322.191	441.25
322.42	453.25
322.649	478.25
322.878	506.25
323.108	491.25
323.337	528.25
323.566	567.25
323.795	576.25
324.024	658.25
324.253	796.25
324.482	1148.25
324.71	1799.25
324.939	2462.25
325.168	2132.25
325.397	1156.25
325.626	783.25
325.855	611.25
326.084	606.25
326.313	580.25
326.542	553.25
326.77	610.25
326.999	740.25
327.228	980.25
327.457	1550.25
327.686	1875.25
327.914	1266.25
328.143	849.25
328.372	732.25
328.6	696.25
328.829	644.25
329.058	648.25
329.287	679.25
329.515	634.25
329.744	574.25
329.972	561.25
330.201	584.25
330.43	635.25
330.658	669.25
330.887	702.25
331.115	690.25
331.344	595.25
331.572	579.25
331.801	526.25
332.03	507.25
332.258	511.25
332.486	467.25
332.715	460.25
332.943	493.25
333.172	460.25
333.4	474.25
333.629	487.25
333.857	489.25
334.085	503.25
334.314	533.25
334.542	563.25
334.771	573.25
334.999	533.25
335.227	515.25
335.455	486.25
335.684	454.25
335.912	468.25
336.14	451.25
336.369	464.25
336.597	474.25
336.825	471.25
337.053	479.25
337.281	462.25
337.51	448.25
337.738	457.25
337.966	462.25
338.194	479.25
338.422	461.25
338.65	443.25
338.878	448.25
339.106	451.25
339.334	443.25
339.562	457.25
339.79	433.25
340.018	470.25
340.246	437.25
340.474	455.25
340.702	436.25
340.93	429.25
341.158	442.25
341.386	446.25
341.614	462.25
341.842	448.25
342.07	433.25
342.298	429.25
342.526	419.25
342.754	440.25
342.981	412.25
343.209	424.25
343.437	413.25
343.665	437.25
343.893	413.25
344.12	446.25
344.348	439.25
344.576	445.25
344.804	457.25
345.031	459.25
345.259	474.25
345.487	471.25
345.714	443.25
345.942	440.25
346.17	434.25
346.397	432.25
346.625	417.25
346.853	450.25
347.08	425.25
347.308	460.25
347.535	481.25
347.763	477.25
347.99	447.25
348.218	448.25
348.445	475.25
348.673	466.25
348.9	451.25
349.128	450.25
349.355	437.25
349.583	426.25
349.81	419.25
350.037	431.25
350.265	437.25
350.492	429.25
350.72	417.25
350.947	439.25
351.174	450.25
351.402	453.25
351.629	449.25
351.856	471.25
352.083	442.25
352.311	463.25
352.538	476.25
352.765	478.25
352.992	454.25
353.22	445.25
353.447	441.25
353.674	450.25
353.901	433.25
354.128	418.25
354.355	399.25
354.583	420.25
354.81	396.25
355.037	407.25
355.264	402.25
355.491	414.25
355.718	426.25
355.945	413.25
356.172	392.25
356.399	397.25
356.626	411.25
356.853	411.25
357.08	410.25
357.307	386.25
357.534	408.25
357.761	407.25
357.988	424.25
358.215	406.25
358.441	406.25
358.668	443.25
358.895	431.25
359.122	417.25
359.349	406.25
359.576	426.25
359.802	485.25
360.029	534.25
360.256	526.25
360.483	501.25
360.709	464.25
360.936	481.25
361.163	435.25
361.39	470.25
361.616	457.25
361.843	448.25
362.07	459.25
362.296	455.25
362.523	456.25
362.749	449.25
362.976	447.25
363.203	440.25
363.429	430.25
363.656	429.25
363.882	424.25
364.109	409.25
364.335	412.25
364.562	422.25
364.788	455.25
365.015	430.25
365.241	432.25
365.468	421.25
365.694	406.25
365.92	424.25
366.147	422.25
366.373	438.25
366.599	424.25
366.826	445.25
367.052	419.25
367.278	411.25
367.505	444.25
367.731	412.25
367.957	425.25
368.184	413.25
368.41	419.25
368.636	455.25
368.862	460.25
369.089	440.25
369.315	428.25
369.541	411.25
369.767	435.25
369.993	421.25
370.219	424.25
370.445	419.25
370.672	410.25
370.898	402.25
371.124	428.25
371.35	422.25
371.576	420.25
371.802	403.25
372.028	411.25
372.254	419.25
372.48	405.25
372.706	421.25
372.932	414.25
373.158	427.25
373.384	419.25
373.61	417.25
373.835	420.25
374.061	412.25
374.287	413.25
374.513	425.25
374.739	432.25
374.965	448.25
375.191	407.25
375.416	424.25
375.642	436.25
375.868	423.25
376.094	404.25
376.319	418.25
376.545	422.25
376.771	398.25
376.997	407.25
377.222	422.25
377.448	417.25
377.674	423.25
377.899	397.25
378.125	424.25
378.35	412.25
378.576	394.25
378.802	409.25
379.027	401.25
379.253	410.25
379.478	393.25
379.704	412.25
379.929	425.25
380.155	405.25
380.38	410.25
380.606	413.25
380.831	426.25
381.057	425.25
381.282	413.25
381.507	411.25
381.733	427.25
381.958	423.25
382.184	448.25
382.409	452.25
382.634	441.25
382.86	411.25
383.085	436.25
383.31	405.25
383.535	414.25
383.761	409.25
383.986	425.25
384.211	443.25
384.436	446.25
384.662	447.25
384.887	444.25
385.112	440.25
385.337	452.25
385.562	445.25
385.787	454.25
386.013	451.25
386.238	444.25
386.463	476.25
386.688	459.25
386.913	470.25
387.138	475.25
387.363	442.25
387.588	435.25
387.813	450.25
388.038	452.25
388.263	440.25
388.488	457.25
388.713	458.25
388.938	460.25
389.163	448.25
389.387	467.25
389.612	453.25
389.837	448.25
390.062	459.25
390.287	451.25
390.512	441.25
390.736	452.25
390.961	473.25
391.186	475.25
391.411	440.25
391.636	449.25
391.86	449.25
392.085	472.25
392.31	470.25
392.534	461.25
392.759	453.25
392.984	466.25
393.208	462.25
393.433	467.25
393.658	466.25
393.882	477.25
394.107	459.25
394.331	456.25
394.556	444.25
394.78	461.25
395.005	441.25
395.229	453.25
395.454	480.25
395.678	472.25
395.903	486.25
396.127	518.25
396.352	488.25
396.576	486.25
396.801	488.25
397.025	459.25
397.249	485.25
397.474	486.25
397.698	476.25
397.922	500.25
398.147	521.25
398.371	530.25
398.595	499.25
398.82	512.25
399.044	525.25
399.268	523.25
399.492	546.25
399.717	574.25
399.941	587.25
400.165	619.25
400.389	644.25
400.613	594.25
400.837	567.25
401.062	529.25
401.286	518.25
401.51	522.25
401.734	535.25
401.958	539.25
402.182	524.25
402.406	552.25
402.63	547.25
402.854	537.25
403.078	522.25
403.302	547.25
403.526	542.25
403.75	551.25
403.974	539.25
404.198	543.25
404.422	543.25
404.645	549.25
404.869	532.25
405.093	594.25
405.317	648.25
405.541	652.25
405.765	624.25
405.988	569.25
406.212	588.25
406.436	618.25
406.66	626.25
406.883	601.25
407.107	610.25
407.331	653.25
407.555	726.25
407.778	700.25
408.002	654.25
408.226	615.25
408.449	596.25
408.673	611.25
408.896	644.25
409.12	673.25
409.344	654.25
409.567	559.25
409.791	564.25
410.014	540.25
410.238	551.25
410.461	542.25
410.685	572.25
410.908	560.25
411.132	612.25
411.355	647.25
411.578	628.25
411.802	560.25
412.025	583.25
412.249	577.25
412.472	601.25
412.695	626.25
412.919	610.25
413.142	586.25
413.365	567.25
413.589	544.25
413.812	568.25
414.035	538.25
414.258	493.25
414.482	527.25
414.705	503.25
414.928	515.25
415.151	522.25
415.374	522.25
415.597	532.25
415.821	492.25
416.044	506.25
416.267	544.25
416.49	530.25
416.713	548.25
416.936	535.25
417.159	536.25
417.382	523.25
417.605	524.25
417.828	550.25
418.051	555.25
418.274	557.25
418.497	531.25
418.72	526.25
418.943	531.25
419.166	532.25
419.389	563.25
419.611	568.25
419.834	551.25
420.057	566.25
420.28	560.25
420.503	563.25
420.726	561.25
420.948	602.25
421.171	637.25
421.394	638.25
421.617	580.25
421.839	568.25
422.062	568.25
422.285	590.25
422.507	638.25
422.73	736.25
422.953	678.25
423.175	646.25
423.398	602.25
423.621	584.25
423.843	616.25
424.066	606.25
424.288	605.25
424.511	635.25
424.733	699.25
424.956	780.25
425.178	737.25
425.401	752.25
425.623	766.25
425.846	661.25
426.068	643.25
426.291	651.25
426.513	635.25
426.735	625.25
426.958	670.25
427.18	770.25
427.402	877.25
427.625	984.25
427.847	926.25
428.069	818.25
428.292	688.25
428.514	630.25
428.736	597.25
428.958	600.25
429.181	604.25
429.403	576.25
429.625	602.25
429.847	644.25
430.069	701.25
430.292	664.25
430.514	609.25
430.736	568.25
430.958	566.25
431.18	543.25
431.402	549.25
431.624	549.25
431.846	525.25
432.068	520.25
432.29	524.25
432.512	526.25
432.734	553.25
432.956	546.25
433.178	560.25
433.4	557.25
433.622	548.25
433.844	532.25
434.066	534.25
434.287	533.25
434.509	538.25
434.731	550.25
434.953	548.25
435.175	570.25
435.397	602.25
435.618	615.25
435.84	649.25
436.062	776.25
436.284	834.25
436.505	722.25
436.727	654.25
436.949	589.25
437.17	577.25
437.392	586.25
437.614	611.25
437.835	654.25
438.057	747.25
438.278	868.25
438.5	852.25
438.721	940.25
438.943	875.25
439.165	730.25
439.386	645.25
439.608	654.25
439.829	648.25
440.05	695.25
440.272	714.25
440.493	678.25
440.715	618.25
440.936	570.25
441.158	603.25
441.379	570.25
441.6	595.25
441.822	614.25
442.043	673.25
442.264	773.25
442.486	803.25
442.707	704.25
442.928	647.25
443.149	660.25
443.371	698.25
443.592	720.25
443.813	825.25
444.034	834.25
444.255	733.25
444.476	650.25
444.698	644.25
444.919	620.25
445.14	706.25
445.361	669.25
445.582	655.25
445.803	743.25
446.024	854.25
446.245	884.25
446.466	804.25
446.687	669.25
446.908	637.25
447.129	603.25
447.35	582.25
447.571	590.25
447.792	580.25
448.013	596.25
448.234	603.25
448.455	648.25
448.675	790.25
448.896	914.25
449.117	763.25
449.338	730.25
449.559	822.25
449.779	939.25
450	766.25
450.221	660.25
450.442	629.25
450.662	580.25
450.883	586.25
451.104	622.25
451.324	612.25
451.545	547.25
451.766	553.25
451.986	543.25
452.207	532.25
452.428	499.25
452.648	533.25
452.869	530.25
453.089	520.25
453.31	537.25
453.53	546.25
453.751	523.25
453.971	526.25
454.192	538.25
454.412	541.25
454.633	521.25
454.853	510.25
455.073	510.25
455.294	568.25
455.514	638.25
455.734	615.25
455.955	524.25
456.175	503.25
456.395	488.25
456.616	461.25
456.836	481.25
457.056	497.25
457.276	489.25
457.497	491.25
457.717	481.25
457.937	501.25
458.157	506.25
458.377	531.25
458.598	549.25
458.818	592.25
459.038	710.25
459.258	725.25
459.478	599.25
459.698	560.25
459.918	555.25
460.138	526.25
460.358	518.25
460.578	534.25
460.798	520.25
461.018	545.25
461.238	539.25
461.458	543.25
461.678	533.25
461.898	531.25
462.118	534.25
462.338	557.25
462.558	532.25
462.777	534.25
462.997	543.25
463.217	556.25
463.437	579.25
463.657	553.25
463.876	554.25
464.096	545.25
464.316	550.25
464.536	594.25
464.755	594.25
464.975	570.25
465.195	648.25
465.414	731.25
465.634	640.25
465.854	584.25
466.073	568.25
466.293	556.25
466.512	532.25
466.732	526.25
466.951	548.25
467.171	511.25
467.391	546.25
467.61	532.25
467.829	549.25
468.049	516.25
468.268	562.25
468.488	539.25
468.707	516.25
468.927	512.25
469.146	515.25
469.365	502.25
469.585	544.25
469.804	531.25
470.023	531.25
470.243	566.25
470.462	571.25
470.681	581.25
470.901	589.25
471.12	549.25
471.339	566.25
471.558	544.25
471.777	540.25
471.997	518.25
472.216	550.25
472.435	584.25
472.654	582.25
472.873	558.25
473.092	526.25
473.311	544.25
473.53	526.25
473.749	573.25
473.968	613.25
474.187	698.25
474.406	758.25
474.625	615.25
474.844	559.25
475.063	541.25
475.282	536.25
475.501	527.25
475.72	557.25
475.939	552.25
476.158	568.25
476.377	568.25
476.596	547.25
476.814	570.25
477.033	572.25
477.252	561.25
477.471	576.25
477.69	584.25
477.908	586.25
478.127	579.25
478.346	573.25
478.564	598.25
478.783	590.25
479.002	609.25
479.22	599.25
479.439	632.25
479.658	638.25
479.876	668.25
480.095	643.25
480.313	698.25
480.532	660.25
480.751	635.25
480.969	667.25
481.188	727.25
481.406	810.25
481.624	752.25
481.843	656.25
482.061	655.25
482.28	647.25
482.498	672.25
482.717	637.25
482.935	648.25
483.153	648.25
483.372	677.25
483.59	664.25
483.808	626.25
484.027	660.25
484.245	655.25
484.463	654.25
484.681	665.25
484.9	672.25
485.118	655.25
485.336	668.25
485.554	676.25
485.772	668.25
485.99	668.25
486.209	687.25
486.427	700.25
486.645	688.25
486.863	713.25
487.081	726.25
487.299	672.25
487.517	705.25
487.735	702.25
487.953	679.25
488.171	702.25
488.389	706.25
488.607	736.25
488.825	725.25
489.043	709.25
489.261	723.25
489.479	707.25
489.696	728.25
489.914	726.25
490.132	741.25
490.35	759.25
490.568	729.25
490.786	757.25
491.003	761.25
491.221	778.25
491.439	802.25
491.657	819.25
491.874	796.25
492.092	815.25
492.31	808.25
492.527	818.25
492.745	844.25
492.963	850.25
493.18	838.25
493.398	812.25
493.615	849.25
493.833	844.25
494.05	852.25
494.268	838.25
494.485	862.25
494.703	863.25
494.92	841.25
495.138	863.25
495.355	841.25
495.573	849.25
495.79	873.25
496.008	867.25
496.225	840.25
496.442	857.25
496.66	845.25
496.877	856.25
497.094	869.25
497.312	864.25
497.529	892.25
497.746	873.25
497.963	858.25
498.181	906.25
498.398	861.25
498.615	890.25
498.832	942.25
499.049	895.25
499.267	935.25
499.484	935.25
499.701	988.25
499.918	980.25
500.135	1029.25
500.352	1049.25
500.569	1045.25
500.786	1043.25
501.003	1024.25
501.22	1034.25
501.437	1033.25
501.654	1025.25
501.871	1011.25
