Data from 1970.PennyLincolnUp.Lamp.En5.5.200Scan.071719.P1._HRD10591_15-13-56-842.txt Node
Date: Thu Jul 18 15:13:56 EDT 2019
User: cochatt
Spectrometer: HR+D1059
Trigger mode: 1
Integration Time (sec): 1.000000E-1
Scans to average: 1
Electric dark correction enabled: true
Nonlinearity correction enabled: false
Boxcar width: 0
XAxis mode: Wavelengths
Number of Pixels in Spectrum: 2048
>>>>>Begin Spectral Data<<<<<
223.165	-14.44
223.4	-14.44
223.635	-14.44
223.869	-20.44
224.104	-13.44
224.338	-4.44
224.573	-25.44
224.808	-8.44
225.042	-3.44
225.277	-1.44
225.511	6.56
225.746	-5.44
225.98	3.56
226.215	13.56
226.449	19.56
226.683	11.56
226.918	20.56
227.152	21.56
227.387	43.56
227.621	35.56
227.856	52.56
228.09	47.56
228.324	51.56
228.559	61.56
228.793	76.56
229.027	98.56
229.262	106.56
229.496	110.56
229.73	134.56
229.964	157.56
230.199	127.56
230.433	113.56
230.667	114.56
230.901	114.56
231.136	105.56
231.37	123.56
231.604	113.56
231.838	122.56
232.072	114.56
232.306	109.56
232.541	127.56
232.775	126.56
233.009	116.56
233.243	116.56
233.477	129.56
233.711	123.56
233.945	127.56
234.179	114.56
234.413	104.56
234.647	117.56
234.881	114.56
235.115	117.56
235.349	129.56
235.583	122.56
235.817	125.56
236.051	129.56
236.285	150.56
236.519	126.56
236.753	130.56
236.987	142.56
237.221	199.56
237.455	232.56
237.689	192.56
237.922	141.56
238.156	148.56
238.39	145.56
238.624	122.56
238.858	122.56
239.091	126.56
239.325	124.56
239.559	130.56
239.793	132.56
240.027	147.56
240.26	156.56
240.494	157.56
240.728	151.56
240.961	172.56
241.195	158.56
241.429	141.56
241.662	146.56
241.896	131.56
242.13	143.56
242.363	138.56
242.597	132.56
242.83	137.56
243.064	147.56
243.298	153.56
243.531	123.56
243.765	131.56
243.998	147.56
244.232	152.56
244.465	143.56
244.699	150.56
244.932	142.56
245.166	159.56
245.399	138.56
245.633	149.56
245.866	157.56
246.099	158.56
246.333	141.56
246.566	162.56
246.8	149.56
247.033	164.56
247.266	169.56
247.5	156.56
247.733	175.56
247.966	184.56
248.2	170.56
248.433	185.56
248.666	204.56
248.899	197.56
249.133	213.56
249.366	210.56
249.599	214.56
249.832	190.56
250.066	190.56
250.299	187.56
250.532	202.56
250.765	222.56
250.998	224.56
251.231	237.56
251.465	224.56
251.698	206.56
251.931	217.56
252.164	206.56
252.397	201.56
252.63	217.56
252.863	227.56
253.096	213.56
253.329	230.56
253.562	227.56
253.795	251.56
254.028	236.56
254.261	249.56
254.494	246.56
254.727	265.56
254.96	299.56
255.193	281.56
255.426	261.56
255.659	265.56
255.892	241.56
256.124	238.56
256.357	241.56
256.59	236.56
256.823	209.56
257.056	228.56
257.289	229.56
257.521	206.56
257.754	217.56
257.987	214.56
258.22	221.56
258.452	233.56
258.685	216.56
258.918	214.56
259.151	221.56
259.383	222.56
259.616	226.56
259.849	226.56
260.081	243.56
260.314	259.56
260.547	276.56
260.779	263.56
261.012	249.56
261.244	238.56
261.477	251.56
261.71	224.56
261.942	251.56
262.175	237.56
262.407	252.56
262.64	218.56
262.872	224.56
263.105	220.56
263.337	216.56
263.57	207.56
263.802	207.56
264.035	222.56
264.267	211.56
264.499	213.56
264.732	217.56
264.964	231.56
265.197	226.56
265.429	211.56
265.661	216.56
265.894	229.56
266.126	217.56
266.358	207.56
266.591	210.56
266.823	220.56
267.055	232.56
267.287	244.56
267.52	241.56
267.752	214.56
267.984	227.56
268.216	219.56
268.448	244.56
268.681	237.56
268.913	231.56
269.145	253.56
269.377	269.56
269.609	278.56
269.841	277.56
270.073	262.56
270.306	276.56
270.538	313.56
270.77	323.56
271.002	306.56
271.234	307.56
271.466	295.56
271.698	300.56
271.93	314.56
272.162	314.56
272.394	312.56
272.626	301.56
272.858	297.56
273.09	304.56
273.322	270.56
273.553	267.56
273.785	267.56
274.017	249.56
274.249	264.56
274.481	261.56
274.713	255.56
274.945	257.56
275.176	266.56
275.408	255.56
275.64	261.56
275.872	276.56
276.104	256.56
276.335	259.56
276.567	271.56
276.799	279.56
277.031	299.56
277.262	321.56
277.494	317.56
277.726	274.56
277.957	283.56
278.189	265.56
278.421	276.56
278.652	278.56
278.884	259.56
279.115	263.56
279.347	274.56
279.579	264.56
279.81	250.56
280.042	271.56
280.273	254.56
280.505	266.56
280.736	252.56
280.968	242.56
281.199	253.56
281.431	257.56
281.662	248.56
281.894	242.56
282.125	258.56
282.356	307.56
282.588	309.56
282.819	287.56
283.051	275.56
283.282	266.56
283.513	254.56
283.745	253.56
283.976	253.56
284.207	265.56
284.439	290.56
284.67	257.56
284.901	269.56
285.132	287.56
285.364	271.56
285.595	256.56
285.826	279.56
286.057	273.56
286.288	279.56
286.52	256.56
286.751	262.56
286.982	248.56
287.213	263.56
287.444	270.56
287.675	275.56
287.906	276.56
288.138	275.56
288.369	290.56
288.6	280.56
288.831	275.56
289.062	285.56
289.293	282.56
289.524	270.56
289.755	271.56
289.986	273.56
290.217	260.56
290.448	275.56
290.679	282.56
290.91	274.56
291.141	286.56
291.371	266.56
291.602	274.56
291.833	281.56
292.064	281.56
292.295	266.56
292.526	287.56
292.757	274.56
292.987	259.56
293.218	273.56
293.449	280.56
293.68	293.56
293.91	286.56
294.141	269.56
294.372	266.56
294.603	272.56
294.833	261.56
295.064	273.56
295.295	261.56
295.525	268.56
295.756	276.56
295.987	300.56
296.217	291.56
296.448	314.56
296.679	309.56
296.909	288.56
297.14	272.56
297.37	282.56
297.601	272.56
297.831	290.56
298.062	291.56
298.292	283.56
298.523	287.56
298.753	296.56
298.984	287.56
299.214	291.56
299.445	266.56
299.675	284.56
299.905	321.56
300.136	275.56
300.366	284.56
300.597	303.56
300.827	298.56
301.057	308.56
301.288	326.56
301.518	303.56
301.748	292.56
301.979	323.56
302.209	309.56
302.439	312.56
302.669	331.56
302.9	311.56
303.13	313.56
303.36	318.56
303.59	298.56
303.82	317.56
304.051	304.56
304.281	321.56
304.511	319.56
304.741	307.56
304.971	305.56
305.201	310.56
305.431	313.56
305.661	327.56
305.891	301.56
306.121	302.56
306.352	332.56
306.582	317.56
306.812	314.56
307.042	300.56
307.272	318.56
307.502	311.56
307.731	325.56
307.961	309.56
308.191	327.56
308.421	314.56
308.651	316.56
308.881	321.56
309.111	324.56
309.341	314.56
309.571	317.56
309.8	334.56
310.03	372.56
310.26	362.56
310.49	362.56
310.72	362.56
310.949	382.56
311.179	385.56
311.409	365.56
311.639	366.56
311.868	379.56
312.098	355.56
312.328	387.56
312.557	386.56
312.787	394.56
313.017	413.56
313.246	383.56
313.476	377.56
313.706	361.56
313.935	346.56
314.165	383.56
314.394	377.56
314.624	391.56
314.853	371.56
315.083	359.56
315.312	365.56
315.542	369.56
315.771	347.56
316.001	375.56
316.23	360.56
316.46	353.56
316.689	371.56
316.919	386.56
317.148	380.56
317.377	374.56
317.607	369.56
317.836	367.56
318.065	361.56
318.295	363.56
318.524	368.56
318.753	361.56
318.983	363.56
319.212	372.56
319.441	379.56
319.67	388.56
319.9	363.56
320.129	364.56
320.358	376.56
320.587	380.56
320.816	388.56
321.046	391.56
321.275	383.56
321.504	382.56
321.733	385.56
321.962	404.56
322.191	390.56
322.42	423.56
322.649	460.56
322.878	444.56
323.108	473.56
323.337	463.56
323.566	493.56
323.795	531.56
324.024	576.56
324.253	701.56
324.482	993.56
324.71	1524.56
324.939	2131.56
325.168	1865.56
325.397	986.56
325.626	673.56
325.855	577.56
326.084	517.56
326.313	492.56
326.542	524.56
326.77	559.56
326.999	649.56
327.228	871.56
327.457	1309.56
327.686	1566.56
327.914	1108.56
328.143	719.56
328.372	642.56
328.6	604.56
328.829	579.56
329.058	591.56
329.287	590.56
329.515	562.56
329.744	522.56
329.972	493.56
330.201	543.56
330.43	569.56
330.658	613.56
330.887	622.56
331.115	594.56
331.344	543.56
331.572	473.56
331.801	498.56
332.03	476.56
332.258	471.56
332.486	441.56
332.715	441.56
332.943	442.56
333.172	429.56
333.4	448.56
333.629	453.56
333.857	472.56
334.085	473.56
334.314	499.56
334.542	502.56
334.771	525.56
334.999	479.56
335.227	433.56
335.455	440.56
335.684	428.56
335.912	452.56
336.14	426.56
336.369	433.56
336.597	428.56
336.825	460.56
337.053	429.56
337.281	430.56
337.51	425.56
337.738	419.56
337.966	408.56
338.194	426.56
338.422	424.56
338.65	437.56
338.878	421.56
339.106	436.56
339.334	424.56
339.562	405.56
339.79	408.56
340.018	409.56
340.246	416.56
340.474	418.56
340.702	421.56
340.93	436.56
341.158	405.56
341.386	430.56
341.614	430.56
341.842	425.56
342.07	414.56
342.298	408.56
342.526	405.56
342.754	402.56
342.981	385.56
343.209	415.56
343.437	414.56
343.665	414.56
343.893	454.56
344.12	421.56
344.348	425.56
344.576	427.56
344.804	433.56
345.031	419.56
345.259	426.56
345.487	427.56
345.714	416.56
345.942	436.56
346.17	419.56
346.397	410.56
346.625	398.56
346.853	409.56
347.08	417.56
347.308	394.56
347.535	412.56
347.763	431.56
347.99	417.56
348.218	431.56
348.445	437.56
348.673	450.56
348.9	429.56
349.128	422.56
349.355	403.56
349.583	414.56
349.81	402.56
350.037	411.56
350.265	393.56
350.492	411.56
350.72	403.56
350.947	416.56
351.174	416.56
351.402	395.56
351.629	421.56
351.856	427.56
352.083	442.56
352.311	439.56
352.538	436.56
352.765	441.56
352.992	423.56
353.22	424.56
353.447	421.56
353.674	418.56
353.901	395.56
354.128	400.56
354.355	375.56
354.583	386.56
354.81	400.56
355.037	412.56
355.264	393.56
355.491	381.56
355.718	385.56
355.945	369.56
356.172	379.56
356.399	394.56
356.626	370.56
356.853	380.56
357.08	387.56
357.307	388.56
357.534	404.56
357.761	383.56
357.988	395.56
358.215	387.56
358.441	385.56
358.668	380.56
358.895	391.56
359.122	394.56
359.349	399.56
359.576	410.56
359.802	431.56
360.029	483.56
360.256	492.56
360.483	474.56
360.709	426.56
360.936	411.56
361.163	427.56
361.39	420.56
361.616	435.56
361.843	402.56
362.07	426.56
362.296	444.56
362.523	419.56
362.749	428.56
362.976	402.56
363.203	402.56
363.429	421.56
363.656	420.56
363.882	394.56
364.109	400.56
364.335	399.56
364.562	404.56
364.788	400.56
365.015	430.56
365.241	426.56
365.468	414.56
365.694	420.56
365.92	428.56
366.147	406.56
366.373	397.56
366.599	420.56
366.826	429.56
367.052	399.56
367.278	395.56
367.505	416.56
367.731	415.56
367.957	413.56
368.184	410.56
368.41	412.56
368.636	440.56
368.862	441.56
369.089	411.56
369.315	414.56
369.541	404.56
369.767	394.56
369.993	407.56
370.219	408.56
370.445	441.56
370.672	419.56
370.898	409.56
371.124	426.56
371.35	395.56
371.576	388.56
371.802	396.56
372.028	414.56
372.254	395.56
372.48	393.56
372.706	395.56
372.932	419.56
373.158	397.56
373.384	418.56
373.61	400.56
373.835	410.56
374.061	402.56
374.287	425.56
374.513	412.56
374.739	419.56
374.965	411.56
375.191	410.56
375.416	395.56
375.642	402.56
375.868	401.56
376.094	414.56
376.319	398.56
376.545	429.56
376.771	403.56
376.997	410.56
377.222	395.56
377.448	428.56
377.674	411.56
377.899	398.56
378.125	412.56
378.35	405.56
378.576	405.56
378.802	405.56
379.027	403.56
379.253	421.56
379.478	396.56
379.704	421.56
379.929	402.56
380.155	411.56
380.38	421.56
380.606	383.56
380.831	438.56
381.057	403.56
381.282	416.56
381.507	419.56
381.733	410.56
381.958	400.56
382.184	425.56
382.409	424.56
382.634	417.56
382.86	417.56
383.085	409.56
383.31	438.56
383.535	445.56
383.761	404.56
383.986	419.56
384.211	420.56
384.436	435.56
384.662	436.56
384.887	427.56
385.112	433.56
385.337	422.56
385.562	449.56
385.787	446.56
386.013	461.56
386.238	445.56
386.463	439.56
386.688	435.56
386.913	441.56
387.138	458.56
387.363	453.56
387.588	427.56
387.813	452.56
388.038	451.56
388.263	441.56
388.488	423.56
388.713	454.56
388.938	415.56
389.163	423.56
389.387	439.56
389.612	421.56
389.837	433.56
390.062	431.56
390.287	433.56
390.512	429.56
390.736	438.56
390.961	446.56
391.186	463.56
391.411	458.56
391.636	443.56
391.86	440.56
392.085	448.56
392.31	438.56
392.534	452.56
392.759	436.56
392.984	444.56
393.208	471.56
393.433	469.56
393.658	468.56
393.882	457.56
394.107	454.56
394.331	444.56
394.556	447.56
394.78	450.56
395.005	460.56
395.229	442.56
395.454	463.56
395.678	465.56
395.903	457.56
396.127	493.56
396.352	493.56
396.576	476.56
396.801	476.56
397.025	479.56
397.249	470.56
397.474	457.56
397.698	502.56
397.922	490.56
398.147	494.56
398.371	504.56
398.595	491.56
398.82	506.56
399.044	522.56
399.268	508.56
399.492	522.56
399.717	563.56
399.941	588.56
400.165	635.56
400.389	639.56
400.613	573.56
400.837	524.56
401.062	519.56
401.286	539.56
401.51	504.56
401.734	502.56
401.958	517.56
402.182	511.56
402.406	525.56
402.63	533.56
402.854	539.56
403.078	529.56
403.302	511.56
403.526	541.56
403.75	531.56
403.974	519.56
404.198	523.56
404.422	536.56
404.645	531.56
404.869	538.56
405.093	560.56
405.317	625.56
405.541	620.56
405.765	592.56
405.988	587.56
406.212	573.56
406.436	591.56
406.66	623.56
406.883	581.56
407.107	587.56
407.331	644.56
407.555	729.56
407.778	686.56
408.002	644.56
408.226	588.56
408.449	560.56
408.673	577.56
408.896	609.56
409.12	626.56
409.344	604.56
409.567	571.56
409.791	558.56
410.014	541.56
410.238	528.56
410.461	548.56
410.685	526.56
410.908	545.56
411.132	567.56
411.355	634.56
411.578	611.56
411.802	571.56
412.025	530.56
412.249	561.56
412.472	570.56
412.695	586.56
412.919	596.56
413.142	570.56
413.365	527.56
413.589	515.56
413.812	522.56
414.035	514.56
414.258	530.56
414.482	486.56
414.705	510.56
414.928	490.56
415.151	488.56
415.374	493.56
415.597	499.56
415.821	517.56
416.044	519.56
416.267	503.56
416.49	501.56
416.713	503.56
416.936	520.56
417.159	504.56
417.382	510.56
417.605	522.56
417.828	546.56
418.051	532.56
418.274	567.56
418.497	519.56
418.72	526.56
418.943	491.56
419.166	526.56
419.389	582.56
419.611	565.56
419.834	537.56
420.057	545.56
420.28	545.56
420.503	545.56
420.726	526.56
420.948	566.56
421.171	594.56
421.394	610.56
421.617	567.56
421.839	554.56
422.062	555.56
422.285	566.56
422.507	633.56
422.73	691.56
422.953	661.56
423.175	602.56
423.398	583.56
423.621	567.56
423.843	579.56
424.066	590.56
424.288	587.56
424.511	593.56
424.733	651.56
424.956	732.56
425.178	709.56
425.401	711.56
425.623	738.56
425.846	628.56
426.068	591.56
426.291	612.56
426.513	620.56
426.735	605.56
426.958	634.56
427.18	729.56
427.402	847.56
427.625	948.56
427.847	847.56
428.069	737.56
428.292	649.56
428.514	598.56
428.736	571.56
428.958	548.56
429.181	549.56
429.403	552.56
429.625	550.56
429.847	608.56
430.069	663.56
430.292	648.56
430.514	566.56
430.736	551.56
430.958	547.56
431.18	545.56
431.402	498.56
431.624	528.56
431.846	551.56
432.068	507.56
432.29	524.56
432.512	509.56
432.734	518.56
432.956	540.56
433.178	549.56
433.4	572.56
433.622	539.56
433.844	515.56
434.066	502.56
434.287	510.56
434.509	510.56
434.731	527.56
434.953	529.56
435.175	552.56
435.397	583.56
435.618	605.56
435.84	657.56
436.062	711.56
436.284	766.56
436.505	671.56
436.727	602.56
436.949	587.56
437.17	564.56
437.392	554.56
437.614	575.56
437.835	597.56
438.057	708.56
438.278	828.56
438.5	795.56
438.721	862.56
438.943	806.56
439.165	681.56
439.386	607.56
439.608	623.56
439.829	599.56
440.05	641.56
440.272	689.56
440.493	651.56
440.715	602.56
440.936	549.56
441.158	574.56
441.379	555.56
441.6	565.56
441.822	619.56
442.043	656.56
442.264	742.56
442.486	757.56
442.707	660.56
442.928	610.56
443.149	632.56
443.371	649.56
443.592	666.56
443.813	779.56
444.034	838.56
444.255	683.56
444.476	610.56
444.698	594.56
444.919	577.56
445.14	689.56
445.361	650.56
445.582	633.56
445.803	695.56
446.024	784.56
446.245	814.56
446.466	750.56
446.687	641.56
446.908	608.56
447.129	586.56
447.35	558.56
447.571	548.56
447.792	545.56
448.013	556.56
448.234	563.56
448.455	631.56
448.675	756.56
448.896	851.56
449.117	719.56
449.338	703.56
449.559	778.56
449.779	874.56
450	705.56
450.221	612.56
450.442	583.56
450.662	565.56
450.883	535.56
451.104	579.56
451.324	550.56
451.545	541.56
451.766	532.56
451.986	509.56
452.207	507.56
452.428	487.56
452.648	494.56
452.869	469.56
453.089	507.56
453.31	527.56
453.53	528.56
453.751	519.56
453.971	498.56
454.192	532.56
454.412	492.56
454.633	510.56
454.853	485.56
455.073	493.56
455.294	531.56
455.514	596.56
455.734	582.56
455.955	499.56
456.175	477.56
456.395	456.56
456.616	479.56
456.836	477.56
457.056	463.56
457.276	457.56
457.497	464.56
457.717	476.56
457.937	484.56
458.157	495.56
458.377	482.56
458.598	499.56
458.818	576.56
459.038	680.56
459.258	669.56
459.478	551.56
459.698	547.56
459.918	494.56
460.138	506.56
460.358	504.56
460.578	503.56
460.798	515.56
461.018	513.56
461.238	513.56
461.458	492.56
461.678	518.56
461.898	529.56
462.118	502.56
462.338	512.56
462.558	525.56
462.777	520.56
462.997	556.56
463.217	537.56
463.437	567.56
463.657	555.56
463.876	545.56
464.096	550.56
464.316	527.56
464.536	557.56
464.755	552.56
464.975	579.56
465.195	631.56
465.414	711.56
465.634	615.56
465.854	572.56
466.073	542.56
466.293	524.56
466.512	526.56
466.732	502.56
466.951	507.56
467.171	521.56
467.391	493.56
467.61	521.56
467.829	515.56
468.049	520.56
468.268	521.56
468.488	511.56
468.707	473.56
468.927	515.56
469.146	479.56
469.365	497.56
469.585	501.56
469.804	493.56
470.023	523.56
470.243	506.56
470.462	527.56
470.681	525.56
470.901	531.56
471.12	503.56
471.339	507.56
471.558	511.56
471.777	503.56
471.997	510.56
472.216	521.56
472.435	559.56
472.654	544.56
472.873	513.56
473.092	492.56
473.311	522.56
473.53	500.56
473.749	532.56
473.968	570.56
474.187	659.56
474.406	693.56
474.625	587.56
474.844	545.56
475.063	543.56
475.282	534.56
475.501	535.56
475.72	523.56
475.939	531.56
476.158	535.56
476.377	545.56
476.596	549.56
476.814	553.56
477.033	542.56
477.252	552.56
477.471	547.56
477.69	549.56
477.908	561.56
478.127	574.56
478.346	556.56
478.564	573.56
478.783	582.56
479.002	565.56
479.22	561.56
479.439	580.56
479.658	625.56
479.876	622.56
480.095	626.56
480.313	653.56
480.532	634.56
480.751	599.56
480.969	646.56
481.188	691.56
481.406	751.56
481.624	649.56
481.843	626.56
482.061	634.56
482.28	639.56
482.498	612.56
482.717	627.56
482.935	635.56
483.153	618.56
483.372	616.56
483.59	634.56
483.808	621.56
484.027	622.56
484.245	622.56
484.463	597.56
484.681	626.56
484.9	626.56
485.118	656.56
485.336	635.56
485.554	635.56
485.772	622.56
485.99	626.56
486.209	641.56
486.427	629.56
486.645	672.56
486.863	679.56
487.081	696.56
487.299	685.56
487.517	663.56
487.735	665.56
487.953	669.56
488.171	682.56
488.389	665.56
488.607	670.56
488.825	662.56
489.043	678.56
489.261	678.56
489.479	691.56
489.696	690.56
489.914	713.56
490.132	698.56
490.35	693.56
490.568	706.56
490.786	730.56
491.003	748.56
491.221	765.56
491.439	761.56
491.657	761.56
491.874	795.56
492.092	766.56
492.31	797.56
492.527	779.56
492.745	775.56
492.963	785.56
493.18	803.56
493.398	797.56
493.615	825.56
493.833	822.56
494.05	803.56
494.268	803.56
494.485	815.56
494.703	791.56
494.92	819.56
495.138	794.56
495.355	794.56
495.573	820.56
495.79	814.56
496.008	836.56
496.225	796.56
496.442	824.56
496.66	811.56
496.877	799.56
497.094	799.56
497.312	799.56
497.529	823.56
497.746	818.56
497.963	850.56
498.181	863.56
498.398	877.56
498.615	868.56
498.832	886.56
499.049	885.56
499.267	905.56
499.484	906.56
499.701	947.56
499.918	953.56
500.135	986.56
500.352	1011.56
500.569	1011.56
500.786	1034.56
501.003	983.56
501.22	1006.56
501.437	993.56
501.654	937.56
501.871	946.56
