Data from 1970.PennyLincolnUp.Lamp.En5.5.200Scan.071719.P1._HRD10591_15-12-54-843.txt Node
Date: Thu Jul 18 15:12:54 EDT 2019
User: cochatt
Spectrometer: HR+D1059
Trigger mode: 1
Integration Time (sec): 1.000000E-1
Scans to average: 1
Electric dark correction enabled: true
Nonlinearity correction enabled: false
Boxcar width: 0
XAxis mode: Wavelengths
Number of Pixels in Spectrum: 2048
>>>>>Begin Spectral Data<<<<<
223.165	-11.12
223.4	-11.12
223.635	-11.12
223.869	-14.12
224.104	-23.12
224.338	-3.12
224.573	-5.12
224.808	-25.12
225.042	-5.12
225.277	-5.12
225.511	-2.12
225.746	-10.12
225.98	9.88
226.215	16.88
226.449	21.88
226.683	14.88
226.918	7.88
227.152	32.88
227.387	32.88
227.621	38.88
227.856	38.88
228.09	44.88
228.324	36.88
228.559	55.88
228.793	67.88
229.027	67.88
229.262	75.88
229.496	80.88
229.73	96.88
229.964	91.88
230.199	81.88
230.433	75.88
230.667	77.88
230.901	87.88
231.136	96.88
231.37	82.88
231.604	75.88
231.838	92.88
232.072	88.88
232.306	89.88
232.541	90.88
232.775	95.88
233.009	91.88
233.243	98.88
233.477	93.88
233.711	84.88
233.945	80.88
234.179	82.88
234.413	102.88
234.647	89.88
234.881	82.88
235.115	76.88
235.349	81.88
235.583	99.88
235.817	91.88
236.051	74.88
236.285	87.88
236.519	92.88
236.753	85.88
236.987	79.88
237.221	97.88
237.455	103.88
237.689	98.88
237.922	89.88
238.156	80.88
238.39	94.88
238.624	90.88
238.858	83.88
239.091	97.88
239.325	78.88
239.559	85.88
239.793	86.88
240.027	98.88
240.26	91.88
240.494	80.88
240.728	92.88
240.961	87.88
241.195	75.88
241.429	88.88
241.662	98.88
241.896	98.88
242.13	84.88
242.363	89.88
242.597	96.88
242.83	91.88
243.064	83.88
243.298	97.88
243.531	94.88
243.765	101.88
243.998	99.88
244.232	83.88
244.465	93.88
244.699	82.88
244.932	93.88
245.166	104.88
245.399	85.88
245.633	98.88
245.866	93.88
246.099	88.88
246.333	90.88
246.566	101.88
246.8	106.88
247.033	96.88
247.266	93.88
247.5	89.88
247.733	96.88
247.966	94.88
248.2	101.88
248.433	90.88
248.666	94.88
248.899	116.88
249.133	100.88
249.366	98.88
249.599	85.88
249.832	87.88
250.066	94.88
250.299	98.88
250.532	101.88
250.765	84.88
250.998	108.88
251.231	113.88
251.465	102.88
251.698	99.88
251.931	109.88
252.164	106.88
252.397	100.88
252.63	100.88
252.863	113.88
253.096	112.88
253.329	107.88
253.562	105.88
253.795	103.88
254.028	99.88
254.261	106.88
254.494	92.88
254.727	110.88
254.96	117.88
255.193	106.88
255.426	116.88
255.659	108.88
255.892	117.88
256.124	109.88
256.357	108.88
256.59	114.88
256.823	112.88
257.056	107.88
257.289	114.88
257.521	114.88
257.754	104.88
257.987	106.88
258.22	110.88
258.452	109.88
258.685	122.88
258.918	110.88
259.151	120.88
259.383	104.88
259.616	116.88
259.849	96.88
260.081	109.88
260.314	111.88
260.547	116.88
260.779	121.88
261.012	128.88
261.244	108.88
261.477	119.88
261.71	96.88
261.942	105.88
262.175	102.88
262.407	106.88
262.64	123.88
262.872	118.88
263.105	98.88
263.337	112.88
263.57	105.88
263.802	113.88
264.035	102.88
264.267	99.88
264.499	100.88
264.732	119.88
264.964	110.88
265.197	112.88
265.429	116.88
265.661	103.88
265.894	105.88
266.126	107.88
266.358	111.88
266.591	109.88
266.823	121.88
267.055	114.88
267.287	122.88
267.52	125.88
267.752	115.88
267.984	125.88
268.216	115.88
268.448	108.88
268.681	114.88
268.913	120.88
269.145	115.88
269.377	126.88
269.609	123.88
269.841	116.88
270.073	115.88
270.306	121.88
270.538	124.88
270.77	121.88
271.002	121.88
271.234	140.88
271.466	118.88
271.698	120.88
271.93	142.88
272.162	133.88
272.394	129.88
272.626	132.88
272.858	124.88
273.09	125.88
273.322	114.88
273.553	116.88
273.785	123.88
274.017	107.88
274.249	124.88
274.481	116.88
274.713	145.88
274.945	117.88
275.176	129.88
275.408	116.88
275.64	125.88
275.872	125.88
276.104	120.88
276.335	123.88
276.567	125.88
276.799	132.88
277.031	139.88
277.262	142.88
277.494	123.88
277.726	122.88
277.957	127.88
278.189	124.88
278.421	119.88
278.652	146.88
278.884	128.88
279.115	125.88
279.347	124.88
279.579	126.88
279.81	134.88
280.042	149.88
280.273	138.88
280.505	129.88
280.736	121.88
280.968	124.88
281.199	134.88
281.431	114.88
281.662	107.88
281.894	110.88
282.125	125.88
282.356	132.88
282.588	128.88
282.819	120.88
283.051	124.88
283.282	124.88
283.513	153.88
283.745	121.88
283.976	134.88
284.207	124.88
284.439	109.88
284.67	126.88
284.901	122.88
285.132	124.88
285.364	132.88
285.595	115.88
285.826	124.88
286.057	138.88
286.288	136.88
286.52	140.88
286.751	137.88
286.982	116.88
287.213	132.88
287.444	135.88
287.675	139.88
287.906	145.88
288.138	138.88
288.369	124.88
288.6	139.88
288.831	135.88
289.062	144.88
289.293	134.88
289.524	129.88
289.755	130.88
289.986	124.88
290.217	140.88
290.448	128.88
290.679	139.88
290.91	126.88
291.141	129.88
291.371	133.88
291.602	126.88
291.833	117.88
292.064	134.88
292.295	138.88
292.526	124.88
292.757	142.88
292.987	136.88
293.218	125.88
293.449	121.88
293.68	143.88
293.91	134.88
294.141	124.88
294.372	135.88
294.603	123.88
294.833	140.88
295.064	126.88
295.295	133.88
295.525	128.88
295.756	144.88
295.987	136.88
296.217	150.88
296.448	128.88
296.679	140.88
296.909	125.88
297.14	124.88
297.37	150.88
297.601	140.88
297.831	156.88
298.062	117.88
298.292	132.88
298.523	148.88
298.753	133.88
298.984	141.88
299.214	151.88
299.445	142.88
299.675	137.88
299.905	138.88
300.136	136.88
300.366	133.88
300.597	140.88
300.827	141.88
301.057	142.88
301.288	143.88
301.518	147.88
301.748	135.88
301.979	136.88
302.209	128.88
302.439	150.88
302.669	137.88
302.9	134.88
303.13	140.88
303.36	147.88
303.59	146.88
303.82	147.88
304.051	152.88
304.281	141.88
304.511	146.88
304.741	145.88
304.971	133.88
305.201	145.88
305.431	130.88
305.661	163.88
305.891	146.88
306.121	148.88
306.352	146.88
306.582	145.88
306.812	141.88
307.042	141.88
307.272	135.88
307.502	140.88
307.731	149.88
307.961	132.88
308.191	121.88
308.421	148.88
308.651	152.88
308.881	136.88
309.111	158.88
309.341	130.88
309.571	148.88
309.8	140.88
310.03	137.88
310.26	130.88
310.49	155.88
310.72	142.88
310.949	148.88
311.179	143.88
311.409	146.88
311.639	170.88
311.868	141.88
312.098	147.88
312.328	149.88
312.557	149.88
312.787	150.88
313.017	161.88
313.246	155.88
313.476	154.88
313.706	143.88
313.935	148.88
314.165	140.88
314.394	156.88
314.624	154.88
314.853	152.88
315.083	158.88
315.312	149.88
315.542	153.88
315.771	142.88
316.001	150.88
316.23	142.88
316.46	139.88
316.689	165.88
316.919	141.88
317.148	152.88
317.377	151.88
317.607	151.88
317.836	170.88
318.065	153.88
318.295	161.88
318.524	146.88
318.753	156.88
318.983	157.88
319.212	150.88
319.441	163.88
319.67	159.88
319.9	148.88
320.129	142.88
320.358	153.88
320.587	145.88
320.816	152.88
321.046	144.88
321.275	155.88
321.504	151.88
321.733	150.88
321.962	148.88
322.191	158.88
322.42	151.88
322.649	146.88
322.878	159.88
323.108	163.88
323.337	168.88
323.566	168.88
323.795	172.88
324.024	214.88
324.253	217.88
324.482	314.88
324.71	398.88
324.939	479.88
325.168	381.88
325.397	226.88
325.626	188.88
325.855	189.88
326.084	179.88
326.313	178.88
326.542	174.88
326.77	193.88
326.999	238.88
327.228	271.88
327.457	364.88
327.686	373.88
327.914	268.88
328.143	203.88
328.372	180.88
328.6	184.88
328.829	182.88
329.058	188.88
329.287	180.88
329.515	165.88
329.744	173.88
329.972	169.88
330.201	177.88
330.43	164.88
330.658	184.88
330.887	181.88
331.115	209.88
331.344	177.88
331.572	187.88
331.801	152.88
332.03	176.88
332.258	167.88
332.486	165.88
332.715	164.88
332.943	150.88
333.172	168.88
333.4	185.88
333.629	158.88
333.857	171.88
334.085	172.88
334.314	181.88
334.542	170.88
334.771	171.88
334.999	176.88
335.227	165.88
335.455	154.88
335.684	172.88
335.912	159.88
336.14	176.88
336.369	180.88
336.597	166.88
336.825	165.88
337.053	168.88
337.281	179.88
337.51	169.88
337.738	173.88
337.966	176.88
338.194	132.88
338.422	164.88
338.65	166.88
338.878	161.88
339.106	171.88
339.334	177.88
339.562	168.88
339.79	164.88
340.018	168.88
340.246	166.88
340.474	160.88
340.702	174.88
340.93	152.88
341.158	163.88
341.386	169.88
341.614	168.88
341.842	164.88
342.07	168.88
342.298	166.88
342.526	165.88
342.754	168.88
342.981	143.88
343.209	158.88
343.437	160.88
343.665	159.88
343.893	163.88
344.12	163.88
344.348	170.88
344.576	169.88
344.804	169.88
345.031	167.88
345.259	167.88
345.487	180.88
345.714	155.88
345.942	156.88
346.17	157.88
346.397	161.88
346.625	154.88
346.853	174.88
347.08	176.88
347.308	172.88
347.535	154.88
347.763	157.88
347.99	143.88
348.218	168.88
348.445	158.88
348.673	169.88
348.9	169.88
349.128	153.88
349.355	145.88
349.583	156.88
349.81	155.88
350.037	152.88
350.265	165.88
350.492	148.88
350.72	148.88
350.947	169.88
351.174	161.88
351.402	174.88
351.629	147.88
351.856	169.88
352.083	156.88
352.311	156.88
352.538	150.88
352.765	144.88
352.992	150.88
353.22	143.88
353.447	158.88
353.674	162.88
353.901	156.88
354.128	150.88
354.355	146.88
354.583	157.88
354.81	142.88
355.037	154.88
355.264	158.88
355.491	154.88
355.718	151.88
355.945	149.88
356.172	151.88
356.399	146.88
356.626	156.88
356.853	164.88
357.08	153.88
357.307	142.88
357.534	153.88
357.761	145.88
357.988	166.88
358.215	156.88
358.441	150.88
358.668	173.88
358.895	156.88
359.122	169.88
359.349	165.88
359.576	163.88
359.802	145.88
360.029	148.88
360.256	174.88
360.483	177.88
360.709	153.88
360.936	158.88
361.163	169.88
361.39	137.88
361.616	161.88
361.843	134.88
362.07	173.88
362.296	171.88
362.523	168.88
362.749	161.88
362.976	155.88
363.203	167.88
363.429	148.88
363.656	163.88
363.882	160.88
364.109	166.88
364.335	153.88
364.562	147.88
364.788	154.88
365.015	168.88
365.241	151.88
365.468	145.88
365.694	153.88
365.92	164.88
366.147	154.88
366.373	158.88
366.599	151.88
366.826	152.88
367.052	152.88
367.278	169.88
367.505	162.88
367.731	153.88
367.957	153.88
368.184	159.88
368.41	159.88
368.636	154.88
368.862	161.88
369.089	148.88
369.315	152.88
369.541	145.88
369.767	166.88
369.993	161.88
370.219	161.88
370.445	179.88
370.672	171.88
370.898	143.88
371.124	156.88
371.35	169.88
371.576	161.88
371.802	153.88
372.028	164.88
372.254	164.88
372.48	151.88
372.706	152.88
372.932	161.88
373.158	161.88
373.384	162.88
373.61	151.88
373.835	161.88
374.061	164.88
374.287	180.88
374.513	160.88
374.739	162.88
374.965	158.88
375.191	161.88
375.416	167.88
375.642	154.88
375.868	170.88
376.094	156.88
376.319	163.88
376.545	165.88
376.771	154.88
376.997	163.88
377.222	165.88
377.448	159.88
377.674	164.88
377.899	163.88
378.125	154.88
378.35	157.88
378.576	157.88
378.802	157.88
379.027	163.88
379.253	161.88
379.478	158.88
379.704	162.88
379.929	146.88
380.155	163.88
380.38	158.88
380.606	156.88
380.831	156.88
381.057	149.88
381.282	155.88
381.507	170.88
381.733	160.88
381.958	171.88
382.184	173.88
382.409	167.88
382.634	173.88
382.86	165.88
383.085	174.88
383.31	155.88
383.535	162.88
383.761	156.88
383.986	162.88
384.211	160.88
384.436	163.88
384.662	168.88
384.887	163.88
385.112	174.88
385.337	162.88
385.562	169.88
385.787	171.88
386.013	187.88
386.238	161.88
386.463	193.88
386.688	149.88
386.913	174.88
387.138	177.88
387.363	176.88
387.588	175.88
387.813	168.88
388.038	165.88
388.263	174.88
388.488	190.88
388.713	174.88
388.938	153.88
389.163	172.88
389.387	161.88
389.612	169.88
389.837	178.88
390.062	186.88
390.287	168.88
390.512	162.88
390.736	170.88
390.961	179.88
391.186	188.88
391.411	176.88
391.636	172.88
391.86	164.88
392.085	187.88
392.31	186.88
392.534	185.88
392.759	188.88
392.984	192.88
393.208	205.88
393.433	258.88
393.658	245.88
393.882	202.88
394.107	176.88
394.331	180.88
394.556	170.88
394.78	178.88
395.005	173.88
395.229	178.88
395.454	172.88
395.678	182.88
395.903	165.88
396.127	186.88
396.352	200.88
396.576	199.88
396.801	207.88
397.025	237.88
397.249	213.88
397.474	201.88
397.698	180.88
397.922	172.88
398.147	183.88
398.371	195.88
398.595	182.88
398.82	208.88
399.044	189.88
399.268	192.88
399.492	214.88
399.717	215.88
399.941	208.88
400.165	214.88
400.389	222.88
400.613	232.88
400.837	213.88
401.062	203.88
401.286	187.88
401.51	180.88
401.734	180.88
401.958	191.88
402.182	202.88
402.406	206.88
402.63	201.88
402.854	205.88
403.078	197.88
403.302	205.88
403.526	213.88
403.75	206.88
403.974	189.88
404.198	191.88
404.422	192.88
404.645	198.88
404.869	199.88
405.093	211.88
405.317	223.88
405.541	222.88
405.765	200.88
405.988	193.88
406.212	206.88
406.436	210.88
406.66	204.88
406.883	208.88
407.107	220.88
407.331	222.88
407.555	233.88
407.778	241.88
408.002	225.88
408.226	210.88
408.449	193.88
408.673	211.88
408.896	194.88
409.12	200.88
409.344	220.88
409.567	211.88
409.791	188.88
410.014	203.88
410.238	189.88
410.461	194.88
410.685	197.88
410.908	210.88
411.132	233.88
411.355	204.88
411.578	214.88
411.802	216.88
412.025	189.88
412.249	180.88
412.472	191.88
412.695	206.88
412.919	189.88
413.142	183.88
413.365	190.88
413.589	201.88
413.812	194.88
414.035	196.88
414.258	198.88
414.482	196.88
414.705	185.88
414.928	182.88
415.151	193.88
415.374	190.88
415.597	199.88
415.821	188.88
416.044	190.88
416.267	200.88
416.49	195.88
416.713	187.88
416.936	196.88
417.159	167.88
417.382	179.88
417.605	192.88
417.828	216.88
418.051	195.88
418.274	199.88
418.497	180.88
418.72	198.88
418.943	196.88
419.166	205.88
419.389	217.88
419.611	207.88
419.834	199.88
420.057	176.88
420.28	197.88
420.503	183.88
420.726	213.88
420.948	186.88
421.171	216.88
421.394	227.88
421.617	205.88
421.839	205.88
422.062	196.88
422.285	203.88
422.507	205.88
422.73	214.88
422.953	216.88
423.175	204.88
423.398	206.88
423.621	206.88
423.843	194.88
424.066	208.88
424.288	220.88
424.511	212.88
424.733	231.88
424.956	241.88
425.178	224.88
425.401	235.88
425.623	244.88
425.846	192.88
426.068	212.88
426.291	186.88
426.513	211.88
426.735	202.88
426.958	212.88
427.18	222.88
427.402	268.88
427.625	271.88
427.847	269.88
428.069	225.88
428.292	216.88
428.514	187.88
428.736	192.88
428.958	201.88
429.181	176.88
429.403	197.88
429.625	188.88
429.847	205.88
430.069	212.88
430.292	211.88
430.514	183.88
430.736	182.88
430.958	200.88
431.18	178.88
431.402	177.88
431.624	177.88
431.846	188.88
432.068	196.88
432.29	181.88
432.512	184.88
432.734	190.88
432.956	189.88
433.178	194.88
433.4	190.88
433.622	197.88
433.844	192.88
434.066	192.88
434.287	180.88
434.509	189.88
434.731	181.88
434.953	188.88
435.175	187.88
435.397	214.88
435.618	197.88
435.84	206.88
436.062	235.88
436.284	242.88
436.505	209.88
436.727	193.88
436.949	202.88
437.17	199.88
437.392	181.88
437.614	191.88
437.835	194.88
438.057	205.88
438.278	228.88
438.5	226.88
438.721	265.88
438.943	246.88
439.165	219.88
439.386	201.88
439.608	212.88
439.829	210.88
440.05	212.88
440.272	221.88
440.493	199.88
440.715	196.88
440.936	201.88
441.158	198.88
441.379	186.88
441.6	191.88
441.822	207.88
442.043	213.88
442.264	227.88
442.486	240.88
442.707	215.88
442.928	212.88
443.149	219.88
443.371	208.88
443.592	237.88
443.813	256.88
444.034	245.88
444.255	246.88
444.476	225.88
444.698	205.88
444.919	230.88
445.14	347.88
445.361	258.88
445.582	221.88
445.803	219.88
446.024	260.88
446.245	248.88
446.466	232.88
446.687	221.88
446.908	216.88
447.129	216.88
447.35	212.88
447.571	211.88
447.792	188.88
448.013	198.88
448.234	200.88
448.455	208.88
448.675	229.88
448.896	258.88
449.117	225.88
449.338	229.88
449.559	226.88
449.779	269.88
450	226.88
450.221	213.88
450.442	182.88
450.662	191.88
450.883	188.88
451.104	196.88
451.324	174.88
451.545	182.88
451.766	188.88
451.986	201.88
452.207	173.88
452.428	174.88
452.648	188.88
452.869	184.88
453.089	183.88
453.31	182.88
453.53	189.88
453.751	168.88
453.971	174.88
454.192	195.88
454.412	189.88
454.633	176.88
454.853	172.88
455.073	180.88
455.294	181.88
455.514	183.88
455.734	209.88
455.955	183.88
456.175	179.88
456.395	179.88
456.616	165.88
456.836	169.88
457.056	181.88
457.276	164.88
457.497	156.88
457.717	174.88
457.937	189.88
458.157	178.88
458.377	183.88
458.598	204.88
458.818	212.88
459.038	201.88
459.258	204.88
459.478	179.88
459.698	188.88
459.918	192.88
460.138	201.88
460.358	179.88
460.578	196.88
460.798	180.88
461.018	185.88
461.238	204.88
461.458	204.88
461.678	184.88
461.898	210.88
462.118	208.88
462.338	206.88
462.558	206.88
462.777	202.88
462.997	211.88
463.217	205.88
463.437	211.88
463.657	224.88
463.876	189.88
464.096	204.88
464.316	205.88
464.536	215.88
464.755	227.88
464.975	197.88
465.195	220.88
465.414	222.88
465.634	211.88
465.854	193.88
466.073	185.88
466.293	202.88
466.512	172.88
466.732	185.88
466.951	176.88
467.171	182.88
467.391	196.88
467.61	187.88
467.829	195.88
468.049	198.88
468.268	195.88
468.488	178.88
468.707	202.88
468.927	193.88
469.146	188.88
469.365	180.88
469.585	181.88
469.804	196.88
470.023	197.88
470.243	205.88
470.462	192.88
470.681	210.88
470.901	195.88
471.12	192.88
471.339	196.88
471.558	203.88
471.777	190.88
471.997	192.88
472.216	202.88
472.435	178.88
472.654	174.88
472.873	180.88
473.092	180.88
473.311	178.88
473.53	185.88
473.749	193.88
473.968	226.88
474.187	206.88
474.406	212.88
474.625	198.88
474.844	198.88
475.063	181.88
475.282	190.88
475.501	189.88
475.72	193.88
475.939	194.88
476.158	184.88
476.377	184.88
476.596	187.88
476.814	197.88
477.033	190.88
477.252	190.88
477.471	191.88
477.69	214.88
477.908	211.88
478.127	205.88
478.346	194.88
478.564	213.88
478.783	222.88
479.002	211.88
479.22	215.88
479.439	186.88
479.658	196.88
479.876	203.88
480.095	212.88
480.313	220.88
480.532	218.88
480.751	218.88
480.969	222.88
481.188	204.88
481.406	197.88
481.624	229.88
481.843	223.88
482.061	211.88
482.28	222.88
482.498	222.88
482.717	218.88
482.935	221.88
483.153	212.88
483.372	212.88
483.59	214.88
483.808	204.88
484.027	214.88
484.245	213.88
484.463	201.88
484.681	223.88
484.9	222.88
485.118	230.88
485.336	207.88
485.554	188.88
485.772	205.88
485.99	215.88
486.209	229.88
486.427	206.88
486.645	207.88
486.863	224.88
487.081	227.88
487.299	217.88
487.517	234.88
487.735	225.88
487.953	223.88
488.171	244.88
488.389	221.88
488.607	228.88
488.825	225.88
489.043	217.88
489.261	202.88
489.479	225.88
489.696	205.88
489.914	237.88
490.132	231.88
490.35	230.88
490.568	256.88
490.786	237.88
491.003	247.88
491.221	260.88
491.439	252.88
491.657	253.88
491.874	246.88
492.092	270.88
492.31	269.88
492.527	280.88
492.745	254.88
492.963	251.88
493.18	261.88
493.398	260.88
493.615	251.88
493.833	250.88
494.05	257.88
494.268	256.88
494.485	232.88
494.703	262.88
494.92	262.88
495.138	248.88
495.355	230.88
495.573	244.88
495.79	259.88
496.008	276.88
496.225	263.88
496.442	270.88
496.66	277.88
496.877	252.88
497.094	266.88
497.312	276.88
497.529	266.88
497.746	269.88
497.963	275.88
498.181	284.88
498.398	270.88
498.615	280.88
498.832	306.88
499.049	272.88
499.267	281.88
499.484	291.88
499.701	308.88
499.918	339.88
500.135	335.88
500.352	346.88
500.569	343.88
500.786	366.88
501.003	342.88
501.22	346.88
501.437	333.88
501.654	330.88
501.871	302.88
502.088	301.88
502.305	310.88
502.522	273.88
502.739	270.88
502.956	253.88
503.172	289.88
