Data from 1970.PennyLincolnUp.Lamp.En5.5.200Scan.071719.P1._HRD10591_15-16-13-841.txt Node
Date: Thu Jul 18 15:16:13 EDT 2019
User: cochatt
Spectrometer: HR+D1059
Trigger mode: 1
Integration Time (sec): 1.000000E-1
Scans to average: 1
Electric dark correction enabled: true
Nonlinearity correction enabled: false
Boxcar width: 0
XAxis mode: Wavelengths
Number of Pixels in Spectrum: 2048
>>>>>Begin Spectral Data<<<<<
223.165	-5.06
223.4	-5.06
223.635	-5.06
223.869	-22.06
224.104	-15.06
224.338	-13.06
224.573	-7.06
224.808	-25.06
225.042	-14.06
225.277	-1.06
225.511	-4.06
225.746	6.94
225.98	12.94
226.215	13.94
226.449	17.94
226.683	14.94
226.918	21.94
227.152	17.94
227.387	39.94
227.621	36.94
227.856	54.94
228.09	45.94
228.324	50.94
228.559	50.94
228.793	71.94
229.027	94.94
229.262	125.94
229.496	123.94
229.73	140.94
229.964	169.94
230.199	137.94
230.433	128.94
230.667	122.94
230.901	134.94
231.136	133.94
231.37	136.94
231.604	108.94
231.838	108.94
232.072	123.94
232.306	119.94
232.541	125.94
232.775	118.94
233.009	118.94
233.243	122.94
233.477	130.94
233.711	119.94
233.945	118.94
234.179	138.94
234.413	125.94
234.647	124.94
234.881	126.94
235.115	115.94
235.349	127.94
235.583	135.94
235.817	127.94
236.051	130.94
236.285	138.94
236.519	122.94
236.753	153.94
236.987	156.94
237.221	228.94
237.455	255.94
237.689	214.94
237.922	163.94
238.156	154.94
238.39	144.94
238.624	142.94
238.858	144.94
239.091	124.94
239.325	125.94
239.559	131.94
239.793	130.94
240.027	155.94
240.26	146.94
240.494	176.94
240.728	162.94
240.961	164.94
241.195	160.94
241.429	156.94
241.662	150.94
241.896	150.94
242.13	145.94
242.363	129.94
242.597	156.94
242.83	160.94
243.064	142.94
243.298	157.94
243.531	160.94
243.765	140.94
243.998	153.94
244.232	160.94
244.465	160.94
244.699	157.94
244.932	172.94
245.166	149.94
245.399	170.94
245.633	156.94
245.866	148.94
246.099	152.94
246.333	155.94
246.566	164.94
246.8	164.94
247.033	165.94
247.266	165.94
247.5	201.94
247.733	176.94
247.966	186.94
248.2	186.94
248.433	183.94
248.666	191.94
248.899	199.94
249.133	224.94
249.366	236.94
249.599	215.94
249.832	206.94
250.066	198.94
250.299	205.94
250.532	202.94
250.765	229.94
250.998	256.94
251.231	251.94
251.465	234.94
251.698	242.94
251.931	220.94
252.164	215.94
252.397	229.94
252.63	222.94
252.863	227.94
253.096	236.94
253.329	249.94
253.562	243.94
253.795	248.94
254.028	264.94
254.261	270.94
254.494	271.94
254.727	284.94
254.96	330.94
255.193	342.94
255.426	286.94
255.659	260.94
255.892	263.94
256.124	264.94
256.357	247.94
256.59	256.94
256.823	261.94
257.056	253.94
257.289	234.94
257.521	256.94
257.754	220.94
257.987	224.94
258.22	260.94
258.452	235.94
258.685	238.94
258.918	238.94
259.151	232.94
259.383	249.94
259.616	239.94
259.849	226.94
260.081	259.94
260.314	283.94
260.547	297.94
260.779	269.94
261.012	250.94
261.244	259.94
261.477	258.94
261.71	241.94
261.942	241.94
262.175	264.94
262.407	227.94
262.64	227.94
262.872	237.94
263.105	225.94
263.337	234.94
263.57	217.94
263.802	214.94
264.035	233.94
264.267	232.94
264.499	234.94
264.732	229.94
264.964	220.94
265.197	218.94
265.429	226.94
265.661	227.94
265.894	230.94
266.126	243.94
266.358	234.94
266.591	225.94
266.823	232.94
267.055	256.94
267.287	269.94
267.52	249.94
267.752	233.94
267.984	233.94
268.216	236.94
268.448	247.94
268.681	251.94
268.913	263.94
269.145	273.94
269.377	301.94
269.609	278.94
269.841	285.94
270.073	291.94
270.306	309.94
270.538	345.94
270.77	348.94
271.002	334.94
271.234	310.94
271.466	332.94
271.698	351.94
271.93	356.94
272.162	353.94
272.394	354.94
272.626	323.94
272.858	316.94
273.09	322.94
273.322	293.94
273.553	285.94
273.785	284.94
274.017	291.94
274.249	299.94
274.481	271.94
274.713	282.94
274.945	277.94
275.176	264.94
275.408	273.94
275.64	278.94
275.872	247.94
276.104	280.94
276.335	267.94
276.567	291.94
276.799	312.94
277.031	327.94
277.262	326.94
277.494	337.94
277.726	331.94
277.957	310.94
278.189	301.94
278.421	279.94
278.652	289.94
278.884	282.94
279.115	288.94
279.347	279.94
279.579	272.94
279.81	271.94
280.042	285.94
280.273	285.94
280.505	274.94
280.736	261.94
280.968	269.94
281.199	274.94
281.431	264.94
281.662	291.94
281.894	284.94
282.125	288.94
282.356	294.94
282.588	326.94
282.819	315.94
283.051	289.94
283.282	296.94
283.513	270.94
283.745	277.94
283.976	300.94
284.207	286.94
284.439	306.94
284.67	281.94
284.901	292.94
285.132	284.94
285.364	285.94
285.595	294.94
285.826	276.94
286.057	270.94
286.288	279.94
286.52	296.94
286.751	292.94
286.982	277.94
287.213	268.94
287.444	278.94
287.675	294.94
287.906	288.94
288.138	315.94
288.369	312.94
288.6	306.94
288.831	284.94
289.062	306.94
289.293	290.94
289.524	276.94
289.755	282.94
289.986	280.94
290.217	289.94
290.448	290.94
290.679	274.94
290.91	302.94
291.141	280.94
291.371	295.94
291.602	296.94
291.833	281.94
292.064	284.94
292.295	294.94
292.526	282.94
292.757	293.94
292.987	299.94
293.218	294.94
293.449	302.94
293.68	289.94
293.91	270.94
294.141	281.94
294.372	278.94
294.603	281.94
294.833	298.94
295.064	286.94
295.295	293.94
295.525	310.94
295.756	317.94
295.987	321.94
296.217	336.94
296.448	331.94
296.679	321.94
296.909	311.94
297.14	293.94
297.37	307.94
297.601	301.94
297.831	294.94
298.062	310.94
298.292	304.94
298.523	324.94
298.753	320.94
298.984	304.94
299.214	302.94
299.445	317.94
299.675	316.94
299.905	329.94
300.136	310.94
300.366	313.94
300.597	291.94
300.827	317.94
301.057	327.94
301.288	350.94
301.518	329.94
301.748	323.94
301.979	321.94
302.209	322.94
302.439	311.94
302.669	340.94
302.9	324.94
303.13	323.94
303.36	341.94
303.59	333.94
303.82	357.94
304.051	341.94
304.281	340.94
304.511	318.94
304.741	331.94
304.971	327.94
305.201	337.94
305.431	333.94
305.661	343.94
305.891	338.94
306.121	323.94
306.352	350.94
306.582	346.94
306.812	364.94
307.042	340.94
307.272	332.94
307.502	338.94
307.731	353.94
307.961	348.94
308.191	342.94
308.421	330.94
308.651	342.94
308.881	365.94
309.111	355.94
309.341	365.94
309.571	369.94
309.8	376.94
310.03	400.94
310.26	384.94
310.49	392.94
310.72	393.94
310.949	419.94
311.179	417.94
311.409	412.94
311.639	387.94
311.868	404.94
312.098	394.94
312.328	414.94
312.557	417.94
312.787	451.94
313.017	420.94
313.246	401.94
313.476	403.94
313.706	398.94
313.935	406.94
314.165	419.94
314.394	445.94
314.624	432.94
314.853	421.94
315.083	411.94
315.312	409.94
315.542	378.94
315.771	379.94
316.001	399.94
316.23	380.94
316.46	382.94
316.689	382.94
316.919	390.94
317.148	412.94
317.377	418.94
317.607	397.94
317.836	400.94
318.065	398.94
318.295	384.94
318.524	390.94
318.753	396.94
318.983	392.94
319.212	394.94
319.441	421.94
319.67	397.94
319.9	385.94
320.129	394.94
320.358	404.94
320.587	406.94
320.816	411.94
321.046	428.94
321.275	433.94
321.504	438.94
321.733	447.94
321.962	411.94
322.191	459.94
322.42	458.94
322.649	473.94
322.878	528.94
323.108	521.94
323.337	544.94
323.566	579.94
323.795	612.94
324.024	675.94
324.253	827.94
324.482	1184.94
324.71	1824.94
324.939	2615.94
325.168	2234.94
325.397	1178.94
325.626	773.94
325.855	652.94
326.084	605.94
326.313	578.94
326.542	597.94
326.77	628.94
326.999	758.94
327.228	1053.94
327.457	1621.94
327.686	1965.94
327.914	1350.94
328.143	873.94
328.372	786.94
328.6	692.94
328.829	652.94
329.058	653.94
329.287	703.94
329.515	645.94
329.744	584.94
329.972	592.94
330.201	622.94
330.43	685.94
330.658	670.94
330.887	734.94
331.115	693.94
331.344	579.94
331.572	552.94
331.801	576.94
332.03	543.94
332.258	520.94
332.486	485.94
332.715	485.94
332.943	491.94
333.172	510.94
333.4	478.94
333.629	474.94
333.857	506.94
334.085	524.94
334.314	556.94
334.542	617.94
334.771	616.94
334.999	560.94
335.227	509.94
335.455	473.94
335.684	488.94
335.912	472.94
336.14	453.94
336.369	455.94
336.597	482.94
336.825	470.94
337.053	460.94
337.281	456.94
337.51	468.94
337.738	470.94
337.966	456.94
338.194	465.94
338.422	467.94
338.65	461.94
338.878	454.94
339.106	460.94
339.334	438.94
339.562	445.94
339.79	450.94
340.018	428.94
340.246	450.94
340.474	467.94
340.702	427.94
340.93	444.94
341.158	457.94
341.386	464.94
341.614	455.94
341.842	446.94
342.07	455.94
342.298	436.94
342.526	427.94
342.754	428.94
342.981	429.94
343.209	436.94
343.437	442.94
343.665	445.94
343.893	453.94
344.12	448.94
344.348	450.94
344.576	462.94
344.804	470.94
345.031	480.94
345.259	500.94
345.487	466.94
345.714	474.94
345.942	460.94
346.17	421.94
346.397	442.94
346.625	456.94
346.853	445.94
347.08	450.94
347.308	442.94
347.535	459.94
347.763	457.94
347.99	460.94
348.218	456.94
348.445	472.94
348.673	465.94
348.9	486.94
349.128	458.94
349.355	442.94
349.583	413.94
349.81	448.94
350.037	421.94
350.265	420.94
350.492	442.94
350.72	443.94
350.947	430.94
351.174	445.94
351.402	467.94
351.629	462.94
351.856	446.94
352.083	449.94
352.311	464.94
352.538	477.94
352.765	497.94
352.992	456.94
353.22	440.94
353.447	444.94
353.674	445.94
353.901	413.94
354.128	432.94
354.355	411.94
354.583	406.94
354.81	427.94
355.037	405.94
355.264	416.94
355.491	408.94
355.718	398.94
355.945	401.94
356.172	417.94
356.399	417.94
356.626	412.94
356.853	422.94
357.08	405.94
357.307	398.94
357.534	401.94
357.761	404.94
357.988	421.94
358.215	414.94
358.441	405.94
358.668	432.94
358.895	410.94
359.122	430.94
359.349	434.94
359.576	445.94
359.802	490.94
360.029	504.94
360.256	539.94
360.483	498.94
360.709	458.94
360.936	457.94
361.163	447.94
361.39	486.94
361.616	460.94
361.843	438.94
362.07	477.94
362.296	469.94
362.523	441.94
362.749	453.94
362.976	456.94
363.203	454.94
363.429	428.94
363.656	436.94
363.882	436.94
364.109	418.94
364.335	436.94
364.562	425.94
364.788	436.94
365.015	442.94
365.241	434.94
365.468	454.94
365.694	457.94
365.92	449.94
366.147	421.94
366.373	430.94
366.599	419.94
366.826	445.94
367.052	439.94
367.278	438.94
367.505	434.94
367.731	438.94
367.957	410.94
368.184	424.94
368.41	456.94
368.636	440.94
368.862	452.94
369.089	446.94
369.315	427.94
369.541	432.94
369.767	439.94
369.993	420.94
370.219	440.94
370.445	436.94
370.672	423.94
370.898	442.94
371.124	410.94
371.35	439.94
371.576	402.94
371.802	432.94
372.028	431.94
372.254	430.94
372.48	423.94
372.706	411.94
372.932	435.94
373.158	452.94
373.384	433.94
373.61	443.94
373.835	445.94
374.061	426.94
374.287	426.94
374.513	451.94
374.739	430.94
374.965	441.94
375.191	440.94
375.416	422.94
375.642	420.94
375.868	459.94
376.094	434.94
376.319	447.94
376.545	413.94
376.771	424.94
376.997	422.94
377.222	439.94
377.448	426.94
377.674	427.94
377.899	408.94
378.125	417.94
378.35	401.94
378.576	416.94
378.802	418.94
379.027	444.94
379.253	429.94
379.478	428.94
379.704	420.94
379.929	425.94
380.155	436.94
380.38	436.94
380.606	445.94
380.831	452.94
381.057	435.94
381.282	422.94
381.507	432.94
381.733	435.94
381.958	419.94
382.184	440.94
382.409	448.94
382.634	427.94
382.86	442.94
383.085	457.94
383.31	439.94
383.535	454.94
383.761	444.94
383.986	441.94
384.211	424.94
384.436	452.94
384.662	460.94
384.887	437.94
385.112	472.94
385.337	445.94
385.562	434.94
385.787	460.94
386.013	478.94
386.238	458.94
386.463	472.94
386.688	451.94
386.913	450.94
387.138	446.94
387.363	453.94
387.588	458.94
387.813	458.94
388.038	468.94
388.263	475.94
388.488	467.94
388.713	457.94
388.938	466.94
389.163	475.94
389.387	459.94
389.612	480.94
389.837	464.94
390.062	471.94
390.287	462.94
390.512	446.94
390.736	451.94
390.961	456.94
391.186	457.94
391.411	472.94
391.636	456.94
391.86	458.94
392.085	453.94
392.31	458.94
392.534	489.94
392.759	474.94
392.984	457.94
393.208	457.94
393.433	477.94
393.658	458.94
393.882	461.94
394.107	473.94
394.331	456.94
394.556	454.94
394.78	478.94
395.005	470.94
395.229	464.94
395.454	478.94
395.678	483.94
395.903	485.94
396.127	524.94
396.352	534.94
396.576	512.94
396.801	471.94
397.025	475.94
397.249	479.94
397.474	487.94
397.698	490.94
397.922	521.94
398.147	537.94
398.371	523.94
398.595	506.94
398.82	495.94
399.044	519.94
399.268	534.94
399.492	571.94
399.717	574.94
399.941	604.94
400.165	613.94
400.389	637.94
400.613	606.94
400.837	557.94
401.062	547.94
401.286	544.94
401.51	542.94
401.734	510.94
401.958	545.94
402.182	545.94
402.406	548.94
402.63	553.94
402.854	540.94
403.078	532.94
403.302	538.94
403.526	530.94
403.75	552.94
403.974	541.94
404.198	545.94
404.422	571.94
404.645	580.94
404.869	562.94
405.093	596.94
405.317	646.94
405.541	692.94
405.765	624.94
405.988	609.94
406.212	598.94
406.436	631.94
406.66	654.94
406.883	609.94
407.107	642.94
407.331	670.94
407.555	746.94
407.778	725.94
408.002	685.94
408.226	643.94
408.449	624.94
408.673	601.94
408.896	641.94
409.12	673.94
409.344	655.94
409.567	592.94
409.791	590.94
410.014	557.94
410.238	558.94
410.461	545.94
410.685	536.94
410.908	578.94
411.132	612.94
411.355	657.94
411.578	628.94
411.802	621.94
412.025	564.94
412.249	585.94
412.472	606.94
412.695	648.94
412.919	636.94
413.142	562.94
413.365	542.94
413.589	565.94
413.812	526.94
414.035	548.94
414.258	555.94
414.482	553.94
414.705	531.94
414.928	533.94
415.151	531.94
415.374	519.94
415.597	522.94
415.821	526.94
416.044	535.94
416.267	543.94
416.49	512.94
416.713	530.94
416.936	534.94
417.159	540.94
417.382	556.94
417.605	542.94
417.828	566.94
418.051	569.94
418.274	546.94
418.497	541.94
418.72	538.94
418.943	544.94
419.166	564.94
419.389	581.94
419.611	568.94
419.834	564.94
420.057	549.94
420.28	563.94
420.503	584.94
420.726	569.94
420.948	600.94
421.171	636.94
421.394	660.94
421.617	600.94
421.839	575.94
422.062	592.94
422.285	601.94
422.507	650.94
422.73	721.94
422.953	710.94
423.175	626.94
423.398	601.94
423.621	588.94
423.843	608.94
424.066	613.94
424.288	603.94
424.511	641.94
424.733	686.94
424.956	789.94
425.178	774.94
425.401	761.94
425.623	771.94
425.846	678.94
426.068	641.94
426.291	631.94
426.513	618.94
426.735	640.94
426.958	691.94
427.18	770.94
427.402	938.94
427.625	992.94
427.847	938.94
428.069	802.94
428.292	690.94
428.514	646.94
428.736	615.94
428.958	615.94
429.181	597.94
429.403	575.94
429.625	582.94
429.847	622.94
430.069	710.94
430.292	716.94
430.514	627.94
430.736	575.94
430.958	586.94
431.18	599.94
431.402	560.94
431.624	542.94
431.846	542.94
432.068	545.94
432.29	558.94
432.512	545.94
432.734	564.94
432.956	550.94
433.178	561.94
433.4	570.94
433.622	558.94
433.844	542.94
434.066	568.94
434.287	521.94
434.509	550.94
434.731	575.94
434.953	571.94
435.175	571.94
435.397	619.94
435.618	647.94
435.84	694.94
436.062	803.94
436.284	820.94
436.505	716.94
436.727	650.94
436.949	613.94
437.17	582.94
437.392	586.94
437.614	607.94
437.835	653.94
438.057	760.94
438.278	896.94
438.5	867.94
438.721	900.94
438.943	906.94
439.165	735.94
439.386	664.94
439.608	666.94
439.829	669.94
440.05	694.94
440.272	739.94
440.493	708.94
440.715	638.94
440.936	641.94
441.158	600.94
441.379	589.94
441.6	619.94
441.822	637.94
442.043	678.94
442.264	774.94
442.486	835.94
442.707	725.94
442.928	652.94
443.149	666.94
443.371	678.94
443.592	730.94
443.813	854.94
444.034	891.94
444.255	770.94
444.476	678.94
444.698	638.94
444.919	619.94
445.14	750.94
445.361	704.94
445.582	678.94
445.803	772.94
446.024	878.94
446.245	839.94
446.466	842.94
446.687	695.94
446.908	644.94
447.129	633.94
447.35	613.94
447.571	591.94
447.792	605.94
448.013	611.94
448.234	611.94
448.455	646.94
448.675	799.94
448.896	897.94
449.117	808.94
449.338	730.94
449.559	841.94
449.779	939.94
450	806.94
450.221	654.94
450.442	601.94
450.662	592.94
450.883	610.94
451.104	614.94
451.324	612.94
451.545	597.94
451.766	559.94
451.986	541.94
452.207	532.94
452.428	542.94
452.648	537.94
452.869	542.94
453.089	563.94
453.31	562.94
453.53	557.94
453.751	526.94
453.971	541.94
454.192	577.94
454.412	568.94
454.633	524.94
454.853	527.94
455.073	533.94
455.294	550.94
455.514	642.94
455.734	617.94
455.955	536.94
456.175	528.94
456.395	483.94
456.616	485.94
456.836	480.94
457.056	480.94
457.276	487.94
457.497	472.94
457.717	480.94
457.937	490.94
458.157	496.94
458.377	509.94
458.598	534.94
458.818	609.94
459.038	702.94
459.258	706.94
459.478	626.94
459.698	566.94
459.918	532.94
460.138	529.94
460.358	528.94
460.578	520.94
460.798	547.94
461.018	531.94
461.238	535.94
461.458	527.94
461.678	542.94
461.898	561.94
462.118	534.94
462.338	526.94
462.558	557.94
462.777	554.94
462.997	556.94
463.217	550.94
463.437	554.94
463.657	563.94
463.876	547.94
464.096	558.94
464.316	572.94
464.536	576.94
464.755	545.94
464.975	587.94
465.195	632.94
465.414	737.94
465.634	660.94
465.854	601.94
466.073	570.94
466.293	552.94
466.512	534.94
466.732	532.94
466.951	530.94
467.171	528.94
467.391	546.94
467.61	546.94
467.829	564.94
468.049	576.94
468.268	569.94
468.488	548.94
468.707	547.94
468.927	523.94
469.146	500.94
469.365	533.94
469.585	526.94
469.804	532.94
470.023	567.94
470.243	544.94
470.462	557.94
470.681	582.94
470.901	576.94
471.12	554.94
471.339	544.94
471.558	540.94
471.777	532.94
471.997	532.94
472.216	552.94
472.435	609.94
472.654	585.94
472.873	534.94
473.092	538.94
473.311	554.94
473.53	556.94
473.749	559.94
473.968	598.94
474.187	724.94
474.406	744.94
474.625	624.94
474.844	569.94
475.063	553.94
475.282	562.94
475.501	554.94
475.72	538.94
475.939	570.94
476.158	564.94
476.377	578.94
476.596	563.94
476.814	583.94
477.033	586.94
477.252	576.94
477.471	563.94
477.69	593.94
477.908	585.94
478.127	608.94
478.346	596.94
478.564	597.94
478.783	609.94
479.002	610.94
479.22	614.94
479.439	654.94
479.658	644.94
479.876	650.94
480.095	701.94
480.313	663.94
480.532	685.94
480.751	681.94
480.969	661.94
481.188	783.94
481.406	840.94
481.624	742.94
481.843	677.94
482.061	685.94
482.28	677.94
482.498	677.94
482.717	637.94
482.935	633.94
483.153	652.94
483.372	644.94
483.59	647.94
483.808	656.94
484.027	666.94
484.245	669.94
484.463	636.94
484.681	677.94
484.9	662.94
485.118	669.94
485.336	653.94
485.554	665.94
485.772	683.94
485.99	676.94
486.209	688.94
486.427	692.94
486.645	674.94
486.863	718.94
487.081	738.94
487.299	710.94
487.517	714.94
487.735	704.94
487.953	720.94
488.171	683.94
488.389	721.94
488.607	685.94
488.825	711.94
489.043	693.94
489.261	718.94
489.479	726.94
489.696	715.94
489.914	712.94
490.132	740.94
490.35	745.94
490.568	728.94
490.786	766.94
491.003	782.94
491.221	797.94
491.439	817.94
491.657	817.94
491.874	821.94
492.092	836.94
492.31	836.94
492.527	854.94
492.745	874.94
492.963	842.94
493.18	859.94
493.398	848.94
493.615	840.94
493.833	864.94
494.05	826.94
494.268	866.94
494.485	874.94
494.703	872.94
494.92	865.94
495.138	840.94
495.355	833.94
495.573	875.94
495.79	870.94
496.008	853.94
496.225	852.94
496.442	861.94
496.66	866.94
496.877	845.94
497.094	862.94
497.312	874.94
497.529	856.94
497.746	889.94
497.963	896.94
498.181	902.94
498.398	939.94
498.615	904.94
498.832	904.94
499.049	922.94
499.267	928.94
499.484	941.94
499.701	985.94
499.918	961.94
500.135	1012.94
500.352	1056.94
500.569	1043.94
500.786	1077.94
501.003	1034.94
501.22	1062.94
501.437	1026.94
501.654	1015.94
501.871	1022.94
