Data from 1970.PennyLincolnUp.Lamp.En5.5.200Scan.071719.P1._HRD10591_15-15-37-841.txt Node
Date: Thu Jul 18 15:15:37 EDT 2019
User: cochatt
Spectrometer: HR+D1059
Trigger mode: 1
Integration Time (sec): 1.000000E-1
Scans to average: 1
Electric dark correction enabled: true
Nonlinearity correction enabled: false
Boxcar width: 0
XAxis mode: Wavelengths
Number of Pixels in Spectrum: 2048
>>>>>Begin Spectral Data<<<<<
223.165	-19.75
223.4	-19.75
223.635	-19.75
223.869	-12.75
224.104	-7.75
224.338	-14.75
224.573	-8.75
224.808	-24.75
225.042	-11.75
225.277	2.25
225.511	-3.75
225.746	1.25
225.98	4.25
226.215	4.25
226.449	10.25
226.683	25.25
226.918	27.25
227.152	29.25
227.387	32.25
227.621	49.25
227.856	41.25
228.09	38.25
228.324	43.25
228.559	51.25
228.793	73.25
229.027	107.25
229.262	121.25
229.496	131.25
229.73	145.25
229.964	178.25
230.199	141.25
230.433	105.25
230.667	137.25
230.901	118.25
231.136	129.25
231.37	115.25
231.604	120.25
231.838	126.25
232.072	123.25
232.306	127.25
232.541	129.25
232.775	119.25
233.009	100.25
233.243	102.25
233.477	109.25
233.711	119.25
233.945	112.25
234.179	138.25
234.413	132.25
234.647	130.25
234.881	132.25
235.115	120.25
235.349	123.25
235.583	121.25
235.817	139.25
236.051	146.25
236.285	151.25
236.519	124.25
236.753	123.25
236.987	167.25
237.221	199.25
237.455	269.25
237.689	206.25
237.922	147.25
238.156	154.25
238.39	160.25
238.624	135.25
238.858	137.25
239.091	137.25
239.325	143.25
239.559	144.25
239.793	134.25
240.027	135.25
240.26	158.25
240.494	204.25
240.728	182.25
240.961	166.25
241.195	162.25
241.429	150.25
241.662	144.25
241.896	149.25
242.13	143.25
242.363	148.25
242.597	150.25
242.83	146.25
243.064	155.25
243.298	141.25
243.531	152.25
243.765	162.25
243.998	144.25
244.232	154.25
244.465	152.25
244.699	155.25
244.932	160.25
245.166	147.25
245.399	161.25
245.633	167.25
245.866	163.25
246.099	143.25
246.333	158.25
246.566	167.25
246.8	163.25
247.033	184.25
247.266	191.25
247.5	171.25
247.733	191.25
247.966	182.25
248.2	170.25
248.433	191.25
248.666	199.25
248.899	216.25
249.133	209.25
249.366	246.25
249.599	235.25
249.832	223.25
250.066	204.25
250.299	209.25
250.532	210.25
250.765	229.25
250.998	289.25
251.231	266.25
251.465	263.25
251.698	239.25
251.931	223.25
252.164	220.25
252.397	215.25
252.63	212.25
252.863	225.25
253.096	246.25
253.329	263.25
253.562	252.25
253.795	236.25
254.028	244.25
254.261	263.25
254.494	244.25
254.727	266.25
254.96	325.25
255.193	319.25
255.426	283.25
255.659	265.25
255.892	248.25
256.124	274.25
256.357	286.25
256.59	253.25
256.823	251.25
257.056	247.25
257.289	236.25
257.521	229.25
257.754	225.25
257.987	231.25
258.22	232.25
258.452	236.25
258.685	225.25
258.918	245.25
259.151	244.25
259.383	219.25
259.616	253.25
259.849	255.25
260.081	256.25
260.314	296.25
260.547	283.25
260.779	264.25
261.012	272.25
261.244	260.25
261.477	240.25
261.71	254.25
261.942	259.25
262.175	243.25
262.407	269.25
262.64	250.25
262.872	237.25
263.105	238.25
263.337	248.25
263.57	208.25
263.802	235.25
264.035	228.25
264.267	216.25
264.499	217.25
264.732	239.25
264.964	229.25
265.197	212.25
265.429	220.25
265.661	232.25
265.894	232.25
266.126	243.25
266.358	222.25
266.591	215.25
266.823	248.25
267.055	240.25
267.287	250.25
267.52	253.25
267.752	255.25
267.984	240.25
268.216	241.25
268.448	238.25
268.681	242.25
268.913	261.25
269.145	274.25
269.377	285.25
269.609	296.25
269.841	298.25
270.073	289.25
270.306	306.25
270.538	333.25
270.77	351.25
271.002	336.25
271.234	316.25
271.466	320.25
271.698	344.25
271.93	340.25
272.162	343.25
272.394	345.25
272.626	321.25
272.858	314.25
273.09	333.25
273.322	283.25
273.553	291.25
273.785	300.25
274.017	299.25
274.249	293.25
274.481	287.25
274.713	303.25
274.945	285.25
275.176	284.25
275.408	279.25
275.64	278.25
275.872	289.25
276.104	283.25
276.335	268.25
276.567	281.25
276.799	314.25
277.031	320.25
277.262	335.25
277.494	343.25
277.726	320.25
277.957	319.25
278.189	300.25
278.421	273.25
278.652	273.25
278.884	274.25
279.115	279.25
279.347	288.25
279.579	278.25
279.81	280.25
280.042	285.25
280.273	278.25
280.505	287.25
280.736	260.25
280.968	294.25
281.199	275.25
281.431	283.25
281.662	280.25
281.894	280.25
282.125	278.25
282.356	285.25
282.588	305.25
282.819	318.25
283.051	291.25
283.282	279.25
283.513	269.25
283.745	291.25
283.976	293.25
284.207	304.25
284.439	285.25
284.67	303.25
284.901	277.25
285.132	274.25
285.364	272.25
285.595	283.25
285.826	285.25
286.057	282.25
286.288	292.25
286.52	281.25
286.751	269.25
286.982	283.25
287.213	284.25
287.444	286.25
287.675	285.25
287.906	314.25
288.138	311.25
288.369	297.25
288.6	299.25
288.831	317.25
289.062	291.25
289.293	295.25
289.524	285.25
289.755	302.25
289.986	289.25
290.217	293.25
290.448	298.25
290.679	287.25
290.91	302.25
291.141	291.25
291.371	274.25
291.602	281.25
291.833	280.25
292.064	268.25
292.295	305.25
292.526	301.25
292.757	284.25
292.987	294.25
293.218	305.25
293.449	283.25
293.68	295.25
293.91	295.25
294.141	297.25
294.372	288.25
294.603	288.25
294.833	301.25
295.064	318.25
295.295	318.25
295.525	301.25
295.756	307.25
295.987	332.25
296.217	341.25
296.448	346.25
296.679	317.25
296.909	285.25
297.14	304.25
297.37	291.25
297.601	307.25
297.831	296.25
298.062	293.25
298.292	285.25
298.523	290.25
298.753	312.25
298.984	318.25
299.214	297.25
299.445	321.25
299.675	299.25
299.905	322.25
300.136	317.25
300.366	287.25
300.597	302.25
300.827	319.25
301.057	336.25
301.288	331.25
301.518	333.25
301.748	318.25
301.979	319.25
302.209	336.25
302.439	332.25
302.669	344.25
302.9	325.25
303.13	316.25
303.36	318.25
303.59	312.25
303.82	341.25
304.051	364.25
304.281	336.25
304.511	317.25
304.741	321.25
304.971	343.25
305.201	317.25
305.431	323.25
305.661	323.25
305.891	301.25
306.121	331.25
306.352	350.25
306.582	314.25
306.812	332.25
307.042	330.25
307.272	337.25
307.502	332.25
307.731	320.25
307.961	330.25
308.191	351.25
308.421	328.25
308.651	329.25
308.881	355.25
309.111	347.25
309.341	352.25
309.571	364.25
309.8	381.25
310.03	397.25
310.26	392.25
310.49	387.25
310.72	395.25
310.949	428.25
311.179	408.25
311.409	387.25
311.639	397.25
311.868	383.25
312.098	379.25
312.328	390.25
312.557	419.25
312.787	418.25
313.017	420.25
313.246	413.25
313.476	386.25
313.706	413.25
313.935	407.25
314.165	409.25
314.394	411.25
314.624	429.25
314.853	403.25
315.083	394.25
315.312	399.25
315.542	397.25
315.771	381.25
316.001	385.25
316.23	359.25
316.46	397.25
316.689	391.25
316.919	400.25
317.148	424.25
317.377	406.25
317.607	391.25
317.836	401.25
318.065	397.25
318.295	392.25
318.524	399.25
318.753	384.25
318.983	393.25
319.212	395.25
319.441	391.25
319.67	390.25
319.9	397.25
320.129	405.25
320.358	384.25
320.587	402.25
320.816	417.25
321.046	417.25
321.275	421.25
321.504	430.25
321.733	425.25
321.962	428.25
322.191	437.25
322.42	463.25
322.649	478.25
322.878	494.25
323.108	511.25
323.337	555.25
323.566	567.25
323.795	576.25
324.024	659.25
324.253	808.25
324.482	1178.25
324.71	1768.25
324.939	2527.25
325.168	2160.25
325.397	1169.25
325.626	756.25
325.855	642.25
326.084	576.25
326.313	571.25
326.542	582.25
326.77	614.25
326.999	745.25
327.228	1042.25
327.457	1559.25
327.686	1885.25
327.914	1305.25
328.143	840.25
328.372	740.25
328.6	691.25
328.829	634.25
329.058	666.25
329.287	674.25
329.515	607.25
329.744	577.25
329.972	588.25
330.201	605.25
330.43	642.25
330.658	697.25
330.887	698.25
331.115	668.25
331.344	605.25
331.572	545.25
331.801	517.25
332.03	525.25
332.258	532.25
332.486	463.25
332.715	496.25
332.943	485.25
333.172	479.25
333.4	485.25
333.629	503.25
333.857	492.25
334.085	521.25
334.314	560.25
334.542	607.25
334.771	606.25
334.999	539.25
335.227	518.25
335.455	477.25
335.684	457.25
335.912	469.25
336.14	459.25
336.369	455.25
336.597	462.25
336.825	494.25
337.053	459.25
337.281	469.25
337.51	447.25
337.738	463.25
337.966	451.25
338.194	446.25
338.422	468.25
338.65	436.25
338.878	460.25
339.106	444.25
339.334	458.25
339.562	449.25
339.79	441.25
340.018	456.25
340.246	441.25
340.474	439.25
340.702	446.25
340.93	452.25
341.158	455.25
341.386	435.25
341.614	462.25
341.842	448.25
342.07	431.25
342.298	439.25
342.526	422.25
342.754	438.25
342.981	431.25
343.209	424.25
343.437	421.25
343.665	417.25
343.893	414.25
344.12	445.25
344.348	469.25
344.576	445.25
344.804	464.25
345.031	458.25
345.259	477.25
345.487	473.25
345.714	441.25
345.942	438.25
346.17	446.25
346.397	439.25
346.625	419.25
346.853	450.25
347.08	436.25
347.308	449.25
347.535	473.25
347.763	456.25
347.99	455.25
348.218	445.25
348.445	460.25
348.673	481.25
348.9	432.25
349.128	432.25
349.355	424.25
349.583	437.25
349.81	430.25
350.037	435.25
350.265	445.25
350.492	431.25
350.72	449.25
350.947	448.25
351.174	470.25
351.402	456.25
351.629	440.25
351.856	452.25
352.083	471.25
352.311	486.25
352.538	479.25
352.765	496.25
352.992	474.25
353.22	459.25
353.447	449.25
353.674	444.25
353.901	429.25
354.128	416.25
354.355	421.25
354.583	426.25
354.81	427.25
355.037	412.25
355.264	400.25
355.491	411.25
355.718	392.25
355.945	407.25
356.172	395.25
356.399	387.25
356.626	411.25
356.853	399.25
357.08	391.25
357.307	392.25
357.534	424.25
357.761	408.25
357.988	419.25
358.215	420.25
358.441	391.25
358.668	413.25
358.895	418.25
359.122	431.25
359.349	436.25
359.576	442.25
359.802	477.25
360.029	516.25
360.256	543.25
360.483	526.25
360.709	464.25
360.936	465.25
361.163	446.25
361.39	464.25
361.616	455.25
361.843	423.25
362.07	443.25
362.296	446.25
362.523	453.25
362.749	439.25
362.976	450.25
363.203	445.25
363.429	441.25
363.656	450.25
363.882	438.25
364.109	427.25
364.335	407.25
364.562	422.25
364.788	431.25
365.015	431.25
365.241	426.25
365.468	454.25
365.694	443.25
365.92	449.25
366.147	433.25
366.373	419.25
366.599	432.25
366.826	431.25
367.052	424.25
367.278	437.25
367.505	425.25
367.731	426.25
367.957	427.25
368.184	427.25
368.41	439.25
368.636	437.25
368.862	453.25
369.089	438.25
369.315	428.25
369.541	409.25
369.767	450.25
369.993	426.25
370.219	426.25
370.445	423.25
370.672	430.25
370.898	431.25
371.124	423.25
371.35	425.25
371.576	421.25
371.802	405.25
372.028	420.25
372.254	431.25
372.48	405.25
372.706	424.25
372.932	426.25
373.158	421.25
373.384	423.25
373.61	427.25
373.835	421.25
374.061	420.25
374.287	425.25
374.513	438.25
374.739	426.25
374.965	430.25
375.191	405.25
375.416	441.25
375.642	424.25
375.868	437.25
376.094	424.25
376.319	412.25
376.545	427.25
376.771	423.25
376.997	425.25
377.222	432.25
377.448	418.25
377.674	410.25
377.899	385.25
378.125	407.25
378.35	407.25
378.576	412.25
378.802	411.25
379.027	421.25
379.253	418.25
379.478	413.25
379.704	443.25
379.929	435.25
380.155	425.25
380.38	420.25
380.606	414.25
380.831	415.25
381.057	420.25
381.282	431.25
381.507	430.25
381.733	423.25
381.958	416.25
382.184	424.25
382.409	416.25
382.634	439.25
382.86	435.25
383.085	428.25
383.31	436.25
383.535	444.25
383.761	459.25
383.986	439.25
384.211	441.25
384.436	431.25
384.662	446.25
384.887	450.25
385.112	445.25
385.337	466.25
385.562	448.25
385.787	446.25
386.013	458.25
386.238	483.25
386.463	444.25
386.688	452.25
386.913	430.25
387.138	428.25
387.363	460.25
387.588	459.25
387.813	451.25
388.038	458.25
388.263	451.25
388.488	472.25
388.713	460.25
388.938	466.25
389.163	466.25
389.387	465.25
389.612	446.25
389.837	443.25
390.062	457.25
390.287	453.25
390.512	433.25
390.736	471.25
390.961	461.25
391.186	464.25
391.411	458.25
391.636	454.25
391.86	453.25
392.085	449.25
392.31	456.25
392.534	461.25
392.759	446.25
392.984	469.25
393.208	461.25
393.433	456.25
393.658	474.25
393.882	443.25
394.107	460.25
394.331	463.25
394.556	455.25
394.78	470.25
395.005	468.25
395.229	465.25
395.454	459.25
395.678	463.25
395.903	480.25
396.127	516.25
396.352	511.25
396.576	483.25
396.801	483.25
397.025	481.25
397.249	499.25
397.474	472.25
397.698	468.25
397.922	526.25
398.147	523.25
398.371	536.25
398.595	525.25
398.82	532.25
399.044	525.25
399.268	535.25
399.492	548.25
399.717	559.25
399.941	574.25
400.165	618.25
400.389	661.25
400.613	609.25
400.837	572.25
401.062	541.25
401.286	544.25
401.51	532.25
401.734	526.25
401.958	519.25
402.182	517.25
402.406	538.25
402.63	548.25
402.854	523.25
403.078	541.25
403.302	546.25
403.526	543.25
403.75	539.25
403.974	542.25
404.198	536.25
404.422	550.25
404.645	567.25
404.869	556.25
405.093	599.25
405.317	661.25
405.541	668.25
405.765	613.25
405.988	596.25
406.212	610.25
406.436	596.25
406.66	615.25
406.883	605.25
407.107	628.25
407.331	673.25
407.555	724.25
407.778	715.25
408.002	669.25
408.226	601.25
408.449	638.25
408.673	596.25
408.896	640.25
409.12	679.25
409.344	635.25
409.567	587.25
409.791	573.25
410.014	553.25
410.238	546.25
410.461	553.25
410.685	574.25
410.908	588.25
411.132	632.25
411.355	643.25
411.578	643.25
411.802	573.25
412.025	551.25
412.249	597.25
412.472	605.25
412.695	635.25
412.919	622.25
413.142	595.25
413.365	555.25
413.589	552.25
413.812	523.25
414.035	527.25
414.258	535.25
414.482	531.25
414.705	503.25
414.928	524.25
415.151	523.25
415.374	509.25
415.597	520.25
415.821	503.25
416.044	510.25
416.267	532.25
416.49	529.25
416.713	516.25
416.936	518.25
417.159	522.25
417.382	535.25
417.605	548.25
417.828	548.25
418.051	552.25
418.274	557.25
418.497	527.25
418.72	548.25
418.943	528.25
419.166	548.25
419.389	583.25
419.611	561.25
419.834	557.25
420.057	570.25
420.28	567.25
420.503	576.25
420.726	563.25
420.948	591.25
421.171	630.25
421.394	651.25
421.617	588.25
421.839	567.25
422.062	577.25
422.285	592.25
422.507	660.25
422.73	702.25
422.953	707.25
423.175	609.25
423.398	599.25
423.621	597.25
423.843	607.25
424.066	616.25
424.288	613.25
424.511	624.25
424.733	694.25
424.956	766.25
425.178	744.25
425.401	763.25
425.623	763.25
425.846	686.25
426.068	629.25
426.291	633.25
426.513	630.25
426.735	631.25
426.958	679.25
427.18	769.25
427.402	869.25
427.625	968.25
427.847	893.25
428.069	796.25
428.292	685.25
428.514	663.25
428.736	600.25
428.958	608.25
429.181	573.25
429.403	607.25
429.625	583.25
429.847	636.25
430.069	688.25
430.292	702.25
430.514	633.25
430.736	589.25
430.958	580.25
431.18	568.25
431.402	568.25
431.624	525.25
431.846	522.25
432.068	527.25
432.29	538.25
432.512	548.25
432.734	545.25
432.956	566.25
433.178	550.25
433.4	572.25
433.622	550.25
433.844	536.25
434.066	527.25
434.287	521.25
434.509	542.25
434.731	539.25
434.953	574.25
435.175	597.25
435.397	624.25
435.618	621.25
435.84	676.25
436.062	789.25
436.284	839.25
436.505	721.25
436.727	647.25
436.949	590.25
437.17	581.25
437.392	603.25
437.614	603.25
437.835	656.25
438.057	742.25
438.278	865.25
438.5	839.25
438.721	933.25
438.943	887.25
439.165	730.25
439.386	665.25
439.608	677.25
439.829	667.25
440.05	671.25
440.272	723.25
440.493	726.25
440.715	624.25
440.936	615.25
441.158	583.25
441.379	585.25
441.6	619.25
441.822	644.25
442.043	655.25
442.264	768.25
442.486	820.25
442.707	692.25
442.928	655.25
443.149	664.25
443.371	704.25
443.592	722.25
443.813	814.25
444.034	867.25
444.255	725.25
444.476	661.25
444.698	606.25
444.919	623.25
445.14	740.25
445.361	689.25
445.582	666.25
445.803	742.25
446.024	865.25
446.245	874.25
446.466	798.25
446.687	700.25
446.908	641.25
447.129	610.25
447.35	588.25
447.571	591.25
447.792	594.25
448.013	601.25
448.234	611.25
448.455	661.25
448.675	765.25
448.896	905.25
449.117	772.25
449.338	743.25
449.559	827.25
449.779	929.25
450	758.25
450.221	668.25
450.442	590.25
450.662	563.25
450.883	579.25
451.104	615.25
451.324	603.25
451.545	556.25
451.766	563.25
451.986	530.25
452.207	509.25
452.428	498.25
452.648	504.25
452.869	523.25
453.089	525.25
453.31	517.25
453.53	553.25
453.751	535.25
453.971	539.25
454.192	564.25
454.412	565.25
454.633	534.25
454.853	525.25
455.073	524.25
455.294	548.25
455.514	637.25
455.734	621.25
455.955	509.25
456.175	486.25
456.395	484.25
456.616	478.25
456.836	480.25
457.056	477.25
457.276	471.25
457.497	485.25
457.717	463.25
457.937	472.25
458.157	502.25
458.377	523.25
458.598	526.25
458.818	627.25
459.038	723.25
459.258	719.25
459.478	610.25
459.698	528.25
459.918	517.25
460.138	525.25
460.358	546.25
460.578	553.25
460.798	533.25
461.018	548.25
461.238	523.25
461.458	537.25
461.678	516.25
461.898	525.25
462.118	521.25
462.338	545.25
462.558	526.25
462.777	565.25
462.997	544.25
463.217	571.25
463.437	563.25
463.657	561.25
463.876	553.25
464.096	577.25
464.316	555.25
464.536	620.25
464.755	557.25
464.975	600.25
465.195	643.25
465.414	751.25
465.634	666.25
465.854	590.25
466.073	581.25
466.293	541.25
466.512	547.25
466.732	514.25
466.951	533.25
467.171	535.25
467.391	523.25
467.61	548.25
467.829	561.25
468.049	545.25
468.268	528.25
468.488	517.25
468.707	532.25
468.927	534.25
469.146	510.25
469.365	516.25
469.585	521.25
469.804	522.25
470.023	547.25
470.243	558.25
470.462	525.25
470.681	563.25
470.901	544.25
471.12	543.25
471.339	534.25
471.558	553.25
471.777	537.25
471.997	533.25
472.216	536.25
472.435	614.25
472.654	597.25
472.873	543.25
473.092	547.25
473.311	537.25
473.53	550.25
473.749	552.25
473.968	604.25
474.187	719.25
474.406	735.25
474.625	630.25
474.844	568.25
475.063	519.25
475.282	547.25
475.501	545.25
475.72	551.25
475.939	551.25
476.158	555.25
476.377	578.25
476.596	558.25
476.814	560.25
477.033	595.25
477.252	571.25
477.471	588.25
477.69	576.25
477.908	613.25
478.127	564.25
478.346	567.25
478.564	600.25
478.783	607.25
479.002	602.25
479.22	595.25
479.439	638.25
479.658	649.25
479.876	659.25
480.095	647.25
480.313	684.25
480.532	682.25
480.751	649.25
480.969	672.25
481.188	744.25
481.406	824.25
481.624	725.25
481.843	709.25
482.061	669.25
482.28	650.25
482.498	638.25
482.717	667.25
482.935	644.25
483.153	632.25
483.372	641.25
483.59	636.25
483.808	639.25
484.027	637.25
484.245	643.25
484.463	656.25
484.681	664.25
484.9	629.25
485.118	674.25
485.336	683.25
485.554	671.25
485.772	645.25
485.99	682.25
486.209	679.25
486.427	681.25
486.645	678.25
486.863	703.25
487.081	724.25
487.299	687.25
487.517	718.25
487.735	719.25
487.953	729.25
488.171	697.25
488.389	700.25
488.607	708.25
488.825	723.25
489.043	702.25
489.261	719.25
489.479	713.25
489.696	709.25
489.914	735.25
490.132	734.25
490.35	750.25
490.568	746.25
490.786	761.25
491.003	740.25
491.221	785.25
491.439	805.25
491.657	832.25
491.874	828.25
492.092	845.25
492.31	867.25
492.527	849.25
492.745	816.25
492.963	850.25
493.18	831.25
493.398	848.25
493.615	831.25
493.833	840.25
494.05	834.25
494.268	852.25
494.485	861.25
494.703	841.25
494.92	842.25
495.138	841.25
495.355	903.25
495.573	874.25
495.79	835.25
496.008	856.25
496.225	826.25
496.442	839.25
496.66	823.25
496.877	876.25
497.094	885.25
497.312	856.25
497.529	846.25
497.746	872.25
497.963	905.25
498.181	899.25
498.398	889.25
498.615	910.25
498.832	896.25
499.049	925.25
499.267	912.25
499.484	925.25
499.701	978.25
499.918	988.25
500.135	1002.25
500.352	1028.25
500.569	1027.25
500.786	1060.25
501.003	1041.25
501.22	1032.25
501.437	985.25
501.654	1003.25
501.871	1023.25
