Data from 1970.PennyLincolnUp.Lamp.En5.5.200Scan.071719.P1._HRD10591_15-13-32-843.txt Node
Date: Thu Jul 18 15:13:32 EDT 2019
User: cochatt
Spectrometer: HR+D1059
Trigger mode: 1
Integration Time (sec): 1.000000E-1
Scans to average: 1
Electric dark correction enabled: true
Nonlinearity correction enabled: false
Boxcar width: 0
XAxis mode: Wavelengths
Number of Pixels in Spectrum: 2048
>>>>>Begin Spectral Data<<<<<
223.165	-4.31
223.4	-4.31
223.635	-4.31
223.869	-13.31
224.104	-22.31
224.338	-14.31
224.573	-33.31
224.808	-15.31
225.042	-13.31
225.277	-4.31
225.511	-8.31
225.746	8.69
225.98	6.69
226.215	17.69
226.449	13.69
226.683	34.69
226.918	18.69
227.152	28.69
227.387	27.69
227.621	24.69
227.856	46.69
228.09	40.69
228.324	52.69
228.559	52.69
228.793	49.69
229.027	100.69
229.262	128.69
229.496	108.69
229.73	130.69
229.964	150.69
230.199	122.69
230.433	118.69
230.667	127.69
230.901	114.69
231.136	115.69
231.37	115.69
231.604	108.69
231.838	101.69
232.072	99.69
232.306	111.69
232.541	106.69
232.775	112.69
233.009	112.69
233.243	108.69
233.477	108.69
233.711	111.69
233.945	115.69
234.179	112.69
234.413	98.69
234.647	107.69
234.881	130.69
235.115	115.69
235.349	115.69
235.583	109.69
235.817	116.69
236.051	137.69
236.285	102.69
236.519	109.69
236.753	125.69
236.987	142.69
237.221	186.69
237.455	233.69
237.689	186.69
237.922	148.69
238.156	132.69
238.39	137.69
238.624	130.69
238.858	130.69
239.091	122.69
239.325	122.69
239.559	142.69
239.793	116.69
240.027	126.69
240.26	134.69
240.494	141.69
240.728	153.69
240.961	155.69
241.195	140.69
241.429	157.69
241.662	149.69
241.896	129.69
242.13	147.69
242.363	128.69
242.597	128.69
242.83	130.69
243.064	126.69
243.298	129.69
243.531	133.69
243.765	141.69
243.998	140.69
244.232	145.69
244.465	153.69
244.699	161.69
244.932	135.69
245.166	137.69
245.399	136.69
245.633	143.69
245.866	143.69
246.099	156.69
246.333	151.69
246.566	149.69
246.8	161.69
247.033	165.69
247.266	152.69
247.5	158.69
247.733	172.69
247.966	160.69
248.2	177.69
248.433	168.69
248.666	181.69
248.899	186.69
249.133	197.69
249.366	189.69
249.599	189.69
249.832	166.69
250.066	176.69
250.299	172.69
250.532	188.69
250.765	197.69
250.998	218.69
251.231	222.69
251.465	229.69
251.698	200.69
251.931	202.69
252.164	200.69
252.397	183.69
252.63	200.69
252.863	206.69
253.096	226.69
253.329	224.69
253.562	214.69
253.795	223.69
254.028	232.69
254.261	226.69
254.494	232.69
254.727	246.69
254.96	273.69
255.193	241.69
255.426	239.69
255.659	226.69
255.892	227.69
256.124	235.69
256.357	224.69
256.59	208.69
256.823	228.69
257.056	196.69
257.289	203.69
257.521	201.69
257.754	192.69
257.987	214.69
258.22	204.69
258.452	192.69
258.685	195.69
258.918	205.69
259.151	200.69
259.383	226.69
259.616	205.69
259.849	220.69
260.081	219.69
260.314	247.69
260.547	230.69
260.779	220.69
261.012	219.69
261.244	217.69
261.477	224.69
261.71	199.69
261.942	204.69
262.175	232.69
262.407	212.69
262.64	220.69
262.872	200.69
263.105	190.69
263.337	197.69
263.57	193.69
263.802	204.69
264.035	220.69
264.267	195.69
264.499	185.69
264.732	192.69
264.964	209.69
265.197	196.69
265.429	201.69
265.661	195.69
265.894	205.69
266.126	206.69
266.358	211.69
266.591	194.69
266.823	214.69
267.055	211.69
267.287	204.69
267.52	196.69
267.752	203.69
267.984	218.69
268.216	204.69
268.448	217.69
268.681	218.69
268.913	226.69
269.145	229.69
269.377	260.69
269.609	238.69
269.841	245.69
270.073	256.69
270.306	246.69
270.538	278.69
270.77	276.69
271.002	285.69
271.234	277.69
271.466	280.69
271.698	280.69
271.93	295.69
272.162	283.69
272.394	294.69
272.626	267.69
272.858	264.69
273.09	258.69
273.322	263.69
273.553	231.69
273.785	254.69
274.017	224.69
274.249	242.69
274.481	244.69
274.713	247.69
274.945	237.69
275.176	234.69
275.408	244.69
275.64	228.69
275.872	253.69
276.104	227.69
276.335	241.69
276.567	254.69
276.799	264.69
277.031	302.69
277.262	279.69
277.494	295.69
277.726	278.69
277.957	269.69
278.189	260.69
278.421	239.69
278.652	266.69
278.884	235.69
279.115	253.69
279.347	246.69
279.579	229.69
279.81	231.69
280.042	229.69
280.273	241.69
280.505	250.69
280.736	219.69
280.968	235.69
281.199	241.69
281.431	230.69
281.662	225.69
281.894	245.69
282.125	230.69
282.356	260.69
282.588	286.69
282.819	279.69
283.051	245.69
283.282	236.69
283.513	232.69
283.745	258.69
283.976	248.69
284.207	250.69
284.439	231.69
284.67	242.69
284.901	252.69
285.132	230.69
285.364	236.69
285.595	242.69
285.826	241.69
286.057	243.69
286.288	253.69
286.52	244.69
286.751	225.69
286.982	235.69
287.213	254.69
287.444	244.69
287.675	238.69
287.906	250.69
288.138	240.69
288.369	264.69
288.6	274.69
288.831	269.69
289.062	268.69
289.293	238.69
289.524	247.69
289.755	248.69
289.986	265.69
290.217	238.69
290.448	227.69
290.679	243.69
290.91	246.69
291.141	241.69
291.371	252.69
291.602	257.69
291.833	229.69
292.064	245.69
292.295	249.69
292.526	246.69
292.757	262.69
292.987	257.69
293.218	266.69
293.449	264.69
293.68	246.69
293.91	246.69
294.141	243.69
294.372	264.69
294.603	251.69
294.833	239.69
295.064	258.69
295.295	249.69
295.525	260.69
295.756	240.69
295.987	256.69
296.217	291.69
296.448	301.69
296.679	282.69
296.909	259.69
297.14	262.69
297.37	256.69
297.601	237.69
297.831	262.69
298.062	250.69
298.292	261.69
298.523	278.69
298.753	251.69
298.984	266.69
299.214	274.69
299.445	271.69
299.675	274.69
299.905	266.69
300.136	264.69
300.366	250.69
300.597	261.69
300.827	270.69
301.057	257.69
301.288	280.69
301.518	271.69
301.748	278.69
301.979	279.69
302.209	280.69
302.439	278.69
302.669	287.69
302.9	267.69
303.13	251.69
303.36	286.69
303.59	291.69
303.82	302.69
304.051	298.69
304.281	280.69
304.511	276.69
304.741	274.69
304.971	280.69
305.201	268.69
305.431	279.69
305.661	277.69
305.891	283.69
306.121	287.69
306.352	289.69
306.582	292.69
306.812	289.69
307.042	290.69
307.272	289.69
307.502	280.69
307.731	291.69
307.961	293.69
308.191	290.69
308.421	272.69
308.651	296.69
308.881	293.69
309.111	308.69
309.341	301.69
309.571	305.69
309.8	312.69
310.03	323.69
310.26	335.69
310.49	322.69
310.72	338.69
310.949	353.69
311.179	360.69
311.409	326.69
311.639	316.69
311.868	320.69
312.098	334.69
312.328	336.69
312.557	349.69
312.787	347.69
313.017	363.69
313.246	350.69
313.476	310.69
313.706	337.69
313.935	329.69
314.165	338.69
314.394	350.69
314.624	351.69
314.853	323.69
315.083	326.69
315.312	338.69
315.542	316.69
315.771	319.69
316.001	319.69
316.23	308.69
316.46	334.69
316.689	327.69
316.919	354.69
317.148	340.69
317.377	348.69
317.607	325.69
317.836	336.69
318.065	327.69
318.295	337.69
318.524	348.69
318.753	312.69
318.983	327.69
319.212	341.69
319.441	345.69
319.67	342.69
319.9	339.69
320.129	320.69
320.358	338.69
320.587	334.69
320.816	339.69
321.046	346.69
321.275	352.69
321.504	350.69
321.733	345.69
321.962	348.69
322.191	372.69
322.42	380.69
322.649	382.69
322.878	403.69
323.108	401.69
323.337	424.69
323.566	462.69
323.795	489.69
324.024	523.69
324.253	630.69
324.482	904.69
324.71	1365.69
324.939	1931.69
325.168	1678.69
325.397	902.69
325.626	624.69
325.855	503.69
326.084	476.69
326.313	458.69
326.542	464.69
326.77	510.69
326.999	577.69
327.228	784.69
327.457	1218.69
327.686	1446.69
327.914	995.69
328.143	664.69
328.372	568.69
328.6	542.69
328.829	508.69
329.058	534.69
329.287	530.69
329.515	498.69
329.744	463.69
329.972	469.69
330.201	479.69
330.43	512.69
330.658	534.69
330.887	556.69
331.115	562.69
331.344	466.69
331.572	444.69
331.801	436.69
332.03	440.69
332.258	434.69
332.486	395.69
332.715	384.69
332.943	404.69
333.172	408.69
333.4	403.69
333.629	396.69
333.857	418.69
334.085	430.69
334.314	437.69
334.542	451.69
334.771	474.69
334.999	418.69
335.227	420.69
335.455	404.69
335.684	391.69
335.912	390.69
336.14	398.69
336.369	392.69
336.597	390.69
336.825	401.69
337.053	398.69
337.281	383.69
337.51	370.69
337.738	384.69
337.966	378.69
338.194	393.69
338.422	382.69
338.65	394.69
338.878	385.69
339.106	378.69
339.334	378.69
339.562	385.69
339.79	370.69
340.018	379.69
340.246	390.69
340.474	396.69
340.702	385.69
340.93	376.69
341.158	375.69
341.386	382.69
341.614	389.69
341.842	394.69
342.07	375.69
342.298	363.69
342.526	364.69
342.754	368.69
342.981	363.69
343.209	375.69
343.437	352.69
343.665	351.69
343.893	369.69
344.12	368.69
344.348	386.69
344.576	391.69
344.804	398.69
345.031	401.69
345.259	399.69
345.487	390.69
345.714	383.69
345.942	373.69
346.17	369.69
346.397	381.69
346.625	361.69
346.853	368.69
347.08	376.69
347.308	377.69
347.535	397.69
347.763	401.69
347.99	400.69
348.218	373.69
348.445	378.69
348.673	381.69
348.9	384.69
349.128	372.69
349.355	358.69
349.583	368.69
349.81	367.69
350.037	363.69
350.265	367.69
350.492	361.69
350.72	362.69
350.947	392.69
351.174	388.69
351.402	393.69
351.629	380.69
351.856	385.69
352.083	373.69
352.311	396.69
352.538	414.69
352.765	368.69
352.992	390.69
353.22	380.69
353.447	374.69
353.674	392.69
353.901	360.69
354.128	360.69
354.355	358.69
354.583	357.69
354.81	366.69
355.037	365.69
355.264	365.69
355.491	333.69
355.718	358.69
355.945	347.69
356.172	346.69
356.399	360.69
356.626	332.69
356.853	344.69
357.08	363.69
357.307	343.69
357.534	363.69
357.761	336.69
357.988	349.69
358.215	341.69
358.441	349.69
358.668	358.69
358.895	366.69
359.122	363.69
359.349	365.69
359.576	365.69
359.802	379.69
360.029	418.69
360.256	447.69
360.483	411.69
360.709	379.69
360.936	396.69
361.163	360.69
361.39	384.69
361.616	392.69
361.843	401.69
362.07	388.69
362.296	386.69
362.523	372.69
362.749	379.69
362.976	359.69
363.203	379.69
363.429	366.69
363.656	376.69
363.882	358.69
364.109	360.69
364.335	383.69
364.562	344.69
364.788	370.69
365.015	370.69
365.241	376.69
365.468	375.69
365.694	340.69
365.92	381.69
366.147	374.69
366.373	348.69
366.599	388.69
366.826	362.69
367.052	355.69
367.278	368.69
367.505	362.69
367.731	361.69
367.957	342.69
368.184	376.69
368.41	384.69
368.636	411.69
368.862	383.69
369.089	387.69
369.315	378.69
369.541	361.69
369.767	365.69
369.993	369.69
370.219	376.69
370.445	371.69
370.672	368.69
370.898	366.69
371.124	365.69
371.35	363.69
371.576	369.69
371.802	357.69
372.028	370.69
372.254	371.69
372.48	352.69
372.706	374.69
372.932	364.69
373.158	369.69
373.384	370.69
373.61	373.69
373.835	374.69
374.061	377.69
374.287	390.69
374.513	362.69
374.739	380.69
374.965	363.69
375.191	368.69
375.416	367.69
375.642	377.69
375.868	390.69
376.094	349.69
376.319	358.69
376.545	371.69
376.771	366.69
376.997	371.69
377.222	376.69
377.448	366.69
377.674	390.69
377.899	365.69
378.125	367.69
378.35	374.69
378.576	356.69
378.802	372.69
379.027	370.69
379.253	359.69
379.478	363.69
379.704	385.69
379.929	368.69
380.155	381.69
380.38	384.69
380.606	393.69
380.831	381.69
381.057	392.69
381.282	382.69
381.507	370.69
381.733	364.69
381.958	363.69
382.184	394.69
382.409	370.69
382.634	385.69
382.86	380.69
383.085	388.69
383.31	380.69
383.535	407.69
383.761	399.69
383.986	388.69
384.211	390.69
384.436	384.69
384.662	398.69
384.887	398.69
385.112	399.69
385.337	395.69
385.562	371.69
385.787	414.69
386.013	402.69
386.238	410.69
386.463	413.69
386.688	411.69
386.913	391.69
387.138	391.69
387.363	414.69
387.588	404.69
387.813	398.69
388.038	408.69
388.263	390.69
388.488	388.69
388.713	403.69
388.938	389.69
389.163	389.69
389.387	419.69
389.612	398.69
389.837	398.69
390.062	402.69
390.287	396.69
390.512	392.69
390.736	388.69
390.961	396.69
391.186	389.69
391.411	412.69
391.636	406.69
391.86	402.69
392.085	407.69
392.31	417.69
392.534	409.69
392.759	409.69
392.984	427.69
393.208	409.69
393.433	429.69
393.658	427.69
393.882	416.69
394.107	387.69
394.331	383.69
394.556	411.69
394.78	395.69
395.005	403.69
395.229	400.69
395.454	413.69
395.678	412.69
395.903	411.69
396.127	449.69
396.352	465.69
396.576	424.69
396.801	433.69
397.025	425.69
397.249	424.69
397.474	424.69
397.698	436.69
397.922	453.69
398.147	469.69
398.371	469.69
398.595	447.69
398.82	441.69
399.044	454.69
399.268	458.69
399.492	470.69
399.717	482.69
399.941	513.69
400.165	548.69
400.389	564.69
400.613	515.69
400.837	501.69
401.062	476.69
401.286	464.69
401.51	462.69
401.734	456.69
401.958	445.69
402.182	464.69
402.406	459.69
402.63	473.69
402.854	470.69
403.078	463.69
403.302	462.69
403.526	472.69
403.75	488.69
403.974	458.69
404.198	468.69
404.422	481.69
404.645	488.69
404.869	500.69
405.093	522.69
405.317	537.69
405.541	568.69
405.765	533.69
405.988	502.69
406.212	522.69
406.436	516.69
406.66	560.69
406.883	530.69
407.107	526.69
407.331	594.69
407.555	640.69
407.778	632.69
408.002	600.69
408.226	535.69
408.449	521.69
408.673	539.69
408.896	536.69
409.12	596.69
409.344	547.69
409.567	522.69
409.791	501.69
410.014	493.69
410.238	505.69
410.461	485.69
410.685	488.69
410.908	525.69
411.132	523.69
411.355	533.69
411.578	526.69
411.802	502.69
412.025	487.69
412.249	487.69
412.472	517.69
412.695	542.69
412.919	515.69
413.142	514.69
413.365	486.69
413.589	447.69
413.812	448.69
414.035	469.69
414.258	466.69
414.482	452.69
414.705	450.69
414.928	449.69
415.151	440.69
415.374	448.69
415.597	475.69
415.821	470.69
416.044	450.69
416.267	479.69
416.49	444.69
416.713	457.69
416.936	457.69
417.159	444.69
417.382	453.69
417.605	448.69
417.828	472.69
418.051	473.69
418.274	504.69
418.497	457.69
418.72	464.69
418.943	487.69
419.166	491.69
419.389	505.69
419.611	516.69
419.834	488.69
420.057	477.69
420.28	482.69
420.503	481.69
420.726	488.69
420.948	507.69
421.171	544.69
421.394	557.69
421.617	508.69
421.839	512.69
422.062	509.69
422.285	491.69
422.507	556.69
422.73	625.69
422.953	628.69
423.175	542.69
423.398	506.69
423.621	480.69
423.843	516.69
424.066	526.69
424.288	530.69
424.511	556.69
424.733	592.69
424.956	667.69
425.178	684.69
425.401	650.69
425.623	651.69
425.846	580.69
426.068	552.69
426.291	509.69
426.513	548.69
426.735	540.69
426.958	566.69
427.18	642.69
427.402	756.69
427.625	837.69
427.847	772.69
428.069	679.69
428.292	611.69
428.514	540.69
428.736	521.69
428.958	508.69
429.181	486.69
429.403	484.69
429.625	504.69
429.847	538.69
430.069	597.69
430.292	630.69
430.514	517.69
430.736	492.69
430.958	502.69
431.18	451.69
431.402	470.69
431.624	460.69
431.846	451.69
432.068	464.69
432.29	456.69
432.512	477.69
432.734	468.69
432.956	475.69
433.178	478.69
433.4	483.69
433.622	474.69
433.844	459.69
434.066	456.69
434.287	456.69
434.509	477.69
434.731	473.69
434.953	477.69
435.175	501.69
435.397	536.69
435.618	518.69
435.84	564.69
436.062	676.69
436.284	737.69
436.505	608.69
436.727	559.69
436.949	522.69
437.17	490.69
437.392	498.69
437.614	504.69
437.835	551.69
438.057	694.69
438.278	760.69
438.5	735.69
438.721	788.69
438.943	776.69
439.165	626.69
439.386	553.69
439.608	557.69
439.829	545.69
440.05	584.69
440.272	598.69
440.493	556.69
440.715	535.69
440.936	537.69
441.158	522.69
441.379	517.69
441.6	502.69
441.822	536.69
442.043	595.69
442.264	650.69
442.486	684.69
442.707	589.69
442.928	542.69
443.149	565.69
443.371	584.69
443.592	605.69
443.813	702.69
444.034	768.69
444.255	616.69
444.476	585.69
444.698	527.69
444.919	532.69
445.14	648.69
445.361	598.69
445.582	569.69
445.803	640.69
446.024	718.69
446.245	732.69
446.466	638.69
446.687	588.69
446.908	549.69
447.129	516.69
447.35	491.69
447.571	511.69
447.792	492.69
448.013	502.69
448.234	551.69
448.455	560.69
448.675	666.69
448.896	779.69
449.117	671.69
449.338	619.69
449.559	724.69
449.779	783.69
450	669.69
450.221	557.69
450.442	519.69
450.662	502.69
450.883	504.69
451.104	541.69
451.324	505.69
451.545	484.69
451.766	478.69
451.986	448.69
452.207	457.69
452.428	434.69
452.648	440.69
452.869	462.69
453.089	460.69
453.31	472.69
453.53	460.69
453.751	447.69
453.971	467.69
454.192	488.69
454.412	464.69
454.633	447.69
454.853	447.69
455.073	449.69
455.294	486.69
455.514	540.69
455.734	529.69
455.955	478.69
456.175	455.69
456.395	422.69
456.616	425.69
456.836	401.69
457.056	411.69
457.276	420.69
457.497	433.69
457.717	420.69
457.937	446.69
458.157	426.69
458.377	445.69
458.598	467.69
458.818	518.69
459.038	595.69
459.258	597.69
459.478	528.69
459.698	474.69
459.918	466.69
460.138	476.69
460.358	440.69
460.578	448.69
460.798	469.69
461.018	464.69
461.238	455.69
461.458	460.69
461.678	465.69
461.898	459.69
462.118	482.69
462.338	475.69
462.558	477.69
462.777	467.69
462.997	480.69
463.217	482.69
463.437	479.69
463.657	490.69
463.876	481.69
464.096	492.69
464.316	486.69
464.536	498.69
464.755	500.69
464.975	502.69
465.195	555.69
465.414	607.69
465.634	557.69
465.854	514.69
466.073	477.69
466.293	490.69
466.512	458.69
466.732	459.69
466.951	465.69
467.171	443.69
467.391	462.69
467.61	473.69
467.829	482.69
468.049	484.69
468.268	484.69
468.488	472.69
468.707	457.69
468.927	483.69
469.146	437.69
469.365	433.69
469.585	436.69
469.804	455.69
470.023	477.69
470.243	467.69
470.462	480.69
470.681	469.69
470.901	467.69
471.12	458.69
471.339	489.69
471.558	470.69
471.777	470.69
471.997	447.69
472.216	468.69
472.435	520.69
472.654	492.69
472.873	455.69
473.092	453.69
473.311	435.69
473.53	492.69
473.749	480.69
473.968	509.69
474.187	603.69
474.406	668.69
474.625	546.69
474.844	480.69
475.063	468.69
475.282	467.69
475.501	462.69
475.72	468.69
475.939	485.69
476.158	478.69
476.377	504.69
476.596	488.69
476.814	490.69
477.033	509.69
477.252	497.69
477.471	488.69
477.69	508.69
477.908	506.69
478.127	513.69
478.346	499.69
478.564	524.69
478.783	532.69
479.002	533.69
479.22	547.69
479.439	552.69
479.658	562.69
479.876	586.69
480.095	592.69
480.313	588.69
480.532	551.69
480.751	575.69
480.969	592.69
481.188	636.69
481.406	658.69
481.624	597.69
481.843	581.69
482.061	551.69
482.28	563.69
482.498	577.69
482.717	568.69
482.935	564.69
483.153	561.69
483.372	558.69
483.59	543.69
483.808	542.69
484.027	539.69
484.245	568.69
484.463	554.69
484.681	579.69
484.9	574.69
485.118	573.69
485.336	570.69
485.554	562.69
485.772	579.69
485.99	601.69
486.209	585.69
486.427	574.69
486.645	583.69
486.863	608.69
487.081	606.69
487.299	615.69
487.517	606.69
487.735	588.69
487.953	610.69
488.171	612.69
488.389	619.69
488.607	604.69
488.825	592.69
489.043	602.69
489.261	604.69
489.479	617.69
489.696	632.69
489.914	616.69
490.132	649.69
490.35	634.69
490.568	635.69
490.786	654.69
491.003	682.69
491.221	668.69
491.439	677.69
491.657	721.69
491.874	695.69
492.092	697.69
492.31	722.69
492.527	715.69
492.745	724.69
492.963	732.69
493.18	738.69
493.398	720.69
493.615	734.69
493.833	753.69
494.05	730.69
494.268	704.69
494.485	715.69
494.703	730.69
494.92	736.69
495.138	698.69
495.355	714.69
495.573	740.69
495.79	725.69
496.008	719.69
496.225	740.69
496.442	704.69
496.66	752.69
496.877	777.69
497.094	714.69
497.312	748.69
497.529	746.69
497.746	756.69
497.963	770.69
498.181	768.69
498.398	781.69
498.615	815.69
498.832	805.69
499.049	816.69
499.267	820.69
499.484	818.69
499.701	833.69
499.918	841.69
500.135	902.69
500.352	902.69
500.569	908.69
500.786	909.69
501.003	911.69
501.22	929.69
501.437	868.69
501.654	876.69
501.871	881.69
