Data from 1970.PennyLincolnUp.Lamp.En5.5.200Scan.071719.P1._HRD10591_15-15-06-842.txt Node
Date: Thu Jul 18 15:15:06 EDT 2019
User: cochatt
Spectrometer: HR+D1059
Trigger mode: 1
Integration Time (sec): 1.000000E-1
Scans to average: 1
Electric dark correction enabled: true
Nonlinearity correction enabled: false
Boxcar width: 0
XAxis mode: Wavelengths
Number of Pixels in Spectrum: 2048
>>>>>Begin Spectral Data<<<<<
223.165	-16.62
223.4	-16.62
223.635	-16.62
223.869	-6.62
224.104	-13.62
224.338	-15.62
224.573	-11.62
224.808	-2.62
225.042	-16.62
225.277	-8.62
225.511	-8.62
225.746	10.38
225.98	14.38
226.215	15.38
226.449	2.38
226.683	11.38
226.918	19.38
227.152	27.38
227.387	35.38
227.621	32.38
227.856	45.38
228.09	64.38
228.324	47.38
228.559	50.38
228.793	71.38
229.027	102.38
229.262	133.38
229.496	123.38
229.73	161.38
229.964	183.38
230.199	146.38
230.433	137.38
230.667	130.38
230.901	129.38
231.136	129.38
231.37	129.38
231.604	123.38
231.838	129.38
232.072	121.38
232.306	115.38
232.541	121.38
232.775	129.38
233.009	121.38
233.243	129.38
233.477	110.38
233.711	117.38
233.945	127.38
234.179	131.38
234.413	129.38
234.647	144.38
234.881	131.38
235.115	121.38
235.349	123.38
235.583	127.38
235.817	123.38
236.051	146.38
236.285	132.38
236.519	143.38
236.753	140.38
236.987	149.38
237.221	208.38
237.455	283.38
237.689	212.38
237.922	169.38
238.156	144.38
238.39	145.38
238.624	145.38
238.858	137.38
239.091	130.38
239.325	129.38
239.559	139.38
239.793	144.38
240.027	148.38
240.26	163.38
240.494	181.38
240.728	185.38
240.961	173.38
241.195	164.38
241.429	151.38
241.662	135.38
241.896	140.38
242.13	143.38
242.363	153.38
242.597	152.38
242.83	163.38
243.064	172.38
243.298	149.38
243.531	163.38
243.765	151.38
243.998	152.38
244.232	148.38
244.465	155.38
244.699	161.38
244.932	156.38
245.166	160.38
245.399	166.38
245.633	156.38
245.866	161.38
246.099	163.38
246.333	167.38
246.566	156.38
246.8	173.38
247.033	172.38
247.266	190.38
247.5	196.38
247.733	187.38
247.966	175.38
248.2	178.38
248.433	197.38
248.666	198.38
248.899	224.38
249.133	212.38
249.366	233.38
249.599	229.38
249.832	196.38
250.066	209.38
250.299	206.38
250.532	213.38
250.765	231.38
250.998	259.38
251.231	263.38
251.465	249.38
251.698	240.38
251.931	233.38
252.164	219.38
252.397	223.38
252.63	232.38
252.863	231.38
253.096	251.38
253.329	260.38
253.562	246.38
253.795	246.38
254.028	242.38
254.261	247.38
254.494	252.38
254.727	293.38
254.96	315.38
255.193	325.38
255.426	308.38
255.659	269.38
255.892	263.38
256.124	251.38
256.357	268.38
256.59	255.38
256.823	237.38
257.056	240.38
257.289	251.38
257.521	256.38
257.754	239.38
257.987	234.38
258.22	259.38
258.452	228.38
258.685	224.38
258.918	223.38
259.151	259.38
259.383	234.38
259.616	236.38
259.849	252.38
260.081	276.38
260.314	279.38
260.547	283.38
260.779	271.38
261.012	284.38
261.244	250.38
261.477	240.38
261.71	234.38
261.942	248.38
262.175	281.38
262.407	250.38
262.64	245.38
262.872	226.38
263.105	256.38
263.337	231.38
263.57	235.38
263.802	233.38
264.035	229.38
264.267	213.38
264.499	224.38
264.732	227.38
264.964	235.38
265.197	228.38
265.429	235.38
265.661	226.38
265.894	221.38
266.126	232.38
266.358	234.38
266.591	237.38
266.823	224.38
267.055	238.38
267.287	255.38
267.52	228.38
267.752	228.38
267.984	242.38
268.216	243.38
268.448	245.38
268.681	245.38
268.913	273.38
269.145	276.38
269.377	300.38
269.609	281.38
269.841	305.38
270.073	296.38
270.306	332.38
270.538	351.38
270.77	343.38
271.002	315.38
271.234	315.38
271.466	316.38
271.698	323.38
271.93	345.38
272.162	321.38
272.394	364.38
272.626	319.38
272.858	319.38
273.09	295.38
273.322	293.38
273.553	292.38
273.785	283.38
274.017	276.38
274.249	303.38
274.481	285.38
274.713	281.38
274.945	280.38
275.176	291.38
275.408	270.38
275.64	285.38
275.872	289.38
276.104	285.38
276.335	270.38
276.567	283.38
276.799	285.38
277.031	319.38
277.262	363.38
277.494	337.38
277.726	318.38
277.957	290.38
278.189	304.38
278.421	303.38
278.652	295.38
278.884	275.38
279.115	286.38
279.347	294.38
279.579	268.38
279.81	277.38
280.042	285.38
280.273	268.38
280.505	277.38
280.736	268.38
280.968	290.38
281.199	268.38
281.431	281.38
281.662	278.38
281.894	272.38
282.125	267.38
282.356	301.38
282.588	306.38
282.819	315.38
283.051	275.38
283.282	277.38
283.513	271.38
283.745	286.38
283.976	284.38
284.207	298.38
284.439	290.38
284.67	279.38
284.901	284.38
285.132	306.38
285.364	285.38
285.595	289.38
285.826	274.38
286.057	283.38
286.288	281.38
286.52	276.38
286.751	283.38
286.982	271.38
287.213	263.38
287.444	278.38
287.675	288.38
287.906	300.38
288.138	313.38
288.369	295.38
288.6	281.38
288.831	320.38
289.062	294.38
289.293	295.38
289.524	289.38
289.755	279.38
289.986	301.38
290.217	293.38
290.448	276.38
290.679	290.38
290.91	283.38
291.141	309.38
291.371	294.38
291.602	266.38
291.833	279.38
292.064	299.38
292.295	284.38
292.526	296.38
292.757	291.38
292.987	282.38
293.218	289.38
293.449	306.38
293.68	298.38
293.91	316.38
294.141	299.38
294.372	299.38
294.603	291.38
294.833	277.38
295.064	298.38
295.295	283.38
295.525	300.38
295.756	298.38
295.987	317.38
296.217	338.38
296.448	329.38
296.679	326.38
296.909	288.38
297.14	300.38
297.37	292.38
297.601	292.38
297.831	295.38
298.062	298.38
298.292	329.38
298.523	307.38
298.753	301.38
298.984	302.38
299.214	300.38
299.445	306.38
299.675	302.38
299.905	328.38
300.136	305.38
300.366	309.38
300.597	316.38
300.827	317.38
301.057	321.38
301.288	342.38
301.518	317.38
301.748	340.38
301.979	334.38
302.209	313.38
302.439	330.38
302.669	322.38
302.9	307.38
303.13	339.38
303.36	325.38
303.59	355.38
303.82	339.38
304.051	340.38
304.281	328.38
304.511	335.38
304.741	329.38
304.971	319.38
305.201	323.38
305.431	306.38
305.661	330.38
305.891	314.38
306.121	335.38
306.352	341.38
306.582	363.38
306.812	336.38
307.042	336.38
307.272	346.38
307.502	333.38
307.731	331.38
307.961	328.38
308.191	332.38
308.421	341.38
308.651	341.38
308.881	360.38
309.111	334.38
309.341	347.38
309.571	368.38
309.8	378.38
310.03	358.38
310.26	369.38
310.49	377.38
310.72	397.38
310.949	399.38
311.179	398.38
311.409	401.38
311.639	405.38
311.868	382.38
312.098	393.38
312.328	395.38
312.557	413.38
312.787	428.38
313.017	425.38
313.246	411.38
313.476	405.38
313.706	383.38
313.935	384.38
314.165	388.38
314.394	395.38
314.624	432.38
314.853	397.38
315.083	411.38
315.312	375.38
315.542	376.38
315.771	382.38
316.001	377.38
316.23	385.38
316.46	369.38
316.689	375.38
316.919	387.38
317.148	403.38
317.377	395.38
317.607	384.38
317.836	398.38
318.065	399.38
318.295	391.38
318.524	395.38
318.753	383.38
318.983	394.38
319.212	381.38
319.441	402.38
319.67	402.38
319.9	400.38
320.129	388.38
320.358	395.38
320.587	406.38
320.816	401.38
321.046	423.38
321.275	403.38
321.504	404.38
321.733	431.38
321.962	425.38
322.191	465.38
322.42	475.38
322.649	476.38
322.878	472.38
323.108	497.38
323.337	540.38
323.566	551.38
323.795	602.38
324.024	645.38
324.253	776.38
324.482	1124.38
324.71	1702.38
324.939	2403.38
325.168	2105.38
325.397	1151.38
325.626	758.38
325.855	609.38
326.084	590.38
326.313	536.38
326.542	564.38
326.77	620.38
326.999	721.38
327.228	1004.38
327.457	1487.38
327.686	1849.38
327.914	1250.38
328.143	824.38
328.372	715.38
328.6	676.38
328.829	645.38
329.058	621.38
329.287	641.38
329.515	607.38
329.744	591.38
329.972	562.38
330.201	583.38
330.43	639.38
330.658	663.38
330.887	696.38
331.115	669.38
331.344	562.38
331.572	548.38
331.801	525.38
332.03	523.38
332.258	507.38
332.486	486.38
332.715	470.38
332.943	468.38
333.172	483.38
333.4	475.38
333.629	474.38
333.857	493.38
334.085	513.38
334.314	524.38
334.542	570.38
334.771	588.38
334.999	517.38
335.227	485.38
335.455	478.38
335.684	464.38
335.912	474.38
336.14	439.38
336.369	466.38
336.597	478.38
336.825	477.38
337.053	465.38
337.281	435.38
337.51	448.38
337.738	461.38
337.966	455.38
338.194	462.38
338.422	456.38
338.65	462.38
338.878	465.38
339.106	406.38
339.334	460.38
339.562	432.38
339.79	444.38
340.018	425.38
340.246	453.38
340.474	449.38
340.702	460.38
340.93	433.38
341.158	440.38
341.386	447.38
341.614	439.38
341.842	460.38
342.07	439.38
342.298	404.38
342.526	437.38
342.754	416.38
342.981	432.38
343.209	427.38
343.437	423.38
343.665	430.38
343.893	453.38
344.12	438.38
344.348	468.38
344.576	467.38
344.804	467.38
345.031	448.38
345.259	478.38
345.487	462.38
345.714	453.38
345.942	454.38
346.17	455.38
346.397	443.38
346.625	439.38
346.853	427.38
347.08	436.38
347.308	440.38
347.535	439.38
347.763	465.38
347.99	440.38
348.218	455.38
348.445	455.38
348.673	457.38
348.9	432.38
349.128	431.38
349.355	413.38
349.583	420.38
349.81	426.38
350.037	428.38
350.265	423.38
350.492	414.38
350.72	421.38
350.947	432.38
351.174	449.38
351.402	459.38
351.629	457.38
351.856	463.38
352.083	457.38
352.311	465.38
352.538	463.38
352.765	469.38
352.992	464.38
353.22	448.38
353.447	439.38
353.674	456.38
353.901	430.38
354.128	400.38
354.355	396.38
354.583	420.38
354.81	421.38
355.037	405.38
355.264	397.38
355.491	417.38
355.718	406.38
355.945	393.38
356.172	400.38
356.399	390.38
356.626	423.38
356.853	391.38
357.08	410.38
357.307	409.38
357.534	401.38
357.761	409.38
357.988	401.38
358.215	406.38
358.441	411.38
358.668	412.38
358.895	403.38
359.122	402.38
359.349	428.38
359.576	445.38
359.802	474.38
360.029	515.38
360.256	559.38
360.483	515.38
360.709	464.38
360.936	455.38
361.163	452.38
361.39	452.38
361.616	461.38
361.843	432.38
362.07	427.38
362.296	445.38
362.523	451.38
362.749	443.38
362.976	434.38
363.203	423.38
363.429	406.38
363.656	428.38
363.882	432.38
364.109	399.38
364.335	423.38
364.562	465.38
364.788	428.38
365.015	417.38
365.241	422.38
365.468	421.38
365.694	432.38
365.92	450.38
366.147	429.38
366.373	435.38
366.599	432.38
366.826	432.38
367.052	437.38
367.278	425.38
367.505	411.38
367.731	443.38
367.957	411.38
368.184	432.38
368.41	441.38
368.636	428.38
368.862	448.38
369.089	431.38
369.315	413.38
369.541	416.38
369.767	418.38
369.993	423.38
370.219	447.38
370.445	433.38
370.672	395.38
370.898	395.38
371.124	431.38
371.35	423.38
371.576	413.38
371.802	421.38
372.028	428.38
372.254	423.38
372.48	422.38
372.706	435.38
372.932	401.38
373.158	429.38
373.384	427.38
373.61	419.38
373.835	420.38
374.061	407.38
374.287	418.38
374.513	406.38
374.739	422.38
374.965	421.38
375.191	441.38
375.416	415.38
375.642	429.38
375.868	428.38
376.094	424.38
376.319	423.38
376.545	424.38
376.771	441.38
376.997	408.38
377.222	415.38
377.448	406.38
377.674	414.38
377.899	392.38
378.125	411.38
378.35	413.38
378.576	423.38
378.802	428.38
379.027	427.38
379.253	441.38
379.478	427.38
379.704	417.38
379.929	439.38
380.155	432.38
380.38	425.38
380.606	424.38
380.831	427.38
381.057	432.38
381.282	429.38
381.507	437.38
381.733	445.38
381.958	427.38
382.184	427.38
382.409	427.38
382.634	436.38
382.86	448.38
383.085	431.38
383.31	434.38
383.535	450.38
383.761	444.38
383.986	439.38
384.211	437.38
384.436	434.38
384.662	439.38
384.887	437.38
385.112	429.38
385.337	432.38
385.562	473.38
385.787	457.38
386.013	475.38
386.238	469.38
386.463	463.38
386.688	464.38
386.913	461.38
387.138	440.38
387.363	463.38
387.588	480.38
387.813	466.38
388.038	444.38
388.263	459.38
388.488	448.38
388.713	450.38
388.938	440.38
389.163	468.38
389.387	461.38
389.612	463.38
389.837	447.38
390.062	447.38
390.287	463.38
390.512	439.38
390.736	435.38
390.961	435.38
391.186	444.38
391.411	453.38
391.636	436.38
391.86	460.38
392.085	459.38
392.31	459.38
392.534	464.38
392.759	455.38
392.984	442.38
393.208	473.38
393.433	444.38
393.658	465.38
393.882	475.38
394.107	453.38
394.331	463.38
394.556	486.38
394.78	476.38
395.005	464.38
395.229	465.38
395.454	468.38
395.678	491.38
395.903	488.38
396.127	489.38
396.352	495.38
396.576	504.38
396.801	473.38
397.025	481.38
397.249	484.38
397.474	484.38
397.698	489.38
397.922	497.38
398.147	523.38
398.371	520.38
398.595	515.38
398.82	501.38
399.044	506.38
399.268	517.38
399.492	553.38
399.717	596.38
399.941	579.38
400.165	626.38
400.389	649.38
400.613	563.38
400.837	559.38
401.062	540.38
401.286	523.38
401.51	533.38
401.734	517.38
401.958	518.38
402.182	518.38
402.406	544.38
402.63	519.38
402.854	553.38
403.078	539.38
403.302	527.38
403.526	548.38
403.75	553.38
403.974	538.38
404.198	555.38
404.422	543.38
404.645	571.38
404.869	564.38
405.093	593.38
405.317	628.38
405.541	661.38
405.765	616.38
405.988	601.38
406.212	603.38
406.436	603.38
406.66	597.38
406.883	593.38
407.107	604.38
407.331	680.38
407.555	750.38
407.778	728.38
408.002	668.38
408.226	640.38
408.449	614.38
408.673	622.38
408.896	646.38
409.12	674.38
409.344	657.38
409.567	587.38
409.791	571.38
410.014	541.38
410.238	539.38
410.461	559.38
410.685	553.38
410.908	575.38
411.132	622.38
411.355	639.38
411.578	627.38
411.802	596.38
412.025	564.38
412.249	548.38
412.472	583.38
412.695	615.38
412.919	620.38
413.142	567.38
413.365	530.38
413.589	552.38
413.812	528.38
414.035	527.38
414.258	526.38
414.482	527.38
414.705	524.38
414.928	520.38
415.151	533.38
415.374	512.38
415.597	503.38
415.821	493.38
416.044	516.38
416.267	535.38
416.49	531.38
416.713	539.38
416.936	515.38
417.159	523.38
417.382	526.38
417.605	545.38
417.828	554.38
418.051	561.38
418.274	527.38
418.497	528.38
418.72	531.38
418.943	525.38
419.166	546.38
419.389	539.38
419.611	560.38
419.834	564.38
420.057	550.38
420.28	571.38
420.503	567.38
420.726	556.38
420.948	586.38
421.171	628.38
421.394	646.38
421.617	583.38
421.839	555.38
422.062	550.38
422.285	562.38
422.507	643.38
422.73	722.38
422.953	691.38
423.175	625.38
423.398	590.38
423.621	584.38
423.843	594.38
424.066	581.38
424.288	588.38
424.511	622.38
424.733	683.38
424.956	741.38
425.178	724.38
425.401	748.38
425.623	750.38
425.846	680.38
426.068	617.38
426.291	581.38
426.513	610.38
426.735	631.38
426.958	680.38
427.18	751.38
427.402	882.38
427.625	984.38
427.847	900.38
428.069	770.38
428.292	688.38
428.514	633.38
428.736	608.38
428.958	606.38
429.181	605.38
429.403	570.38
429.625	586.38
429.847	621.38
430.069	684.38
430.292	697.38
430.514	594.38
430.736	575.38
430.958	569.38
431.18	559.38
431.402	553.38
431.624	511.38
431.846	531.38
432.068	521.38
432.29	530.38
432.512	530.38
432.734	537.38
432.956	541.38
433.178	544.38
433.4	565.38
433.622	547.38
433.844	539.38
434.066	541.38
434.287	544.38
434.509	517.38
434.731	571.38
434.953	551.38
435.175	553.38
435.397	595.38
435.618	623.38
435.84	670.38
436.062	767.38
436.284	825.38
436.505	720.38
436.727	647.38
436.949	596.38
437.17	583.38
437.392	563.38
437.614	583.38
437.835	630.38
438.057	746.38
438.278	851.38
438.5	845.38
438.721	900.38
438.943	883.38
439.165	695.38
439.386	655.38
439.608	644.38
439.829	653.38
440.05	651.38
440.272	685.38
440.493	686.38
440.715	618.38
440.936	605.38
441.158	594.38
441.379	565.38
441.6	597.38
441.822	601.38
442.043	658.38
442.264	765.38
442.486	805.38
442.707	695.38
442.928	639.38
443.149	647.38
443.371	680.38
443.592	712.38
443.813	795.38
444.034	854.38
444.255	739.38
444.476	662.38
444.698	607.38
444.919	621.38
445.14	711.38
445.361	654.38
445.582	670.38
445.803	731.38
446.024	829.38
446.245	873.38
446.466	757.38
446.687	687.38
446.908	649.38
447.129	610.38
447.35	591.38
447.571	592.38
447.792	579.38
448.013	589.38
448.234	601.38
448.455	683.38
448.675	787.38
448.896	890.38
449.117	773.38
449.338	741.38
449.559	823.38
449.779	899.38
450	784.38
450.221	671.38
450.442	623.38
450.662	578.38
450.883	607.38
451.104	628.38
451.324	607.38
451.545	593.38
451.766	532.38
451.986	536.38
452.207	547.38
452.428	519.38
452.648	513.38
452.869	523.38
453.089	534.38
453.31	524.38
453.53	529.38
453.751	528.38
453.971	561.38
454.192	548.38
454.412	541.38
454.633	516.38
454.853	515.38
455.073	507.38
455.294	571.38
455.514	635.38
455.734	628.38
455.955	525.38
456.175	514.38
456.395	491.38
456.616	477.38
456.836	508.38
457.056	483.38
457.276	478.38
457.497	507.38
457.717	490.38
457.937	493.38
458.157	493.38
458.377	512.38
458.598	528.38
458.818	580.38
459.038	707.38
459.258	707.38
459.478	600.38
459.698	564.38
459.918	543.38
460.138	547.38
460.358	532.38
460.578	542.38
460.798	537.38
461.018	521.38
461.238	529.38
461.458	530.38
461.678	499.38
461.898	528.38
462.118	508.38
462.338	521.38
462.558	547.38
462.777	543.38
462.997	540.38
463.217	535.38
463.437	555.38
463.657	549.38
463.876	539.38
464.096	569.38
464.316	551.38
464.536	563.38
464.755	556.38
464.975	575.38
465.195	651.38
465.414	729.38
465.634	647.38
465.854	607.38
466.073	564.38
466.293	551.38
466.512	520.38
466.732	518.38
466.951	521.38
467.171	501.38
467.391	539.38
467.61	508.38
467.829	550.38
468.049	548.38
468.268	557.38
468.488	521.38
468.707	504.38
468.927	493.38
469.146	497.38
469.365	500.38
469.585	491.38
469.804	537.38
470.023	546.38
470.243	550.38
470.462	540.38
470.681	557.38
470.901	551.38
471.12	559.38
471.339	543.38
471.558	524.38
471.777	520.38
471.997	537.38
472.216	526.38
472.435	580.38
472.654	578.38
472.873	560.38
473.092	533.38
473.311	541.38
473.53	536.38
473.749	548.38
473.968	604.38
474.187	714.38
474.406	727.38
474.625	627.38
474.844	554.38
475.063	551.38
475.282	546.38
475.501	545.38
475.72	514.38
475.939	551.38
476.158	539.38
476.377	545.38
476.596	540.38
476.814	560.38
477.033	557.38
477.252	562.38
477.471	579.38
477.69	563.38
477.908	593.38
478.127	577.38
478.346	570.38
478.564	577.38
478.783	605.38
479.002	627.38
479.22	612.38
479.439	623.38
479.658	643.38
479.876	639.38
480.095	638.38
480.313	662.38
480.532	681.38
480.751	626.38
480.969	673.38
481.188	765.38
481.406	802.38
481.624	724.38
481.843	661.38
482.061	648.38
482.28	661.38
482.498	664.38
482.717	642.38
482.935	642.38
483.153	629.38
483.372	649.38
483.59	633.38
483.808	645.38
484.027	649.38
484.245	647.38
484.463	659.38
484.681	676.38
484.9	655.38
485.118	651.38
485.336	642.38
485.554	670.38
485.772	674.38
485.99	672.38
486.209	668.38
486.427	691.38
486.645	697.38
486.863	702.38
487.081	724.38
487.299	680.38
487.517	691.38
487.735	723.38
487.953	707.38
488.171	693.38
488.389	680.38
488.607	702.38
488.825	699.38
489.043	707.38
489.261	709.38
489.479	716.38
489.696	706.38
489.914	709.38
490.132	714.38
490.35	757.38
490.568	747.38
490.786	740.38
491.003	782.38
491.221	790.38
491.439	802.38
491.657	811.38
491.874	796.38
492.092	796.38
492.31	834.38
492.527	845.38
492.745	817.38
492.963	813.38
493.18	817.38
493.398	866.38
493.615	833.38
493.833	853.38
494.05	860.38
494.268	816.38
494.485	842.38
494.703	867.38
494.92	857.38
495.138	865.38
495.355	863.38
495.573	842.38
495.79	833.38
496.008	843.38
496.225	836.38
496.442	841.38
496.66	836.38
496.877	848.38
497.094	827.38
497.312	852.38
497.529	866.38
497.746	856.38
497.963	885.38
498.181	903.38
498.398	878.38
498.615	912.38
498.832	925.38
499.049	890.38
499.267	912.38
499.484	945.38
499.701	959.38
499.918	999.38
500.135	1018.38
500.352	1016.38
500.569	1010.38
500.786	1017.38
501.003	1059.38
501.22	1039.38
501.437	1033.38
501.654	1000.38
