Data from 1970.PennyLincolnUp.Lamp.En5.5.200Scan.071719.P1._HRD10591_15-16-12-842.txt Node
Date: Thu Jul 18 15:16:12 EDT 2019
User: cochatt
Spectrometer: HR+D1059
Trigger mode: 1
Integration Time (sec): 1.000000E-1
Scans to average: 1
Electric dark correction enabled: true
Nonlinearity correction enabled: false
Boxcar width: 0
XAxis mode: Wavelengths
Number of Pixels in Spectrum: 2048
>>>>>Begin Spectral Data<<<<<
223.165	-6.38
223.4	-6.38
223.635	-6.38
223.869	-18.38
224.104	-2.38
224.338	-17.38
224.573	-4.38
224.808	-15.38
225.042	-13.38
225.277	-7.38
225.511	-1.38
225.746	11.62
225.98	-2.38
226.215	14.62
226.449	13.62
226.683	21.62
226.918	19.62
227.152	7.62
227.387	33.62
227.621	28.62
227.856	43.62
228.09	53.62
228.324	46.62
228.559	47.62
228.793	85.62
229.027	111.62
229.262	119.62
229.496	135.62
229.73	160.62
229.964	184.62
230.199	138.62
230.433	133.62
230.667	143.62
230.901	120.62
231.136	108.62
231.37	127.62
231.604	127.62
231.838	128.62
232.072	132.62
232.306	108.62
232.541	120.62
232.775	112.62
233.009	118.62
233.243	112.62
233.477	113.62
233.711	129.62
233.945	124.62
234.179	126.62
234.413	131.62
234.647	119.62
234.881	113.62
235.115	131.62
235.349	122.62
235.583	133.62
235.817	131.62
236.051	152.62
236.285	154.62
236.519	126.62
236.753	151.62
236.987	170.62
237.221	195.62
237.455	272.62
237.689	217.62
237.922	164.62
238.156	163.62
238.39	151.62
238.624	134.62
238.858	133.62
239.091	129.62
239.325	143.62
239.559	140.62
239.793	155.62
240.027	144.62
240.26	165.62
240.494	170.62
240.728	182.62
240.961	166.62
241.195	167.62
241.429	155.62
241.662	147.62
241.896	142.62
242.13	153.62
242.363	165.62
242.597	147.62
242.83	151.62
243.064	151.62
243.298	144.62
243.531	147.62
243.765	155.62
243.998	151.62
244.232	148.62
244.465	155.62
244.699	168.62
244.932	168.62
245.166	157.62
245.399	159.62
245.633	174.62
245.866	176.62
246.099	155.62
246.333	159.62
246.566	166.62
246.8	172.62
247.033	176.62
247.266	163.62
247.5	189.62
247.733	194.62
247.966	195.62
248.2	199.62
248.433	200.62
248.666	203.62
248.899	227.62
249.133	214.62
249.366	240.62
249.599	222.62
249.832	198.62
250.066	214.62
250.299	224.62
250.532	225.62
250.765	232.62
250.998	245.62
251.231	264.62
251.465	243.62
251.698	235.62
251.931	235.62
252.164	218.62
252.397	223.62
252.63	252.62
252.863	250.62
253.096	240.62
253.329	265.62
253.562	263.62
253.795	270.62
254.028	261.62
254.261	251.62
254.494	280.62
254.727	293.62
254.96	331.62
255.193	335.62
255.426	280.62
255.659	265.62
255.892	279.62
256.124	285.62
256.357	280.62
256.59	243.62
256.823	251.62
257.056	240.62
257.289	233.62
257.521	263.62
257.754	259.62
257.987	239.62
258.22	236.62
258.452	229.62
258.685	236.62
258.918	226.62
259.151	245.62
259.383	266.62
259.616	251.62
259.849	254.62
260.081	262.62
260.314	302.62
260.547	286.62
260.779	286.62
261.012	255.62
261.244	260.62
261.477	242.62
261.71	251.62
261.942	263.62
262.175	279.62
262.407	254.62
262.64	224.62
262.872	256.62
263.105	224.62
263.337	230.62
263.57	224.62
263.802	231.62
264.035	229.62
264.267	238.62
264.499	222.62
264.732	226.62
264.964	238.62
265.197	244.62
265.429	221.62
265.661	248.62
265.894	240.62
266.126	238.62
266.358	241.62
266.591	263.62
266.823	236.62
267.055	246.62
267.287	234.62
267.52	229.62
267.752	243.62
267.984	257.62
268.216	240.62
268.448	237.62
268.681	247.62
268.913	267.62
269.145	305.62
269.377	299.62
269.609	283.62
269.841	300.62
270.073	311.62
270.306	336.62
270.538	344.62
270.77	360.62
271.002	342.62
271.234	330.62
271.466	325.62
271.698	365.62
271.93	374.62
272.162	365.62
272.394	376.62
272.626	352.62
272.858	315.62
273.09	311.62
273.322	294.62
273.553	292.62
273.785	293.62
274.017	302.62
274.249	296.62
274.481	289.62
274.713	290.62
274.945	302.62
275.176	277.62
275.408	285.62
275.64	291.62
275.872	289.62
276.104	277.62
276.335	295.62
276.567	286.62
276.799	304.62
277.031	344.62
277.262	372.62
277.494	353.62
277.726	327.62
277.957	291.62
278.189	309.62
278.421	293.62
278.652	294.62
278.884	293.62
279.115	283.62
279.347	286.62
279.579	288.62
279.81	274.62
280.042	294.62
280.273	285.62
280.505	279.62
280.736	284.62
280.968	279.62
281.199	290.62
281.431	265.62
281.662	283.62
281.894	282.62
282.125	289.62
282.356	292.62
282.588	327.62
282.819	322.62
283.051	292.62
283.282	272.62
283.513	276.62
283.745	293.62
283.976	297.62
284.207	294.62
284.439	284.62
284.67	303.62
284.901	303.62
285.132	292.62
285.364	298.62
285.595	292.62
285.826	286.62
286.057	282.62
286.288	269.62
286.52	285.62
286.751	264.62
286.982	299.62
287.213	279.62
287.444	302.62
287.675	315.62
287.906	319.62
288.138	316.62
288.369	319.62
288.6	326.62
288.831	298.62
289.062	313.62
289.293	305.62
289.524	314.62
289.755	296.62
289.986	294.62
290.217	303.62
290.448	307.62
290.679	288.62
290.91	297.62
291.141	293.62
291.371	291.62
291.602	305.62
291.833	309.62
292.064	309.62
292.295	292.62
292.526	309.62
292.757	292.62
292.987	294.62
293.218	288.62
293.449	294.62
293.68	299.62
293.91	275.62
294.141	291.62
294.372	306.62
294.603	315.62
294.833	289.62
295.064	302.62
295.295	297.62
295.525	316.62
295.756	300.62
295.987	312.62
296.217	328.62
296.448	344.62
296.679	319.62
296.909	301.62
297.14	299.62
297.37	312.62
297.601	322.62
297.831	294.62
298.062	311.62
298.292	291.62
298.523	309.62
298.753	323.62
298.984	305.62
299.214	303.62
299.445	301.62
299.675	305.62
299.905	310.62
300.136	336.62
300.366	309.62
300.597	299.62
300.827	333.62
301.057	348.62
301.288	340.62
301.518	328.62
301.748	337.62
301.979	334.62
302.209	331.62
302.439	351.62
302.669	307.62
302.9	333.62
303.13	333.62
303.36	336.62
303.59	347.62
303.82	347.62
304.051	345.62
304.281	341.62
304.511	327.62
304.741	329.62
304.971	330.62
305.201	328.62
305.431	330.62
305.661	350.62
305.891	332.62
306.121	359.62
306.352	343.62
306.582	332.62
306.812	343.62
307.042	335.62
307.272	363.62
307.502	360.62
307.731	385.62
307.961	345.62
308.191	360.62
308.421	359.62
308.651	363.62
308.881	349.62
309.111	344.62
309.341	352.62
309.571	376.62
309.8	353.62
310.03	398.62
310.26	391.62
310.49	383.62
310.72	428.62
310.949	425.62
311.179	442.62
311.409	412.62
311.639	396.62
311.868	401.62
312.098	407.62
312.328	411.62
312.557	436.62
312.787	453.62
313.017	453.62
313.246	420.62
313.476	405.62
313.706	405.62
313.935	396.62
314.165	422.62
314.394	427.62
314.624	464.62
314.853	429.62
315.083	416.62
315.312	393.62
315.542	421.62
315.771	396.62
316.001	379.62
316.23	398.62
316.46	401.62
316.689	398.62
316.919	404.62
317.148	397.62
317.377	394.62
317.607	406.62
317.836	418.62
318.065	402.62
318.295	400.62
318.524	401.62
318.753	380.62
318.983	390.62
319.212	401.62
319.441	406.62
319.67	409.62
319.9	399.62
320.129	407.62
320.358	415.62
320.587	432.62
320.816	434.62
321.046	435.62
321.275	431.62
321.504	428.62
321.733	427.62
321.962	431.62
322.191	477.62
322.42	469.62
322.649	511.62
322.878	481.62
323.108	525.62
323.337	552.62
323.566	591.62
323.795	603.62
324.024	644.62
324.253	829.62
324.482	1193.62
324.71	1835.62
324.939	2623.62
325.168	2261.62
325.397	1173.62
325.626	784.62
325.855	643.62
326.084	583.62
326.313	569.62
326.542	579.62
326.77	658.62
326.999	759.62
327.228	1045.62
327.457	1584.62
327.686	1964.62
327.914	1357.62
328.143	878.62
328.372	747.62
328.6	708.62
328.829	655.62
329.058	673.62
329.287	699.62
329.515	627.62
329.744	579.62
329.972	598.62
330.201	621.62
330.43	657.62
330.658	709.62
330.887	723.62
331.115	710.62
331.344	604.62
331.572	575.62
331.801	553.62
332.03	535.62
332.258	529.62
332.486	503.62
332.715	495.62
332.943	477.62
333.172	506.62
333.4	519.62
333.629	491.62
333.857	495.62
334.085	543.62
334.314	558.62
334.542	599.62
334.771	642.62
334.999	557.62
335.227	544.62
335.455	496.62
335.684	471.62
335.912	484.62
336.14	465.62
336.369	472.62
336.597	479.62
336.825	476.62
337.053	459.62
337.281	465.62
337.51	455.62
337.738	465.62
337.966	469.62
338.194	464.62
338.422	465.62
338.65	488.62
338.878	474.62
339.106	491.62
339.334	454.62
339.562	447.62
339.79	452.62
340.018	466.62
340.246	466.62
340.474	456.62
340.702	470.62
340.93	452.62
341.158	465.62
341.386	444.62
341.614	439.62
341.842	454.62
342.07	452.62
342.298	464.62
342.526	422.62
342.754	463.62
342.981	441.62
343.209	447.62
343.437	450.62
343.665	438.62
343.893	446.62
344.12	464.62
344.348	460.62
344.576	464.62
344.804	476.62
345.031	493.62
345.259	502.62
345.487	488.62
345.714	481.62
345.942	468.62
346.17	456.62
346.397	451.62
346.625	452.62
346.853	462.62
347.08	443.62
347.308	444.62
347.535	465.62
347.763	460.62
347.99	479.62
348.218	463.62
348.445	478.62
348.673	470.62
348.9	462.62
349.128	452.62
349.355	425.62
349.583	438.62
349.81	431.62
350.037	447.62
350.265	417.62
350.492	427.62
350.72	439.62
350.947	435.62
351.174	443.62
351.402	480.62
351.629	464.62
351.856	447.62
352.083	472.62
352.311	463.62
352.538	503.62
352.765	487.62
352.992	473.62
353.22	449.62
353.447	428.62
353.674	430.62
353.901	435.62
354.128	424.62
354.355	413.62
354.583	415.62
354.81	420.62
355.037	441.62
355.264	415.62
355.491	417.62
355.718	412.62
355.945	432.62
356.172	415.62
356.399	419.62
356.626	411.62
356.853	423.62
357.08	412.62
357.307	403.62
357.534	418.62
357.761	402.62
357.988	431.62
358.215	419.62
358.441	412.62
358.668	432.62
358.895	439.62
359.122	419.62
359.349	464.62
359.576	486.62
359.802	499.62
360.029	540.62
360.256	554.62
360.483	515.62
360.709	490.62
360.936	455.62
361.163	440.62
361.39	455.62
361.616	462.62
361.843	463.62
362.07	474.62
362.296	473.62
362.523	485.62
362.749	457.62
362.976	467.62
363.203	450.62
363.429	457.62
363.656	443.62
363.882	420.62
364.109	441.62
364.335	437.62
364.562	441.62
364.788	453.62
365.015	449.62
365.241	463.62
365.468	460.62
365.694	446.62
365.92	464.62
366.147	429.62
366.373	450.62
366.599	427.62
366.826	446.62
367.052	446.62
367.278	442.62
367.505	441.62
367.731	445.62
367.957	427.62
368.184	432.62
368.41	473.62
368.636	445.62
368.862	458.62
369.089	461.62
369.315	446.62
369.541	465.62
369.767	435.62
369.993	443.62
370.219	441.62
370.445	430.62
370.672	431.62
370.898	437.62
371.124	430.62
371.35	425.62
371.576	436.62
371.802	411.62
372.028	409.62
372.254	437.62
372.48	435.62
372.706	424.62
372.932	423.62
373.158	449.62
373.384	432.62
373.61	439.62
373.835	437.62
374.061	414.62
374.287	453.62
374.513	431.62
374.739	465.62
374.965	438.62
375.191	439.62
375.416	443.62
375.642	445.62
375.868	435.62
376.094	432.62
376.319	427.62
376.545	416.62
376.771	440.62
376.997	440.62
377.222	437.62
377.448	447.62
377.674	432.62
377.899	421.62
378.125	429.62
378.35	439.62
378.576	423.62
378.802	425.62
379.027	432.62
379.253	429.62
379.478	440.62
379.704	437.62
379.929	431.62
380.155	447.62
380.38	447.62
380.606	448.62
380.831	439.62
381.057	474.62
381.282	453.62
381.507	431.62
381.733	443.62
381.958	433.62
382.184	449.62
382.409	433.62
382.634	455.62
382.86	463.62
383.085	454.62
383.31	455.62
383.535	448.62
383.761	436.62
383.986	461.62
384.211	437.62
384.436	441.62
384.662	451.62
384.887	446.62
385.112	457.62
385.337	445.62
385.562	455.62
385.787	457.62
386.013	495.62
386.238	461.62
386.463	492.62
386.688	455.62
386.913	457.62
387.138	448.62
387.363	472.62
387.588	448.62
387.813	469.62
388.038	461.62
388.263	476.62
388.488	464.62
388.713	469.62
388.938	491.62
389.163	468.62
389.387	474.62
389.612	449.62
389.837	477.62
390.062	470.62
390.287	481.62
390.512	468.62
390.736	465.62
390.961	478.62
391.186	457.62
391.411	463.62
391.636	459.62
391.86	464.62
392.085	468.62
392.31	461.62
392.534	487.62
392.759	469.62
392.984	474.62
393.208	469.62
393.433	478.62
393.658	476.62
393.882	487.62
394.107	466.62
394.331	479.62
394.556	465.62
394.78	472.62
395.005	462.62
395.229	455.62
395.454	475.62
395.678	467.62
395.903	508.62
396.127	521.62
396.352	524.62
396.576	527.62
396.801	485.62
397.025	501.62
397.249	518.62
397.474	523.62
397.698	499.62
397.922	503.62
398.147	515.62
398.371	553.62
398.595	521.62
398.82	534.62
399.044	556.62
399.268	540.62
399.492	573.62
399.717	590.62
399.941	603.62
400.165	648.62
400.389	641.62
400.613	614.62
400.837	563.62
401.062	523.62
401.286	559.62
401.51	555.62
401.734	559.62
401.958	529.62
402.182	554.62
402.406	563.62
402.63	558.62
402.854	555.62
403.078	545.62
403.302	563.62
403.526	560.62
403.75	553.62
403.974	558.62
404.198	551.62
404.422	574.62
404.645	575.62
404.869	582.62
405.093	608.62
405.317	644.62
405.541	698.62
405.765	644.62
405.988	606.62
406.212	613.62
406.436	645.62
406.66	656.62
406.883	630.62
407.107	665.62
407.331	694.62
407.555	745.62
407.778	736.62
408.002	695.62
408.226	653.62
408.449	620.62
408.673	616.62
408.896	662.62
409.12	671.62
409.344	642.62
409.567	614.62
409.791	591.62
410.014	553.62
410.238	579.62
410.461	558.62
410.685	595.62
410.908	595.62
411.132	649.62
411.355	653.62
411.578	627.62
411.802	606.62
412.025	596.62
412.249	585.62
412.472	638.62
412.695	663.62
412.919	650.62
413.142	573.62
413.365	579.62
413.589	574.62
413.812	556.62
414.035	546.62
414.258	544.62
414.482	537.62
414.705	550.62
414.928	523.62
415.151	552.62
415.374	532.62
415.597	537.62
415.821	565.62
416.044	535.62
416.267	549.62
416.49	544.62
416.713	543.62
416.936	549.62
417.159	539.62
417.382	548.62
417.605	569.62
417.828	550.62
418.051	577.62
418.274	583.62
418.497	565.62
418.72	548.62
418.943	516.62
419.166	565.62
419.389	570.62
419.611	565.62
419.834	587.62
420.057	592.62
420.28	569.62
420.503	597.62
420.726	578.62
420.948	590.62
421.171	664.62
421.394	674.62
421.617	591.62
421.839	580.62
422.062	595.62
422.285	609.62
422.507	644.62
422.73	719.62
422.953	701.62
423.175	631.62
423.398	602.62
423.621	590.62
423.843	603.62
424.066	623.62
424.288	621.62
424.511	666.62
424.733	719.62
424.956	789.62
425.178	775.62
425.401	766.62
425.623	791.62
425.846	694.62
426.068	664.62
426.291	644.62
426.513	643.62
426.735	635.62
426.958	680.62
427.18	794.62
427.402	905.62
427.625	1031.62
427.847	923.62
428.069	805.62
428.292	732.62
428.514	668.62
428.736	622.62
428.958	605.62
429.181	589.62
429.403	592.62
429.625	612.62
429.847	637.62
430.069	717.62
430.292	699.62
430.514	602.62
430.736	587.62
430.958	588.62
431.18	573.62
431.402	543.62
431.624	553.62
431.846	547.62
432.068	521.62
432.29	535.62
432.512	539.62
432.734	573.62
432.956	556.62
433.178	568.62
433.4	577.62
433.622	575.62
433.844	557.62
434.066	542.62
434.287	557.62
434.509	557.62
434.731	558.62
434.953	563.62
435.175	602.62
435.397	623.62
435.618	636.62
435.84	705.62
436.062	804.62
436.284	859.62
436.505	712.62
436.727	655.62
436.949	611.62
437.17	605.62
437.392	603.62
437.614	605.62
437.835	660.62
438.057	779.62
438.278	892.62
438.5	887.62
438.721	949.62
438.943	896.62
439.165	729.62
439.386	681.62
439.608	665.62
439.829	653.62
440.05	697.62
440.272	770.62
440.493	721.62
440.715	671.62
440.936	629.62
441.158	635.62
441.379	610.62
441.6	616.62
441.822	638.62
442.043	677.62
442.264	782.62
442.486	829.62
442.707	727.62
442.928	647.62
443.149	663.62
443.371	711.62
443.592	760.62
443.813	825.62
444.034	888.62
444.255	748.62
444.476	679.62
444.698	658.62
444.919	631.62
445.14	767.62
445.361	704.62
445.582	691.62
445.803	773.62
446.024	880.62
446.245	891.62
446.466	812.62
446.687	720.62
446.908	669.62
447.129	638.62
447.35	604.62
447.571	619.62
447.792	591.62
448.013	599.62
448.234	615.62
448.455	689.62
448.675	801.62
448.896	948.62
449.117	797.62
449.338	785.62
449.559	875.62
449.779	978.62
450	777.62
450.221	685.62
450.442	622.62
450.662	581.62
450.883	611.62
451.104	638.62
451.324	605.62
451.545	591.62
451.766	573.62
451.986	562.62
452.207	545.62
452.428	525.62
452.648	551.62
452.869	525.62
453.089	552.62
453.31	551.62
453.53	553.62
453.751	553.62
453.971	551.62
454.192	552.62
454.412	556.62
454.633	535.62
454.853	530.62
455.073	542.62
455.294	583.62
455.514	631.62
455.734	634.62
455.955	566.62
456.175	513.62
456.395	503.62
456.616	494.62
456.836	509.62
457.056	477.62
457.276	481.62
457.497	494.62
457.717	488.62
457.937	509.62
458.157	508.62
458.377	511.62
458.598	551.62
458.818	609.62
459.038	717.62
459.258	729.62
459.478	650.62
459.698	583.62
459.918	534.62
460.138	544.62
460.358	543.62
460.578	544.62
460.798	557.62
461.018	537.62
461.238	530.62
461.458	537.62
461.678	546.62
461.898	545.62
462.118	520.62
462.338	541.62
462.558	554.62
462.777	555.62
462.997	588.62
463.217	577.62
463.437	577.62
463.657	561.62
463.876	579.62
464.096	595.62
464.316	585.62
464.536	580.62
464.755	578.62
464.975	592.62
465.195	668.62
465.414	769.62
465.634	674.62
465.854	613.62
466.073	588.62
466.293	556.62
466.512	553.62
466.732	550.62
466.951	528.62
467.171	535.62
467.391	538.62
467.61	577.62
467.829	560.62
468.049	547.62
468.268	574.62
468.488	536.62
468.707	560.62
468.927	547.62
469.146	528.62
469.365	552.62
469.585	507.62
469.804	519.62
470.023	537.62
470.243	544.62
470.462	560.62
470.681	583.62
470.901	544.62
471.12	564.62
471.339	562.62
471.558	565.62
471.777	563.62
471.997	527.62
472.216	545.62
472.435	612.62
472.654	598.62
472.873	542.62
473.092	558.62
473.311	560.62
473.53	544.62
473.749	559.62
473.968	614.62
474.187	737.62
474.406	740.62
474.625	648.62
474.844	578.62
475.063	557.62
475.282	561.62
475.501	558.62
475.72	584.62
475.939	557.62
476.158	605.62
476.377	589.62
476.596	568.62
476.814	586.62
477.033	587.62
477.252	586.62
477.471	592.62
477.69	598.62
477.908	605.62
478.127	589.62
478.346	572.62
478.564	615.62
478.783	605.62
479.002	617.62
479.22	641.62
479.439	631.62
479.658	649.62
479.876	689.62
480.095	691.62
480.313	710.62
480.532	709.62
480.751	694.62
480.969	679.62
481.188	784.62
481.406	845.62
481.624	730.62
481.843	695.62
482.061	668.62
482.28	682.62
482.498	678.62
482.717	671.62
482.935	657.62
483.153	666.62
483.372	663.62
483.59	662.62
483.808	657.62
484.027	681.62
484.245	673.62
484.463	677.62
484.681	691.62
484.9	667.62
485.118	676.62
485.336	665.62
485.554	663.62
485.772	681.62
485.99	696.62
486.209	681.62
486.427	701.62
486.645	677.62
486.863	739.62
487.081	737.62
487.299	731.62
487.517	726.62
487.735	728.62
487.953	758.62
488.171	719.62
488.389	706.62
488.607	732.62
488.825	724.62
489.043	711.62
489.261	721.62
489.479	697.62
489.696	715.62
489.914	743.62
490.132	771.62
490.35	742.62
490.568	740.62
490.786	781.62
491.003	786.62
491.221	807.62
491.439	825.62
491.657	825.62
491.874	854.62
492.092	814.62
492.31	850.62
492.527	844.62
492.745	862.62
492.963	869.62
493.18	844.62
493.398	856.62
493.615	861.62
493.833	859.62
494.05	883.62
494.268	888.62
494.485	880.62
494.703	872.62
494.92	870.62
495.138	881.62
495.355	901.62
495.573	911.62
495.79	895.62
496.008	886.62
496.225	878.62
496.442	851.62
496.66	860.62
496.877	885.62
497.094	877.62
497.312	866.62
497.529	868.62
497.746	880.62
497.963	907.62
498.181	940.62
498.398	904.62
498.615	926.62
498.832	919.62
499.049	946.62
499.267	947.62
499.484	984.62
499.701	983.62
499.918	984.62
500.135	1057.62
500.352	1075.62
500.569	1086.62
500.786	1094.62
501.003	1059.62
501.22	1037.62
501.437	1019.62
501.654	1034.62
501.871	1002.62
