Data from 1970.PennyLincolnUp.Lamp.En5.5.200Scan.071719.P1._HRD10591_15-15-55-842.txt Node
Date: Thu Jul 18 15:15:55 EDT 2019
User: cochatt
Spectrometer: HR+D1059
Trigger mode: 1
Integration Time (sec): 1.000000E-1
Scans to average: 1
Electric dark correction enabled: true
Nonlinearity correction enabled: false
Boxcar width: 0
XAxis mode: Wavelengths
Number of Pixels in Spectrum: 2048
>>>>>Begin Spectral Data<<<<<
223.165	-17.38
223.4	-17.38
223.635	-17.38
223.869	-10.38
224.104	-2.38
224.338	-13.38
224.573	-10.38
224.808	-16.38
225.042	-9.38
225.277	-14.38
225.511	2.62
225.746	4.62
225.98	6.62
226.215	10.62
226.449	12.62
226.683	11.62
226.918	24.62
227.152	20.62
227.387	25.62
227.621	39.62
227.856	44.62
228.09	35.62
228.324	32.62
228.559	45.62
228.793	65.62
229.027	107.62
229.262	114.62
229.496	139.62
229.73	146.62
229.964	166.62
230.199	136.62
230.433	115.62
230.667	117.62
230.901	132.62
231.136	103.62
231.37	129.62
231.604	121.62
231.838	122.62
232.072	120.62
232.306	114.62
232.541	123.62
232.775	101.62
233.009	121.62
233.243	121.62
233.477	113.62
233.711	111.62
233.945	107.62
234.179	111.62
234.413	123.62
234.647	106.62
234.881	113.62
235.115	121.62
235.349	127.62
235.583	130.62
235.817	122.62
236.051	128.62
236.285	124.62
236.519	129.62
236.753	139.62
236.987	155.62
237.221	206.62
237.455	246.62
237.689	212.62
237.922	158.62
238.156	143.62
238.39	133.62
238.624	113.62
238.858	129.62
239.091	129.62
239.325	143.62
239.559	136.62
239.793	147.62
240.027	127.62
240.26	160.62
240.494	169.62
240.728	165.62
240.961	168.62
241.195	152.62
241.429	151.62
241.662	152.62
241.896	140.62
242.13	134.62
242.363	140.62
242.597	137.62
242.83	135.62
243.064	148.62
243.298	151.62
243.531	130.62
243.765	133.62
243.998	139.62
244.232	133.62
244.465	141.62
244.699	150.62
244.932	163.62
245.166	149.62
245.399	151.62
245.633	152.62
245.866	150.62
246.099	172.62
246.333	144.62
246.566	160.62
246.8	153.62
247.033	145.62
247.266	165.62
247.5	165.62
247.733	195.62
247.966	170.62
248.2	166.62
248.433	175.62
248.666	192.62
248.899	198.62
249.133	194.62
249.366	241.62
249.599	196.62
249.832	200.62
250.066	198.62
250.299	203.62
250.532	214.62
250.765	220.62
250.998	247.62
251.231	264.62
251.465	242.62
251.698	233.62
251.931	221.62
252.164	226.62
252.397	226.62
252.63	222.62
252.863	220.62
253.096	243.62
253.329	249.62
253.562	246.62
253.795	259.62
254.028	247.62
254.261	246.62
254.494	255.62
254.727	290.62
254.96	309.62
255.193	302.62
255.426	273.62
255.659	271.62
255.892	253.62
256.124	264.62
256.357	274.62
256.59	242.62
256.823	250.62
257.056	234.62
257.289	229.62
257.521	243.62
257.754	230.62
257.987	230.62
258.22	240.62
258.452	240.62
258.685	221.62
258.918	214.62
259.151	234.62
259.383	227.62
259.616	216.62
259.849	229.62
260.081	265.62
260.314	270.62
260.547	300.62
260.779	279.62
261.012	268.62
261.244	261.62
261.477	239.62
261.71	238.62
261.942	265.62
262.175	268.62
262.407	259.62
262.64	228.62
262.872	237.62
263.105	237.62
263.337	220.62
263.57	221.62
263.802	220.62
264.035	195.62
264.267	214.62
264.499	230.62
264.732	218.62
264.964	223.62
265.197	221.62
265.429	216.62
265.661	233.62
265.894	229.62
266.126	227.62
266.358	223.62
266.591	217.62
266.823	226.62
267.055	245.62
267.287	239.62
267.52	248.62
267.752	241.62
267.984	232.62
268.216	231.62
268.448	247.62
268.681	232.62
268.913	253.62
269.145	266.62
269.377	288.62
269.609	306.62
269.841	287.62
270.073	285.62
270.306	297.62
270.538	337.62
270.77	342.62
271.002	328.62
271.234	329.62
271.466	318.62
271.698	322.62
271.93	345.62
272.162	352.62
272.394	352.62
272.626	319.62
272.858	306.62
273.09	288.62
273.322	290.62
273.553	305.62
273.785	284.62
274.017	271.62
274.249	265.62
274.481	288.62
274.713	277.62
274.945	273.62
275.176	288.62
275.408	283.62
275.64	285.62
275.872	277.62
276.104	272.62
276.335	283.62
276.567	297.62
276.799	303.62
277.031	326.62
277.262	317.62
277.494	329.62
277.726	323.62
277.957	309.62
278.189	281.62
278.421	301.62
278.652	289.62
278.884	275.62
279.115	269.62
279.347	282.62
279.579	273.62
279.81	257.62
280.042	279.62
280.273	281.62
280.505	271.62
280.736	271.62
280.968	261.62
281.199	280.62
281.431	281.62
281.662	270.62
281.894	281.62
282.125	276.62
282.356	298.62
282.588	301.62
282.819	329.62
283.051	269.62
283.282	271.62
283.513	282.62
283.745	275.62
283.976	279.62
284.207	297.62
284.439	284.62
284.67	286.62
284.901	296.62
285.132	288.62
285.364	281.62
285.595	285.62
285.826	271.62
286.057	278.62
286.288	276.62
286.52	274.62
286.751	279.62
286.982	273.62
287.213	262.62
287.444	294.62
287.675	282.62
287.906	291.62
288.138	308.62
288.369	307.62
288.6	307.62
288.831	307.62
289.062	295.62
289.293	287.62
289.524	289.62
289.755	297.62
289.986	289.62
290.217	291.62
290.448	287.62
290.679	271.62
290.91	286.62
291.141	281.62
291.371	287.62
291.602	275.62
291.833	271.62
292.064	282.62
292.295	283.62
292.526	288.62
292.757	275.62
292.987	294.62
293.218	297.62
293.449	290.62
293.68	282.62
293.91	286.62
294.141	263.62
294.372	279.62
294.603	290.62
294.833	295.62
295.064	285.62
295.295	308.62
295.525	282.62
295.756	309.62
295.987	301.62
296.217	356.62
296.448	346.62
296.679	311.62
296.909	301.62
297.14	290.62
297.37	296.62
297.601	289.62
297.831	275.62
298.062	307.62
298.292	280.62
298.523	290.62
298.753	289.62
298.984	298.62
299.214	319.62
299.445	285.62
299.675	310.62
299.905	317.62
300.136	324.62
300.366	322.62
300.597	310.62
300.827	299.62
301.057	315.62
301.288	330.62
301.518	346.62
301.748	313.62
301.979	319.62
302.209	332.62
302.439	331.62
302.669	326.62
302.9	323.62
303.13	317.62
303.36	339.62
303.59	323.62
303.82	332.62
304.051	349.62
304.281	341.62
304.511	312.62
304.741	315.62
304.971	320.62
305.201	317.62
305.431	322.62
305.661	328.62
305.891	327.62
306.121	342.62
306.352	317.62
306.582	343.62
306.812	331.62
307.042	329.62
307.272	318.62
307.502	330.62
307.731	335.62
307.961	326.62
308.191	333.62
308.421	311.62
308.651	345.62
308.881	346.62
309.111	354.62
309.341	340.62
309.571	365.62
309.8	367.62
310.03	387.62
310.26	395.62
310.49	407.62
310.72	403.62
310.949	424.62
311.179	433.62
311.409	379.62
311.639	381.62
311.868	394.62
312.098	367.62
312.328	381.62
312.557	416.62
312.787	423.62
313.017	432.62
313.246	413.62
313.476	395.62
313.706	398.62
313.935	375.62
314.165	402.62
314.394	411.62
314.624	430.62
314.853	407.62
315.083	392.62
315.312	394.62
315.542	409.62
315.771	387.62
316.001	355.62
316.23	384.62
316.46	366.62
316.689	386.62
316.919	388.62
317.148	400.62
317.377	408.62
317.607	400.62
317.836	398.62
318.065	407.62
318.295	397.62
318.524	392.62
318.753	383.62
318.983	379.62
319.212	383.62
319.441	411.62
319.67	401.62
319.9	402.62
320.129	386.62
320.358	408.62
320.587	397.62
320.816	407.62
321.046	402.62
321.275	419.62
321.504	410.62
321.733	435.62
321.962	426.62
322.191	448.62
322.42	470.62
322.649	485.62
322.878	508.62
323.108	505.62
323.337	537.62
323.566	575.62
323.795	600.62
324.024	674.62
324.253	809.62
324.482	1166.62
324.71	1736.62
324.939	2543.62
325.168	2181.62
325.397	1165.62
325.626	792.62
325.855	649.62
326.084	571.62
326.313	557.62
326.542	575.62
326.77	651.62
326.999	740.62
327.228	988.62
327.457	1543.62
327.686	1904.62
327.914	1336.62
328.143	866.62
328.372	757.62
328.6	675.62
328.829	629.62
329.058	673.62
329.287	656.62
329.515	621.62
329.744	562.62
329.972	581.62
330.201	606.62
330.43	645.62
330.658	674.62
330.887	725.62
331.115	695.62
331.344	587.62
331.572	537.62
331.801	561.62
332.03	524.62
332.258	505.62
332.486	504.62
332.715	473.62
332.943	473.62
333.172	460.62
333.4	458.62
333.629	489.62
333.857	493.62
334.085	510.62
334.314	531.62
334.542	575.62
334.771	614.62
334.999	555.62
335.227	514.62
335.455	482.62
335.684	474.62
335.912	447.62
336.14	465.62
336.369	458.62
336.597	466.62
336.825	485.62
337.053	456.62
337.281	472.62
337.51	424.62
337.738	457.62
337.966	457.62
338.194	455.62
338.422	471.62
338.65	456.62
338.878	451.62
339.106	446.62
339.334	457.62
339.562	438.62
339.79	451.62
340.018	445.62
340.246	440.62
340.474	479.62
340.702	451.62
340.93	462.62
341.158	442.62
341.386	447.62
341.614	443.62
341.842	481.62
342.07	454.62
342.298	455.62
342.526	446.62
342.754	440.62
342.981	432.62
343.209	416.62
343.437	440.62
343.665	420.62
343.893	419.62
344.12	432.62
344.348	445.62
344.576	458.62
344.804	456.62
345.031	466.62
345.259	473.62
345.487	476.62
345.714	458.62
345.942	441.62
346.17	439.62
346.397	431.62
346.625	454.62
346.853	429.62
347.08	421.62
347.308	446.62
347.535	459.62
347.763	463.62
347.99	476.62
348.218	458.62
348.445	449.62
348.673	462.62
348.9	453.62
349.128	447.62
349.355	406.62
349.583	424.62
349.81	435.62
350.037	415.62
350.265	429.62
350.492	429.62
350.72	432.62
350.947	447.62
351.174	433.62
351.402	431.62
351.629	424.62
351.856	480.62
352.083	473.62
352.311	443.62
352.538	474.62
352.765	466.62
352.992	464.62
353.22	456.62
353.447	453.62
353.674	435.62
353.901	439.62
354.128	427.62
354.355	402.62
354.583	406.62
354.81	415.62
355.037	405.62
355.264	409.62
355.491	414.62
355.718	393.62
355.945	405.62
356.172	411.62
356.399	391.62
356.626	387.62
356.853	409.62
357.08	410.62
357.307	399.62
357.534	409.62
357.761	414.62
357.988	417.62
358.215	415.62
358.441	390.62
358.668	418.62
358.895	424.62
359.122	434.62
359.349	443.62
359.576	448.62
359.802	489.62
360.029	512.62
360.256	543.62
360.483	503.62
360.709	460.62
360.936	455.62
361.163	439.62
361.39	458.62
361.616	451.62
361.843	451.62
362.07	422.62
362.296	455.62
362.523	470.62
362.749	439.62
362.976	423.62
363.203	443.62
363.429	431.62
363.656	422.62
363.882	429.62
364.109	426.62
364.335	418.62
364.562	411.62
364.788	417.62
365.015	432.62
365.241	426.62
365.468	435.62
365.694	456.62
365.92	433.62
366.147	421.62
366.373	409.62
366.599	448.62
366.826	438.62
367.052	418.62
367.278	433.62
367.505	411.62
367.731	434.62
367.957	438.62
368.184	411.62
368.41	419.62
368.636	437.62
368.862	456.62
369.089	455.62
369.315	426.62
369.541	442.62
369.767	426.62
369.993	429.62
370.219	426.62
370.445	429.62
370.672	410.62
370.898	426.62
371.124	437.62
371.35	417.62
371.576	419.62
371.802	392.62
372.028	416.62
372.254	414.62
372.48	420.62
372.706	419.62
372.932	423.62
373.158	416.62
373.384	420.62
373.61	419.62
373.835	437.62
374.061	433.62
374.287	413.62
374.513	419.62
374.739	419.62
374.965	438.62
375.191	411.62
375.416	400.62
375.642	402.62
375.868	424.62
376.094	425.62
376.319	412.62
376.545	423.62
376.771	417.62
376.997	424.62
377.222	445.62
377.448	445.62
377.674	418.62
377.899	418.62
378.125	410.62
378.35	437.62
378.576	414.62
378.802	415.62
379.027	410.62
379.253	426.62
379.478	410.62
379.704	413.62
379.929	409.62
380.155	432.62
380.38	439.62
380.606	448.62
380.831	417.62
381.057	429.62
381.282	432.62
381.507	416.62
381.733	439.62
381.958	425.62
382.184	403.62
382.409	424.62
382.634	440.62
382.86	406.62
383.085	421.62
383.31	435.62
383.535	416.62
383.761	445.62
383.986	445.62
384.211	434.62
384.436	437.62
384.662	441.62
384.887	429.62
385.112	441.62
385.337	433.62
385.562	452.62
385.787	457.62
386.013	468.62
386.238	471.62
386.463	460.62
386.688	475.62
386.913	459.62
387.138	463.62
387.363	457.62
387.588	481.62
387.813	462.62
388.038	470.62
388.263	470.62
388.488	470.62
388.713	458.62
388.938	470.62
389.163	458.62
389.387	475.62
389.612	458.62
389.837	448.62
390.062	475.62
390.287	449.62
390.512	445.62
390.736	463.62
390.961	457.62
391.186	465.62
391.411	478.62
391.636	463.62
391.86	463.62
392.085	446.62
392.31	456.62
392.534	461.62
392.759	457.62
392.984	478.62
393.208	453.62
393.433	470.62
393.658	456.62
393.882	469.62
394.107	455.62
394.331	461.62
394.556	477.62
394.78	477.62
395.005	442.62
395.229	449.62
395.454	481.62
395.678	461.62
395.903	475.62
396.127	499.62
396.352	505.62
396.576	473.62
396.801	478.62
397.025	490.62
397.249	483.62
397.474	496.62
397.698	482.62
397.922	482.62
398.147	514.62
398.371	521.62
398.595	486.62
398.82	514.62
399.044	511.62
399.268	530.62
399.492	548.62
399.717	565.62
399.941	610.62
400.165	635.62
400.389	664.62
400.613	576.62
400.837	542.62
401.062	530.62
401.286	525.62
401.51	528.62
401.734	516.62
401.958	544.62
402.182	531.62
402.406	550.62
402.63	548.62
402.854	518.62
403.078	535.62
403.302	550.62
403.526	562.62
403.75	534.62
403.974	536.62
404.198	522.62
404.422	537.62
404.645	555.62
404.869	579.62
405.093	618.62
405.317	651.62
405.541	663.62
405.765	608.62
405.988	583.62
406.212	601.62
406.436	637.62
406.66	632.62
406.883	615.62
407.107	613.62
407.331	650.62
407.555	725.62
407.778	736.62
408.002	667.62
408.226	615.62
408.449	596.62
408.673	600.62
408.896	667.62
409.12	681.62
409.344	627.62
409.567	595.62
409.791	587.62
410.014	566.62
410.238	562.62
410.461	550.62
410.685	560.62
410.908	573.62
411.132	619.62
411.355	660.62
411.578	632.62
411.802	578.62
412.025	571.62
412.249	566.62
412.472	608.62
412.695	636.62
412.919	629.62
413.142	581.62
413.365	568.62
413.589	550.62
413.812	533.62
414.035	539.62
414.258	527.62
414.482	534.62
414.705	517.62
414.928	525.62
415.151	525.62
415.374	521.62
415.597	522.62
415.821	517.62
416.044	541.62
416.267	536.62
416.49	533.62
416.713	513.62
416.936	518.62
417.159	529.62
417.382	533.62
417.605	537.62
417.828	561.62
418.051	544.62
418.274	569.62
418.497	542.62
418.72	559.62
418.943	529.62
419.166	577.62
419.389	574.62
419.611	543.62
419.834	563.62
420.057	573.62
420.28	566.62
420.503	562.62
420.726	576.62
420.948	592.62
421.171	620.62
421.394	648.62
421.617	599.62
421.839	570.62
422.062	570.62
422.285	580.62
422.507	639.62
422.73	722.62
422.953	680.62
423.175	612.62
423.398	598.62
423.621	592.62
423.843	617.62
424.066	614.62
424.288	639.62
424.511	643.62
424.733	677.62
424.956	775.62
425.178	765.62
425.401	741.62
425.623	753.62
425.846	665.62
426.068	622.62
426.291	622.62
426.513	606.62
426.735	630.62
426.958	671.62
427.18	761.62
427.402	886.62
427.625	980.62
427.847	905.62
428.069	785.62
428.292	692.62
428.514	629.62
428.736	622.62
428.958	604.62
429.181	577.62
429.403	548.62
429.625	591.62
429.847	609.62
430.069	677.62
430.292	722.62
430.514	625.62
430.736	570.62
430.958	567.62
431.18	561.62
431.402	551.62
431.624	541.62
431.846	552.62
432.068	550.62
432.29	531.62
432.512	537.62
432.734	554.62
432.956	563.62
433.178	552.62
433.4	573.62
433.622	547.62
433.844	549.62
434.066	550.62
434.287	523.62
434.509	541.62
434.731	518.62
434.953	530.62
435.175	580.62
435.397	616.62
435.618	635.62
435.84	673.62
436.062	753.62
436.284	814.62
436.505	725.62
436.727	618.62
436.949	602.62
437.17	586.62
437.392	574.62
437.614	597.62
437.835	633.62
438.057	766.62
438.278	836.62
438.5	851.62
438.721	894.62
438.943	889.62
439.165	731.62
439.386	663.62
439.608	671.62
439.829	670.62
440.05	679.62
440.272	740.62
440.493	705.62
440.715	629.62
440.936	599.62
441.158	594.62
441.379	570.62
441.6	605.62
441.822	623.62
442.043	671.62
442.264	777.62
442.486	806.62
442.707	691.62
442.928	626.62
443.149	645.62
443.371	673.62
443.592	693.62
443.813	829.62
444.034	886.62
444.255	730.62
444.476	652.62
444.698	652.62
444.919	606.62
445.14	728.62
445.361	696.62
445.582	687.62
445.803	727.62
446.024	853.62
446.245	865.62
446.466	826.62
446.687	701.62
446.908	628.62
447.129	596.62
447.35	584.62
447.571	573.62
447.792	589.62
448.013	601.62
448.234	603.62
448.455	659.62
448.675	817.62
448.896	893.62
449.117	784.62
449.338	728.62
449.559	846.62
449.779	898.62
450	802.62
450.221	654.62
450.442	596.62
450.662	598.62
450.883	601.62
451.104	612.62
451.324	589.62
451.545	585.62
451.766	546.62
451.986	525.62
452.207	540.62
452.428	517.62
452.648	517.62
452.869	545.62
453.089	531.62
453.31	553.62
453.53	537.62
453.751	517.62
453.971	517.62
454.192	550.62
454.412	543.62
454.633	530.62
454.853	533.62
455.073	539.62
455.294	579.62
455.514	615.62
455.734	612.62
455.955	503.62
456.175	515.62
456.395	488.62
456.616	478.62
456.836	477.62
457.056	496.62
457.276	469.62
457.497	489.62
457.717	491.62
457.937	486.62
458.157	490.62
458.377	511.62
458.598	543.62
458.818	608.62
459.038	705.62
459.258	701.62
459.478	624.62
459.698	558.62
459.918	535.62
460.138	510.62
460.358	535.62
460.578	551.62
460.798	525.62
461.018	526.62
461.238	507.62
461.458	530.62
461.678	534.62
461.898	515.62
462.118	535.62
462.338	536.62
462.558	536.62
462.777	528.62
462.997	543.62
463.217	555.62
463.437	573.62
463.657	557.62
463.876	533.62
464.096	567.62
464.316	565.62
464.536	584.62
464.755	560.62
464.975	587.62
465.195	642.62
465.414	768.62
465.634	650.62
465.854	573.62
466.073	579.62
466.293	560.62
466.512	526.62
466.732	532.62
466.951	546.62
467.171	530.62
467.391	535.62
467.61	561.62
467.829	548.62
468.049	564.62
468.268	558.62
468.488	534.62
468.707	517.62
468.927	519.62
469.146	530.62
469.365	511.62
469.585	520.62
469.804	527.62
470.023	550.62
470.243	555.62
470.462	540.62
470.681	546.62
470.901	577.62
471.12	549.62
471.339	528.62
471.558	545.62
471.777	538.62
471.997	551.62
472.216	561.62
472.435	615.62
472.654	576.62
472.873	553.62
473.092	546.62
473.311	558.62
473.53	552.62
473.749	538.62
473.968	606.62
474.187	719.62
474.406	727.62
474.625	618.62
474.844	563.62
475.063	550.62
475.282	530.62
475.501	545.62
475.72	549.62
475.939	562.62
476.158	555.62
476.377	558.62
476.596	547.62
476.814	546.62
477.033	568.62
477.252	563.62
477.471	592.62
477.69	576.62
477.908	599.62
478.127	570.62
478.346	584.62
478.564	585.62
478.783	590.62
479.002	631.62
479.22	623.62
479.439	633.62
479.658	640.62
479.876	694.62
480.095	667.62
480.313	686.62
480.532	667.62
480.751	669.62
480.969	681.62
481.188	789.62
481.406	853.62
481.624	732.62
481.843	683.62
482.061	674.62
482.28	641.62
482.498	650.62
482.717	669.62
482.935	651.62
483.153	660.62
483.372	651.62
483.59	672.62
483.808	652.62
484.027	641.62
484.245	652.62
484.463	661.62
484.681	679.62
484.9	647.62
485.118	675.62
485.336	662.62
485.554	664.62
485.772	660.62
485.99	678.62
486.209	671.62
486.427	694.62
486.645	699.62
486.863	723.62
487.081	715.62
487.299	711.62
487.517	723.62
487.735	680.62
487.953	712.62
488.171	723.62
488.389	726.62
488.607	714.62
488.825	705.62
489.043	692.62
489.261	705.62
489.479	701.62
489.696	713.62
489.914	716.62
490.132	721.62
490.35	738.62
490.568	745.62
490.786	773.62
491.003	778.62
491.221	783.62
491.439	814.62
491.657	765.62
491.874	829.62
492.092	834.62
492.31	838.62
492.527	830.62
492.745	852.62
492.963	824.62
493.18	850.62
493.398	853.62
493.615	865.62
493.833	826.62
494.05	841.62
494.268	848.62
494.485	846.62
494.703	848.62
494.92	853.62
495.138	849.62
495.355	850.62
495.573	858.62
495.79	835.62
496.008	862.62
496.225	850.62
496.442	848.62
496.66	833.62
496.877	852.62
497.094	837.62
497.312	883.62
497.529	870.62
497.746	865.62
497.963	884.62
498.181	885.62
498.398	878.62
498.615	917.62
498.832	898.62
499.049	930.62
499.267	913.62
499.484	950.62
499.701	975.62
499.918	972.62
500.135	1015.62
500.352	1028.62
500.569	1035.62
500.786	1057.62
501.003	1047.62
501.22	1061.62
501.437	1016.62
501.654	1002.62
501.871	990.62
