Data from 1970.PennyLincolnUp.Lamp.En5.5.200Scan.071719.P1._HRD10591_15-16-06-841.txt Node
Date: Thu Jul 18 15:16:06 EDT 2019
User: cochatt
Spectrometer: HR+D1059
Trigger mode: 1
Integration Time (sec): 1.000000E-1
Scans to average: 1
Electric dark correction enabled: true
Nonlinearity correction enabled: false
Boxcar width: 0
XAxis mode: Wavelengths
Number of Pixels in Spectrum: 2048
>>>>>Begin Spectral Data<<<<<
223.165	-19.06
223.4	-19.06
223.635	-19.06
223.869	-23.06
224.104	-27.06
224.338	-24.06
224.573	-17.06
224.808	-15.06
225.042	-8.06
225.277	-1.06
225.511	-5.06
225.746	8.94
225.98	18.94
226.215	16.94
226.449	20.94
226.683	12.94
226.918	21.94
227.152	38.94
227.387	27.94
227.621	37.94
227.856	41.94
228.09	47.94
228.324	42.94
228.559	50.94
228.793	62.94
229.027	103.94
229.262	121.94
229.496	126.94
229.73	154.94
229.964	180.94
230.199	158.94
230.433	141.94
230.667	125.94
230.901	117.94
231.136	120.94
231.37	125.94
231.604	114.94
231.838	110.94
232.072	116.94
232.306	117.94
232.541	106.94
232.775	104.94
233.009	118.94
233.243	116.94
233.477	115.94
233.711	118.94
233.945	106.94
234.179	120.94
234.413	126.94
234.647	114.94
234.881	114.94
235.115	112.94
235.349	124.94
235.583	137.94
235.817	136.94
236.051	152.94
236.285	131.94
236.519	121.94
236.753	135.94
236.987	154.94
237.221	190.94
237.455	248.94
237.689	209.94
237.922	145.94
238.156	135.94
238.39	149.94
238.624	129.94
238.858	129.94
239.091	130.94
239.325	130.94
239.559	150.94
239.793	142.94
240.027	143.94
240.26	159.94
240.494	177.94
240.728	173.94
240.961	171.94
241.195	165.94
241.429	156.94
241.662	140.94
241.896	129.94
242.13	129.94
242.363	139.94
242.597	144.94
242.83	146.94
243.064	137.94
243.298	153.94
243.531	149.94
243.765	125.94
243.998	165.94
244.232	149.94
244.465	153.94
244.699	141.94
244.932	153.94
245.166	164.94
245.399	159.94
245.633	170.94
245.866	170.94
246.099	151.94
246.333	158.94
246.566	154.94
246.8	157.94
247.033	153.94
247.266	179.94
247.5	174.94
247.733	193.94
247.966	189.94
248.2	181.94
248.433	191.94
248.666	198.94
248.899	201.94
249.133	202.94
249.366	217.94
249.599	215.94
249.832	196.94
250.066	200.94
250.299	198.94
250.532	205.94
250.765	221.94
250.998	237.94
251.231	261.94
251.465	264.94
251.698	237.94
251.931	243.94
252.164	220.94
252.397	211.94
252.63	223.94
252.863	231.94
253.096	232.94
253.329	234.94
253.562	245.94
253.795	246.94
254.028	250.94
254.261	238.94
254.494	245.94
254.727	289.94
254.96	313.94
255.193	313.94
255.426	280.94
255.659	247.94
255.892	265.94
256.124	262.94
256.357	247.94
256.59	258.94
256.823	243.94
257.056	238.94
257.289	222.94
257.521	238.94
257.754	216.94
257.987	221.94
258.22	223.94
258.452	236.94
258.685	236.94
258.918	221.94
259.151	211.94
259.383	238.94
259.616	237.94
259.849	257.94
260.081	251.94
260.314	265.94
260.547	283.94
260.779	290.94
261.012	252.94
261.244	266.94
261.477	254.94
261.71	247.94
261.942	247.94
262.175	252.94
262.407	241.94
262.64	254.94
262.872	230.94
263.105	242.94
263.337	231.94
263.57	228.94
263.802	221.94
264.035	206.94
264.267	229.94
264.499	202.94
264.732	225.94
264.964	225.94
265.197	226.94
265.429	221.94
265.661	220.94
265.894	229.94
266.126	212.94
266.358	217.94
266.591	232.94
266.823	233.94
267.055	219.94
267.287	224.94
267.52	234.94
267.752	206.94
267.984	231.94
268.216	238.94
268.448	220.94
268.681	230.94
268.913	236.94
269.145	275.94
269.377	299.94
269.609	285.94
269.841	290.94
270.073	309.94
270.306	302.94
270.538	332.94
270.77	337.94
271.002	325.94
271.234	314.94
271.466	318.94
271.698	339.94
271.93	356.94
272.162	366.94
272.394	329.94
272.626	329.94
272.858	314.94
273.09	281.94
273.322	289.94
273.553	293.94
273.785	280.94
274.017	283.94
274.249	293.94
274.481	254.94
274.713	278.94
274.945	284.94
275.176	276.94
275.408	286.94
275.64	293.94
275.872	275.94
276.104	266.94
276.335	270.94
276.567	266.94
276.799	287.94
277.031	316.94
277.262	337.94
277.494	322.94
277.726	321.94
277.957	292.94
278.189	293.94
278.421	277.94
278.652	286.94
278.884	275.94
279.115	269.94
279.347	279.94
279.579	274.94
279.81	281.94
280.042	270.94
280.273	281.94
280.505	277.94
280.736	265.94
280.968	245.94
281.199	293.94
281.431	275.94
281.662	272.94
281.894	263.94
282.125	257.94
282.356	301.94
282.588	311.94
282.819	310.94
283.051	270.94
283.282	269.94
283.513	277.94
283.745	283.94
283.976	290.94
284.207	279.94
284.439	284.94
284.67	297.94
284.901	274.94
285.132	273.94
285.364	291.94
285.595	262.94
285.826	287.94
286.057	259.94
286.288	279.94
286.52	282.94
286.751	283.94
286.982	270.94
287.213	273.94
287.444	275.94
287.675	276.94
287.906	290.94
288.138	299.94
288.369	309.94
288.6	305.94
288.831	285.94
289.062	286.94
289.293	284.94
289.524	294.94
289.755	293.94
289.986	289.94
290.217	282.94
290.448	276.94
290.679	292.94
290.91	276.94
291.141	280.94
291.371	293.94
291.602	301.94
291.833	285.94
292.064	270.94
292.295	292.94
292.526	282.94
292.757	300.94
292.987	294.94
293.218	270.94
293.449	298.94
293.68	262.94
293.91	293.94
294.141	280.94
294.372	262.94
294.603	297.94
294.833	270.94
295.064	284.94
295.295	280.94
295.525	286.94
295.756	294.94
295.987	305.94
296.217	336.94
296.448	348.94
296.679	305.94
296.909	278.94
297.14	302.94
297.37	313.94
297.601	289.94
297.831	280.94
298.062	295.94
298.292	308.94
298.523	292.94
298.753	311.94
298.984	306.94
299.214	298.94
299.445	308.94
299.675	329.94
299.905	318.94
300.136	308.94
300.366	301.94
300.597	296.94
300.827	319.94
301.057	327.94
301.288	331.94
301.518	311.94
301.748	322.94
301.979	327.94
302.209	317.94
302.439	317.94
302.669	331.94
302.9	314.94
303.13	323.94
303.36	318.94
303.59	333.94
303.82	340.94
304.051	350.94
304.281	326.94
304.511	318.94
304.741	324.94
304.971	328.94
305.201	327.94
305.431	322.94
305.661	307.94
305.891	331.94
306.121	330.94
306.352	329.94
306.582	343.94
306.812	325.94
307.042	344.94
307.272	315.94
307.502	334.94
307.731	337.94
307.961	326.94
308.191	335.94
308.421	317.94
308.651	346.94
308.881	343.94
309.111	355.94
309.341	348.94
309.571	363.94
309.8	356.94
310.03	382.94
310.26	374.94
310.49	396.94
310.72	378.94
310.949	391.94
311.179	414.94
311.409	403.94
311.639	371.94
311.868	394.94
312.098	386.94
312.328	376.94
312.557	417.94
312.787	423.94
313.017	413.94
313.246	403.94
313.476	366.94
313.706	365.94
313.935	385.94
314.165	393.94
314.394	411.94
314.624	426.94
314.853	394.94
315.083	391.94
315.312	381.94
315.542	380.94
315.771	389.94
316.001	391.94
316.23	367.94
316.46	377.94
316.689	375.94
316.919	390.94
317.148	384.94
317.377	387.94
317.607	387.94
317.836	396.94
318.065	389.94
318.295	392.94
318.524	376.94
318.753	378.94
318.983	379.94
319.212	373.94
319.441	399.94
319.67	396.94
319.9	375.94
320.129	387.94
320.358	382.94
320.587	392.94
320.816	396.94
321.046	420.94
321.275	391.94
321.504	403.94
321.733	393.94
321.962	414.94
322.191	433.94
322.42	452.94
322.649	472.94
322.878	482.94
323.108	513.94
323.337	517.94
323.566	562.94
323.795	599.94
324.024	641.94
324.253	801.94
324.482	1145.94
324.71	1739.94
324.939	2460.94
325.168	2147.94
325.397	1149.94
325.626	761.94
325.855	651.94
326.084	585.94
326.313	562.94
326.542	557.94
326.77	619.94
326.999	700.94
327.228	1027.94
327.457	1521.94
327.686	1880.94
327.914	1270.94
328.143	831.94
328.372	732.94
328.6	662.94
328.829	632.94
329.058	668.94
329.287	650.94
329.515	612.94
329.744	564.94
329.972	597.94
330.201	613.94
330.43	654.94
330.658	687.94
330.887	699.94
331.115	678.94
331.344	580.94
331.572	537.94
331.801	537.94
332.03	516.94
332.258	486.94
332.486	481.94
332.715	474.94
332.943	446.94
333.172	464.94
333.4	453.94
333.629	464.94
333.857	502.94
334.085	493.94
334.314	535.94
334.542	583.94
334.771	577.94
334.999	537.94
335.227	502.94
335.455	469.94
335.684	455.94
335.912	469.94
336.14	447.94
336.369	443.94
336.597	436.94
336.825	459.94
337.053	447.94
337.281	464.94
337.51	457.94
337.738	440.94
337.966	461.94
338.194	454.94
338.422	467.94
338.65	457.94
338.878	445.94
339.106	458.94
339.334	450.94
339.562	434.94
339.79	444.94
340.018	422.94
340.246	440.94
340.474	466.94
340.702	450.94
340.93	451.94
341.158	453.94
341.386	430.94
341.614	451.94
341.842	450.94
342.07	447.94
342.298	443.94
342.526	414.94
342.754	408.94
342.981	401.94
343.209	425.94
343.437	412.94
343.665	430.94
343.893	423.94
344.12	442.94
344.348	435.94
344.576	445.94
344.804	446.94
345.031	449.94
345.259	475.94
345.487	478.94
345.714	446.94
345.942	441.94
346.17	442.94
346.397	440.94
346.625	433.94
346.853	439.94
347.08	426.94
347.308	428.94
347.535	440.94
347.763	448.94
347.99	443.94
348.218	442.94
348.445	460.94
348.673	448.94
348.9	461.94
349.128	429.94
349.355	429.94
349.583	430.94
349.81	407.94
350.037	413.94
350.265	417.94
350.492	424.94
350.72	411.94
350.947	451.94
351.174	433.94
351.402	441.94
351.629	442.94
351.856	448.94
352.083	452.94
352.311	447.94
352.538	464.94
352.765	474.94
352.992	474.94
353.22	439.94
353.447	453.94
353.674	428.94
353.901	411.94
354.128	410.94
354.355	423.94
354.583	404.94
354.81	419.94
355.037	405.94
355.264	410.94
355.491	403.94
355.718	382.94
355.945	406.94
356.172	394.94
356.399	393.94
356.626	385.94
356.853	404.94
357.08	402.94
357.307	422.94
357.534	402.94
357.761	398.94
357.988	410.94
358.215	390.94
358.441	402.94
358.668	415.94
358.895	417.94
359.122	407.94
359.349	442.94
359.576	441.94
359.802	459.94
360.029	484.94
360.256	524.94
360.483	489.94
360.709	470.94
360.936	456.94
361.163	424.94
361.39	454.94
361.616	453.94
361.843	445.94
362.07	432.94
362.296	439.94
362.523	450.94
362.749	427.94
362.976	428.94
363.203	429.94
363.429	429.94
363.656	414.94
363.882	431.94
364.109	425.94
364.335	419.94
364.562	412.94
364.788	416.94
365.015	440.94
365.241	411.94
365.468	427.94
365.694	424.94
365.92	448.94
366.147	449.94
366.373	422.94
366.599	418.94
366.826	437.94
367.052	408.94
367.278	412.94
367.505	413.94
367.731	421.94
367.957	437.94
368.184	428.94
368.41	413.94
368.636	435.94
368.862	448.94
369.089	436.94
369.315	426.94
369.541	429.94
369.767	437.94
369.993	414.94
370.219	415.94
370.445	404.94
370.672	399.94
370.898	406.94
371.124	414.94
371.35	445.94
371.576	404.94
371.802	425.94
372.028	420.94
372.254	404.94
372.48	406.94
372.706	391.94
372.932	410.94
373.158	394.94
373.384	404.94
373.61	403.94
373.835	419.94
374.061	400.94
374.287	406.94
374.513	430.94
374.739	429.94
374.965	413.94
375.191	410.94
375.416	415.94
375.642	391.94
375.868	426.94
376.094	401.94
376.319	421.94
376.545	395.94
376.771	435.94
376.997	409.94
377.222	404.94
377.448	411.94
377.674	405.94
377.899	402.94
378.125	412.94
378.35	397.94
378.576	377.94
378.802	398.94
379.027	418.94
379.253	397.94
379.478	407.94
379.704	421.94
379.929	415.94
380.155	402.94
380.38	411.94
380.606	419.94
380.831	417.94
381.057	396.94
381.282	411.94
381.507	451.94
381.733	441.94
381.958	410.94
382.184	428.94
382.409	416.94
382.634	425.94
382.86	427.94
383.085	440.94
383.31	437.94
383.535	427.94
383.761	439.94
383.986	429.94
384.211	437.94
384.436	420.94
384.662	419.94
384.887	419.94
385.112	428.94
385.337	418.94
385.562	439.94
385.787	439.94
386.013	454.94
386.238	454.94
386.463	454.94
386.688	437.94
386.913	447.94
387.138	448.94
387.363	447.94
387.588	427.94
387.813	470.94
388.038	443.94
388.263	449.94
388.488	435.94
388.713	431.94
388.938	456.94
389.163	459.94
389.387	443.94
389.612	446.94
389.837	458.94
390.062	451.94
390.287	446.94
390.512	467.94
390.736	449.94
390.961	452.94
391.186	452.94
391.411	450.94
391.636	447.94
391.86	451.94
392.085	441.94
392.31	445.94
392.534	453.94
392.759	468.94
392.984	459.94
393.208	464.94
393.433	460.94
393.658	452.94
393.882	454.94
394.107	436.94
394.331	461.94
394.556	436.94
394.78	460.94
395.005	456.94
395.229	453.94
395.454	446.94
395.678	471.94
395.903	473.94
396.127	499.94
396.352	502.94
396.576	490.94
396.801	438.94
397.025	451.94
397.249	466.94
397.474	461.94
397.698	466.94
397.922	479.94
398.147	514.94
398.371	505.94
398.595	491.94
398.82	503.94
399.044	523.94
399.268	517.94
399.492	509.94
399.717	565.94
399.941	594.94
400.165	598.94
400.389	628.94
400.613	555.94
400.837	545.94
401.062	528.94
401.286	511.94
401.51	537.94
401.734	499.94
401.958	529.94
402.182	512.94
402.406	530.94
402.63	545.94
402.854	520.94
403.078	515.94
403.302	509.94
403.526	535.94
403.75	527.94
403.974	526.94
404.198	538.94
404.422	538.94
404.645	561.94
404.869	567.94
405.093	587.94
405.317	672.94
405.541	669.94
405.765	627.94
405.988	606.94
406.212	572.94
406.436	610.94
406.66	633.94
406.883	598.94
407.107	616.94
407.331	671.94
407.555	715.94
407.778	727.94
408.002	665.94
408.226	607.94
408.449	591.94
408.673	602.94
408.896	626.94
409.12	652.94
409.344	629.94
409.567	578.94
409.791	558.94
410.014	556.94
410.238	540.94
410.461	550.94
410.685	560.94
410.908	568.94
411.132	597.94
411.355	622.94
411.578	614.94
411.802	569.94
412.025	563.94
412.249	551.94
412.472	582.94
412.695	623.94
412.919	613.94
413.142	569.94
413.365	540.94
413.589	541.94
413.812	537.94
414.035	502.94
414.258	515.94
414.482	535.94
414.705	511.94
414.928	511.94
415.151	506.94
415.374	509.94
415.597	518.94
415.821	519.94
416.044	492.94
416.267	515.94
416.49	519.94
416.713	506.94
416.936	516.94
417.159	537.94
417.382	518.94
417.605	526.94
417.828	542.94
418.051	566.94
418.274	555.94
418.497	527.94
418.72	525.94
418.943	523.94
419.166	545.94
419.389	573.94
419.611	559.94
419.834	561.94
420.057	551.94
420.28	547.94
420.503	546.94
420.726	567.94
420.948	571.94
421.171	609.94
421.394	643.94
421.617	570.94
421.839	563.94
422.062	573.94
422.285	566.94
422.507	625.94
422.73	682.94
422.953	684.94
423.175	607.94
423.398	590.94
423.621	584.94
423.843	591.94
424.066	572.94
424.288	610.94
424.511	633.94
424.733	656.94
424.956	769.94
425.178	717.94
425.401	724.94
425.623	765.94
425.846	639.94
426.068	633.94
426.291	609.94
426.513	625.94
426.735	617.94
426.958	681.94
427.18	758.94
427.402	882.94
427.625	968.94
427.847	902.94
428.069	789.94
428.292	695.94
428.514	637.94
428.736	609.94
428.958	585.94
429.181	582.94
429.403	581.94
429.625	600.94
429.847	611.94
430.069	705.94
430.292	681.94
430.514	588.94
430.736	566.94
430.958	548.94
431.18	534.94
431.402	539.94
431.624	517.94
431.846	529.94
432.068	524.94
432.29	515.94
432.512	535.94
432.734	526.94
432.956	556.94
433.178	537.94
433.4	544.94
433.622	545.94
433.844	505.94
434.066	535.94
434.287	524.94
434.509	530.94
434.731	574.94
434.953	539.94
435.175	562.94
435.397	597.94
435.618	599.94
435.84	649.94
436.062	764.94
436.284	801.94
436.505	701.94
436.727	637.94
436.949	586.94
437.17	585.94
437.392	581.94
437.614	583.94
437.835	638.94
438.057	780.94
438.278	850.94
438.5	819.94
438.721	926.94
438.943	851.94
439.165	716.94
439.386	635.94
439.608	667.94
439.829	654.94
440.05	657.94
440.272	696.94
440.493	666.94
440.715	616.94
440.936	587.94
441.158	588.94
441.379	565.94
441.6	581.94
441.822	626.94
442.043	655.94
442.264	744.94
442.486	767.94
442.707	684.94
442.928	647.94
443.149	621.94
443.371	646.94
443.592	705.94
443.813	804.94
444.034	835.94
444.255	707.94
444.476	653.94
444.698	614.94
444.919	627.94
445.14	740.94
445.361	701.94
445.582	665.94
445.803	724.94
446.024	832.94
446.245	863.94
446.466	779.94
446.687	678.94
446.908	606.94
447.129	588.94
447.35	590.94
447.571	573.94
447.792	571.94
448.013	584.94
448.234	604.94
448.455	678.94
448.675	761.94
448.896	859.94
449.117	778.94
449.338	742.94
449.559	827.94
449.779	919.94
450	758.94
450.221	632.94
450.442	572.94
450.662	582.94
450.883	593.94
451.104	612.94
451.324	586.94
451.545	554.94
451.766	541.94
451.986	526.94
452.207	531.94
452.428	516.94
452.648	517.94
452.869	512.94
453.089	536.94
453.31	539.94
453.53	542.94
453.751	502.94
453.971	514.94
454.192	553.94
454.412	541.94
454.633	538.94
454.853	523.94
455.073	538.94
455.294	538.94
455.514	625.94
455.734	591.94
455.955	507.94
456.175	514.94
456.395	490.94
456.616	469.94
456.836	497.94
457.056	473.94
457.276	481.94
457.497	491.94
457.717	462.94
457.937	483.94
458.157	492.94
458.377	497.94
458.598	515.94
458.818	591.94
459.038	693.94
459.258	694.94
459.478	598.94
459.698	547.94
459.918	515.94
460.138	527.94
460.358	534.94
460.578	511.94
460.798	517.94
461.018	533.94
461.238	513.94
461.458	515.94
461.678	534.94
461.898	525.94
462.118	518.94
462.338	529.94
462.558	547.94
462.777	544.94
462.997	553.94
463.217	528.94
463.437	567.94
463.657	549.94
463.876	541.94
464.096	523.94
464.316	547.94
464.536	564.94
464.755	535.94
464.975	566.94
465.195	621.94
465.414	749.94
465.634	645.94
465.854	585.94
466.073	545.94
466.293	538.94
466.512	527.94
466.732	511.94
466.951	525.94
467.171	510.94
467.391	533.94
467.61	511.94
467.829	553.94
468.049	542.94
468.268	559.94
468.488	518.94
468.707	490.94
468.927	501.94
469.146	511.94
469.365	521.94
469.585	509.94
469.804	523.94
470.023	525.94
470.243	551.94
470.462	543.94
470.681	567.94
470.901	551.94
471.12	535.94
471.339	544.94
471.558	517.94
471.777	520.94
471.997	524.94
472.216	561.94
472.435	623.94
472.654	589.94
472.873	540.94
473.092	530.94
473.311	511.94
473.53	552.94
473.749	557.94
473.968	590.94
474.187	727.94
474.406	737.94
474.625	608.94
474.844	553.94
475.063	540.94
475.282	546.94
475.501	536.94
475.72	551.94
475.939	554.94
476.158	550.94
476.377	551.94
476.596	559.94
476.814	553.94
477.033	551.94
477.252	580.94
477.471	571.94
477.69	550.94
477.908	574.94
478.127	573.94
478.346	581.94
478.564	579.94
478.783	597.94
479.002	594.94
479.22	607.94
479.439	619.94
479.658	619.94
479.876	649.94
480.095	639.94
480.313	693.94
480.532	659.94
480.751	633.94
480.969	657.94
481.188	759.94
481.406	831.94
481.624	712.94
481.843	691.94
482.061	667.94
482.28	649.94
482.498	644.94
482.717	655.94
482.935	641.94
483.153	631.94
483.372	645.94
483.59	650.94
483.808	651.94
484.027	623.94
484.245	644.94
484.463	643.94
484.681	650.94
484.9	671.94
485.118	641.94
485.336	643.94
485.554	641.94
485.772	659.94
485.99	667.94
486.209	639.94
486.427	677.94
486.645	681.94
486.863	714.94
487.081	717.94
487.299	706.94
487.517	721.94
487.735	699.94
487.953	695.94
488.171	684.94
488.389	695.94
488.607	689.94
488.825	699.94
489.043	682.94
489.261	695.94
489.479	710.94
489.696	714.94
489.914	690.94
490.132	720.94
490.35	712.94
490.568	737.94
490.786	714.94
491.003	748.94
491.221	778.94
491.439	793.94
491.657	798.94
491.874	802.94
492.092	812.94
492.31	817.94
492.527	826.94
492.745	783.94
492.963	821.94
493.18	823.94
493.398	835.94
493.615	858.94
493.833	844.94
494.05	821.94
494.268	823.94
494.485	842.94
494.703	827.94
494.92	834.94
495.138	839.94
495.355	843.94
495.573	869.94
495.79	858.94
496.008	842.94
496.225	818.94
496.442	837.94
496.66	828.94
496.877	824.94
497.094	865.94
497.312	819.94
497.529	841.94
497.746	851.94
497.963	867.94
498.181	873.94
498.398	867.94
498.615	867.94
498.832	895.94
499.049	861.94
499.267	919.94
499.484	934.94
499.701	942.94
499.918	971.94
500.135	995.94
500.352	1020.94
500.569	1028.94
500.786	1039.94
501.003	1062.94
501.22	997.94
501.437	993.94
501.654	1008.94
501.871	1009.94
