Data from 1970.PennyLincolnUp.Lamp.En5.5.200Scan.071719.P1._HRD10591_15-13-26-843.txt Node
Date: Thu Jul 18 15:13:26 EDT 2019
User: cochatt
Spectrometer: HR+D1059
Trigger mode: 1
Integration Time (sec): 1.000000E-1
Scans to average: 1
Electric dark correction enabled: true
Nonlinearity correction enabled: false
Boxcar width: 0
XAxis mode: Wavelengths
Number of Pixels in Spectrum: 2048
>>>>>Begin Spectral Data<<<<<
223.165	-19.56
223.4	-19.56
223.635	-19.56
223.869	-27.56
224.104	-5.56
224.338	-9.56
224.573	-21.56
224.808	-18.56
225.042	-5.56
225.277	-1.56
225.511	-15.56
225.746	14.44
225.98	4.44
226.215	16.44
226.449	8.44
226.683	20.44
226.918	26.44
227.152	34.44
227.387	35.44
227.621	39.44
227.856	47.44
228.09	47.44
228.324	40.44
228.559	63.44
228.793	69.44
229.027	101.44
229.262	110.44
229.496	109.44
229.73	125.44
229.964	171.44
230.199	124.44
230.433	117.44
230.667	110.44
230.901	110.44
231.136	108.44
231.37	108.44
231.604	105.44
231.838	104.44
232.072	119.44
232.306	117.44
232.541	109.44
232.775	114.44
233.009	126.44
233.243	118.44
233.477	116.44
233.711	112.44
233.945	122.44
234.179	120.44
234.413	103.44
234.647	116.44
234.881	111.44
235.115	109.44
235.349	117.44
235.583	118.44
235.817	110.44
236.051	122.44
236.285	134.44
236.519	138.44
236.753	145.44
236.987	140.44
237.221	185.44
237.455	214.44
237.689	188.44
237.922	149.44
238.156	117.44
238.39	134.44
238.624	138.44
238.858	122.44
239.091	116.44
239.325	121.44
239.559	127.44
239.793	135.44
240.027	134.44
240.26	135.44
240.494	152.44
240.728	144.44
240.961	131.44
241.195	141.44
241.429	133.44
241.662	131.44
241.896	144.44
242.13	128.44
242.363	134.44
242.597	130.44
242.83	129.44
243.064	145.44
243.298	126.44
243.531	140.44
243.765	123.44
243.998	134.44
244.232	140.44
244.465	143.44
244.699	142.44
244.932	144.44
245.166	136.44
245.399	158.44
245.633	146.44
245.866	136.44
246.099	139.44
246.333	134.44
246.566	150.44
246.8	131.44
247.033	147.44
247.266	160.44
247.5	154.44
247.733	172.44
247.966	178.44
248.2	164.44
248.433	168.44
248.666	176.44
248.899	169.44
249.133	193.44
249.366	205.44
249.599	186.44
249.832	191.44
250.066	191.44
250.299	194.44
250.532	184.44
250.765	207.44
250.998	222.44
251.231	216.44
251.465	212.44
251.698	212.44
251.931	195.44
252.164	184.44
252.397	190.44
252.63	201.44
252.863	193.44
253.096	208.44
253.329	226.44
253.562	226.44
253.795	219.44
254.028	204.44
254.261	230.44
254.494	226.44
254.727	247.44
254.96	284.44
255.193	292.44
255.426	244.44
255.659	223.44
255.892	229.44
256.124	225.44
256.357	224.44
256.59	222.44
256.823	214.44
257.056	221.44
257.289	204.44
257.521	194.44
257.754	201.44
257.987	198.44
258.22	202.44
258.452	213.44
258.685	205.44
258.918	212.44
259.151	206.44
259.383	203.44
259.616	205.44
259.849	200.44
260.081	219.44
260.314	233.44
260.547	245.44
260.779	238.44
261.012	221.44
261.244	226.44
261.477	234.44
261.71	224.44
261.942	217.44
262.175	230.44
262.407	207.44
262.64	198.44
262.872	195.44
263.105	188.44
263.337	194.44
263.57	202.44
263.802	199.44
264.035	189.44
264.267	193.44
264.499	195.44
264.732	194.44
264.964	202.44
265.197	191.44
265.429	214.44
265.661	195.44
265.894	204.44
266.126	183.44
266.358	189.44
266.591	198.44
266.823	205.44
267.055	198.44
267.287	202.44
267.52	209.44
267.752	207.44
267.984	220.44
268.216	216.44
268.448	204.44
268.681	223.44
268.913	247.44
269.145	220.44
269.377	234.44
269.609	248.44
269.841	248.44
270.073	255.44
270.306	260.44
270.538	286.44
270.77	284.44
271.002	266.44
271.234	268.44
271.466	275.44
271.698	277.44
271.93	299.44
272.162	295.44
272.394	289.44
272.626	278.44
272.858	258.44
273.09	242.44
273.322	245.44
273.553	244.44
273.785	251.44
274.017	230.44
274.249	230.44
274.481	230.44
274.713	248.44
274.945	230.44
275.176	226.44
275.408	252.44
275.64	239.44
275.872	248.44
276.104	225.44
276.335	236.44
276.567	239.44
276.799	251.44
277.031	282.44
277.262	281.44
277.494	280.44
277.726	276.44
277.957	260.44
278.189	265.44
278.421	243.44
278.652	236.44
278.884	249.44
279.115	260.44
279.347	238.44
279.579	238.44
279.81	248.44
280.042	246.44
280.273	239.44
280.505	228.44
280.736	230.44
280.968	233.44
281.199	232.44
281.431	237.44
281.662	224.44
281.894	215.44
282.125	256.44
282.356	262.44
282.588	281.44
282.819	280.44
283.051	256.44
283.282	254.44
283.513	250.44
283.745	246.44
283.976	243.44
284.207	252.44
284.439	249.44
284.67	248.44
284.901	249.44
285.132	239.44
285.364	230.44
285.595	241.44
285.826	227.44
286.057	237.44
286.288	235.44
286.52	228.44
286.751	245.44
286.982	237.44
287.213	257.44
287.444	244.44
287.675	245.44
287.906	269.44
288.138	250.44
288.369	249.44
288.6	247.44
288.831	243.44
289.062	255.44
289.293	240.44
289.524	267.44
289.755	236.44
289.986	249.44
290.217	242.44
290.448	249.44
290.679	271.44
290.91	247.44
291.141	247.44
291.371	265.44
291.602	249.44
291.833	251.44
292.064	259.44
292.295	232.44
292.526	267.44
292.757	244.44
292.987	255.44
293.218	227.44
293.449	228.44
293.68	257.44
293.91	238.44
294.141	246.44
294.372	258.44
294.603	262.44
294.833	260.44
295.064	243.44
295.295	267.44
295.525	248.44
295.756	245.44
295.987	260.44
296.217	280.44
296.448	280.44
296.679	276.44
296.909	249.44
297.14	272.44
297.37	275.44
297.601	242.44
297.831	269.44
298.062	262.44
298.292	266.44
298.523	259.44
298.753	249.44
298.984	264.44
299.214	276.44
299.445	260.44
299.675	248.44
299.905	262.44
300.136	269.44
300.366	246.44
300.597	264.44
300.827	280.44
301.057	280.44
301.288	280.44
301.518	280.44
301.748	266.44
301.979	268.44
302.209	279.44
302.439	266.44
302.669	260.44
302.9	287.44
303.13	284.44
303.36	287.44
303.59	269.44
303.82	281.44
304.051	264.44
304.281	278.44
304.511	273.44
304.741	259.44
304.971	291.44
305.201	270.44
305.431	286.44
305.661	282.44
305.891	282.44
306.121	277.44
306.352	282.44
306.582	280.44
306.812	293.44
307.042	284.44
307.272	293.44
307.502	280.44
307.731	277.44
307.961	306.44
308.191	272.44
308.421	280.44
308.651	291.44
308.881	283.44
309.111	296.44
309.341	311.44
309.571	295.44
309.8	298.44
310.03	312.44
310.26	327.44
310.49	326.44
310.72	324.44
310.949	356.44
311.179	341.44
311.409	320.44
311.639	322.44
311.868	339.44
312.098	322.44
312.328	329.44
312.557	338.44
312.787	343.44
313.017	362.44
313.246	348.44
313.476	328.44
313.706	310.44
313.935	332.44
314.165	335.44
314.394	333.44
314.624	331.44
314.853	340.44
315.083	351.44
315.312	335.44
315.542	327.44
315.771	326.44
316.001	323.44
316.23	320.44
316.46	322.44
316.689	326.44
316.919	322.44
317.148	354.44
317.377	318.44
317.607	317.44
317.836	342.44
318.065	328.44
318.295	326.44
318.524	333.44
318.753	331.44
318.983	346.44
319.212	318.44
319.441	322.44
319.67	335.44
319.9	313.44
320.129	319.44
320.358	332.44
320.587	339.44
320.816	362.44
321.046	344.44
321.275	357.44
321.504	340.44
321.733	353.44
321.962	373.44
322.191	366.44
322.42	380.44
322.649	396.44
322.878	393.44
323.108	405.44
323.337	412.44
323.566	440.44
323.795	451.44
324.024	503.44
324.253	583.44
324.482	839.44
324.71	1287.44
324.939	1857.44
325.168	1553.44
325.397	866.44
325.626	576.44
325.855	505.44
326.084	452.44
326.313	448.44
326.542	426.44
326.77	485.44
326.999	566.44
327.228	751.44
327.457	1131.44
327.686	1382.44
327.914	948.44
328.143	630.44
328.372	537.44
328.6	526.44
328.829	496.44
329.058	485.44
329.287	518.44
329.515	476.44
329.744	445.44
329.972	442.44
330.201	469.44
330.43	490.44
330.658	522.44
330.887	509.44
331.115	539.44
331.344	476.44
331.572	430.44
331.801	438.44
332.03	424.44
332.258	414.44
332.486	396.44
332.715	392.44
332.943	393.44
333.172	388.44
333.4	375.44
333.629	392.44
333.857	434.44
334.085	408.44
334.314	436.44
334.542	449.44
334.771	455.44
334.999	432.44
335.227	406.44
335.455	379.44
335.684	404.44
335.912	403.44
336.14	372.44
336.369	391.44
336.597	395.44
336.825	405.44
337.053	384.44
337.281	390.44
337.51	377.44
337.738	372.44
337.966	372.44
338.194	390.44
338.422	385.44
338.65	373.44
338.878	374.44
339.106	392.44
339.334	364.44
339.562	380.44
339.79	380.44
340.018	375.44
340.246	380.44
340.474	387.44
340.702	391.44
340.93	380.44
341.158	376.44
341.386	370.44
341.614	384.44
341.842	368.44
342.07	368.44
342.298	379.44
342.526	354.44
342.754	361.44
342.981	365.44
343.209	339.44
343.437	340.44
343.665	380.44
343.893	362.44
344.12	386.44
344.348	367.44
344.576	379.44
344.804	375.44
345.031	388.44
345.259	387.44
345.487	381.44
345.714	381.44
345.942	398.44
346.17	352.44
346.397	362.44
346.625	360.44
346.853	362.44
347.08	378.44
347.308	365.44
347.535	378.44
347.763	384.44
347.99	383.44
348.218	368.44
348.445	386.44
348.673	378.44
348.9	387.44
349.128	369.44
349.355	344.44
349.583	359.44
349.81	372.44
350.037	357.44
350.265	356.44
350.492	384.44
350.72	356.44
350.947	352.44
351.174	389.44
351.402	387.44
351.629	377.44
351.856	376.44
352.083	383.44
352.311	410.44
352.538	394.44
352.765	385.44
352.992	382.44
353.22	387.44
353.447	381.44
353.674	372.44
353.901	374.44
354.128	372.44
354.355	360.44
354.583	367.44
354.81	354.44
355.037	363.44
355.264	351.44
355.491	343.44
355.718	354.44
355.945	348.44
356.172	350.44
356.399	350.44
356.626	356.44
356.853	347.44
357.08	343.44
357.307	354.44
357.534	345.44
357.761	340.44
357.988	356.44
358.215	356.44
358.441	362.44
358.668	340.44
358.895	363.44
359.122	351.44
359.349	382.44
359.576	357.44
359.802	394.44
360.029	404.44
360.256	440.44
360.483	409.44
360.709	368.44
360.936	380.44
361.163	373.44
361.39	366.44
361.616	390.44
361.843	382.44
362.07	355.44
362.296	388.44
362.523	361.44
362.749	367.44
362.976	356.44
363.203	364.44
363.429	363.44
363.656	375.44
363.882	361.44
364.109	366.44
364.335	360.44
364.562	368.44
364.788	374.44
365.015	348.44
365.241	368.44
365.468	365.44
365.694	387.44
365.92	394.44
366.147	371.44
366.373	357.44
366.599	370.44
366.826	376.44
367.052	359.44
367.278	372.44
367.505	364.44
367.731	374.44
367.957	338.44
368.184	354.44
368.41	392.44
368.636	387.44
368.862	384.44
369.089	365.44
369.315	390.44
369.541	363.44
369.767	370.44
369.993	362.44
370.219	386.44
370.445	358.44
370.672	364.44
370.898	359.44
371.124	375.44
371.35	361.44
371.576	363.44
371.802	355.44
372.028	362.44
372.254	356.44
372.48	364.44
372.706	373.44
372.932	361.44
373.158	371.44
373.384	368.44
373.61	380.44
373.835	370.44
374.061	379.44
374.287	390.44
374.513	368.44
374.739	392.44
374.965	372.44
375.191	391.44
375.416	363.44
375.642	370.44
375.868	374.44
376.094	365.44
376.319	367.44
376.545	357.44
376.771	359.44
376.997	356.44
377.222	363.44
377.448	382.44
377.674	362.44
377.899	347.44
378.125	362.44
378.35	366.44
378.576	355.44
378.802	376.44
379.027	370.44
379.253	373.44
379.478	374.44
379.704	361.44
379.929	362.44
380.155	373.44
380.38	354.44
380.606	372.44
380.831	370.44
381.057	389.44
381.282	388.44
381.507	365.44
381.733	359.44
381.958	363.44
382.184	362.44
382.409	381.44
382.634	376.44
382.86	376.44
383.085	371.44
383.31	395.44
383.535	382.44
383.761	375.44
383.986	390.44
384.211	390.44
384.436	387.44
384.662	375.44
384.887	380.44
385.112	412.44
385.337	396.44
385.562	418.44
385.787	415.44
386.013	397.44
386.238	418.44
386.463	407.44
386.688	409.44
386.913	388.44
387.138	391.44
387.363	397.44
387.588	399.44
387.813	404.44
388.038	409.44
388.263	381.44
388.488	390.44
388.713	386.44
388.938	393.44
389.163	396.44
389.387	394.44
389.612	392.44
389.837	412.44
390.062	384.44
390.287	383.44
390.512	394.44
390.736	383.44
390.961	396.44
391.186	396.44
391.411	392.44
391.636	410.44
391.86	381.44
392.085	391.44
392.31	427.44
392.534	402.44
392.759	410.44
392.984	412.44
393.208	409.44
393.433	430.44
393.658	406.44
393.882	408.44
394.107	419.44
394.331	404.44
394.556	402.44
394.78	419.44
395.005	409.44
395.229	408.44
395.454	416.44
395.678	418.44
395.903	438.44
396.127	446.44
396.352	440.44
396.576	413.44
396.801	428.44
397.025	432.44
397.249	421.44
397.474	417.44
397.698	412.44
397.922	435.44
398.147	452.44
398.371	444.44
398.595	430.44
398.82	447.44
399.044	443.44
399.268	471.44
399.492	482.44
399.717	498.44
399.941	491.44
400.165	553.44
400.389	551.44
400.613	507.44
400.837	490.44
401.062	478.44
401.286	454.44
401.51	467.44
401.734	451.44
401.958	476.44
402.182	483.44
402.406	466.44
402.63	477.44
402.854	459.44
403.078	488.44
403.302	465.44
403.526	491.44
403.75	487.44
403.974	484.44
404.198	450.44
404.422	475.44
404.645	471.44
404.869	489.44
405.093	524.44
405.317	527.44
405.541	580.44
405.765	522.44
405.988	495.44
406.212	504.44
406.436	500.44
406.66	547.44
406.883	520.44
407.107	552.44
407.331	606.44
407.555	623.44
407.778	637.44
408.002	583.44
408.226	529.44
408.449	534.44
408.673	524.44
408.896	535.44
409.12	587.44
409.344	550.44
409.567	496.44
409.791	507.44
410.014	474.44
410.238	487.44
410.461	474.44
410.685	474.44
410.908	495.44
411.132	533.44
411.355	567.44
411.578	537.44
411.802	475.44
412.025	479.44
412.249	483.44
412.472	507.44
412.695	526.44
412.919	530.44
413.142	498.44
413.365	488.44
413.589	463.44
413.812	464.44
414.035	459.44
414.258	472.44
414.482	463.44
414.705	486.44
414.928	481.44
415.151	466.44
415.374	454.44
415.597	454.44
415.821	456.44
416.044	451.44
416.267	448.44
416.49	480.44
416.713	470.44
416.936	459.44
417.159	460.44
417.382	483.44
417.605	461.44
417.828	463.44
418.051	461.44
418.274	474.44
418.497	440.44
418.72	469.44
418.943	444.44
419.166	467.44
419.389	489.44
419.611	478.44
419.834	474.44
420.057	500.44
420.28	494.44
420.503	514.44
420.726	479.44
420.948	520.44
421.171	546.44
421.394	558.44
421.617	490.44
421.839	472.44
422.062	516.44
422.285	502.44
422.507	584.44
422.73	638.44
422.953	595.44
423.175	532.44
423.398	507.44
423.621	483.44
423.843	521.44
424.066	550.44
424.288	516.44
424.511	537.44
424.733	600.44
424.956	679.44
425.178	652.44
425.401	624.44
425.623	638.44
425.846	586.44
426.068	516.44
426.291	531.44
426.513	540.44
426.735	545.44
426.958	573.44
427.18	654.44
427.402	744.44
427.625	856.44
427.847	736.44
428.069	663.44
428.292	590.44
428.514	542.44
428.736	546.44
428.958	501.44
429.181	478.44
429.403	497.44
429.625	520.44
429.847	528.44
430.069	585.44
430.292	610.44
430.514	527.44
430.736	478.44
430.958	476.44
431.18	465.44
431.402	482.44
431.624	455.44
431.846	443.44
432.068	463.44
432.29	467.44
432.512	464.44
432.734	467.44
432.956	468.44
433.178	455.44
433.4	488.44
433.622	461.44
433.844	468.44
434.066	469.44
434.287	473.44
434.509	467.44
434.731	489.44
434.953	477.44
435.175	512.44
435.397	504.44
435.618	539.44
435.84	572.44
436.062	663.44
436.284	700.44
436.505	589.44
436.727	536.44
436.949	520.44
437.17	505.44
437.392	498.44
437.614	519.44
437.835	541.44
438.057	623.44
438.278	730.44
438.5	726.44
438.721	751.44
438.943	766.44
439.165	627.44
439.386	554.44
439.608	565.44
439.829	544.44
440.05	575.44
440.272	609.44
440.493	572.44
440.715	543.44
440.936	496.44
441.158	503.44
441.379	510.44
441.6	500.44
441.822	536.44
442.043	579.44
442.264	661.44
442.486	685.44
442.707	600.44
442.928	554.44
443.149	567.44
443.371	580.44
443.592	614.44
443.813	687.44
444.034	712.44
444.255	622.44
444.476	577.44
444.698	554.44
444.919	518.44
445.14	655.44
445.361	597.44
445.582	549.44
445.803	637.44
446.024	704.44
446.245	727.44
446.466	674.44
446.687	566.44
446.908	566.44
447.129	522.44
447.35	515.44
447.571	496.44
447.792	479.44
448.013	505.44
448.234	495.44
448.455	534.44
448.675	650.44
448.896	749.44
449.117	666.44
449.338	625.44
449.559	727.44
449.779	768.44
450	653.44
450.221	558.44
450.442	496.44
450.662	487.44
450.883	491.44
451.104	531.44
451.324	514.44
451.545	471.44
451.766	455.44
451.986	463.44
452.207	448.44
452.428	437.44
452.648	429.44
452.869	452.44
453.089	448.44
453.31	453.44
453.53	452.44
453.751	459.44
453.971	438.44
454.192	470.44
454.412	471.44
454.633	439.44
454.853	445.44
455.073	451.44
455.294	471.44
455.514	550.44
455.734	520.44
455.955	436.44
456.175	440.44
456.395	412.44
456.616	409.44
456.836	435.44
457.056	418.44
457.276	409.44
457.497	410.44
457.717	401.44
457.937	416.44
458.157	443.44
458.377	429.44
458.598	469.44
458.818	512.44
459.038	573.44
459.258	574.44
459.478	527.44
459.698	470.44
459.918	470.44
460.138	454.44
460.358	473.44
460.578	462.44
460.798	454.44
461.018	470.44
461.238	453.44
461.458	459.44
461.678	462.44
461.898	471.44
462.118	471.44
462.338	449.44
462.558	460.44
462.777	477.44
462.997	502.44
463.217	494.44
463.437	491.44
463.657	474.44
463.876	504.44
464.096	494.44
464.316	476.44
464.536	494.44
464.755	490.44
464.975	507.44
465.195	550.44
465.414	604.44
465.634	555.44
465.854	489.44
466.073	480.44
466.293	455.44
466.512	463.44
466.732	467.44
466.951	464.44
467.171	439.44
467.391	446.44
467.61	437.44
467.829	475.44
468.049	465.44
468.268	465.44
468.488	453.44
468.707	470.44
468.927	453.44
469.146	447.44
469.365	430.44
469.585	434.44
469.804	452.44
470.023	455.44
470.243	450.44
470.462	458.44
470.681	476.44
470.901	483.44
471.12	475.44
471.339	478.44
471.558	468.44
471.777	470.44
471.997	456.44
472.216	446.44
472.435	483.44
472.654	470.44
472.873	473.44
473.092	475.44
473.311	461.44
473.53	471.44
473.749	475.44
473.968	494.44
474.187	597.44
474.406	613.44
474.625	535.44
474.844	509.44
475.063	447.44
475.282	480.44
475.501	482.44
475.72	462.44
475.939	471.44
476.158	473.44
476.377	460.44
476.596	465.44
476.814	501.44
477.033	505.44
477.252	511.44
477.471	487.44
477.69	515.44
477.908	502.44
478.127	504.44
478.346	508.44
478.564	488.44
478.783	532.44
479.002	499.44
479.22	543.44
479.439	554.44
479.658	547.44
479.876	565.44
480.095	573.44
480.313	582.44
480.532	573.44
480.751	578.44
480.969	581.44
481.188	618.44
481.406	647.44
481.624	598.44
481.843	560.44
482.061	562.44
482.28	552.44
482.498	548.44
482.717	562.44
482.935	536.44
483.153	555.44
483.372	573.44
483.59	558.44
483.808	556.44
484.027	526.44
484.245	581.44
484.463	554.44
484.681	550.44
484.9	562.44
485.118	564.44
485.336	563.44
485.554	579.44
485.772	573.44
485.99	575.44
486.209	566.44
486.427	585.44
486.645	574.44
486.863	635.44
487.081	604.44
487.299	619.44
487.517	591.44
487.735	586.44
487.953	595.44
488.171	591.44
488.389	591.44
488.607	628.44
488.825	626.44
489.043	601.44
489.261	628.44
489.479	608.44
489.696	616.44
489.914	627.44
490.132	646.44
490.35	629.44
490.568	644.44
490.786	652.44
491.003	644.44
491.221	659.44
491.439	685.44
491.657	678.44
491.874	704.44
492.092	694.44
492.31	708.44
492.527	724.44
492.745	685.44
492.963	704.44
493.18	715.44
493.398	739.44
493.615	731.44
493.833	715.44
494.05	730.44
494.268	710.44
494.485	701.44
494.703	720.44
494.92	723.44
495.138	725.44
495.355	743.44
495.573	733.44
495.79	729.44
496.008	705.44
496.225	715.44
496.442	715.44
496.66	739.44
496.877	745.44
497.094	748.44
497.312	714.44
497.529	742.44
497.746	713.44
497.963	742.44
498.181	767.44
498.398	772.44
498.615	809.44
498.832	797.44
499.049	793.44
499.267	810.44
499.484	830.44
499.701	834.44
499.918	883.44
500.135	873.44
500.352	882.44
500.569	911.44
500.786	916.44
501.003	913.44
501.22	894.44
501.437	902.44
501.654	876.44
501.871	885.44
