Data from 1970.PennyLincolnUp.Lamp.En5.5.200Scan.071719.P1._HRD10591_15-14-49-842.txt Node
Date: Thu Jul 18 15:14:49 EDT 2019
User: cochatt
Spectrometer: HR+D1059
Trigger mode: 1
Integration Time (sec): 1.000000E-1
Scans to average: 1
Electric dark correction enabled: true
Nonlinearity correction enabled: false
Boxcar width: 0
XAxis mode: Wavelengths
Number of Pixels in Spectrum: 2048
>>>>>Begin Spectral Data<<<<<
223.165	-17.75
223.4	-17.75
223.635	-17.75
223.869	-6.75
224.104	-11.75
224.338	-2.75
224.573	-20.75
224.808	-11.75
225.042	-7.75
225.277	-3.75
225.511	-17.75
225.746	10.25
225.98	4.25
226.215	4.25
226.449	8.25
226.683	23.25
226.918	18.25
227.152	32.25
227.387	32.25
227.621	46.25
227.856	39.25
228.09	38.25
228.324	39.25
228.559	52.25
228.793	66.25
229.027	103.25
229.262	116.25
229.496	129.25
229.73	147.25
229.964	166.25
230.199	142.25
230.433	139.25
230.667	131.25
230.901	129.25
231.136	104.25
231.37	125.25
231.604	127.25
231.838	120.25
232.072	121.25
232.306	109.25
232.541	97.25
232.775	120.25
233.009	122.25
233.243	119.25
233.477	115.25
233.711	112.25
233.945	130.25
234.179	130.25
234.413	111.25
234.647	112.25
234.881	118.25
235.115	119.25
235.349	136.25
235.583	123.25
235.817	137.25
236.051	140.25
236.285	142.25
236.519	112.25
236.753	135.25
236.987	164.25
237.221	194.25
237.455	240.25
237.689	210.25
237.922	148.25
238.156	140.25
238.39	146.25
238.624	133.25
238.858	138.25
239.091	127.25
239.325	131.25
239.559	133.25
239.793	134.25
240.027	136.25
240.26	156.25
240.494	177.25
240.728	170.25
240.961	170.25
241.195	147.25
241.429	147.25
241.662	152.25
241.896	146.25
242.13	148.25
242.363	131.25
242.597	145.25
242.83	130.25
243.064	150.25
243.298	158.25
243.531	150.25
243.765	145.25
243.998	150.25
244.232	141.25
244.465	159.25
244.699	161.25
244.932	165.25
245.166	150.25
245.399	151.25
245.633	157.25
245.866	156.25
246.099	141.25
246.333	139.25
246.566	160.25
246.8	166.25
247.033	168.25
247.266	176.25
247.5	169.25
247.733	174.25
247.966	202.25
248.2	188.25
248.433	184.25
248.666	183.25
248.899	205.25
249.133	214.25
249.366	227.25
249.599	225.25
249.832	207.25
250.066	200.25
250.299	206.25
250.532	214.25
250.765	222.25
250.998	225.25
251.231	254.25
251.465	241.25
251.698	222.25
251.931	221.25
252.164	214.25
252.397	233.25
252.63	223.25
252.863	234.25
253.096	246.25
253.329	254.25
253.562	269.25
253.795	244.25
254.028	235.25
254.261	251.25
254.494	269.25
254.727	288.25
254.96	303.25
255.193	308.25
255.426	282.25
255.659	258.25
255.892	280.25
256.124	265.25
256.357	271.25
256.59	271.25
256.823	252.25
257.056	224.25
257.289	219.25
257.521	255.25
257.754	242.25
257.987	203.25
258.22	228.25
258.452	235.25
258.685	219.25
258.918	233.25
259.151	247.25
259.383	251.25
259.616	228.25
259.849	254.25
260.081	255.25
260.314	285.25
260.547	287.25
260.779	277.25
261.012	273.25
261.244	252.25
261.477	251.25
261.71	226.25
261.942	237.25
262.175	244.25
262.407	264.25
262.64	241.25
262.872	218.25
263.105	218.25
263.337	229.25
263.57	219.25
263.802	232.25
264.035	223.25
264.267	241.25
264.499	229.25
264.732	212.25
264.964	231.25
265.197	239.25
265.429	220.25
265.661	232.25
265.894	232.25
266.126	223.25
266.358	231.25
266.591	221.25
266.823	230.25
267.055	230.25
267.287	233.25
267.52	227.25
267.752	218.25
267.984	248.25
268.216	232.25
268.448	233.25
268.681	237.25
268.913	257.25
269.145	262.25
269.377	284.25
269.609	296.25
269.841	279.25
270.073	312.25
270.306	318.25
270.538	344.25
270.77	342.25
271.002	324.25
271.234	334.25
271.466	308.25
271.698	326.25
271.93	335.25
272.162	338.25
272.394	327.25
272.626	331.25
272.858	314.25
273.09	296.25
273.322	300.25
273.553	271.25
273.785	284.25
274.017	297.25
274.249	276.25
274.481	302.25
274.713	260.25
274.945	280.25
275.176	272.25
275.408	274.25
275.64	260.25
275.872	258.25
276.104	262.25
276.335	277.25
276.567	269.25
276.799	297.25
277.031	318.25
277.262	340.25
277.494	340.25
277.726	345.25
277.957	280.25
278.189	282.25
278.421	280.25
278.652	279.25
278.884	282.25
279.115	275.25
279.347	294.25
279.579	262.25
279.81	273.25
280.042	275.25
280.273	271.25
280.505	277.25
280.736	266.25
280.968	274.25
281.199	256.25
281.431	267.25
281.662	259.25
281.894	278.25
282.125	289.25
282.356	279.25
282.588	310.25
282.819	294.25
283.051	279.25
283.282	268.25
283.513	288.25
283.745	259.25
283.976	271.25
284.207	292.25
284.439	275.25
284.67	278.25
284.901	283.25
285.132	269.25
285.364	269.25
285.595	284.25
285.826	280.25
286.057	279.25
286.288	285.25
286.52	293.25
286.751	276.25
286.982	272.25
287.213	287.25
287.444	247.25
287.675	297.25
287.906	286.25
288.138	300.25
288.369	322.25
288.6	303.25
288.831	299.25
289.062	309.25
289.293	296.25
289.524	295.25
289.755	287.25
289.986	290.25
290.217	273.25
290.448	296.25
290.679	258.25
290.91	282.25
291.141	282.25
291.371	272.25
291.602	281.25
291.833	269.25
292.064	282.25
292.295	285.25
292.526	302.25
292.757	270.25
292.987	278.25
293.218	286.25
293.449	278.25
293.68	303.25
293.91	285.25
294.141	278.25
294.372	301.25
294.603	275.25
294.833	279.25
295.064	275.25
295.295	301.25
295.525	298.25
295.756	301.25
295.987	302.25
296.217	321.25
296.448	332.25
296.679	318.25
296.909	293.25
297.14	291.25
297.37	285.25
297.601	301.25
297.831	282.25
298.062	297.25
298.292	281.25
298.523	290.25
298.753	314.25
298.984	300.25
299.214	306.25
299.445	308.25
299.675	304.25
299.905	299.25
300.136	314.25
300.366	310.25
300.597	329.25
300.827	309.25
301.057	306.25
301.288	317.25
301.518	308.25
301.748	318.25
301.979	298.25
302.209	324.25
302.439	317.25
302.669	314.25
302.9	326.25
303.13	296.25
303.36	326.25
303.59	319.25
303.82	347.25
304.051	347.25
304.281	334.25
304.511	310.25
304.741	312.25
304.971	311.25
305.201	321.25
305.431	308.25
305.661	321.25
305.891	326.25
306.121	333.25
306.352	328.25
306.582	340.25
306.812	341.25
307.042	337.25
307.272	335.25
307.502	353.25
307.731	340.25
307.961	321.25
308.191	342.25
308.421	342.25
308.651	357.25
308.881	336.25
309.111	343.25
309.341	342.25
309.571	358.25
309.8	381.25
310.03	384.25
310.26	392.25
310.49	367.25
310.72	394.25
310.949	417.25
311.179	416.25
311.409	394.25
311.639	384.25
311.868	373.25
312.098	397.25
312.328	397.25
312.557	413.25
312.787	442.25
313.017	421.25
313.246	394.25
313.476	378.25
313.706	399.25
313.935	378.25
314.165	397.25
314.394	396.25
314.624	413.25
314.853	410.25
315.083	379.25
315.312	382.25
315.542	391.25
315.771	399.25
316.001	367.25
316.23	385.25
316.46	391.25
316.689	368.25
316.919	386.25
317.148	424.25
317.377	383.25
317.607	401.25
317.836	386.25
318.065	395.25
318.295	388.25
318.524	380.25
318.753	399.25
318.983	387.25
319.212	383.25
319.441	386.25
319.67	404.25
319.9	390.25
320.129	373.25
320.358	393.25
320.587	400.25
320.816	387.25
321.046	394.25
321.275	416.25
321.504	409.25
321.733	412.25
321.962	442.25
322.191	427.25
322.42	464.25
322.649	459.25
322.878	479.25
323.108	499.25
323.337	526.25
323.566	528.25
323.795	575.25
324.024	632.25
324.253	791.25
324.482	1110.25
324.71	1665.25
324.939	2386.25
325.168	2064.25
325.397	1148.25
325.626	752.25
325.855	633.25
326.084	571.25
326.313	552.25
326.542	554.25
326.77	603.25
326.999	694.25
327.228	998.25
327.457	1486.25
327.686	1769.25
327.914	1251.25
328.143	819.25
328.372	707.25
328.6	659.25
328.829	615.25
329.058	632.25
329.287	651.25
329.515	597.25
329.744	558.25
329.972	563.25
330.201	600.25
330.43	634.25
330.658	638.25
330.887	676.25
331.115	666.25
331.344	570.25
331.572	536.25
331.801	546.25
332.03	522.25
332.258	522.25
332.486	502.25
332.715	475.25
332.943	459.25
333.172	479.25
333.4	462.25
333.629	468.25
333.857	506.25
334.085	512.25
334.314	516.25
334.542	554.25
334.771	553.25
334.999	520.25
335.227	485.25
335.455	457.25
335.684	459.25
335.912	445.25
336.14	453.25
336.369	470.25
336.597	440.25
336.825	478.25
337.053	468.25
337.281	449.25
337.51	445.25
337.738	429.25
337.966	446.25
338.194	456.25
338.422	459.25
338.65	437.25
338.878	452.25
339.106	452.25
339.334	440.25
339.562	434.25
339.79	448.25
340.018	434.25
340.246	454.25
340.474	456.25
340.702	438.25
340.93	430.25
341.158	442.25
341.386	429.25
341.614	442.25
341.842	426.25
342.07	439.25
342.298	448.25
342.526	422.25
342.754	424.25
342.981	438.25
343.209	417.25
343.437	422.25
343.665	440.25
343.893	432.25
344.12	453.25
344.348	431.25
344.576	439.25
344.804	439.25
345.031	458.25
345.259	466.25
345.487	447.25
345.714	443.25
345.942	434.25
346.17	423.25
346.397	415.25
346.625	430.25
346.853	436.25
347.08	431.25
347.308	448.25
347.535	438.25
347.763	443.25
347.99	442.25
348.218	446.25
348.445	451.25
348.673	458.25
348.9	456.25
349.128	433.25
349.355	416.25
349.583	414.25
349.81	421.25
350.037	404.25
350.265	421.25
350.492	416.25
350.72	437.25
350.947	439.25
351.174	434.25
351.402	446.25
351.629	448.25
351.856	446.25
352.083	458.25
352.311	465.25
352.538	463.25
352.765	472.25
352.992	455.25
353.22	461.25
353.447	441.25
353.674	435.25
353.901	400.25
354.128	408.25
354.355	403.25
354.583	404.25
354.81	419.25
355.037	407.25
355.264	409.25
355.491	416.25
355.718	404.25
355.945	403.25
356.172	417.25
356.399	395.25
356.626	409.25
356.853	406.25
357.08	392.25
357.307	403.25
357.534	400.25
357.761	404.25
357.988	411.25
358.215	419.25
358.441	395.25
358.668	405.25
358.895	428.25
359.122	410.25
359.349	431.25
359.576	448.25
359.802	461.25
360.029	523.25
360.256	510.25
360.483	494.25
360.709	462.25
360.936	456.25
361.163	463.25
361.39	462.25
361.616	452.25
361.843	443.25
362.07	436.25
362.296	460.25
362.523	454.25
362.749	447.25
362.976	420.25
363.203	442.25
363.429	414.25
363.656	436.25
363.882	431.25
364.109	429.25
364.335	411.25
364.562	424.25
364.788	399.25
365.015	417.25
365.241	422.25
365.468	424.25
365.694	422.25
365.92	423.25
366.147	437.25
366.373	417.25
366.599	436.25
366.826	424.25
367.052	423.25
367.278	419.25
367.505	434.25
367.731	427.25
367.957	406.25
368.184	416.25
368.41	421.25
368.636	422.25
368.862	430.25
369.089	419.25
369.315	418.25
369.541	415.25
369.767	434.25
369.993	419.25
370.219	414.25
370.445	432.25
370.672	416.25
370.898	426.25
371.124	416.25
371.35	414.25
371.576	418.25
371.802	407.25
372.028	405.25
372.254	418.25
372.48	400.25
372.706	421.25
372.932	438.25
373.158	434.25
373.384	409.25
373.61	424.25
373.835	420.25
374.061	407.25
374.287	448.25
374.513	445.25
374.739	449.25
374.965	441.25
375.191	438.25
375.416	427.25
375.642	423.25
375.868	405.25
376.094	436.25
376.319	401.25
376.545	422.25
376.771	423.25
376.997	409.25
377.222	423.25
377.448	408.25
377.674	396.25
377.899	399.25
378.125	414.25
378.35	432.25
378.576	400.25
378.802	421.25
379.027	426.25
379.253	441.25
379.478	398.25
379.704	411.25
379.929	414.25
380.155	410.25
380.38	405.25
380.606	425.25
380.831	425.25
381.057	450.25
381.282	433.25
381.507	402.25
381.733	438.25
381.958	448.25
382.184	422.25
382.409	427.25
382.634	430.25
382.86	423.25
383.085	427.25
383.31	425.25
383.535	420.25
383.761	441.25
383.986	418.25
384.211	442.25
384.436	433.25
384.662	460.25
384.887	430.25
385.112	426.25
385.337	416.25
385.562	460.25
385.787	429.25
386.013	462.25
386.238	455.25
386.463	462.25
386.688	464.25
386.913	432.25
387.138	454.25
387.363	443.25
387.588	448.25
387.813	468.25
388.038	447.25
388.263	443.25
388.488	438.25
388.713	460.25
388.938	481.25
389.163	466.25
389.387	462.25
389.612	444.25
389.837	447.25
390.062	469.25
390.287	459.25
390.512	448.25
390.736	460.25
390.961	446.25
391.186	445.25
391.411	436.25
391.636	442.25
391.86	453.25
392.085	453.25
392.31	464.25
392.534	465.25
392.759	454.25
392.984	452.25
393.208	456.25
393.433	457.25
393.658	475.25
393.882	462.25
394.107	470.25
394.331	451.25
394.556	430.25
394.78	460.25
395.005	462.25
395.229	451.25
395.454	475.25
395.678	479.25
395.903	444.25
396.127	524.25
396.352	492.25
396.576	466.25
396.801	484.25
397.025	468.25
397.249	473.25
397.474	497.25
397.698	495.25
397.922	494.25
398.147	511.25
398.371	528.25
398.595	493.25
398.82	506.25
399.044	512.25
399.268	518.25
399.492	535.25
399.717	570.25
399.941	604.25
400.165	611.25
400.389	618.25
400.613	576.25
400.837	547.25
401.062	528.25
401.286	531.25
401.51	520.25
401.734	505.25
401.958	518.25
402.182	512.25
402.406	533.25
402.63	530.25
402.854	537.25
403.078	531.25
403.302	550.25
403.526	522.25
403.75	553.25
403.974	543.25
404.198	549.25
404.422	553.25
404.645	574.25
404.869	552.25
405.093	581.25
405.317	655.25
405.541	663.25
405.765	632.25
405.988	588.25
406.212	610.25
406.436	607.25
406.66	628.25
406.883	614.25
407.107	621.25
407.331	654.25
407.555	708.25
407.778	719.25
408.002	648.25
408.226	634.25
408.449	619.25
408.673	630.25
408.896	638.25
409.12	637.25
409.344	639.25
409.567	588.25
409.791	568.25
410.014	546.25
410.238	558.25
410.461	558.25
410.685	573.25
410.908	563.25
411.132	618.25
411.355	619.25
411.578	641.25
411.802	584.25
412.025	546.25
412.249	571.25
412.472	585.25
412.695	638.25
412.919	607.25
413.142	559.25
413.365	563.25
413.589	543.25
413.812	515.25
414.035	494.25
414.258	523.25
414.482	528.25
414.705	510.25
414.928	510.25
415.151	514.25
415.374	510.25
415.597	487.25
415.821	516.25
416.044	520.25
416.267	525.25
416.49	524.25
416.713	499.25
416.936	524.25
417.159	530.25
417.382	505.25
417.605	534.25
417.828	549.25
418.051	553.25
418.274	547.25
418.497	525.25
418.72	521.25
418.943	519.25
419.166	551.25
419.389	595.25
419.611	569.25
419.834	550.25
420.057	568.25
420.28	556.25
420.503	558.25
420.726	551.25
420.948	572.25
421.171	601.25
421.394	642.25
421.617	576.25
421.839	573.25
422.062	543.25
422.285	564.25
422.507	640.25
422.73	717.25
422.953	692.25
423.175	624.25
423.398	589.25
423.621	586.25
423.843	602.25
424.066	616.25
424.288	607.25
424.511	601.25
424.733	676.25
424.956	767.25
425.178	740.25
425.401	745.25
425.623	729.25
425.846	670.25
426.068	647.25
426.291	601.25
426.513	613.25
426.735	646.25
426.958	675.25
427.18	748.25
427.402	898.25
427.625	971.25
427.847	874.25
428.069	769.25
428.292	700.25
428.514	627.25
428.736	620.25
428.958	601.25
429.181	555.25
429.403	575.25
429.625	578.25
429.847	610.25
430.069	687.25
430.292	690.25
430.514	603.25
430.736	568.25
430.958	568.25
431.18	551.25
431.402	525.25
431.624	543.25
431.846	543.25
432.068	524.25
432.29	524.25
432.512	556.25
432.734	569.25
432.956	555.25
433.178	556.25
433.4	588.25
433.622	534.25
433.844	541.25
434.066	516.25
434.287	522.25
434.509	533.25
434.731	540.25
434.953	548.25
435.175	557.25
435.397	614.25
435.618	613.25
435.84	655.25
436.062	764.25
436.284	827.25
436.505	713.25
436.727	664.25
436.949	610.25
437.17	588.25
437.392	574.25
437.614	591.25
437.835	634.25
438.057	748.25
438.278	849.25
438.5	852.25
438.721	872.25
438.943	842.25
439.165	721.25
439.386	639.25
439.608	649.25
439.829	659.25
440.05	642.25
440.272	717.25
440.493	692.25
440.715	636.25
440.936	581.25
441.158	600.25
441.379	579.25
441.6	607.25
441.822	637.25
442.043	672.25
442.264	760.25
442.486	790.25
442.707	669.25
442.928	630.25
443.149	618.25
443.371	672.25
443.592	701.25
443.813	794.25
444.034	863.25
444.255	716.25
444.476	636.25
444.698	622.25
444.919	620.25
445.14	687.25
445.361	661.25
445.582	666.25
445.803	710.25
446.024	833.25
446.245	833.25
446.466	789.25
446.687	680.25
446.908	618.25
447.129	587.25
447.35	568.25
447.571	587.25
447.792	560.25
448.013	588.25
448.234	606.25
448.455	670.25
448.675	778.25
448.896	858.25
449.117	748.25
449.338	720.25
449.559	846.25
449.779	918.25
450	762.25
450.221	647.25
450.442	604.25
450.662	578.25
450.883	601.25
451.104	576.25
451.324	605.25
451.545	548.25
451.766	533.25
451.986	541.25
452.207	536.25
452.428	530.25
452.648	536.25
452.869	509.25
453.089	540.25
453.31	560.25
453.53	549.25
453.751	522.25
453.971	532.25
454.192	568.25
454.412	524.25
454.633	530.25
454.853	498.25
455.073	513.25
455.294	566.25
455.514	612.25
455.734	608.25
455.955	526.25
456.175	522.25
456.395	484.25
456.616	450.25
456.836	502.25
457.056	496.25
457.276	462.25
457.497	454.25
457.717	474.25
457.937	488.25
458.157	481.25
458.377	486.25
458.598	547.25
458.818	580.25
459.038	687.25
459.258	711.25
459.478	578.25
459.698	543.25
459.918	535.25
460.138	522.25
460.358	552.25
460.578	535.25
460.798	531.25
461.018	526.25
461.238	514.25
461.458	502.25
461.678	521.25
461.898	522.25
462.118	538.25
462.338	539.25
462.558	534.25
462.777	534.25
462.997	547.25
463.217	534.25
463.437	579.25
463.657	554.25
463.876	555.25
464.096	545.25
464.316	563.25
464.536	580.25
464.755	593.25
464.975	590.25
465.195	617.25
465.414	735.25
465.634	664.25
465.854	576.25
466.073	554.25
466.293	554.25
466.512	537.25
466.732	493.25
466.951	547.25
467.171	533.25
467.391	523.25
467.61	544.25
467.829	566.25
468.049	532.25
468.268	546.25
468.488	548.25
468.707	521.25
468.927	527.25
469.146	514.25
469.365	506.25
469.585	504.25
469.804	516.25
470.023	558.25
470.243	539.25
470.462	550.25
470.681	588.25
470.901	581.25
471.12	557.25
471.339	549.25
471.558	541.25
471.777	548.25
471.997	526.25
472.216	568.25
472.435	596.25
472.654	566.25
472.873	516.25
473.092	530.25
473.311	521.25
473.53	542.25
473.749	546.25
473.968	605.25
474.187	706.25
474.406	710.25
474.625	613.25
474.844	552.25
475.063	542.25
475.282	546.25
475.501	527.25
475.72	538.25
475.939	536.25
476.158	547.25
476.377	555.25
476.596	558.25
476.814	551.25
477.033	574.25
477.252	569.25
477.471	549.25
477.69	583.25
477.908	564.25
478.127	576.25
478.346	573.25
478.564	591.25
478.783	586.25
479.002	607.25
479.22	594.25
479.439	612.25
479.658	640.25
479.876	666.25
480.095	655.25
480.313	667.25
480.532	656.25
480.751	675.25
480.969	684.25
481.188	748.25
481.406	796.25
481.624	700.25
481.843	692.25
482.061	661.25
482.28	638.25
482.498	644.25
482.717	629.25
482.935	645.25
483.153	660.25
483.372	654.25
483.59	643.25
483.808	649.25
484.027	638.25
484.245	622.25
484.463	655.25
484.681	663.25
484.9	654.25
485.118	662.25
485.336	656.25
485.554	664.25
485.772	684.25
485.99	667.25
486.209	662.25
486.427	671.25
486.645	676.25
486.863	718.25
487.081	704.25
487.299	708.25
487.517	683.25
487.735	699.25
487.953	692.25
488.171	690.25
488.389	696.25
488.607	701.25
488.825	709.25
489.043	714.25
489.261	708.25
489.479	731.25
489.696	721.25
489.914	727.25
490.132	726.25
490.35	716.25
490.568	732.25
490.786	761.25
491.003	792.25
491.221	776.25
491.439	764.25
491.657	792.25
491.874	834.25
492.092	784.25
492.31	802.25
492.527	862.25
492.745	824.25
492.963	818.25
493.18	825.25
493.398	811.25
493.615	848.25
493.833	838.25
494.05	835.25
494.268	855.25
494.485	838.25
494.703	832.25
494.92	867.25
495.138	861.25
495.355	871.25
495.573	847.25
495.79	840.25
496.008	843.25
496.225	838.25
496.442	849.25
496.66	820.25
496.877	819.25
497.094	831.25
497.312	813.25
497.529	858.25
497.746	863.25
497.963	865.25
498.181	894.25
498.398	877.25
498.615	886.25
498.832	904.25
499.049	905.25
499.267	907.25
499.484	933.25
499.701	949.25
499.918	956.25
500.135	1005.25
500.352	1026.25
500.569	1013.25
500.786	1062.25
501.003	1034.25
501.22	1049.25
501.437	995.25
501.654	998.25
501.871	1010.25
