Data from 1970.PennyLincolnUp.Lamp.En5.5.200Scan.071719.P1._HRD10591_15-14-37-842.txt Node
Date: Thu Jul 18 15:14:37 EDT 2019
User: cochatt
Spectrometer: HR+D1059
Trigger mode: 1
Integration Time (sec): 1.000000E-1
Scans to average: 1
Electric dark correction enabled: true
Nonlinearity correction enabled: false
Boxcar width: 0
XAxis mode: Wavelengths
Number of Pixels in Spectrum: 2048
>>>>>Begin Spectral Data<<<<<
223.165	-29.06
223.4	-29.06
223.635	-29.06
223.869	-28.06
224.104	-13.06
224.338	-30.06
224.573	-8.06
224.808	-12.06
225.042	-1.06
225.277	0.94
225.511	6.94
225.746	-8.06
225.98	12.94
226.215	10.94
226.449	24.94
226.683	15.94
226.918	15.94
227.152	40.94
227.387	28.94
227.621	35.94
227.856	55.94
228.09	23.94
228.324	43.94
228.559	59.94
228.793	76.94
229.027	96.94
229.262	104.94
229.496	109.94
229.73	151.94
229.964	162.94
230.199	126.94
230.433	127.94
230.667	131.94
230.901	124.94
231.136	109.94
231.37	121.94
231.604	102.94
231.838	104.94
232.072	120.94
232.306	105.94
232.541	112.94
232.775	135.94
233.009	101.94
233.243	109.94
233.477	123.94
233.711	121.94
233.945	120.94
234.179	124.94
234.413	129.94
234.647	134.94
234.881	115.94
235.115	116.94
235.349	137.94
235.583	124.94
235.817	108.94
236.051	130.94
236.285	126.94
236.519	123.94
236.753	126.94
236.987	139.94
237.221	187.94
237.455	231.94
237.689	202.94
237.922	139.94
238.156	131.94
238.39	141.94
238.624	130.94
238.858	128.94
239.091	125.94
239.325	123.94
239.559	128.94
239.793	124.94
240.027	134.94
240.26	155.94
240.494	169.94
240.728	159.94
240.961	152.94
241.195	159.94
241.429	138.94
241.662	144.94
241.896	147.94
242.13	134.94
242.363	134.94
242.597	127.94
242.83	139.94
243.064	158.94
243.298	150.94
243.531	142.94
243.765	151.94
243.998	126.94
244.232	152.94
244.465	134.94
244.699	149.94
244.932	153.94
245.166	160.94
245.399	149.94
245.633	150.94
245.866	137.94
246.099	148.94
246.333	158.94
246.566	161.94
246.8	160.94
247.033	158.94
247.266	152.94
247.5	178.94
247.733	173.94
247.966	183.94
248.2	176.94
248.433	185.94
248.666	180.94
248.899	200.94
249.133	202.94
249.366	215.94
249.599	226.94
249.832	203.94
250.066	188.94
250.299	183.94
250.532	183.94
250.765	218.94
250.998	234.94
251.231	249.94
251.465	222.94
251.698	224.94
251.931	222.94
252.164	208.94
252.397	201.94
252.63	206.94
252.863	223.94
253.096	238.94
253.329	260.94
253.562	243.94
253.795	239.94
254.028	243.94
254.261	237.94
254.494	232.94
254.727	271.94
254.96	292.94
255.193	292.94
255.426	262.94
255.659	260.94
255.892	250.94
256.124	243.94
256.357	246.94
256.59	247.94
256.823	237.94
257.056	220.94
257.289	216.94
257.521	214.94
257.754	212.94
257.987	211.94
258.22	195.94
258.452	212.94
258.685	215.94
258.918	211.94
259.151	222.94
259.383	220.94
259.616	241.94
259.849	234.94
260.081	244.94
260.314	244.94
260.547	268.94
260.779	272.94
261.012	245.94
261.244	226.94
261.477	235.94
261.71	223.94
261.942	234.94
262.175	248.94
262.407	242.94
262.64	214.94
262.872	216.94
263.105	202.94
263.337	214.94
263.57	216.94
263.802	203.94
264.035	214.94
264.267	228.94
264.499	207.94
264.732	205.94
264.964	206.94
265.197	211.94
265.429	198.94
265.661	209.94
265.894	212.94
266.126	229.94
266.358	219.94
266.591	196.94
266.823	222.94
267.055	235.94
267.287	225.94
267.52	231.94
267.752	215.94
267.984	205.94
268.216	225.94
268.448	246.94
268.681	228.94
268.913	249.94
269.145	248.94
269.377	280.94
269.609	263.94
269.841	259.94
270.073	283.94
270.306	282.94
270.538	320.94
270.77	319.94
271.002	301.94
271.234	277.94
271.466	294.94
271.698	330.94
271.93	308.94
272.162	327.94
272.394	311.94
272.626	289.94
272.858	293.94
273.09	291.94
273.322	275.94
273.553	256.94
273.785	263.94
274.017	250.94
274.249	264.94
274.481	240.94
274.713	255.94
274.945	272.94
275.176	270.94
275.408	255.94
275.64	246.94
275.872	251.94
276.104	258.94
276.335	254.94
276.567	262.94
276.799	284.94
277.031	306.94
277.262	306.94
277.494	323.94
277.726	291.94
277.957	282.94
278.189	270.94
278.421	277.94
278.652	260.94
278.884	256.94
279.115	246.94
279.347	244.94
279.579	256.94
279.81	259.94
280.042	254.94
280.273	262.94
280.505	254.94
280.736	250.94
280.968	243.94
281.199	248.94
281.431	247.94
281.662	253.94
281.894	242.94
282.125	239.94
282.356	262.94
282.588	298.94
282.819	301.94
283.051	275.94
283.282	246.94
283.513	260.94
283.745	268.94
283.976	250.94
284.207	251.94
284.439	263.94
284.67	247.94
284.901	254.94
285.132	250.94
285.364	236.94
285.595	240.94
285.826	239.94
286.057	247.94
286.288	246.94
286.52	236.94
286.751	256.94
286.982	244.94
287.213	261.94
287.444	261.94
287.675	261.94
287.906	276.94
288.138	277.94
288.369	267.94
288.6	270.94
288.831	280.94
289.062	278.94
289.293	277.94
289.524	267.94
289.755	262.94
289.986	266.94
290.217	267.94
290.448	257.94
290.679	258.94
290.91	272.94
291.141	246.94
291.371	262.94
291.602	258.94
291.833	270.94
292.064	244.94
292.295	267.94
292.526	262.94
292.757	266.94
292.987	262.94
293.218	254.94
293.449	271.94
293.68	265.94
293.91	259.94
294.141	272.94
294.372	263.94
294.603	265.94
294.833	272.94
295.064	253.94
295.295	260.94
295.525	262.94
295.756	256.94
295.987	280.94
296.217	292.94
296.448	304.94
296.679	287.94
296.909	260.94
297.14	277.94
297.37	278.94
297.601	276.94
297.831	273.94
298.062	268.94
298.292	271.94
298.523	268.94
298.753	279.94
298.984	278.94
299.214	290.94
299.445	272.94
299.675	270.94
299.905	275.94
300.136	302.94
300.366	306.94
300.597	278.94
300.827	287.94
301.057	297.94
301.288	313.94
301.518	295.94
301.748	282.94
301.979	289.94
302.209	296.94
302.439	297.94
302.669	275.94
302.9	284.94
303.13	294.94
303.36	322.94
303.59	304.94
303.82	322.94
304.051	312.94
304.281	318.94
304.511	285.94
304.741	293.94
304.971	274.94
305.201	280.94
305.431	290.94
305.661	283.94
305.891	266.94
306.121	294.94
306.352	291.94
306.582	293.94
306.812	309.94
307.042	288.94
307.272	306.94
307.502	297.94
307.731	313.94
307.961	312.94
308.191	301.94
308.421	286.94
308.651	322.94
308.881	314.94
309.111	296.94
309.341	331.94
309.571	330.94
309.8	325.94
310.03	342.94
310.26	343.94
310.49	345.94
310.72	372.94
310.949	357.94
311.179	370.94
311.409	370.94
311.639	350.94
311.868	362.94
312.098	377.94
312.328	360.94
312.557	385.94
312.787	399.94
313.017	385.94
313.246	376.94
313.476	360.94
313.706	347.94
313.935	352.94
314.165	380.94
314.394	380.94
314.624	380.94
314.853	356.94
315.083	360.94
315.312	362.94
315.542	351.94
315.771	339.94
316.001	322.94
316.23	335.94
316.46	351.94
316.689	360.94
316.919	356.94
317.148	360.94
317.377	364.94
317.607	372.94
317.836	364.94
318.065	350.94
318.295	346.94
318.524	344.94
318.753	335.94
318.983	332.94
319.212	339.94
319.441	348.94
319.67	346.94
319.9	359.94
320.129	348.94
320.358	330.94
320.587	374.94
320.816	364.94
321.046	399.94
321.275	398.94
321.504	377.94
321.733	377.94
321.962	384.94
322.191	420.94
322.42	417.94
322.649	436.94
322.878	448.94
323.108	460.94
323.337	481.94
323.566	514.94
323.795	540.94
324.024	602.94
324.253	714.94
324.482	1044.94
324.71	1574.94
324.939	2214.94
325.168	1967.94
325.397	1058.94
325.626	685.94
325.855	572.94
326.084	528.94
326.313	505.94
326.542	508.94
326.77	542.94
326.999	661.94
327.228	920.94
327.457	1371.94
327.686	1698.94
327.914	1151.94
328.143	798.94
328.372	672.94
328.6	627.94
328.829	580.94
329.058	596.94
329.287	629.94
329.515	568.94
329.744	525.94
329.972	514.94
330.201	528.94
330.43	600.94
330.658	632.94
330.887	672.94
331.115	642.94
331.344	527.94
331.572	504.94
331.801	505.94
332.03	494.94
332.258	460.94
332.486	430.94
332.715	429.94
332.943	416.94
333.172	440.94
333.4	432.94
333.629	431.94
333.857	452.94
334.085	453.94
334.314	474.94
334.542	514.94
334.771	534.94
334.999	480.94
335.227	462.94
335.455	427.94
335.684	428.94
335.912	426.94
336.14	419.94
336.369	420.94
336.597	403.94
336.825	425.94
337.053	423.94
337.281	390.94
337.51	403.94
337.738	408.94
337.966	411.94
338.194	420.94
338.422	424.94
338.65	400.94
338.878	406.94
339.106	381.94
339.334	390.94
339.562	397.94
339.79	395.94
340.018	405.94
340.246	416.94
340.474	403.94
340.702	409.94
340.93	394.94
341.158	399.94
341.386	397.94
341.614	409.94
341.842	409.94
342.07	406.94
342.298	382.94
342.526	387.94
342.754	394.94
342.981	388.94
343.209	380.94
343.437	376.94
343.665	395.94
343.893	384.94
344.12	398.94
344.348	412.94
344.576	398.94
344.804	401.94
345.031	428.94
345.259	445.94
345.487	430.94
345.714	414.94
345.942	405.94
346.17	373.94
346.397	389.94
346.625	390.94
346.853	403.94
347.08	381.94
347.308	389.94
347.535	421.94
347.763	426.94
347.99	428.94
348.218	419.94
348.445	435.94
348.673	414.94
348.9	409.94
349.128	393.94
349.355	393.94
349.583	374.94
349.81	382.94
350.037	379.94
350.265	395.94
350.492	392.94
350.72	383.94
350.947	388.94
351.174	402.94
351.402	423.94
351.629	414.94
351.856	385.94
352.083	420.94
352.311	405.94
352.538	419.94
352.765	420.94
352.992	415.94
353.22	416.94
353.447	392.94
353.674	403.94
353.901	389.94
354.128	376.94
354.355	350.94
354.583	378.94
354.81	377.94
355.037	372.94
355.264	370.94
355.491	361.94
355.718	354.94
355.945	348.94
356.172	371.94
356.399	348.94
356.626	351.94
356.853	365.94
357.08	354.94
357.307	356.94
357.534	362.94
357.761	376.94
357.988	386.94
358.215	370.94
358.441	348.94
358.668	380.94
358.895	373.94
359.122	388.94
359.349	388.94
359.576	388.94
359.802	447.94
360.029	487.94
360.256	493.94
360.483	454.94
360.709	399.94
360.936	392.94
361.163	412.94
361.39	385.94
361.616	415.94
361.843	395.94
362.07	418.94
362.296	418.94
362.523	415.94
362.749	397.94
362.976	395.94
363.203	401.94
363.429	380.94
363.656	404.94
363.882	378.94
364.109	385.94
364.335	388.94
364.562	381.94
364.788	379.94
365.015	384.94
365.241	378.94
365.468	376.94
365.694	397.94
365.92	384.94
366.147	395.94
366.373	397.94
366.599	388.94
366.826	372.94
367.052	375.94
367.278	376.94
367.505	377.94
367.731	382.94
367.957	377.94
368.184	387.94
368.41	391.94
368.636	395.94
368.862	399.94
369.089	401.94
369.315	390.94
369.541	368.94
369.767	386.94
369.993	384.94
370.219	382.94
370.445	371.94
370.672	382.94
370.898	391.94
371.124	380.94
371.35	388.94
371.576	398.94
371.802	371.94
372.028	368.94
372.254	379.94
372.48	385.94
372.706	385.94
372.932	382.94
373.158	388.94
373.384	393.94
373.61	367.94
373.835	358.94
374.061	391.94
374.287	385.94
374.513	409.94
374.739	380.94
374.965	401.94
375.191	388.94
375.416	378.94
375.642	398.94
375.868	398.94
376.094	379.94
376.319	376.94
376.545	388.94
376.771	387.94
376.997	364.94
377.222	382.94
377.448	382.94
377.674	364.94
377.899	366.94
378.125	358.94
378.35	376.94
378.576	367.94
378.802	363.94
379.027	351.94
379.253	376.94
379.478	371.94
379.704	375.94
379.929	388.94
380.155	358.94
380.38	371.94
380.606	364.94
380.831	377.94
381.057	384.94
381.282	388.94
381.507	385.94
381.733	388.94
381.958	379.94
382.184	380.94
382.409	388.94
382.634	385.94
382.86	382.94
383.085	364.94
383.31	382.94
383.535	397.94
383.761	397.94
383.986	395.94
384.211	387.94
384.436	392.94
384.662	397.94
384.887	386.94
385.112	385.94
385.337	396.94
385.562	384.94
385.787	406.94
386.013	410.94
386.238	412.94
386.463	422.94
386.688	392.94
386.913	395.94
387.138	394.94
387.363	397.94
387.588	413.94
387.813	388.94
388.038	408.94
388.263	395.94
388.488	392.94
388.713	391.94
388.938	402.94
389.163	405.94
389.387	397.94
389.612	386.94
389.837	392.94
390.062	394.94
390.287	408.94
390.512	401.94
390.736	428.94
390.961	418.94
391.186	400.94
391.411	398.94
391.636	396.94
391.86	413.94
392.085	409.94
392.31	410.94
392.534	408.94
392.759	399.94
392.984	426.94
393.208	407.94
393.433	407.94
393.658	413.94
393.882	398.94
394.107	416.94
394.331	380.94
394.556	397.94
394.78	409.94
395.005	402.94
395.229	403.94
395.454	391.94
395.678	430.94
395.903	418.94
396.127	438.94
396.352	466.94
396.576	443.94
396.801	418.94
397.025	416.94
397.249	413.94
397.474	404.94
397.698	421.94
397.922	437.94
398.147	454.94
398.371	469.94
398.595	439.94
398.82	429.94
399.044	457.94
399.268	450.94
399.492	473.94
399.717	503.94
399.941	526.94
400.165	556.94
400.389	556.94
400.613	523.94
400.837	490.94
401.062	475.94
401.286	476.94
401.51	481.94
401.734	459.94
401.958	450.94
402.182	471.94
402.406	486.94
402.63	498.94
402.854	486.94
403.078	462.94
403.302	457.94
403.526	482.94
403.75	494.94
403.974	461.94
404.198	495.94
404.422	487.94
404.645	488.94
404.869	517.94
405.093	532.94
405.317	551.94
405.541	599.94
405.765	572.94
405.988	510.94
406.212	519.94
406.436	540.94
406.66	564.94
406.883	551.94
407.107	559.94
407.331	581.94
407.555	619.94
407.778	642.94
408.002	596.94
408.226	529.94
408.449	544.94
408.673	527.94
408.896	555.94
409.12	621.94
409.344	574.94
409.567	522.94
409.791	505.94
410.014	504.94
410.238	504.94
410.461	488.94
410.685	524.94
410.908	512.94
411.132	550.94
411.355	588.94
411.578	561.94
411.802	510.94
412.025	489.94
412.249	523.94
412.472	514.94
412.695	578.94
412.919	567.94
413.142	536.94
413.365	502.94
413.589	495.94
413.812	463.94
414.035	460.94
414.258	471.94
414.482	436.94
414.705	461.94
414.928	430.94
415.151	452.94
415.374	469.94
415.597	466.94
415.821	448.94
416.044	464.94
416.267	474.94
416.49	462.94
416.713	470.94
416.936	460.94
417.159	454.94
417.382	485.94
417.605	460.94
417.828	482.94
418.051	508.94
418.274	504.94
418.497	478.94
418.72	458.94
418.943	484.94
419.166	478.94
419.389	498.94
419.611	501.94
419.834	507.94
420.057	486.94
420.28	505.94
420.503	520.94
420.726	483.94
420.948	523.94
421.171	546.94
421.394	592.94
421.617	527.94
421.839	509.94
422.062	499.94
422.285	507.94
422.507	578.94
422.73	648.94
422.953	636.94
423.175	554.94
423.398	500.94
423.621	518.94
423.843	541.94
424.066	564.94
424.288	519.94
424.511	571.94
424.733	619.94
424.956	679.94
425.178	675.94
425.401	680.94
425.623	691.94
425.846	578.94
426.068	586.94
426.291	551.94
426.513	566.94
426.735	554.94
426.958	605.94
427.18	687.94
427.402	797.94
427.625	874.94
427.847	814.94
428.069	694.94
428.292	631.94
428.514	589.94
428.736	559.94
428.958	545.94
429.181	516.94
429.403	522.94
429.625	532.94
429.847	578.94
430.069	613.94
430.292	617.94
430.514	552.94
430.736	524.94
430.958	501.94
431.18	486.94
431.402	477.94
431.624	461.94
431.846	499.94
432.068	476.94
432.29	507.94
432.512	483.94
432.734	486.94
432.956	499.94
433.178	496.94
433.4	504.94
433.622	490.94
433.844	464.94
434.066	474.94
434.287	491.94
434.509	494.94
434.731	490.94
434.953	490.94
435.175	518.94
435.397	552.94
435.618	546.94
435.84	584.94
436.062	672.94
436.284	760.94
436.505	639.94
436.727	563.94
436.949	526.94
437.17	509.94
437.392	524.94
437.614	546.94
437.835	573.94
438.057	678.94
438.278	776.94
438.5	774.94
438.721	810.94
438.943	773.94
439.165	644.94
439.386	590.94
439.608	566.94
439.829	582.94
440.05	603.94
440.272	650.94
440.493	626.94
440.715	568.94
440.936	532.94
441.158	524.94
441.379	525.94
441.6	524.94
441.822	541.94
442.043	608.94
442.264	673.94
442.486	728.94
442.707	641.94
442.928	580.94
443.149	585.94
443.371	614.94
443.592	648.94
443.813	726.94
444.034	783.94
444.255	662.94
444.476	572.94
444.698	546.94
444.919	562.94
445.14	676.94
445.361	619.94
445.582	614.94
445.803	665.94
446.024	761.94
446.245	774.94
446.466	691.94
446.687	609.94
446.908	567.94
447.129	553.94
447.35	519.94
447.571	553.94
447.792	527.94
448.013	536.94
448.234	560.94
448.455	623.94
448.675	710.94
448.896	804.94
449.117	692.94
449.338	682.94
449.559	765.94
449.779	820.94
450	687.94
450.221	582.94
450.442	540.94
450.662	523.94
450.883	532.94
451.104	538.94
451.324	539.94
451.545	521.94
451.766	475.94
451.986	470.94
452.207	455.94
452.428	435.94
452.648	469.94
452.869	460.94
453.089	476.94
453.31	472.94
453.53	502.94
453.751	467.94
453.971	478.94
454.192	514.94
454.412	471.94
454.633	467.94
454.853	465.94
455.073	462.94
455.294	486.94
455.514	552.94
455.734	548.94
455.955	474.94
456.175	446.94
456.395	421.94
456.616	425.94
456.836	435.94
457.056	413.94
457.276	404.94
457.497	446.94
457.717	442.94
457.937	408.94
458.157	449.94
458.377	436.94
458.598	472.94
458.818	552.94
459.038	651.94
459.258	662.94
459.478	555.94
459.698	492.94
459.918	501.94
460.138	458.94
460.358	462.94
460.578	459.94
460.798	453.94
461.018	445.94
461.238	450.94
461.458	453.94
461.678	465.94
461.898	473.94
462.118	464.94
462.338	474.94
462.558	461.94
462.777	464.94
462.997	471.94
463.217	514.94
463.437	488.94
463.657	492.94
463.876	487.94
464.096	494.94
464.316	473.94
464.536	511.94
464.755	502.94
464.975	518.94
465.195	573.94
465.414	677.94
465.634	591.94
465.854	540.94
466.073	501.94
466.293	493.94
466.512	476.94
466.732	478.94
466.951	468.94
467.171	465.94
467.391	495.94
467.61	476.94
467.829	498.94
468.049	471.94
468.268	468.94
468.488	486.94
468.707	471.94
468.927	456.94
469.146	464.94
469.365	476.94
469.585	456.94
469.804	456.94
470.023	484.94
470.243	493.94
470.462	488.94
470.681	504.94
470.901	508.94
471.12	491.94
471.339	470.94
471.558	476.94
471.777	488.94
471.997	491.94
472.216	489.94
472.435	536.94
472.654	521.94
472.873	487.94
473.092	474.94
473.311	482.94
473.53	492.94
473.749	485.94
473.968	548.94
474.187	659.94
474.406	662.94
474.625	545.94
474.844	520.94
475.063	475.94
475.282	483.94
475.501	482.94
475.72	483.94
475.939	490.94
476.158	515.94
476.377	521.94
476.596	493.94
476.814	523.94
477.033	516.94
477.252	496.94
477.471	509.94
477.69	510.94
477.908	524.94
478.127	518.94
478.346	526.94
478.564	522.94
478.783	527.94
479.002	535.94
479.22	536.94
479.439	553.94
479.658	571.94
479.876	568.94
480.095	586.94
480.313	633.94
480.532	600.94
480.751	578.94
480.969	595.94
481.188	685.94
481.406	735.94
481.624	630.94
481.843	581.94
482.061	582.94
482.28	611.94
482.498	588.94
482.717	572.94
482.935	590.94
483.153	568.94
483.372	592.94
483.59	571.94
483.808	591.94
484.027	566.94
484.245	576.94
484.463	574.94
484.681	586.94
484.9	581.94
485.118	600.94
485.336	590.94
485.554	596.94
485.772	602.94
485.99	597.94
486.209	602.94
486.427	598.94
486.645	607.94
486.863	667.94
487.081	646.94
487.299	631.94
487.517	623.94
487.735	623.94
487.953	639.94
488.171	642.94
488.389	645.94
488.607	608.94
488.825	620.94
489.043	632.94
489.261	619.94
489.479	646.94
489.696	645.94
489.914	644.94
490.132	664.94
490.35	665.94
490.568	672.94
490.786	670.94
491.003	690.94
491.221	698.94
491.439	686.94
491.657	728.94
491.874	758.94
492.092	740.94
492.31	725.94
492.527	760.94
492.745	745.94
492.963	754.94
493.18	756.94
493.398	742.94
493.615	735.94
493.833	778.94
494.05	745.94
494.268	739.94
494.485	789.94
494.703	762.94
494.92	773.94
495.138	775.94
495.355	770.94
495.573	761.94
495.79	766.94
496.008	774.94
496.225	762.94
496.442	769.94
496.66	758.94
496.877	750.94
497.094	759.94
497.312	748.94
497.529	786.94
497.746	792.94
497.963	791.94
498.181	800.94
498.398	814.94
498.615	793.94
498.832	818.94
499.049	804.94
499.267	815.94
499.484	827.94
499.701	852.94
499.918	874.94
500.135	866.94
500.352	892.94
500.569	928.94
500.786	894.94
501.003	930.94
501.22	915.94
501.437	904.94
501.654	884.94
501.871	901.94
