Data from 1970.PennyLincolnUp.Lamp.En5.5.200Scan.071719.P1._HRD10591_15-12-47-844.txt Node
Date: Thu Jul 18 15:12:47 EDT 2019
User: cochatt
Spectrometer: HR+D1059
Trigger mode: 1
Integration Time (sec): 1.000000E-1
Scans to average: 1
Electric dark correction enabled: true
Nonlinearity correction enabled: false
Boxcar width: 0
XAxis mode: Wavelengths
Number of Pixels in Spectrum: 2048
>>>>>Begin Spectral Data<<<<<
223.165	-19.25
223.4	-19.25
223.635	-19.25
223.869	-21.25
224.104	-23.25
224.338	-18.25
224.573	-15.25
224.808	-19.25
225.042	-4.25
225.277	-5.25
225.511	-1.25
225.746	-2.25
225.98	10.75
226.215	12.75
226.449	11.75
226.683	17.75
226.918	26.75
227.152	49.75
227.387	37.75
227.621	24.75
227.856	29.75
228.09	36.75
228.324	44.75
228.559	47.75
228.793	56.75
229.027	63.75
229.262	71.75
229.496	88.75
229.73	90.75
229.964	93.75
230.199	103.75
230.433	101.75
230.667	91.75
230.901	103.75
231.136	91.75
231.37	81.75
231.604	84.75
231.838	87.75
232.072	94.75
232.306	92.75
232.541	100.75
232.775	96.75
233.009	100.75
233.243	100.75
233.477	87.75
233.711	96.75
233.945	106.75
234.179	91.75
234.413	88.75
234.647	89.75
234.881	104.75
235.115	91.75
235.349	96.75
235.583	96.75
235.817	96.75
236.051	93.75
236.285	85.75
236.519	86.75
236.753	89.75
236.987	102.75
237.221	109.75
237.455	110.75
237.689	102.75
237.922	89.75
238.156	89.75
238.39	76.75
238.624	96.75
238.858	96.75
239.091	89.75
239.325	80.75
239.559	79.75
239.793	92.75
240.027	96.75
240.26	110.75
240.494	91.75
240.728	105.75
240.961	95.75
241.195	96.75
241.429	93.75
241.662	92.75
241.896	97.75
242.13	89.75
242.363	94.75
242.597	106.75
242.83	97.75
243.064	108.75
243.298	108.75
243.531	89.75
243.765	98.75
243.998	101.75
244.232	98.75
244.465	103.75
244.699	98.75
244.932	93.75
245.166	109.75
245.399	107.75
245.633	113.75
245.866	94.75
246.099	88.75
246.333	99.75
246.566	98.75
246.8	105.75
247.033	99.75
247.266	96.75
247.5	89.75
247.733	104.75
247.966	101.75
248.2	108.75
248.433	124.75
248.666	119.75
248.899	113.75
249.133	110.75
249.366	111.75
249.599	121.75
249.832	118.75
250.066	102.75
250.299	100.75
250.532	100.75
250.765	97.75
250.998	126.75
251.231	125.75
251.465	117.75
251.698	125.75
251.931	105.75
252.164	115.75
252.397	123.75
252.63	113.75
252.863	123.75
253.096	106.75
253.329	117.75
253.562	115.75
253.795	109.75
254.028	113.75
254.261	107.75
254.494	105.75
254.727	124.75
254.96	131.75
255.193	129.75
255.426	114.75
255.659	118.75
255.892	113.75
256.124	106.75
256.357	123.75
256.59	119.75
256.823	126.75
257.056	116.75
257.289	129.75
257.521	113.75
257.754	113.75
257.987	101.75
258.22	117.75
258.452	102.75
258.685	108.75
258.918	108.75
259.151	108.75
259.383	107.75
259.616	108.75
259.849	116.75
260.081	143.75
260.314	128.75
260.547	124.75
260.779	118.75
261.012	119.75
261.244	123.75
261.477	120.75
261.71	112.75
261.942	139.75
262.175	135.75
262.407	122.75
262.64	127.75
262.872	114.75
263.105	109.75
263.337	119.75
263.57	135.75
263.802	105.75
264.035	120.75
264.267	111.75
264.499	109.75
264.732	115.75
264.964	109.75
265.197	113.75
265.429	120.75
265.661	124.75
265.894	106.75
266.126	119.75
266.358	107.75
266.591	109.75
266.823	120.75
267.055	120.75
267.287	123.75
267.52	117.75
267.752	143.75
267.984	128.75
268.216	123.75
268.448	141.75
268.681	117.75
268.913	125.75
269.145	125.75
269.377	118.75
269.609	121.75
269.841	129.75
270.073	135.75
270.306	127.75
270.538	138.75
270.77	147.75
271.002	123.75
271.234	122.75
271.466	136.75
271.698	136.75
271.93	123.75
272.162	133.75
272.394	139.75
272.626	131.75
272.858	130.75
273.09	139.75
273.322	130.75
273.553	131.75
273.785	134.75
274.017	140.75
274.249	125.75
274.481	132.75
274.713	137.75
274.945	132.75
275.176	136.75
275.408	129.75
275.64	127.75
275.872	138.75
276.104	139.75
276.335	137.75
276.567	136.75
276.799	148.75
277.031	154.75
277.262	144.75
277.494	140.75
277.726	143.75
277.957	140.75
278.189	151.75
278.421	140.75
278.652	140.75
278.884	153.75
279.115	151.75
279.347	177.75
279.579	215.75
279.81	278.75
280.042	260.75
280.273	217.75
280.505	240.75
280.736	186.75
280.968	151.75
281.199	161.75
281.431	145.75
281.662	133.75
281.894	134.75
282.125	142.75
282.356	156.75
282.588	160.75
282.819	141.75
283.051	135.75
283.282	131.75
283.513	142.75
283.745	127.75
283.976	141.75
284.207	142.75
284.439	141.75
284.67	139.75
284.901	150.75
285.132	164.75
285.364	176.75
285.595	181.75
285.826	149.75
286.057	145.75
286.288	129.75
286.52	139.75
286.751	145.75
286.982	139.75
287.213	156.75
287.444	143.75
287.675	137.75
287.906	137.75
288.138	151.75
288.369	169.75
288.6	157.75
288.831	151.75
289.062	139.75
289.293	143.75
289.524	149.75
289.755	131.75
289.986	136.75
290.217	140.75
290.448	143.75
290.679	125.75
290.91	146.75
291.141	135.75
291.371	137.75
291.602	135.75
291.833	121.75
292.064	132.75
292.295	143.75
292.526	137.75
292.757	142.75
292.987	143.75
293.218	132.75
293.449	131.75
293.68	133.75
293.91	136.75
294.141	155.75
294.372	164.75
294.603	151.75
294.833	135.75
295.064	134.75
295.295	141.75
295.525	142.75
295.756	146.75
295.987	142.75
296.217	163.75
296.448	169.75
296.679	140.75
296.909	149.75
297.14	138.75
297.37	125.75
297.601	112.75
297.831	141.75
298.062	128.75
298.292	148.75
298.523	155.75
298.753	129.75
298.984	150.75
299.214	143.75
299.445	137.75
299.675	151.75
299.905	141.75
300.136	144.75
300.366	149.75
300.597	147.75
300.827	139.75
301.057	153.75
301.288	155.75
301.518	139.75
301.748	155.75
301.979	147.75
302.209	158.75
302.439	172.75
302.669	135.75
302.9	163.75
303.13	162.75
303.36	153.75
303.59	146.75
303.82	179.75
304.051	149.75
304.281	151.75
304.511	147.75
304.741	143.75
304.971	156.75
305.201	134.75
305.431	149.75
305.661	149.75
305.891	139.75
306.121	153.75
306.352	166.75
306.582	151.75
306.812	161.75
307.042	163.75
307.272	138.75
307.502	168.75
307.731	151.75
307.961	146.75
308.191	153.75
308.421	169.75
308.651	159.75
308.881	180.75
309.111	162.75
309.341	186.75
309.571	172.75
309.8	186.75
310.03	183.75
310.26	185.75
310.49	194.75
310.72	170.75
310.949	199.75
311.179	191.75
311.409	175.75
311.639	175.75
311.868	184.75
312.098	179.75
312.328	201.75
312.557	183.75
312.787	203.75
313.017	189.75
313.246	193.75
313.476	170.75
313.706	176.75
313.935	181.75
314.165	183.75
314.394	182.75
314.624	180.75
314.853	185.75
315.083	169.75
315.312	172.75
315.542	168.75
315.771	172.75
316.001	192.75
316.23	181.75
316.46	177.75
316.689	175.75
316.919	179.75
317.148	182.75
317.377	184.75
317.607	189.75
317.836	189.75
318.065	208.75
318.295	208.75
318.524	184.75
318.753	173.75
318.983	187.75
319.212	193.75
319.441	191.75
319.67	175.75
319.9	177.75
320.129	170.75
320.358	183.75
320.587	167.75
320.816	176.75
321.046	200.75
321.275	190.75
321.504	176.75
321.733	192.75
321.962	205.75
322.191	201.75
322.42	190.75
322.649	218.75
322.878	229.75
323.108	238.75
323.337	263.75
323.566	287.75
323.795	305.75
324.024	375.75
324.253	487.75
324.482	728.75
324.71	1065.75
324.939	1278.75
325.168	1001.75
325.397	519.75
325.626	342.75
325.855	259.75
326.084	239.75
326.313	259.75
326.542	255.75
326.77	315.75
326.999	423.75
327.228	615.75
327.457	896.75
327.686	942.75
327.914	622.75
328.143	422.75
328.372	355.75
328.6	319.75
328.829	297.75
329.058	292.75
329.287	284.75
329.515	260.75
329.744	238.75
329.972	237.75
330.201	236.75
330.43	254.75
330.658	300.75
330.887	313.75
331.115	293.75
331.344	268.75
331.572	222.75
331.801	233.75
332.03	204.75
332.258	199.75
332.486	203.75
332.715	211.75
332.943	191.75
333.172	197.75
333.4	205.75
333.629	190.75
333.857	197.75
334.085	209.75
334.314	199.75
334.542	206.75
334.771	240.75
334.999	216.75
335.227	214.75
335.455	206.75
335.684	188.75
335.912	173.75
336.14	190.75
336.369	202.75
336.597	201.75
336.825	187.75
337.053	189.75
337.281	211.75
337.51	195.75
337.738	191.75
337.966	203.75
338.194	212.75
338.422	217.75
338.65	225.75
338.878	190.75
339.106	183.75
339.334	198.75
339.562	183.75
339.79	186.75
340.018	190.75
340.246	187.75
340.474	189.75
340.702	180.75
340.93	185.75
341.158	175.75
341.386	202.75
341.614	199.75
341.842	197.75
342.07	181.75
342.298	180.75
342.526	187.75
342.754	179.75
342.981	175.75
343.209	176.75
343.437	188.75
343.665	173.75
343.893	175.75
344.12	201.75
344.348	184.75
344.576	189.75
344.804	198.75
345.031	184.75
345.259	190.75
345.487	196.75
345.714	197.75
345.942	184.75
346.17	175.75
346.397	203.75
346.625	191.75
346.853	184.75
347.08	177.75
347.308	189.75
347.535	188.75
347.763	184.75
347.99	186.75
348.218	194.75
348.445	192.75
348.673	208.75
348.9	180.75
349.128	179.75
349.355	180.75
349.583	183.75
349.81	176.75
350.037	171.75
350.265	167.75
350.492	179.75
350.72	164.75
350.947	189.75
351.174	189.75
351.402	190.75
351.629	185.75
351.856	195.75
352.083	206.75
352.311	199.75
352.538	206.75
352.765	189.75
352.992	194.75
353.22	194.75
353.447	191.75
353.674	177.75
353.901	167.75
354.128	184.75
354.355	173.75
354.583	174.75
354.81	158.75
355.037	184.75
355.264	144.75
355.491	172.75
355.718	166.75
355.945	165.75
356.172	174.75
356.399	158.75
356.626	162.75
356.853	174.75
357.08	161.75
357.307	163.75
357.534	176.75
357.761	192.75
357.988	180.75
358.215	177.75
358.441	173.75
358.668	157.75
358.895	171.75
359.122	184.75
359.349	176.75
359.576	181.75
359.802	209.75
360.029	238.75
360.256	230.75
360.483	216.75
360.709	203.75
360.936	197.75
361.163	185.75
361.39	191.75
361.616	183.75
361.843	193.75
362.07	184.75
362.296	184.75
362.523	199.75
362.749	201.75
362.976	176.75
363.203	188.75
363.429	191.75
363.656	179.75
363.882	180.75
364.109	187.75
364.335	174.75
364.562	175.75
364.788	182.75
365.015	179.75
365.241	183.75
365.468	174.75
365.694	179.75
365.92	190.75
366.147	176.75
366.373	177.75
366.599	181.75
366.826	173.75
367.052	161.75
367.278	168.75
367.505	182.75
367.731	160.75
367.957	173.75
368.184	172.75
368.41	183.75
368.636	202.75
368.862	172.75
369.089	188.75
369.315	173.75
369.541	168.75
369.767	156.75
369.993	174.75
370.219	176.75
370.445	190.75
370.672	183.75
370.898	159.75
371.124	165.75
371.35	165.75
371.576	180.75
371.802	177.75
372.028	179.75
372.254	151.75
372.48	182.75
372.706	161.75
372.932	167.75
373.158	175.75
373.384	178.75
373.61	203.75
373.835	203.75
374.061	188.75
374.287	183.75
374.513	181.75
374.739	172.75
374.965	181.75
375.191	171.75
375.416	171.75
375.642	196.75
375.868	177.75
376.094	167.75
376.319	198.75
376.545	183.75
376.771	165.75
376.997	163.75
377.222	161.75
377.448	151.75
377.674	156.75
377.899	176.75
378.125	180.75
378.35	160.75
378.576	156.75
378.802	145.75
379.027	169.75
379.253	163.75
379.478	181.75
379.704	175.75
379.929	149.75
380.155	174.75
380.38	180.75
380.606	165.75
380.831	166.75
381.057	192.75
381.282	179.75
381.507	190.75
381.733	190.75
381.958	198.75
382.184	195.75
382.409	186.75
382.634	198.75
382.86	201.75
383.085	195.75
383.31	210.75
383.535	207.75
383.761	206.75
383.986	205.75
384.211	216.75
384.436	190.75
384.662	184.75
384.887	192.75
385.112	188.75
385.337	190.75
385.562	173.75
385.787	191.75
386.013	216.75
386.238	209.75
386.463	190.75
386.688	198.75
386.913	185.75
387.138	192.75
387.363	204.75
387.588	190.75
387.813	182.75
388.038	176.75
388.263	191.75
388.488	202.75
388.713	184.75
388.938	171.75
389.163	171.75
389.387	180.75
389.612	183.75
389.837	181.75
390.062	184.75
390.287	196.75
390.512	184.75
390.736	182.75
390.961	186.75
391.186	165.75
391.411	171.75
391.636	182.75
391.86	174.75
392.085	198.75
392.31	224.75
392.534	211.75
392.759	232.75
392.984	287.75
393.208	487.75
393.433	728.75
393.658	657.75
393.882	343.75
394.107	235.75
394.331	233.75
394.556	251.75
394.78	217.75
395.005	213.75
395.229	189.75
395.454	185.75
395.678	211.75
395.903	230.75
396.127	273.75
396.352	292.75
396.576	330.75
396.801	442.75
397.025	567.75
397.249	390.75
397.474	222.75
397.698	209.75
397.922	197.75
398.147	190.75
398.371	196.75
398.595	201.75
398.82	208.75
399.044	207.75
399.268	196.75
399.492	192.75
399.717	229.75
399.941	218.75
400.165	227.75
400.389	234.75
400.613	205.75
400.837	194.75
401.062	204.75
401.286	216.75
401.51	195.75
401.734	200.75
401.958	197.75
402.182	206.75
402.406	214.75
402.63	212.75
402.854	216.75
403.078	211.75
403.302	187.75
403.526	203.75
403.75	202.75
403.974	210.75
404.198	189.75
404.422	207.75
404.645	209.75
404.869	208.75
405.093	196.75
405.317	227.75
405.541	211.75
405.765	208.75
405.988	205.75
406.212	236.75
406.436	259.75
406.66	248.75
406.883	220.75
407.107	222.75
407.331	236.75
407.555	248.75
407.778	251.75
408.002	238.75
408.226	215.75
408.449	228.75
408.673	209.75
408.896	214.75
409.12	227.75
409.344	207.75
409.567	209.75
409.791	197.75
410.014	202.75
410.238	209.75
410.461	198.75
410.685	183.75
410.908	200.75
411.132	216.75
411.355	227.75
411.578	215.75
411.802	195.75
412.025	194.75
412.249	195.75
412.472	201.75
412.695	200.75
412.919	214.75
413.142	197.75
413.365	192.75
413.589	179.75
413.812	192.75
414.035	194.75
414.258	181.75
414.482	189.75
414.705	204.75
414.928	185.75
415.151	176.75
415.374	203.75
415.597	186.75
415.821	187.75
416.044	171.75
416.267	190.75
416.49	176.75
416.713	184.75
416.936	183.75
417.159	195.75
417.382	191.75
417.605	169.75
417.828	199.75
418.051	197.75
418.274	184.75
418.497	197.75
418.72	169.75
418.943	190.75
419.166	206.75
419.389	198.75
419.611	198.75
419.834	180.75
420.057	191.75
420.28	182.75
420.503	195.75
420.726	180.75
420.948	195.75
421.171	214.75
421.394	218.75
421.617	213.75
421.839	209.75
422.062	209.75
422.285	207.75
422.507	271.75
422.73	387.75
422.953	392.75
423.175	244.75
423.398	227.75
423.621	210.75
423.843	214.75
424.066	197.75
424.288	219.75
424.511	213.75
424.733	244.75
424.956	250.75
425.178	249.75
425.401	251.75
425.623	264.75
425.846	216.75
426.068	225.75
426.291	211.75
426.513	231.75
426.735	214.75
426.958	221.75
427.18	257.75
427.402	319.75
427.625	367.75
427.847	319.75
428.069	272.75
428.292	241.75
428.514	222.75
428.736	201.75
428.958	200.75
429.181	199.75
429.403	223.75
429.625	204.75
429.847	206.75
430.069	239.75
430.292	268.75
430.514	251.75
430.736	221.75
430.958	215.75
431.18	188.75
431.402	208.75
431.624	198.75
431.846	185.75
432.068	201.75
432.29	210.75
432.512	182.75
432.734	204.75
432.956	207.75
433.178	192.75
433.4	204.75
433.622	198.75
433.844	196.75
434.066	181.75
434.287	185.75
434.509	203.75
434.731	187.75
434.953	205.75
435.175	207.75
435.397	215.75
435.618	223.75
435.84	227.75
436.062	237.75
436.284	259.75
436.505	239.75
436.727	224.75
436.949	203.75
437.17	208.75
437.392	214.75
437.614	207.75
437.835	245.75
438.057	275.75
438.278	296.75
438.5	281.75
438.721	280.75
438.943	281.75
439.165	238.75
439.386	217.75
439.608	220.75
439.829	221.75
440.05	264.75
440.272	272.75
440.493	222.75
440.715	209.75
440.936	215.75
441.158	215.75
441.379	220.75
441.6	223.75
441.822	218.75
442.043	233.75
442.264	276.75
442.486	259.75
442.707	252.75
442.928	234.75
443.149	245.75
443.371	258.75
443.592	291.75
443.813	314.75
444.034	283.75
444.255	253.75
444.476	228.75
444.698	207.75
444.919	210.75
445.14	358.75
445.361	294.75
445.582	308.75
445.803	313.75
446.024	322.75
446.245	295.75
446.466	281.75
446.687	236.75
446.908	210.75
447.129	210.75
447.35	203.75
447.571	214.75
447.792	202.75
448.013	197.75
448.234	224.75
448.455	223.75
448.675	268.75
448.896	268.75
449.117	243.75
449.338	244.75
449.559	263.75
449.779	291.75
450	252.75
450.221	217.75
450.442	190.75
450.662	212.75
450.883	231.75
451.104	264.75
451.324	237.75
451.545	210.75
451.766	203.75
451.986	182.75
452.207	196.75
452.428	192.75
452.648	204.75
452.869	191.75
453.089	197.75
453.31	206.75
453.53	216.75
453.751	221.75
453.971	225.75
454.192	225.75
454.412	208.75
454.633	214.75
454.853	201.75
455.073	212.75
455.294	199.75
455.514	214.75
455.734	228.75
455.955	197.75
456.175	173.75
456.395	186.75
456.616	187.75
456.836	193.75
457.056	186.75
457.276	180.75
457.497	189.75
457.717	187.75
457.937	190.75
458.157	185.75
458.377	194.75
458.598	205.75
458.818	282.75
459.038	299.75
459.258	255.75
459.478	232.75
459.698	190.75
459.918	209.75
460.138	187.75
460.358	195.75
460.578	202.75
460.798	190.75
461.018	210.75
461.238	207.75
461.458	194.75
461.678	180.75
461.898	185.75
462.118	187.75
462.338	196.75
462.558	187.75
462.777	181.75
462.997	195.75
463.217	206.75
463.437	211.75
463.657	205.75
463.876	192.75
464.096	188.75
464.316	199.75
464.536	209.75
464.755	235.75
464.975	224.75
465.195	291.75
465.414	347.75
465.634	280.75
465.854	231.75
466.073	208.75
466.293	207.75
466.512	216.75
466.732	198.75
466.951	185.75
467.171	215.75
467.391	197.75
467.61	212.75
467.829	211.75
468.049	217.75
468.268	201.75
468.488	194.75
468.707	209.75
468.927	196.75
469.146	185.75
469.365	209.75
469.585	191.75
469.804	213.75
470.023	202.75
470.243	204.75
470.462	220.75
470.681	228.75
470.901	216.75
471.12	223.75
471.339	189.75
471.558	195.75
471.777	202.75
471.997	188.75
472.216	198.75
472.435	203.75
472.654	194.75
472.873	192.75
473.092	176.75
473.311	188.75
473.53	192.75
473.749	189.75
473.968	204.75
474.187	253.75
474.406	227.75
474.625	203.75
474.844	183.75
475.063	183.75
475.282	199.75
475.501	184.75
475.72	182.75
475.939	203.75
476.158	192.75
476.377	191.75
476.596	210.75
476.814	195.75
477.033	205.75
477.252	207.75
477.471	201.75
477.69	207.75
477.908	215.75
478.127	213.75
478.346	206.75
478.564	216.75
478.783	203.75
479.002	227.75
479.22	222.75
479.439	234.75
479.658	245.75
479.876	233.75
480.095	225.75
480.313	236.75
480.532	233.75
480.751	208.75
480.969	209.75
481.188	240.75
481.406	263.75
481.624	224.75
481.843	225.75
482.061	217.75
482.28	217.75
482.498	220.75
482.717	208.75
482.935	207.75
483.153	205.75
483.372	214.75
483.59	218.75
483.808	200.75
484.027	212.75
484.245	221.75
484.463	229.75
484.681	228.75
484.9	229.75
485.118	231.75
485.336	215.75
485.554	249.75
485.772	225.75
485.99	229.75
486.209	232.75
486.427	237.75
486.645	276.75
486.863	272.75
487.081	254.75
487.299	228.75
487.517	243.75
487.735	237.75
487.953	245.75
488.171	237.75
488.389	230.75
488.607	237.75
488.825	216.75
489.043	237.75
489.261	227.75
489.479	233.75
489.696	213.75
489.914	230.75
490.132	243.75
490.35	234.75
490.568	236.75
490.786	230.75
491.003	241.75
491.221	250.75
491.439	262.75
491.657	272.75
491.874	255.75
492.092	269.75
492.31	278.75
492.527	275.75
492.745	246.75
492.963	252.75
493.18	250.75
493.398	265.75
493.615	271.75
493.833	264.75
494.05	252.75
494.268	284.75
494.485	252.75
494.703	236.75
494.92	280.75
495.138	270.75
495.355	241.75
495.573	252.75
495.79	284.75
496.008	283.75
496.225	258.75
496.442	259.75
496.66	240.75
496.877	252.75
497.094	263.75
497.312	265.75
497.529	276.75
497.746	246.75
497.963	269.75
498.181	282.75
498.398	282.75
498.615	281.75
498.832	275.75
499.049	266.75
499.267	285.75
499.484	313.75
499.701	301.75
499.918	304.75
500.135	317.75
500.352	323.75
500.569	290.75
500.786	303.75
501.003	312.75
501.22	315.75
501.437	318.75
501.654	324.75
501.871	315.75
502.088	315.75
502.305	300.75
502.522	292.75
502.739	278.75
