Data from 1970.PennyLincolnUp.Lamp.En5.5.200Scan.071719.P1._HRD10591_15-14-52-842.txt Node
Date: Thu Jul 18 15:14:52 EDT 2019
User: cochatt
Spectrometer: HR+D1059
Trigger mode: 1
Integration Time (sec): 1.000000E-1
Scans to average: 1
Electric dark correction enabled: true
Nonlinearity correction enabled: false
Boxcar width: 0
XAxis mode: Wavelengths
Number of Pixels in Spectrum: 2048
>>>>>Begin Spectral Data<<<<<
223.165	-11.12
223.4	-11.12
223.635	-11.12
223.869	-15.12
224.104	-13.12
224.338	-21.12
224.573	-17.12
224.808	-14.12
225.042	-11.12
225.277	7.88
225.511	-5.12
225.746	-1.12
225.98	12.88
226.215	-2.12
226.449	23.88
226.683	15.88
226.918	21.88
227.152	28.88
227.387	27.88
227.621	35.88
227.856	43.88
228.09	38.88
228.324	50.88
228.559	57.88
228.793	81.88
229.027	107.88
229.262	117.88
229.496	130.88
229.73	144.88
229.964	188.88
230.199	136.88
230.433	134.88
230.667	123.88
230.901	120.88
231.136	103.88
231.37	120.88
231.604	119.88
231.838	110.88
232.072	112.88
232.306	122.88
232.541	132.88
232.775	114.88
233.009	112.88
233.243	115.88
233.477	112.88
233.711	120.88
233.945	116.88
234.179	119.88
234.413	123.88
234.647	131.88
234.881	123.88
235.115	112.88
235.349	103.88
235.583	120.88
235.817	122.88
236.051	132.88
236.285	124.88
236.519	122.88
236.753	141.88
236.987	161.88
237.221	202.88
237.455	256.88
237.689	207.88
237.922	163.88
238.156	131.88
238.39	134.88
238.624	135.88
238.858	130.88
239.091	136.88
239.325	141.88
239.559	137.88
239.793	130.88
240.027	146.88
240.26	158.88
240.494	160.88
240.728	157.88
240.961	153.88
241.195	152.88
241.429	148.88
241.662	131.88
241.896	139.88
242.13	134.88
242.363	125.88
242.597	134.88
242.83	146.88
243.064	140.88
243.298	151.88
243.531	148.88
243.765	159.88
243.998	158.88
244.232	139.88
244.465	135.88
244.699	165.88
244.932	153.88
245.166	149.88
245.399	141.88
245.633	164.88
245.866	151.88
246.099	167.88
246.333	156.88
246.566	161.88
246.8	177.88
247.033	150.88
247.266	149.88
247.5	178.88
247.733	177.88
247.966	180.88
248.2	201.88
248.433	197.88
248.666	188.88
248.899	197.88
249.133	203.88
249.366	212.88
249.599	222.88
249.832	190.88
250.066	194.88
250.299	193.88
250.532	213.88
250.765	222.88
250.998	235.88
251.231	236.88
251.465	224.88
251.698	215.88
251.931	221.88
252.164	222.88
252.397	222.88
252.63	215.88
252.863	234.88
253.096	231.88
253.329	241.88
253.562	238.88
253.795	245.88
254.028	240.88
254.261	230.88
254.494	246.88
254.727	278.88
254.96	330.88
255.193	322.88
255.426	284.88
255.659	251.88
255.892	249.88
256.124	243.88
256.357	254.88
256.59	250.88
256.823	232.88
257.056	229.88
257.289	222.88
257.521	233.88
257.754	211.88
257.987	226.88
258.22	227.88
258.452	215.88
258.685	229.88
258.918	229.88
259.151	215.88
259.383	230.88
259.616	245.88
259.849	245.88
260.081	261.88
260.314	256.88
260.547	278.88
260.779	268.88
261.012	249.88
261.244	242.88
261.477	227.88
261.71	217.88
261.942	238.88
262.175	263.88
262.407	246.88
262.64	219.88
262.872	224.88
263.105	229.88
263.337	230.88
263.57	216.88
263.802	210.88
264.035	217.88
264.267	221.88
264.499	231.88
264.732	241.88
264.964	227.88
265.197	220.88
265.429	199.88
265.661	212.88
265.894	232.88
266.126	227.88
266.358	223.88
266.591	231.88
266.823	231.88
267.055	228.88
267.287	227.88
267.52	232.88
267.752	225.88
267.984	242.88
268.216	223.88
268.448	235.88
268.681	248.88
268.913	250.88
269.145	274.88
269.377	283.88
269.609	282.88
269.841	286.88
270.073	291.88
270.306	330.88
270.538	328.88
270.77	355.88
271.002	325.88
271.234	317.88
271.466	309.88
271.698	334.88
271.93	336.88
272.162	343.88
272.394	335.88
272.626	318.88
272.858	308.88
273.09	297.88
273.322	290.88
273.553	282.88
273.785	279.88
274.017	290.88
274.249	291.88
274.481	279.88
274.713	271.88
274.945	278.88
275.176	286.88
275.408	261.88
275.64	268.88
275.872	269.88
276.104	262.88
276.335	258.88
276.567	266.88
276.799	299.88
277.031	302.88
277.262	322.88
277.494	317.88
277.726	302.88
277.957	296.88
278.189	309.88
278.421	262.88
278.652	272.88
278.884	276.88
279.115	274.88
279.347	271.88
279.579	271.88
279.81	260.88
280.042	271.88
280.273	273.88
280.505	265.88
280.736	278.88
280.968	255.88
281.199	236.88
281.431	260.88
281.662	270.88
281.894	283.88
282.125	281.88
282.356	272.88
282.588	288.88
282.819	307.88
283.051	260.88
283.282	258.88
283.513	263.88
283.745	260.88
283.976	280.88
284.207	275.88
284.439	278.88
284.67	303.88
284.901	276.88
285.132	254.88
285.364	281.88
285.595	266.88
285.826	269.88
286.057	273.88
286.288	278.88
286.52	278.88
286.751	268.88
286.982	283.88
287.213	287.88
287.444	275.88
287.675	295.88
287.906	286.88
288.138	302.88
288.369	302.88
288.6	290.88
288.831	271.88
289.062	300.88
289.293	268.88
289.524	293.88
289.755	292.88
289.986	275.88
290.217	278.88
290.448	291.88
290.679	276.88
290.91	281.88
291.141	284.88
291.371	261.88
291.602	292.88
291.833	273.88
292.064	287.88
292.295	269.88
292.526	284.88
292.757	291.88
292.987	263.88
293.218	281.88
293.449	291.88
293.68	280.88
293.91	282.88
294.141	273.88
294.372	282.88
294.603	298.88
294.833	298.88
295.064	270.88
295.295	291.88
295.525	308.88
295.756	298.88
295.987	308.88
296.217	326.88
296.448	329.88
296.679	295.88
296.909	283.88
297.14	301.88
297.37	290.88
297.601	287.88
297.831	296.88
298.062	291.88
298.292	298.88
298.523	294.88
298.753	286.88
298.984	311.88
299.214	300.88
299.445	303.88
299.675	288.88
299.905	295.88
300.136	298.88
300.366	294.88
300.597	295.88
300.827	308.88
301.057	313.88
301.288	317.88
301.518	306.88
301.748	315.88
301.979	306.88
302.209	314.88
302.439	333.88
302.669	321.88
302.9	306.88
303.13	322.88
303.36	318.88
303.59	293.88
303.82	346.88
304.051	330.88
304.281	305.88
304.511	331.88
304.741	334.88
304.971	306.88
305.201	318.88
305.431	295.88
305.661	317.88
305.891	326.88
306.121	309.88
306.352	317.88
306.582	327.88
306.812	318.88
307.042	328.88
307.272	319.88
307.502	312.88
307.731	334.88
307.961	310.88
308.191	330.88
308.421	331.88
308.651	326.88
308.881	324.88
309.111	336.88
309.341	336.88
309.571	344.88
309.8	360.88
310.03	366.88
310.26	380.88
310.49	352.88
310.72	386.88
310.949	402.88
311.179	399.88
311.409	397.88
311.639	387.88
311.868	372.88
312.098	390.88
312.328	376.88
312.557	427.88
312.787	430.88
313.017	430.88
313.246	406.88
313.476	367.88
313.706	371.88
313.935	377.88
314.165	395.88
314.394	405.88
314.624	427.88
314.853	394.88
315.083	372.88
315.312	350.88
315.542	386.88
315.771	367.88
316.001	355.88
316.23	374.88
316.46	372.88
316.689	382.88
316.919	380.88
317.148	387.88
317.377	397.88
317.607	394.88
317.836	380.88
318.065	369.88
318.295	362.88
318.524	386.88
318.753	355.88
318.983	381.88
319.212	391.88
319.441	386.88
319.67	393.88
319.9	420.88
320.129	374.88
320.358	391.88
320.587	387.88
320.816	412.88
321.046	416.88
321.275	395.88
321.504	396.88
321.733	416.88
321.962	412.88
322.191	437.88
322.42	453.88
322.649	473.88
322.878	467.88
323.108	494.88
323.337	507.88
323.566	544.88
323.795	584.88
324.024	642.88
324.253	800.88
324.482	1111.88
324.71	1722.88
324.939	2423.88
325.168	2102.88
325.397	1136.88
325.626	781.88
325.855	636.88
326.084	547.88
326.313	545.88
326.542	560.88
326.77	607.88
326.999	712.88
327.228	988.88
327.457	1493.88
327.686	1841.88
327.914	1271.88
328.143	845.88
328.372	712.88
328.6	655.88
328.829	629.88
329.058	640.88
329.287	646.88
329.515	601.88
329.744	570.88
329.972	554.88
330.201	580.88
330.43	629.88
330.658	676.88
330.887	687.88
331.115	650.88
331.344	586.88
331.572	512.88
331.801	503.88
332.03	508.88
332.258	483.88
332.486	472.88
332.715	463.88
332.943	474.88
333.172	446.88
333.4	454.88
333.629	470.88
333.857	485.88
334.085	507.88
334.314	519.88
334.542	542.88
334.771	578.88
334.999	526.88
335.227	478.88
335.455	464.88
335.684	454.88
335.912	447.88
336.14	462.88
336.369	429.88
336.597	466.88
336.825	446.88
337.053	444.88
337.281	452.88
337.51	429.88
337.738	436.88
337.966	433.88
338.194	459.88
338.422	451.88
338.65	455.88
338.878	433.88
339.106	402.88
339.334	430.88
339.562	428.88
339.79	428.88
340.018	431.88
340.246	450.88
340.474	446.88
340.702	442.88
340.93	420.88
341.158	423.88
341.386	426.88
341.614	446.88
341.842	422.88
342.07	429.88
342.298	442.88
342.526	423.88
342.754	428.88
342.981	440.88
343.209	421.88
343.437	406.88
343.665	418.88
343.893	443.88
344.12	429.88
344.348	418.88
344.576	432.88
344.804	428.88
345.031	465.88
345.259	463.88
345.487	466.88
345.714	456.88
345.942	435.88
346.17	431.88
346.397	424.88
346.625	423.88
346.853	425.88
347.08	438.88
347.308	415.88
347.535	453.88
347.763	436.88
347.99	417.88
348.218	430.88
348.445	448.88
348.673	451.88
348.9	426.88
349.128	424.88
349.355	429.88
349.583	413.88
349.81	411.88
350.037	414.88
350.265	426.88
350.492	412.88
350.72	426.88
350.947	415.88
351.174	446.88
351.402	448.88
351.629	451.88
351.856	440.88
352.083	440.88
352.311	451.88
352.538	459.88
352.765	453.88
352.992	455.88
353.22	423.88
353.447	423.88
353.674	428.88
353.901	434.88
354.128	414.88
354.355	403.88
354.583	404.88
354.81	420.88
355.037	390.88
355.264	394.88
355.491	396.88
355.718	390.88
355.945	386.88
356.172	390.88
356.399	397.88
356.626	387.88
356.853	395.88
357.08	390.88
357.307	382.88
357.534	387.88
357.761	400.88
357.988	401.88
358.215	402.88
358.441	386.88
358.668	405.88
358.895	427.88
359.122	416.88
359.349	420.88
359.576	443.88
359.802	456.88
360.029	504.88
360.256	499.88
360.483	479.88
360.709	451.88
360.936	454.88
361.163	444.88
361.39	455.88
361.616	421.88
361.843	433.88
362.07	450.88
362.296	442.88
362.523	455.88
362.749	454.88
362.976	415.88
363.203	425.88
363.429	416.88
363.656	423.88
363.882	404.88
364.109	422.88
364.335	395.88
364.562	420.88
364.788	406.88
365.015	416.88
365.241	420.88
365.468	420.88
365.694	427.88
365.92	437.88
366.147	418.88
366.373	402.88
366.599	401.88
366.826	436.88
367.052	401.88
367.278	419.88
367.505	406.88
367.731	420.88
367.957	411.88
368.184	432.88
368.41	424.88
368.636	434.88
368.862	442.88
369.089	448.88
369.315	405.88
369.541	414.88
369.767	410.88
369.993	419.88
370.219	408.88
370.445	412.88
370.672	417.88
370.898	423.88
371.124	440.88
371.35	420.88
371.576	388.88
371.802	415.88
372.028	407.88
372.254	428.88
372.48	397.88
372.706	418.88
372.932	420.88
373.158	402.88
373.384	425.88
373.61	407.88
373.835	402.88
374.061	399.88
374.287	395.88
374.513	418.88
374.739	422.88
374.965	404.88
375.191	408.88
375.416	408.88
375.642	407.88
375.868	431.88
376.094	424.88
376.319	425.88
376.545	418.88
376.771	414.88
376.997	402.88
377.222	396.88
377.448	423.88
377.674	399.88
377.899	410.88
378.125	400.88
378.35	417.88
378.576	409.88
378.802	431.88
379.027	410.88
379.253	428.88
379.478	400.88
379.704	416.88
379.929	404.88
380.155	433.88
380.38	405.88
380.606	404.88
380.831	425.88
381.057	409.88
381.282	420.88
381.507	424.88
381.733	408.88
381.958	418.88
382.184	422.88
382.409	417.88
382.634	432.88
382.86	406.88
383.085	395.88
383.31	440.88
383.535	417.88
383.761	430.88
383.986	433.88
384.211	432.88
384.436	420.88
384.662	424.88
384.887	427.88
385.112	447.88
385.337	418.88
385.562	442.88
385.787	426.88
386.013	467.88
386.238	456.88
386.463	444.88
386.688	447.88
386.913	440.88
387.138	428.88
387.363	438.88
387.588	448.88
387.813	448.88
388.038	461.88
388.263	453.88
388.488	484.88
388.713	433.88
388.938	446.88
389.163	467.88
389.387	450.88
389.612	428.88
389.837	450.88
390.062	439.88
390.287	458.88
390.512	437.88
390.736	432.88
390.961	450.88
391.186	429.88
391.411	437.88
391.636	435.88
391.86	450.88
392.085	454.88
392.31	476.88
392.534	448.88
392.759	457.88
392.984	446.88
393.208	427.88
393.433	456.88
393.658	457.88
393.882	447.88
394.107	447.88
394.331	432.88
394.556	432.88
394.78	440.88
395.005	456.88
395.229	456.88
395.454	448.88
395.678	487.88
395.903	482.88
396.127	496.88
396.352	518.88
396.576	485.88
396.801	486.88
397.025	458.88
397.249	464.88
397.474	481.88
397.698	475.88
397.922	490.88
398.147	506.88
398.371	531.88
398.595	483.88
398.82	496.88
399.044	530.88
399.268	517.88
399.492	546.88
399.717	555.88
399.941	581.88
400.165	631.88
400.389	627.88
400.613	574.88
400.837	538.88
401.062	530.88
401.286	509.88
401.51	499.88
401.734	523.88
401.958	516.88
402.182	528.88
402.406	547.88
402.63	512.88
402.854	515.88
403.078	529.88
403.302	540.88
403.526	554.88
403.75	544.88
403.974	527.88
404.198	524.88
404.422	540.88
404.645	537.88
404.869	548.88
405.093	577.88
405.317	626.88
405.541	656.88
405.765	613.88
405.988	570.88
406.212	567.88
406.436	602.88
406.66	614.88
406.883	591.88
407.107	616.88
407.331	635.88
407.555	696.88
407.778	706.88
408.002	637.88
408.226	600.88
408.449	598.88
408.673	578.88
408.896	615.88
409.12	670.88
409.344	625.88
409.567	573.88
409.791	560.88
410.014	566.88
410.238	541.88
410.461	562.88
410.685	542.88
410.908	584.88
411.132	624.88
411.355	634.88
411.578	610.88
411.802	568.88
412.025	562.88
412.249	549.88
412.472	579.88
412.695	616.88
412.919	602.88
413.142	575.88
413.365	538.88
413.589	522.88
413.812	537.88
414.035	508.88
414.258	509.88
414.482	502.88
414.705	513.88
414.928	513.88
415.151	511.88
415.374	490.88
415.597	491.88
415.821	499.88
416.044	513.88
416.267	531.88
416.49	519.88
416.713	491.88
416.936	532.88
417.159	540.88
417.382	524.88
417.605	530.88
417.828	531.88
418.051	559.88
418.274	544.88
418.497	523.88
418.72	523.88
418.943	514.88
419.166	545.88
419.389	567.88
419.611	554.88
419.834	534.88
420.057	542.88
420.28	547.88
420.503	550.88
420.726	535.88
420.948	563.88
421.171	613.88
421.394	622.88
421.617	572.88
421.839	581.88
422.062	542.88
422.285	571.88
422.507	626.88
422.73	671.88
422.953	690.88
423.175	606.88
423.398	582.88
423.621	585.88
423.843	633.88
424.066	600.88
424.288	608.88
424.511	632.88
424.733	668.88
424.956	764.88
425.178	743.88
425.401	762.88
425.623	758.88
425.846	658.88
426.068	607.88
426.291	613.88
426.513	629.88
426.735	630.88
426.958	671.88
427.18	736.88
427.402	891.88
427.625	927.88
427.847	892.88
428.069	754.88
428.292	686.88
428.514	640.88
428.736	578.88
428.958	619.88
429.181	572.88
429.403	558.88
429.625	588.88
429.847	607.88
430.069	722.88
430.292	684.88
430.514	592.88
430.736	580.88
430.958	562.88
431.18	556.88
431.402	523.88
431.624	503.88
431.846	503.88
432.068	510.88
432.29	526.88
432.512	505.88
432.734	550.88
432.956	521.88
433.178	545.88
433.4	543.88
433.622	530.88
433.844	532.88
434.066	546.88
434.287	542.88
434.509	546.88
434.731	531.88
434.953	543.88
435.175	585.88
435.397	597.88
435.618	626.88
435.84	638.88
436.062	744.88
436.284	804.88
436.505	721.88
436.727	630.88
436.949	576.88
437.17	560.88
437.392	563.88
437.614	593.88
437.835	625.88
438.057	754.88
438.278	839.88
438.5	845.88
438.721	914.88
438.943	866.88
439.165	725.88
439.386	662.88
439.608	655.88
439.829	638.88
440.05	649.88
440.272	708.88
440.493	664.88
440.715	607.88
440.936	578.88
441.158	580.88
441.379	577.88
441.6	587.88
441.822	603.88
442.043	664.88
442.264	763.88
442.486	785.88
442.707	704.88
442.928	630.88
443.149	625.88
443.371	647.88
443.592	712.88
443.813	819.88
444.034	835.88
444.255	696.88
444.476	634.88
444.698	641.88
444.919	615.88
445.14	696.88
445.361	676.88
445.582	678.88
445.803	737.88
446.024	838.88
446.245	830.88
446.466	776.88
446.687	677.88
446.908	615.88
447.129	592.88
447.35	585.88
447.571	571.88
447.792	566.88
448.013	572.88
448.234	608.88
448.455	670.88
448.675	768.88
448.896	871.88
449.117	738.88
449.338	726.88
449.559	846.88
449.779	920.88
450	746.88
450.221	649.88
450.442	603.88
450.662	578.88
450.883	576.88
451.104	566.88
451.324	611.88
451.545	546.88
451.766	514.88
451.986	509.88
452.207	497.88
452.428	490.88
452.648	512.88
452.869	514.88
453.089	522.88
453.31	535.88
453.53	527.88
453.751	484.88
453.971	532.88
454.192	553.88
454.412	537.88
454.633	501.88
454.853	502.88
455.073	498.88
455.294	550.88
455.514	605.88
455.734	596.88
455.955	534.88
456.175	494.88
456.395	471.88
456.616	470.88
456.836	478.88
457.056	475.88
457.276	473.88
457.497	457.88
457.717	478.88
457.937	486.88
458.157	486.88
458.377	499.88
458.598	528.88
458.818	588.88
459.038	697.88
459.258	706.88
459.478	609.88
459.698	530.88
459.918	516.88
460.138	522.88
460.358	539.88
460.578	530.88
460.798	530.88
461.018	531.88
461.238	520.88
461.458	516.88
461.678	490.88
461.898	517.88
462.118	502.88
462.338	527.88
462.558	545.88
462.777	512.88
462.997	547.88
463.217	554.88
463.437	547.88
463.657	557.88
463.876	544.88
464.096	550.88
464.316	557.88
464.536	547.88
464.755	561.88
464.975	565.88
465.195	636.88
465.414	752.88
465.634	652.88
465.854	579.88
466.073	576.88
466.293	537.88
466.512	532.88
466.732	527.88
466.951	508.88
467.171	516.88
467.391	518.88
467.61	543.88
467.829	538.88
468.049	544.88
468.268	539.88
468.488	514.88
468.707	512.88
468.927	493.88
469.146	505.88
469.365	499.88
469.585	531.88
469.804	525.88
470.023	550.88
470.243	559.88
470.462	538.88
470.681	548.88
470.901	553.88
471.12	550.88
471.339	530.88
471.558	510.88
471.777	533.88
471.997	519.88
472.216	522.88
472.435	588.88
472.654	552.88
472.873	526.88
473.092	521.88
473.311	537.88
473.53	540.88
473.749	530.88
473.968	607.88
474.187	690.88
474.406	738.88
474.625	624.88
474.844	545.88
475.063	532.88
475.282	539.88
475.501	545.88
475.72	522.88
475.939	551.88
476.158	546.88
476.377	534.88
476.596	526.88
476.814	572.88
477.033	571.88
477.252	542.88
477.471	562.88
477.69	566.88
477.908	559.88
478.127	592.88
478.346	565.88
478.564	549.88
478.783	580.88
479.002	605.88
479.22	601.88
479.439	609.88
479.658	634.88
479.876	646.88
480.095	644.88
480.313	674.88
480.532	658.88
480.751	642.88
480.969	668.88
481.188	763.88
481.406	788.88
481.624	704.88
481.843	646.88
482.061	640.88
482.28	665.88
482.498	624.88
482.717	642.88
482.935	617.88
483.153	630.88
483.372	634.88
483.59	652.88
483.808	625.88
484.027	620.88
484.245	615.88
484.463	647.88
484.681	628.88
484.9	632.88
485.118	634.88
485.336	657.88
485.554	646.88
485.772	651.88
485.99	647.88
486.209	649.88
486.427	671.88
486.645	688.88
486.863	685.88
487.081	697.88
487.299	688.88
487.517	696.88
487.735	670.88
487.953	686.88
488.171	692.88
488.389	705.88
488.607	700.88
488.825	675.88
489.043	700.88
489.261	709.88
489.479	695.88
489.696	694.88
489.914	707.88
490.132	681.88
490.35	709.88
490.568	726.88
490.786	759.88
491.003	758.88
491.221	770.88
491.439	780.88
491.657	801.88
491.874	812.88
492.092	831.88
492.31	825.88
492.527	815.88
492.745	806.88
492.963	813.88
493.18	836.88
493.398	842.88
493.615	830.88
493.833	845.88
494.05	850.88
494.268	843.88
494.485	843.88
494.703	809.88
494.92	826.88
495.138	848.88
495.355	866.88
495.573	844.88
495.79	855.88
496.008	847.88
496.225	831.88
496.442	843.88
496.66	846.88
496.877	820.88
497.094	818.88
497.312	831.88
497.529	840.88
497.746	857.88
497.963	836.88
498.181	885.88
498.398	896.88
498.615	880.88
498.832	903.88
499.049	890.88
499.267	919.88
499.484	915.88
499.701	946.88
499.918	949.88
500.135	985.88
500.352	995.88
500.569	1033.88
500.786	1042.88
501.003	997.88
501.22	1013.88
501.437	983.88
501.654	981.88
501.871	995.88
