Data from 1970.PennyLincolnUp.Lamp.En5.5.200Scan.071719.P1._HRD10591_15-12-50-844.txt Node
Date: Thu Jul 18 15:12:50 EDT 2019
User: cochatt
Spectrometer: HR+D1059
Trigger mode: 1
Integration Time (sec): 1.000000E-1
Scans to average: 1
Electric dark correction enabled: true
Nonlinearity correction enabled: false
Boxcar width: 0
XAxis mode: Wavelengths
Number of Pixels in Spectrum: 2048
>>>>>Begin Spectral Data<<<<<
223.165	-17.44
223.4	-17.44
223.635	-17.44
223.869	-22.44
224.104	-35.44
224.338	1.56
224.573	-7.44
224.808	-4.44
225.042	-27.44
225.277	-7.44
225.511	7.56
225.746	7.56
225.98	-5.44
226.215	22.56
226.449	7.56
226.683	24.56
226.918	27.56
227.152	28.56
227.387	40.56
227.621	27.56
227.856	35.56
228.09	42.56
228.324	46.56
228.559	52.56
228.793	60.56
229.027	66.56
229.262	61.56
229.496	75.56
229.73	79.56
229.964	97.56
230.199	95.56
230.433	84.56
230.667	77.56
230.901	76.56
231.136	81.56
231.37	88.56
231.604	94.56
231.838	71.56
232.072	89.56
232.306	105.56
232.541	99.56
232.775	96.56
233.009	89.56
233.243	80.56
233.477	89.56
233.711	87.56
233.945	87.56
234.179	92.56
234.413	103.56
234.647	90.56
234.881	84.56
235.115	89.56
235.349	81.56
235.583	80.56
235.817	77.56
236.051	91.56
236.285	81.56
236.519	87.56
236.753	86.56
236.987	90.56
237.221	108.56
237.455	105.56
237.689	102.56
237.922	85.56
238.156	93.56
238.39	82.56
238.624	73.56
238.858	81.56
239.091	89.56
239.325	86.56
239.559	89.56
239.793	82.56
240.027	92.56
240.26	90.56
240.494	76.56
240.728	89.56
240.961	81.56
241.195	92.56
241.429	86.56
241.662	83.56
241.896	75.56
242.13	85.56
242.363	78.56
242.597	70.56
242.83	74.56
243.064	76.56
243.298	89.56
243.531	81.56
243.765	79.56
243.998	101.56
244.232	83.56
244.465	99.56
244.699	107.56
244.932	89.56
245.166	80.56
245.399	88.56
245.633	89.56
245.866	96.56
246.099	88.56
246.333	79.56
246.566	90.56
246.8	79.56
247.033	83.56
247.266	95.56
247.5	84.56
247.733	101.56
247.966	92.56
248.2	92.56
248.433	109.56
248.666	79.56
248.899	77.56
249.133	115.56
249.366	93.56
249.599	90.56
249.832	78.56
250.066	95.56
250.299	102.56
250.532	77.56
250.765	100.56
250.998	93.56
251.231	102.56
251.465	110.56
251.698	102.56
251.931	97.56
252.164	84.56
252.397	101.56
252.63	93.56
252.863	87.56
253.096	103.56
253.329	114.56
253.562	91.56
253.795	103.56
254.028	92.56
254.261	89.56
254.494	101.56
254.727	98.56
254.96	96.56
255.193	107.56
255.426	110.56
255.659	105.56
255.892	93.56
256.124	83.56
256.357	98.56
256.59	94.56
256.823	101.56
257.056	89.56
257.289	89.56
257.521	86.56
257.754	85.56
257.987	90.56
258.22	93.56
258.452	97.56
258.685	110.56
258.918	103.56
259.151	104.56
259.383	101.56
259.616	107.56
259.849	103.56
260.081	104.56
260.314	104.56
260.547	108.56
260.779	111.56
261.012	108.56
261.244	119.56
261.477	103.56
261.71	95.56
261.942	106.56
262.175	119.56
262.407	115.56
262.64	105.56
262.872	99.56
263.105	115.56
263.337	119.56
263.57	98.56
263.802	110.56
264.035	103.56
264.267	97.56
264.499	99.56
264.732	98.56
264.964	95.56
265.197	109.56
265.429	96.56
265.661	109.56
265.894	116.56
266.126	105.56
266.358	96.56
266.591	103.56
266.823	102.56
267.055	89.56
267.287	110.56
267.52	115.56
267.752	108.56
267.984	96.56
268.216	96.56
268.448	104.56
268.681	100.56
268.913	97.56
269.145	105.56
269.377	116.56
269.609	103.56
269.841	116.56
270.073	97.56
270.306	114.56
270.538	117.56
270.77	107.56
271.002	103.56
271.234	113.56
271.466	105.56
271.698	125.56
271.93	126.56
272.162	131.56
272.394	112.56
272.626	118.56
272.858	126.56
273.09	106.56
273.322	117.56
273.553	97.56
273.785	103.56
274.017	109.56
274.249	106.56
274.481	100.56
274.713	109.56
274.945	109.56
275.176	93.56
275.408	118.56
275.64	101.56
275.872	113.56
276.104	120.56
276.335	117.56
276.567	106.56
276.799	111.56
277.031	109.56
277.262	116.56
277.494	111.56
277.726	113.56
277.957	108.56
278.189	105.56
278.421	131.56
278.652	125.56
278.884	114.56
279.115	126.56
279.347	122.56
279.579	142.56
279.81	186.56
280.042	165.56
280.273	147.56
280.505	146.56
280.736	131.56
280.968	121.56
281.199	123.56
281.431	99.56
281.662	113.56
281.894	102.56
282.125	108.56
282.356	122.56
282.588	125.56
282.819	120.56
283.051	129.56
283.282	118.56
283.513	109.56
283.745	129.56
283.976	112.56
284.207	105.56
284.439	106.56
284.67	107.56
284.901	118.56
285.132	117.56
285.364	132.56
285.595	117.56
285.826	120.56
286.057	123.56
286.288	94.56
286.52	101.56
286.751	101.56
286.982	124.56
287.213	121.56
287.444	117.56
287.675	122.56
287.906	113.56
288.138	126.56
288.369	142.56
288.6	111.56
288.831	95.56
289.062	117.56
289.293	95.56
289.524	88.56
289.755	120.56
289.986	114.56
290.217	109.56
290.448	116.56
290.679	107.56
290.91	127.56
291.141	110.56
291.371	98.56
291.602	112.56
291.833	110.56
292.064	113.56
292.295	104.56
292.526	119.56
292.757	109.56
292.987	125.56
293.218	106.56
293.449	108.56
293.68	109.56
293.91	113.56
294.141	123.56
294.372	129.56
294.603	115.56
294.833	123.56
295.064	125.56
295.295	106.56
295.525	130.56
295.756	127.56
295.987	115.56
296.217	130.56
296.448	136.56
296.679	125.56
296.909	130.56
297.14	113.56
297.37	115.56
297.601	115.56
297.831	122.56
298.062	121.56
298.292	126.56
298.523	116.56
298.753	118.56
298.984	129.56
299.214	101.56
299.445	118.56
299.675	123.56
299.905	129.56
300.136	118.56
300.366	125.56
300.597	118.56
300.827	117.56
301.057	127.56
301.288	136.56
301.518	123.56
301.748	135.56
301.979	138.56
302.209	109.56
302.439	113.56
302.669	92.56
302.9	123.56
303.13	115.56
303.36	118.56
303.59	117.56
303.82	117.56
304.051	118.56
304.281	135.56
304.511	118.56
304.741	115.56
304.971	119.56
305.201	111.56
305.431	117.56
305.661	126.56
305.891	133.56
306.121	122.56
306.352	133.56
306.582	109.56
306.812	127.56
307.042	126.56
307.272	126.56
307.502	132.56
307.731	135.56
307.961	118.56
308.191	130.56
308.421	135.56
308.651	113.56
308.881	143.56
309.111	137.56
309.341	145.56
309.571	151.56
309.8	133.56
310.03	149.56
310.26	142.56
310.49	143.56
310.72	134.56
310.949	135.56
311.179	155.56
311.409	107.56
311.639	137.56
311.868	125.56
312.098	133.56
312.328	136.56
312.557	125.56
312.787	142.56
313.017	127.56
313.246	143.56
313.476	136.56
313.706	141.56
313.935	132.56
314.165	136.56
314.394	135.56
314.624	144.56
314.853	143.56
315.083	139.56
315.312	133.56
315.542	143.56
315.771	133.56
316.001	149.56
316.23	153.56
316.46	123.56
316.689	125.56
316.919	143.56
317.148	144.56
317.377	139.56
317.607	141.56
317.836	133.56
318.065	150.56
318.295	157.56
318.524	154.56
318.753	125.56
318.983	135.56
319.212	142.56
319.441	130.56
319.67	149.56
319.9	132.56
320.129	126.56
320.358	142.56
320.587	119.56
320.816	151.56
321.046	135.56
321.275	139.56
321.504	144.56
321.733	125.56
321.962	148.56
322.191	136.56
322.42	140.56
322.649	157.56
322.878	153.56
323.108	155.56
323.337	168.56
323.566	192.56
323.795	213.56
324.024	213.56
324.253	255.56
324.482	390.56
324.71	564.56
324.939	671.56
325.168	535.56
325.397	289.56
325.626	189.56
325.855	167.56
326.084	175.56
326.313	175.56
326.542	174.56
326.77	180.56
326.999	251.56
327.228	345.56
327.457	477.56
327.686	508.56
327.914	341.56
328.143	249.56
328.372	230.56
328.6	200.56
328.829	187.56
329.058	175.56
329.287	189.56
329.515	178.56
329.744	157.56
329.972	155.56
330.201	166.56
330.43	172.56
330.658	188.56
330.887	193.56
331.115	178.56
331.344	160.56
331.572	166.56
331.801	149.56
332.03	160.56
332.258	157.56
332.486	135.56
332.715	133.56
332.943	152.56
333.172	140.56
333.4	156.56
333.629	136.56
333.857	138.56
334.085	143.56
334.314	157.56
334.542	154.56
334.771	163.56
334.999	171.56
335.227	156.56
335.455	129.56
335.684	141.56
335.912	139.56
336.14	153.56
336.369	157.56
336.597	144.56
336.825	149.56
337.053	168.56
337.281	151.56
337.51	149.56
337.738	158.56
337.966	153.56
338.194	177.56
338.422	170.56
338.65	163.56
338.878	140.56
339.106	127.56
339.334	141.56
339.562	143.56
339.79	133.56
340.018	140.56
340.246	138.56
340.474	143.56
340.702	138.56
340.93	135.56
341.158	139.56
341.386	143.56
341.614	129.56
341.842	138.56
342.07	136.56
342.298	135.56
342.526	135.56
342.754	136.56
342.981	136.56
343.209	133.56
343.437	114.56
343.665	134.56
343.893	139.56
344.12	131.56
344.348	131.56
344.576	135.56
344.804	143.56
345.031	142.56
345.259	133.56
345.487	138.56
345.714	137.56
345.942	133.56
346.17	133.56
346.397	133.56
346.625	144.56
346.853	147.56
347.08	147.56
347.308	152.56
347.535	140.56
347.763	133.56
347.99	145.56
348.218	137.56
348.445	145.56
348.673	143.56
348.9	150.56
349.128	143.56
349.355	142.56
349.583	141.56
349.81	136.56
350.037	141.56
350.265	141.56
350.492	128.56
350.72	136.56
350.947	148.56
351.174	145.56
351.402	150.56
351.629	144.56
351.856	128.56
352.083	142.56
352.311	151.56
352.538	152.56
352.765	149.56
352.992	133.56
353.22	127.56
353.447	137.56
353.674	131.56
353.901	142.56
354.128	131.56
354.355	141.56
354.583	127.56
354.81	129.56
355.037	136.56
355.264	136.56
355.491	128.56
355.718	135.56
355.945	130.56
356.172	127.56
356.399	115.56
356.626	131.56
356.853	149.56
357.08	133.56
357.307	135.56
357.534	120.56
357.761	135.56
357.988	145.56
358.215	139.56
358.441	134.56
358.668	143.56
358.895	135.56
359.122	137.56
359.349	139.56
359.576	149.56
359.802	164.56
360.029	157.56
360.256	154.56
360.483	151.56
360.709	147.56
360.936	135.56
361.163	141.56
361.39	147.56
361.616	145.56
361.843	138.56
362.07	137.56
362.296	147.56
362.523	139.56
362.749	140.56
362.976	147.56
363.203	161.56
363.429	156.56
363.656	146.56
363.882	138.56
364.109	143.56
364.335	135.56
364.562	143.56
364.788	141.56
365.015	143.56
365.241	152.56
365.468	134.56
365.694	143.56
365.92	140.56
366.147	139.56
366.373	133.56
366.599	120.56
366.826	131.56
367.052	135.56
367.278	128.56
367.505	124.56
367.731	137.56
367.957	147.56
368.184	133.56
368.41	133.56
368.636	148.56
368.862	150.56
369.089	126.56
369.315	138.56
369.541	126.56
369.767	146.56
369.993	130.56
370.219	141.56
370.445	125.56
370.672	133.56
370.898	149.56
371.124	143.56
371.35	135.56
371.576	128.56
371.802	124.56
372.028	139.56
372.254	134.56
372.48	143.56
372.706	125.56
372.932	143.56
373.158	131.56
373.384	124.56
373.61	155.56
373.835	156.56
374.061	137.56
374.287	146.56
374.513	134.56
374.739	147.56
374.965	149.56
375.191	135.56
375.416	156.56
375.642	145.56
375.868	140.56
376.094	160.56
376.319	142.56
376.545	143.56
376.771	133.56
376.997	129.56
377.222	122.56
377.448	141.56
377.674	138.56
377.899	117.56
378.125	126.56
378.35	134.56
378.576	135.56
378.802	139.56
379.027	149.56
379.253	144.56
379.478	130.56
379.704	125.56
379.929	137.56
380.155	135.56
380.38	141.56
380.606	139.56
380.831	132.56
381.057	142.56
381.282	150.56
381.507	140.56
381.733	147.56
381.958	141.56
382.184	147.56
382.409	152.56
382.634	150.56
382.86	149.56
383.085	144.56
383.31	164.56
383.535	156.56
383.761	164.56
383.986	163.56
384.211	161.56
384.436	156.56
384.662	149.56
384.887	142.56
385.112	153.56
385.337	148.56
385.562	143.56
385.787	143.56
386.013	163.56
386.238	158.56
386.463	160.56
386.688	158.56
386.913	137.56
387.138	139.56
387.363	160.56
387.588	135.56
387.813	145.56
388.038	165.56
388.263	158.56
388.488	158.56
388.713	146.56
388.938	138.56
389.163	147.56
389.387	137.56
389.612	143.56
389.837	137.56
390.062	125.56
390.287	136.56
390.512	130.56
390.736	143.56
390.961	145.56
391.186	130.56
391.411	145.56
391.636	143.56
391.86	145.56
392.085	146.56
392.31	163.56
392.534	147.56
392.759	159.56
392.984	209.56
393.208	295.56
393.433	437.56
393.658	424.56
393.882	227.56
394.107	151.56
394.331	188.56
394.556	190.56
394.78	182.56
395.005	153.56
395.229	138.56
395.454	156.56
395.678	174.56
395.903	171.56
396.127	205.56
396.352	219.56
396.576	228.56
396.801	275.56
397.025	330.56
397.249	266.56
397.474	167.56
397.698	161.56
397.922	159.56
398.147	159.56
398.371	161.56
398.595	149.56
398.82	150.56
399.044	152.56
399.268	145.56
399.492	163.56
399.717	166.56
399.941	173.56
400.165	177.56
400.389	174.56
400.613	161.56
400.837	158.56
401.062	161.56
401.286	151.56
401.51	162.56
401.734	143.56
401.958	162.56
402.182	157.56
402.406	157.56
402.63	152.56
402.854	159.56
403.078	158.56
403.302	155.56
403.526	156.56
403.75	151.56
403.974	174.56
404.198	163.56
404.422	145.56
404.645	143.56
404.869	169.56
405.093	170.56
405.317	173.56
405.541	170.56
405.765	162.56
405.988	161.56
406.212	172.56
406.436	193.56
406.66	195.56
406.883	172.56
407.107	162.56
407.331	178.56
407.555	207.56
407.778	197.56
408.002	157.56
408.226	177.56
408.449	165.56
408.673	160.56
408.896	154.56
409.12	172.56
409.344	167.56
409.567	162.56
409.791	167.56
410.014	162.56
410.238	152.56
410.461	163.56
410.685	164.56
410.908	158.56
411.132	161.56
411.355	172.56
411.578	163.56
411.802	147.56
412.025	152.56
412.249	150.56
412.472	166.56
412.695	158.56
412.919	154.56
413.142	149.56
413.365	151.56
413.589	139.56
413.812	147.56
414.035	143.56
414.258	145.56
414.482	155.56
414.705	163.56
414.928	136.56
415.151	138.56
415.374	154.56
415.597	149.56
415.821	156.56
416.044	159.56
416.267	157.56
416.49	156.56
416.713	143.56
416.936	148.56
417.159	155.56
417.382	165.56
417.605	147.56
417.828	170.56
418.051	163.56
418.274	153.56
418.497	148.56
418.72	154.56
418.943	159.56
419.166	166.56
419.389	147.56
419.611	169.56
419.834	149.56
420.057	158.56
420.28	145.56
420.503	150.56
420.726	165.56
420.948	158.56
421.171	164.56
421.394	149.56
421.617	156.56
421.839	157.56
422.062	149.56
422.285	168.56
422.507	201.56
422.73	255.56
422.953	290.56
423.175	193.56
423.398	174.56
423.621	144.56
423.843	158.56
424.066	161.56
424.288	156.56
424.511	160.56
424.733	172.56
424.956	195.56
425.178	198.56
425.401	174.56
425.623	192.56
425.846	169.56
426.068	143.56
426.291	167.56
426.513	161.56
426.735	153.56
426.958	167.56
427.18	189.56
427.402	204.56
427.625	231.56
427.847	234.56
428.069	191.56
428.292	181.56
428.514	182.56
428.736	161.56
428.958	177.56
429.181	177.56
429.403	156.56
429.625	158.56
429.847	166.56
430.069	202.56
430.292	198.56
430.514	185.56
430.736	161.56
430.958	156.56
431.18	161.56
431.402	174.56
431.624	131.56
431.846	168.56
432.068	167.56
432.29	160.56
432.512	146.56
432.734	150.56
432.956	154.56
433.178	151.56
433.4	166.56
433.622	153.56
433.844	147.56
434.066	138.56
434.287	158.56
434.509	138.56
434.731	138.56
434.953	142.56
435.175	163.56
435.397	162.56
435.618	164.56
435.84	161.56
436.062	184.56
436.284	206.56
436.505	173.56
436.727	150.56
436.949	150.56
437.17	151.56
437.392	149.56
437.614	163.56
437.835	171.56
438.057	184.56
438.278	183.56
438.5	208.56
438.721	216.56
438.943	199.56
439.165	179.56
439.386	154.56
439.608	177.56
439.829	189.56
440.05	192.56
440.272	186.56
440.493	171.56
440.715	178.56
440.936	166.56
441.158	161.56
441.379	167.56
441.6	166.56
441.822	182.56
442.043	174.56
442.264	185.56
442.486	188.56
442.707	165.56
442.928	188.56
443.149	173.56
443.371	182.56
443.592	192.56
443.813	206.56
444.034	211.56
444.255	186.56
444.476	171.56
444.698	173.56
444.919	161.56
445.14	290.56
445.361	239.56
445.582	206.56
445.803	234.56
446.024	223.56
446.245	203.56
446.466	193.56
446.687	189.56
446.908	169.56
447.129	163.56
447.35	163.56
447.571	167.56
447.792	162.56
448.013	171.56
448.234	167.56
448.455	170.56
448.675	203.56
448.896	204.56
449.117	179.56
449.338	188.56
449.559	207.56
449.779	205.56
450	172.56
450.221	164.56
450.442	169.56
450.662	154.56
450.883	177.56
451.104	175.56
451.324	174.56
451.545	149.56
451.766	130.56
451.986	142.56
452.207	166.56
452.428	141.56
452.648	152.56
452.869	145.56
453.089	160.56
453.31	164.56
453.53	171.56
453.751	160.56
453.971	158.56
454.192	157.56
454.412	150.56
454.633	141.56
454.853	143.56
455.073	146.56
455.294	154.56
455.514	182.56
455.734	158.56
455.955	137.56
456.175	137.56
456.395	150.56
456.616	138.56
456.836	132.56
457.056	143.56
457.276	132.56
457.497	138.56
457.717	145.56
457.937	154.56
458.157	153.56
458.377	150.56
458.598	177.56
458.818	162.56
459.038	181.56
459.258	183.56
459.478	166.56
459.698	140.56
459.918	148.56
460.138	152.56
460.358	142.56
460.578	155.56
460.798	156.56
461.018	150.56
461.238	153.56
461.458	159.56
461.678	147.56
461.898	151.56
462.118	154.56
462.338	162.56
462.558	177.56
462.777	167.56
462.997	157.56
463.217	163.56
463.437	167.56
463.657	164.56
463.876	153.56
464.096	161.56
464.316	162.56
464.536	154.56
464.755	178.56
464.975	155.56
465.195	187.56
465.414	203.56
465.634	193.56
465.854	171.56
466.073	145.56
466.293	147.56
466.512	156.56
466.732	153.56
466.951	149.56
467.171	159.56
467.391	165.56
467.61	152.56
467.829	157.56
468.049	145.56
468.268	149.56
468.488	145.56
468.707	153.56
468.927	139.56
469.146	153.56
469.365	146.56
469.585	144.56
469.804	147.56
470.023	177.56
470.243	166.56
470.462	147.56
470.681	180.56
470.901	164.56
471.12	162.56
471.339	161.56
471.558	158.56
471.777	136.56
471.997	157.56
472.216	142.56
472.435	154.56
472.654	146.56
472.873	139.56
473.092	155.56
473.311	158.56
473.53	147.56
473.749	155.56
473.968	174.56
474.187	167.56
474.406	169.56
474.625	153.56
474.844	154.56
475.063	158.56
475.282	142.56
475.501	152.56
475.72	151.56
475.939	138.56
476.158	151.56
476.377	159.56
476.596	165.56
476.814	155.56
477.033	157.56
477.252	169.56
477.471	161.56
477.69	158.56
477.908	165.56
478.127	181.56
478.346	165.56
478.564	137.56
478.783	169.56
479.002	166.56
479.22	172.56
479.439	172.56
479.658	185.56
479.876	183.56
480.095	170.56
480.313	170.56
480.532	174.56
480.751	166.56
480.969	170.56
481.188	173.56
481.406	179.56
481.624	167.56
481.843	156.56
482.061	169.56
482.28	170.56
482.498	153.56
482.717	162.56
482.935	157.56
483.153	171.56
483.372	166.56
483.59	161.56
483.808	175.56
484.027	166.56
484.245	162.56
484.463	165.56
484.681	175.56
484.9	186.56
485.118	167.56
485.336	173.56
485.554	161.56
485.772	170.56
485.99	160.56
486.209	155.56
486.427	193.56
486.645	174.56
486.863	185.56
487.081	166.56
487.299	183.56
487.517	183.56
487.735	178.56
487.953	187.56
488.171	189.56
488.389	185.56
488.607	178.56
488.825	158.56
489.043	162.56
489.261	164.56
489.479	154.56
489.696	185.56
489.914	176.56
490.132	160.56
490.35	177.56
490.568	172.56
490.786	187.56
491.003	186.56
491.221	213.56
491.439	197.56
491.657	192.56
491.874	183.56
492.092	191.56
492.31	199.56
492.527	209.56
492.745	197.56
492.963	178.56
493.18	207.56
493.398	196.56
493.615	213.56
493.833	207.56
494.05	187.56
494.268	194.56
494.485	174.56
494.703	192.56
494.92	196.56
495.138	188.56
495.355	190.56
495.573	201.56
495.79	195.56
496.008	185.56
496.225	209.56
496.442	193.56
496.66	191.56
496.877	204.56
497.094	188.56
497.312	189.56
497.529	187.56
497.746	196.56
497.963	202.56
498.181	208.56
498.398	225.56
498.615	195.56
498.832	191.56
499.049	203.56
499.267	223.56
499.484	228.56
499.701	221.56
499.918	213.56
500.135	245.56
500.352	231.56
500.569	228.56
500.786	242.56
501.003	249.56
501.22	241.56
501.437	231.56
501.654	220.56
501.871	239.56
502.088	217.56
502.305	204.56
502.522	206.56
502.739	213.56
502.956	213.56
503.172	210.56
503.389	190.56
503.606	202.56
503.823	204.56
