Data from 1970.PennyLincolnUp.Lamp.En5.5.200Scan.071719.P1._HRD10591_15-14-31-842.txt Node
Date: Thu Jul 18 15:14:31 EDT 2019
User: cochatt
Spectrometer: HR+D1059
Trigger mode: 1
Integration Time (sec): 1.000000E-1
Scans to average: 1
Electric dark correction enabled: true
Nonlinearity correction enabled: false
Boxcar width: 0
XAxis mode: Wavelengths
Number of Pixels in Spectrum: 2048
>>>>>Begin Spectral Data<<<<<
223.165	-23.69
223.4	-23.69
223.635	-23.69
223.869	-16.69
224.104	-17.69
224.338	-2.69
224.573	-7.69
224.808	-3.69
225.042	-13.69
225.277	-5.69
225.511	-16.69
225.746	10.31
225.98	5.31
226.215	7.31
226.449	18.31
226.683	19.31
226.918	18.31
227.152	29.31
227.387	29.31
227.621	37.31
227.856	39.31
228.09	44.31
228.324	39.31
228.559	50.31
228.793	71.31
229.027	95.31
229.262	119.31
229.496	136.31
229.73	146.31
229.964	189.31
230.199	159.31
230.433	123.31
230.667	116.31
230.901	121.31
231.136	106.31
231.37	116.31
231.604	126.31
231.838	119.31
232.072	120.31
232.306	113.31
232.541	123.31
232.775	118.31
233.009	103.31
233.243	126.31
233.477	120.31
233.711	112.31
233.945	110.31
234.179	126.31
234.413	114.31
234.647	127.31
234.881	120.31
235.115	128.31
235.349	129.31
235.583	120.31
235.817	116.31
236.051	132.31
236.285	138.31
236.519	124.31
236.753	138.31
236.987	181.31
237.221	214.31
237.455	249.31
237.689	204.31
237.922	150.31
238.156	134.31
238.39	144.31
238.624	146.31
238.858	134.31
239.091	128.31
239.325	124.31
239.559	140.31
239.793	149.31
240.027	152.31
240.26	151.31
240.494	158.31
240.728	152.31
240.961	166.31
241.195	149.31
241.429	148.31
241.662	140.31
241.896	138.31
242.13	138.31
242.363	126.31
242.597	136.31
242.83	132.31
243.064	137.31
243.298	147.31
243.531	149.31
243.765	144.31
243.998	142.31
244.232	161.31
244.465	158.31
244.699	145.31
244.932	164.31
245.166	152.31
245.399	160.31
245.633	152.31
245.866	166.31
246.099	148.31
246.333	157.31
246.566	162.31
246.8	155.31
247.033	169.31
247.266	159.31
247.5	168.31
247.733	186.31
247.966	193.31
248.2	192.31
248.433	187.31
248.666	209.31
248.899	200.31
249.133	204.31
249.366	222.31
249.599	223.31
249.832	220.31
250.066	197.31
250.299	200.31
250.532	191.31
250.765	211.31
250.998	228.31
251.231	244.31
251.465	230.31
251.698	217.31
251.931	227.31
252.164	220.31
252.397	222.31
252.63	221.31
252.863	229.31
253.096	253.31
253.329	270.31
253.562	250.31
253.795	245.31
254.028	253.31
254.261	256.31
254.494	236.31
254.727	278.31
254.96	293.31
255.193	317.31
255.426	296.31
255.659	264.31
255.892	261.31
256.124	274.31
256.357	273.31
256.59	268.31
256.823	263.31
257.056	243.31
257.289	230.31
257.521	226.31
257.754	232.31
257.987	235.31
258.22	229.31
258.452	210.31
258.685	213.31
258.918	237.31
259.151	241.31
259.383	240.31
259.616	232.31
259.849	237.31
260.081	262.31
260.314	281.31
260.547	280.31
260.779	268.31
261.012	272.31
261.244	251.31
261.477	245.31
261.71	229.31
261.942	223.31
262.175	265.31
262.407	245.31
262.64	230.31
262.872	234.31
263.105	218.31
263.337	235.31
263.57	222.31
263.802	214.31
264.035	239.31
264.267	234.31
264.499	225.31
264.732	217.31
264.964	223.31
265.197	217.31
265.429	231.31
265.661	227.31
265.894	213.31
266.126	230.31
266.358	219.31
266.591	216.31
266.823	240.31
267.055	241.31
267.287	247.31
267.52	231.31
267.752	234.31
267.984	240.31
268.216	240.31
268.448	248.31
268.681	260.31
268.913	248.31
269.145	264.31
269.377	270.31
269.609	275.31
269.841	275.31
270.073	307.31
270.306	316.31
270.538	324.31
270.77	343.31
271.002	336.31
271.234	315.31
271.466	312.31
271.698	348.31
271.93	341.31
272.162	344.31
272.394	342.31
272.626	324.31
272.858	305.31
273.09	290.31
273.322	292.31
273.553	280.31
273.785	270.31
274.017	271.31
274.249	262.31
274.481	279.31
274.713	264.31
274.945	287.31
275.176	290.31
275.408	288.31
275.64	264.31
275.872	276.31
276.104	271.31
276.335	257.31
276.567	278.31
276.799	309.31
277.031	309.31
277.262	331.31
277.494	331.31
277.726	319.31
277.957	325.31
278.189	280.31
278.421	268.31
278.652	270.31
278.884	262.31
279.115	265.31
279.347	272.31
279.579	266.31
279.81	274.31
280.042	273.31
280.273	273.31
280.505	271.31
280.736	248.31
280.968	261.31
281.199	277.31
281.431	277.31
281.662	255.31
281.894	277.31
282.125	280.31
282.356	274.31
282.588	291.31
282.819	312.31
283.051	300.31
283.282	272.31
283.513	270.31
283.745	276.31
283.976	275.31
284.207	257.31
284.439	286.31
284.67	285.31
284.901	274.31
285.132	268.31
285.364	259.31
285.595	263.31
285.826	270.31
286.057	276.31
286.288	279.31
286.52	257.31
286.751	296.31
286.982	269.31
287.213	270.31
287.444	288.31
287.675	295.31
287.906	275.31
288.138	286.31
288.369	308.31
288.6	313.31
288.831	303.31
289.062	300.31
289.293	299.31
289.524	305.31
289.755	281.31
289.986	279.31
290.217	277.31
290.448	291.31
290.679	280.31
290.91	288.31
291.141	281.31
291.371	280.31
291.602	281.31
291.833	289.31
292.064	284.31
292.295	270.31
292.526	284.31
292.757	294.31
292.987	291.31
293.218	277.31
293.449	295.31
293.68	284.31
293.91	299.31
294.141	300.31
294.372	294.31
294.603	278.31
294.833	312.31
295.064	282.31
295.295	285.31
295.525	297.31
295.756	284.31
295.987	300.31
296.217	342.31
296.448	347.31
296.679	295.31
296.909	267.31
297.14	262.31
297.37	294.31
297.601	295.31
297.831	292.31
298.062	304.31
298.292	274.31
298.523	297.31
298.753	286.31
298.984	307.31
299.214	306.31
299.445	310.31
299.675	308.31
299.905	297.31
300.136	311.31
300.366	314.31
300.597	318.31
300.827	305.31
301.057	289.31
301.288	328.31
301.518	308.31
301.748	322.31
301.979	317.31
302.209	303.31
302.439	311.31
302.669	320.31
302.9	323.31
303.13	316.31
303.36	327.31
303.59	342.31
303.82	328.31
304.051	332.31
304.281	320.31
304.511	314.31
304.741	313.31
304.971	311.31
305.201	321.31
305.431	309.31
305.661	304.31
305.891	325.31
306.121	309.31
306.352	317.31
306.582	338.31
306.812	326.31
307.042	333.31
307.272	327.31
307.502	332.31
307.731	338.31
307.961	326.31
308.191	318.31
308.421	333.31
308.651	354.31
308.881	344.31
309.111	350.31
309.341	331.31
309.571	365.31
309.8	365.31
310.03	372.31
310.26	366.31
310.49	384.31
310.72	390.31
310.949	396.31
311.179	413.31
311.409	376.31
311.639	388.31
311.868	384.31
312.098	366.31
312.328	372.31
312.557	431.31
312.787	401.31
313.017	413.31
313.246	396.31
313.476	383.31
313.706	382.31
313.935	381.31
314.165	407.31
314.394	410.31
314.624	394.31
314.853	400.31
315.083	374.31
315.312	380.31
315.542	366.31
315.771	360.31
316.001	369.31
316.23	356.31
316.46	376.31
316.689	404.31
316.919	370.31
317.148	398.31
317.377	394.31
317.607	391.31
317.836	392.31
318.065	386.31
318.295	374.31
318.524	363.31
318.753	365.31
318.983	365.31
319.212	386.31
319.441	403.31
319.67	402.31
319.9	380.31
320.129	380.31
320.358	393.31
320.587	385.31
320.816	397.31
321.046	414.31
321.275	404.31
321.504	403.31
321.733	405.31
321.962	406.31
322.191	434.31
322.42	454.31
322.649	477.31
322.878	475.31
323.108	500.31
323.337	511.31
323.566	522.31
323.795	585.31
324.024	637.31
324.253	777.31
324.482	1105.31
324.71	1706.31
324.939	2398.31
325.168	2120.31
325.397	1144.31
325.626	746.31
325.855	628.31
326.084	568.31
326.313	548.31
326.542	566.31
326.77	613.31
326.999	715.31
327.228	978.31
327.457	1473.31
327.686	1837.31
327.914	1253.31
328.143	836.31
328.372	719.31
328.6	673.31
328.829	609.31
329.058	648.31
329.287	646.31
329.515	606.31
329.744	569.31
329.972	560.31
330.201	562.31
330.43	619.31
330.658	653.31
330.887	684.31
331.115	672.31
331.344	569.31
331.572	528.31
331.801	512.31
332.03	518.31
332.258	509.31
332.486	467.31
332.715	458.31
332.943	476.31
333.172	474.31
333.4	469.31
333.629	469.31
333.857	466.31
334.085	521.31
334.314	522.31
334.542	551.31
334.771	583.31
334.999	545.31
335.227	474.31
335.455	478.31
335.684	456.31
335.912	453.31
336.14	450.31
336.369	463.31
336.597	454.31
336.825	473.31
337.053	440.31
337.281	454.31
337.51	457.31
337.738	443.31
337.966	444.31
338.194	476.31
338.422	470.31
338.65	447.31
338.878	443.31
339.106	411.31
339.334	436.31
339.562	433.31
339.79	425.31
340.018	448.31
340.246	429.31
340.474	444.31
340.702	433.31
340.93	414.31
341.158	461.31
341.386	441.31
341.614	452.31
341.842	441.31
342.07	421.31
342.298	433.31
342.526	414.31
342.754	420.31
342.981	421.31
343.209	403.31
343.437	416.31
343.665	424.31
343.893	425.31
344.12	429.31
344.348	416.31
344.576	444.31
344.804	452.31
345.031	444.31
345.259	467.31
345.487	463.31
345.714	446.31
345.942	431.31
346.17	432.31
346.397	428.31
346.625	428.31
346.853	427.31
347.08	434.31
347.308	436.31
347.535	440.31
347.763	454.31
347.99	450.31
348.218	419.31
348.445	444.31
348.673	434.31
348.9	446.31
349.128	432.31
349.355	420.31
349.583	419.31
349.81	409.31
350.037	393.31
350.265	446.31
350.492	425.31
350.72	414.31
350.947	420.31
351.174	439.31
351.402	442.31
351.629	454.31
351.856	434.31
352.083	426.31
352.311	447.31
352.538	454.31
352.765	464.31
352.992	452.31
353.22	431.31
353.447	447.31
353.674	417.31
353.901	410.31
354.128	419.31
354.355	395.31
354.583	413.31
354.81	400.31
355.037	404.31
355.264	415.31
355.491	389.31
355.718	396.31
355.945	393.31
356.172	380.31
356.399	380.31
356.626	409.31
356.853	386.31
357.08	379.31
357.307	425.31
357.534	398.31
357.761	392.31
357.988	414.31
358.215	413.31
358.441	396.31
358.668	420.31
358.895	416.31
359.122	443.31
359.349	433.31
359.576	445.31
359.802	480.31
360.029	509.31
360.256	509.31
360.483	456.31
360.709	449.31
360.936	430.31
361.163	435.31
361.39	426.31
361.616	446.31
361.843	434.31
362.07	440.31
362.296	433.31
362.523	450.31
362.749	421.31
362.976	416.31
363.203	437.31
363.429	432.31
363.656	433.31
363.882	427.31
364.109	417.31
364.335	439.31
364.562	416.31
364.788	434.31
365.015	401.31
365.241	416.31
365.468	436.31
365.694	427.31
365.92	441.31
366.147	417.31
366.373	419.31
366.599	409.31
366.826	413.31
367.052	403.31
367.278	414.31
367.505	413.31
367.731	421.31
367.957	389.31
368.184	401.31
368.41	440.31
368.636	430.31
368.862	427.31
369.089	440.31
369.315	417.31
369.541	423.31
369.767	425.31
369.993	443.31
370.219	412.31
370.445	418.31
370.672	410.31
370.898	404.31
371.124	418.31
371.35	408.31
371.576	398.31
371.802	387.31
372.028	412.31
372.254	420.31
372.48	402.31
372.706	402.31
372.932	417.31
373.158	430.31
373.384	419.31
373.61	417.31
373.835	419.31
374.061	414.31
374.287	423.31
374.513	428.31
374.739	424.31
374.965	429.31
375.191	408.31
375.416	414.31
375.642	399.31
375.868	420.31
376.094	416.31
376.319	408.31
376.545	417.31
376.771	413.31
376.997	418.31
377.222	402.31
377.448	416.31
377.674	400.31
377.899	409.31
378.125	423.31
378.35	414.31
378.576	409.31
378.802	412.31
379.027	433.31
379.253	416.31
379.478	408.31
379.704	414.31
379.929	427.31
380.155	414.31
380.38	428.31
380.606	420.31
380.831	409.31
381.057	432.31
381.282	441.31
381.507	432.31
381.733	418.31
381.958	405.31
382.184	415.31
382.409	450.31
382.634	433.31
382.86	415.31
383.085	421.31
383.31	441.31
383.535	435.31
383.761	400.31
383.986	428.31
384.211	436.31
384.436	430.31
384.662	421.31
384.887	454.31
385.112	431.31
385.337	439.31
385.562	455.31
385.787	432.31
386.013	437.31
386.238	448.31
386.463	431.31
386.688	448.31
386.913	429.31
387.138	437.31
387.363	465.31
387.588	464.31
387.813	449.31
388.038	424.31
388.263	449.31
388.488	428.31
388.713	445.31
388.938	463.31
389.163	452.31
389.387	461.31
389.612	417.31
389.837	436.31
390.062	445.31
390.287	437.31
390.512	438.31
390.736	419.31
390.961	428.31
391.186	450.31
391.411	443.31
391.636	436.31
391.86	458.31
392.085	454.31
392.31	449.31
392.534	448.31
392.759	444.31
392.984	454.31
393.208	440.31
393.433	466.31
393.658	431.31
393.882	454.31
394.107	469.31
394.331	442.31
394.556	456.31
394.78	466.31
395.005	452.31
395.229	451.31
395.454	472.31
395.678	464.31
395.903	476.31
396.127	494.31
396.352	511.31
396.576	484.31
396.801	482.31
397.025	490.31
397.249	479.31
397.474	467.31
397.698	478.31
397.922	478.31
398.147	514.31
398.371	497.31
398.595	513.31
398.82	497.31
399.044	499.31
399.268	516.31
399.492	549.31
399.717	568.31
399.941	580.31
400.165	594.31
400.389	642.31
400.613	565.31
400.837	526.31
401.062	538.31
401.286	530.31
401.51	527.31
401.734	519.31
401.958	515.31
402.182	514.31
402.406	521.31
402.63	528.31
402.854	538.31
403.078	534.31
403.302	548.31
403.526	528.31
403.75	540.31
403.974	549.31
404.198	550.31
404.422	543.31
404.645	560.31
404.869	557.31
405.093	576.31
405.317	635.31
405.541	634.31
405.765	605.31
405.988	593.31
406.212	580.31
406.436	599.31
406.66	629.31
406.883	600.31
407.107	601.31
407.331	645.31
407.555	726.31
407.778	682.31
408.002	641.31
408.226	617.31
408.449	610.31
408.673	591.31
408.896	630.31
409.12	654.31
409.344	642.31
409.567	583.31
409.791	583.31
410.014	565.31
410.238	558.31
410.461	551.31
410.685	574.31
410.908	580.31
411.132	616.31
411.355	640.31
411.578	618.31
411.802	557.31
412.025	558.31
412.249	570.31
412.472	592.31
412.695	624.31
412.919	622.31
413.142	561.31
413.365	524.31
413.589	533.31
413.812	520.31
414.035	529.31
414.258	521.31
414.482	478.31
414.705	532.31
414.928	527.31
415.151	528.31
415.374	494.31
415.597	495.31
415.821	528.31
416.044	507.31
416.267	527.31
416.49	505.31
416.713	487.31
416.936	521.31
417.159	513.31
417.382	536.31
417.605	517.31
417.828	538.31
418.051	543.31
418.274	533.31
418.497	522.31
418.72	548.31
418.943	523.31
419.166	524.31
419.389	551.31
419.611	544.31
419.834	544.31
420.057	571.31
420.28	541.31
420.503	545.31
420.726	561.31
420.948	591.31
421.171	620.31
421.394	638.31
421.617	586.31
421.839	529.31
422.062	570.31
422.285	544.31
422.507	597.31
422.73	689.31
422.953	674.31
423.175	625.31
423.398	600.31
423.621	577.31
423.843	609.31
424.066	625.31
424.288	591.31
424.511	615.31
424.733	689.31
424.956	774.31
425.178	722.31
425.401	734.31
425.623	737.31
425.846	665.31
426.068	638.31
426.291	617.31
426.513	619.31
426.735	647.31
426.958	647.31
427.18	764.31
427.402	866.31
427.625	962.31
427.847	872.31
428.069	760.31
428.292	679.31
428.514	632.31
428.736	620.31
428.958	582.31
429.181	578.31
429.403	558.31
429.625	573.31
429.847	610.31
430.069	687.31
430.292	662.31
430.514	576.31
430.736	548.31
430.958	560.31
431.18	541.31
431.402	539.31
431.624	526.31
431.846	502.31
432.068	513.31
432.29	527.31
432.512	550.31
432.734	523.31
432.956	525.31
433.178	547.31
433.4	534.31
433.622	546.31
433.844	535.31
434.066	509.31
434.287	524.31
434.509	518.31
434.731	517.31
434.953	554.31
435.175	548.31
435.397	610.31
435.618	622.31
435.84	615.31
436.062	746.31
436.284	836.31
436.505	671.31
436.727	655.31
436.949	589.31
437.17	592.31
437.392	573.31
437.614	604.31
437.835	649.31
438.057	738.31
438.278	828.31
438.5	847.31
438.721	875.31
438.943	847.31
439.165	711.31
439.386	631.31
439.608	652.31
439.829	623.31
440.05	658.31
440.272	710.31
440.493	671.31
440.715	614.31
440.936	586.31
441.158	559.31
441.379	580.31
441.6	592.31
441.822	618.31
442.043	656.31
442.264	747.31
442.486	780.31
442.707	683.31
442.928	637.31
443.149	653.31
443.371	669.31
443.592	696.31
443.813	792.31
444.034	869.31
444.255	698.31
444.476	639.31
444.698	614.31
444.919	607.31
445.14	727.31
445.361	667.31
445.582	647.31
445.803	745.31
446.024	841.31
446.245	848.31
446.466	781.31
446.687	679.31
446.908	637.31
447.129	582.31
447.35	581.31
447.571	573.31
447.792	599.31
448.013	576.31
448.234	581.31
448.455	661.31
448.675	776.31
448.896	873.31
449.117	763.31
449.338	738.31
449.559	821.31
449.779	898.31
450	750.31
450.221	647.31
450.442	606.31
450.662	569.31
450.883	599.31
451.104	602.31
451.324	576.31
451.545	566.31
451.766	565.31
451.986	550.31
452.207	530.31
452.428	513.31
452.648	503.31
452.869	505.31
453.089	525.31
453.31	550.31
453.53	531.31
453.751	515.31
453.971	503.31
454.192	550.31
454.412	531.31
454.633	518.31
454.853	510.31
455.073	488.31
455.294	539.31
455.514	640.31
455.734	593.31
455.955	513.31
456.175	471.31
456.395	479.31
456.616	464.31
456.836	466.31
457.056	487.31
457.276	470.31
457.497	470.31
457.717	469.31
457.937	461.31
458.157	496.31
458.377	489.31
458.598	537.31
458.818	602.31
459.038	695.31
459.258	704.31
459.478	583.31
459.698	545.31
459.918	518.31
460.138	527.31
460.358	540.31
460.578	523.31
460.798	534.31
461.018	544.31
461.238	520.31
461.458	497.31
461.678	505.31
461.898	511.31
462.118	509.31
462.338	520.31
462.558	508.31
462.777	523.31
462.997	548.31
463.217	528.31
463.437	560.31
463.657	546.31
463.876	536.31
464.096	550.31
464.316	523.31
464.536	557.31
464.755	552.31
464.975	578.31
465.195	628.31
465.414	713.31
465.634	638.31
465.854	590.31
466.073	545.31
466.293	539.31
466.512	514.31
466.732	508.31
466.951	525.31
467.171	512.31
467.391	543.31
467.61	530.31
467.829	548.31
468.049	518.31
468.268	526.31
468.488	521.31
468.707	521.31
468.927	512.31
469.146	498.31
469.365	486.31
469.585	509.31
469.804	519.31
470.023	521.31
470.243	512.31
470.462	570.31
470.681	559.31
470.901	546.31
471.12	532.31
471.339	546.31
471.558	543.31
471.777	544.31
471.997	537.31
472.216	541.31
472.435	586.31
472.654	541.31
472.873	510.31
473.092	510.31
473.311	538.31
473.53	532.31
473.749	530.31
473.968	583.31
474.187	732.31
474.406	756.31
474.625	612.31
474.844	577.31
475.063	541.31
475.282	542.31
475.501	545.31
475.72	526.31
475.939	527.31
476.158	538.31
476.377	548.31
476.596	536.31
476.814	550.31
477.033	569.31
477.252	567.31
477.471	545.31
477.69	575.31
477.908	546.31
478.127	588.31
478.346	567.31
478.564	572.31
478.783	575.31
479.002	578.31
479.22	592.31
479.439	631.31
479.658	640.31
479.876	638.31
480.095	642.31
480.313	664.31
480.532	668.31
480.751	653.31
480.969	640.31
481.188	759.31
481.406	801.31
481.624	710.31
481.843	632.31
482.061	629.31
482.28	641.31
482.498	639.31
482.717	624.31
482.935	626.31
483.153	618.31
483.372	655.31
483.59	636.31
483.808	621.31
484.027	606.31
484.245	633.31
484.463	634.31
484.681	640.31
484.9	656.31
485.118	636.31
485.336	629.31
485.554	648.31
485.772	662.31
485.99	667.31
486.209	666.31
486.427	648.31
486.645	661.31
486.863	708.31
487.081	704.31
487.299	704.31
487.517	703.31
487.735	672.31
487.953	700.31
488.171	687.31
488.389	704.31
488.607	709.31
488.825	684.31
489.043	679.31
489.261	716.31
489.479	687.31
489.696	714.31
489.914	700.31
490.132	696.31
490.35	728.31
490.568	738.31
490.786	730.31
491.003	757.31
491.221	769.31
491.439	802.31
491.657	802.31
491.874	790.31
492.092	805.31
492.31	792.31
492.527	814.31
492.745	812.31
492.963	795.31
493.18	810.31
493.398	812.31
493.615	830.31
493.833	836.31
494.05	828.31
494.268	818.31
494.485	825.31
494.703	813.31
494.92	836.31
495.138	839.31
495.355	849.31
495.573	832.31
495.79	837.31
496.008	850.31
496.225	848.31
496.442	836.31
496.66	834.31
496.877	809.31
497.094	847.31
497.312	847.31
497.529	854.31
497.746	856.31
497.963	847.31
498.181	884.31
498.398	868.31
498.615	867.31
498.832	888.31
499.049	896.31
499.267	901.31
499.484	911.31
499.701	968.31
499.918	985.31
500.135	991.31
500.352	1004.31
500.569	1034.31
500.786	1033.31
501.003	1012.31
501.22	1002.31
501.437	991.31
501.654	977.31
501.871	972.31
