Data from 1970.PennyLincolnUp.Lamp.En5.5.200Scan.071719.P1._HRD10591_15-13-10-843.txt Node
Date: Thu Jul 18 15:13:10 EDT 2019
User: cochatt
Spectrometer: HR+D1059
Trigger mode: 1
Integration Time (sec): 1.000000E-1
Scans to average: 1
Electric dark correction enabled: true
Nonlinearity correction enabled: false
Boxcar width: 0
XAxis mode: Wavelengths
Number of Pixels in Spectrum: 2048
>>>>>Begin Spectral Data<<<<<
223.165	-4.81
223.4	-4.81
223.635	-4.81
223.869	-12.81
224.104	-6.81
224.338	-19.81
224.573	-18.81
224.808	-7.81
225.042	-13.81
225.277	-8.81
225.511	-1.81
225.746	-0.81
225.98	9.19
226.215	20.19
226.449	5.19
226.683	1.19
226.918	32.19
227.152	28.19
227.387	42.19
227.621	44.19
227.856	42.19
228.09	49.19
228.324	45.19
228.559	44.19
228.793	65.19
229.027	98.19
229.262	98.19
229.496	112.19
229.73	119.19
229.964	149.19
230.199	120.19
230.433	116.19
230.667	97.19
230.901	96.19
231.136	92.19
231.37	84.19
231.604	101.19
231.838	106.19
232.072	97.19
232.306	104.19
232.541	112.19
232.775	95.19
233.009	103.19
233.243	116.19
233.477	114.19
233.711	107.19
233.945	109.19
234.179	108.19
234.413	120.19
234.647	101.19
234.881	105.19
235.115	111.19
235.349	108.19
235.583	129.19
235.817	115.19
236.051	100.19
236.285	111.19
236.519	111.19
236.753	117.19
236.987	129.19
237.221	148.19
237.455	203.19
237.689	172.19
237.922	135.19
238.156	117.19
238.39	106.19
238.624	109.19
238.858	124.19
239.091	119.19
239.325	113.19
239.559	115.19
239.793	122.19
240.027	113.19
240.26	121.19
240.494	135.19
240.728	135.19
240.961	149.19
241.195	123.19
241.429	126.19
241.662	132.19
241.896	129.19
242.13	135.19
242.363	135.19
242.597	124.19
242.83	143.19
243.064	120.19
243.298	124.19
243.531	134.19
243.765	123.19
243.998	128.19
244.232	149.19
244.465	138.19
244.699	136.19
244.932	148.19
245.166	139.19
245.399	147.19
245.633	140.19
245.866	137.19
246.099	142.19
246.333	139.19
246.566	133.19
246.8	140.19
247.033	148.19
247.266	138.19
247.5	157.19
247.733	159.19
247.966	155.19
248.2	164.19
248.433	155.19
248.666	150.19
248.899	160.19
249.133	185.19
249.366	189.19
249.599	178.19
249.832	177.19
250.066	171.19
250.299	170.19
250.532	184.19
250.765	184.19
250.998	200.19
251.231	204.19
251.465	199.19
251.698	212.19
251.931	186.19
252.164	207.19
252.397	185.19
252.63	166.19
252.863	200.19
253.096	193.19
253.329	202.19
253.562	201.19
253.795	199.19
254.028	196.19
254.261	198.19
254.494	202.19
254.727	256.19
254.96	249.19
255.193	227.19
255.426	242.19
255.659	215.19
255.892	221.19
256.124	216.19
256.357	206.19
256.59	205.19
256.823	214.19
257.056	195.19
257.289	202.19
257.521	179.19
257.754	202.19
257.987	192.19
258.22	188.19
258.452	199.19
258.685	189.19
258.918	189.19
259.151	184.19
259.383	211.19
259.616	200.19
259.849	208.19
260.081	215.19
260.314	208.19
260.547	228.19
260.779	214.19
261.012	193.19
261.244	205.19
261.477	230.19
261.71	197.19
261.942	198.19
262.175	204.19
262.407	186.19
262.64	172.19
262.872	189.19
263.105	180.19
263.337	208.19
263.57	186.19
263.802	190.19
264.035	188.19
264.267	197.19
264.499	208.19
264.732	195.19
264.964	195.19
265.197	189.19
265.429	190.19
265.661	175.19
265.894	179.19
266.126	211.19
266.358	172.19
266.591	196.19
266.823	198.19
267.055	188.19
267.287	193.19
267.52	197.19
267.752	201.19
267.984	211.19
268.216	190.19
268.448	210.19
268.681	206.19
268.913	201.19
269.145	202.19
269.377	254.19
269.609	227.19
269.841	235.19
270.073	235.19
270.306	248.19
270.538	251.19
270.77	272.19
271.002	265.19
271.234	243.19
271.466	265.19
271.698	263.19
271.93	269.19
272.162	267.19
272.394	281.19
272.626	269.19
272.858	252.19
273.09	242.19
273.322	218.19
273.553	218.19
273.785	216.19
274.017	219.19
274.249	210.19
274.481	230.19
274.713	220.19
274.945	231.19
275.176	211.19
275.408	218.19
275.64	221.19
275.872	207.19
276.104	216.19
276.335	226.19
276.567	231.19
276.799	230.19
277.031	252.19
277.262	268.19
277.494	266.19
277.726	257.19
277.957	248.19
278.189	222.19
278.421	230.19
278.652	229.19
278.884	230.19
279.115	221.19
279.347	225.19
279.579	234.19
279.81	220.19
280.042	228.19
280.273	211.19
280.505	226.19
280.736	225.19
280.968	227.19
281.199	214.19
281.431	207.19
281.662	226.19
281.894	210.19
282.125	221.19
282.356	232.19
282.588	233.19
282.819	247.19
283.051	213.19
283.282	205.19
283.513	222.19
283.745	224.19
283.976	226.19
284.207	228.19
284.439	230.19
284.67	228.19
284.901	220.19
285.132	222.19
285.364	231.19
285.595	237.19
285.826	226.19
286.057	213.19
286.288	222.19
286.52	237.19
286.751	236.19
286.982	241.19
287.213	218.19
287.444	222.19
287.675	231.19
287.906	240.19
288.138	223.19
288.369	241.19
288.6	234.19
288.831	231.19
289.062	252.19
289.293	232.19
289.524	226.19
289.755	236.19
289.986	233.19
290.217	230.19
290.448	213.19
290.679	233.19
290.91	228.19
291.141	225.19
291.371	229.19
291.602	234.19
291.833	248.19
292.064	234.19
292.295	241.19
292.526	245.19
292.757	239.19
292.987	240.19
293.218	239.19
293.449	208.19
293.68	252.19
293.91	247.19
294.141	229.19
294.372	236.19
294.603	235.19
294.833	232.19
295.064	232.19
295.295	245.19
295.525	244.19
295.756	260.19
295.987	255.19
296.217	270.19
296.448	260.19
296.679	240.19
296.909	229.19
297.14	257.19
297.37	254.19
297.601	240.19
297.831	245.19
298.062	255.19
298.292	245.19
298.523	255.19
298.753	236.19
298.984	241.19
299.214	239.19
299.445	261.19
299.675	256.19
299.905	253.19
300.136	269.19
300.366	249.19
300.597	255.19
300.827	262.19
301.057	268.19
301.288	273.19
301.518	273.19
301.748	268.19
301.979	271.19
302.209	255.19
302.439	246.19
302.669	263.19
302.9	264.19
303.13	262.19
303.36	277.19
303.59	246.19
303.82	267.19
304.051	282.19
304.281	258.19
304.511	272.19
304.741	273.19
304.971	276.19
305.201	268.19
305.431	266.19
305.661	256.19
305.891	271.19
306.121	271.19
306.352	270.19
306.582	277.19
306.812	268.19
307.042	261.19
307.272	267.19
307.502	273.19
307.731	263.19
307.961	277.19
308.191	266.19
308.421	284.19
308.651	282.19
308.881	269.19
309.111	269.19
309.341	272.19
309.571	287.19
309.8	295.19
310.03	299.19
310.26	292.19
310.49	281.19
310.72	300.19
310.949	323.19
311.179	317.19
311.409	303.19
311.639	312.19
311.868	297.19
312.098	310.19
312.328	299.19
312.557	311.19
312.787	317.19
313.017	325.19
313.246	321.19
313.476	292.19
313.706	306.19
313.935	315.19
314.165	316.19
314.394	336.19
314.624	324.19
314.853	321.19
315.083	319.19
315.312	294.19
315.542	306.19
315.771	304.19
316.001	306.19
316.23	326.19
316.46	308.19
316.689	308.19
316.919	312.19
317.148	313.19
317.377	320.19
317.607	314.19
317.836	298.19
318.065	307.19
318.295	293.19
318.524	295.19
318.753	314.19
318.983	294.19
319.212	307.19
319.441	299.19
319.67	307.19
319.9	309.19
320.129	312.19
320.358	318.19
320.587	305.19
320.816	329.19
321.046	323.19
321.275	317.19
321.504	312.19
321.733	324.19
321.962	315.19
322.191	319.19
322.42	345.19
322.649	356.19
322.878	351.19
323.108	353.19
323.337	352.19
323.566	384.19
323.795	415.19
324.024	443.19
324.253	532.19
324.482	719.19
324.71	1118.19
324.939	1567.19
325.168	1381.19
325.397	731.19
325.626	489.19
325.855	401.19
326.084	398.19
326.313	393.19
326.542	409.19
326.77	418.19
326.999	490.19
327.228	650.19
327.457	980.19
327.686	1201.19
327.914	816.19
328.143	549.19
328.372	485.19
328.6	454.19
328.829	427.19
329.058	441.19
329.287	447.19
329.515	429.19
329.744	415.19
329.972	431.19
330.201	415.19
330.43	425.19
330.658	471.19
330.887	473.19
331.115	456.19
331.344	423.19
331.572	378.19
331.801	404.19
332.03	379.19
332.258	383.19
332.486	377.19
332.715	372.19
332.943	346.19
333.172	377.19
333.4	371.19
333.629	361.19
333.857	375.19
334.085	391.19
334.314	384.19
334.542	397.19
334.771	409.19
334.999	396.19
335.227	376.19
335.455	351.19
335.684	372.19
335.912	369.19
336.14	339.19
336.369	361.19
336.597	374.19
336.825	379.19
337.053	373.19
337.281	347.19
337.51	377.19
337.738	368.19
337.966	358.19
338.194	364.19
338.422	373.19
338.65	369.19
338.878	360.19
339.106	341.19
339.334	344.19
339.562	369.19
339.79	354.19
340.018	352.19
340.246	332.19
340.474	350.19
340.702	363.19
340.93	385.19
341.158	370.19
341.386	352.19
341.614	358.19
341.842	371.19
342.07	337.19
342.298	347.19
342.526	333.19
342.754	351.19
342.981	354.19
343.209	326.19
343.437	368.19
343.665	353.19
343.893	355.19
344.12	351.19
344.348	355.19
344.576	368.19
344.804	369.19
345.031	360.19
345.259	367.19
345.487	372.19
345.714	353.19
345.942	341.19
346.17	363.19
346.397	339.19
346.625	330.19
346.853	367.19
347.08	351.19
347.308	360.19
347.535	348.19
347.763	366.19
347.99	361.19
348.218	358.19
348.445	351.19
348.673	341.19
348.9	349.19
349.128	355.19
349.355	322.19
349.583	352.19
349.81	340.19
350.037	327.19
350.265	333.19
350.492	326.19
350.72	336.19
350.947	348.19
351.174	346.19
351.402	376.19
351.629	362.19
351.856	350.19
352.083	349.19
352.311	353.19
352.538	355.19
352.765	347.19
352.992	356.19
353.22	359.19
353.447	355.19
353.674	362.19
353.901	335.19
354.128	336.19
354.355	322.19
354.583	334.19
354.81	335.19
355.037	345.19
355.264	323.19
355.491	304.19
355.718	329.19
355.945	352.19
356.172	315.19
356.399	333.19
356.626	332.19
356.853	338.19
357.08	348.19
357.307	334.19
357.534	329.19
357.761	339.19
357.988	361.19
358.215	331.19
358.441	339.19
358.668	340.19
358.895	346.19
359.122	340.19
359.349	353.19
359.576	356.19
359.802	386.19
360.029	375.19
360.256	403.19
360.483	383.19
360.709	360.19
360.936	361.19
361.163	364.19
361.39	372.19
361.616	367.19
361.843	337.19
362.07	342.19
362.296	377.19
362.523	365.19
362.749	346.19
362.976	371.19
363.203	364.19
363.429	342.19
363.656	333.19
363.882	346.19
364.109	335.19
364.335	369.19
364.562	347.19
364.788	353.19
365.015	336.19
365.241	348.19
365.468	356.19
365.694	339.19
365.92	349.19
366.147	361.19
366.373	353.19
366.599	348.19
366.826	340.19
367.052	352.19
367.278	344.19
367.505	347.19
367.731	342.19
367.957	338.19
368.184	339.19
368.41	354.19
368.636	345.19
368.862	360.19
369.089	353.19
369.315	353.19
369.541	344.19
369.767	375.19
369.993	363.19
370.219	336.19
370.445	323.19
370.672	356.19
370.898	374.19
371.124	360.19
371.35	370.19
371.576	334.19
371.802	348.19
372.028	355.19
372.254	359.19
372.48	343.19
372.706	359.19
372.932	348.19
373.158	368.19
373.384	360.19
373.61	375.19
373.835	347.19
374.061	370.19
374.287	350.19
374.513	363.19
374.739	367.19
374.965	379.19
375.191	373.19
375.416	353.19
375.642	358.19
375.868	343.19
376.094	354.19
376.319	366.19
376.545	348.19
376.771	381.19
376.997	371.19
377.222	379.19
377.448	362.19
377.674	355.19
377.899	361.19
378.125	367.19
378.35	348.19
378.576	356.19
378.802	350.19
379.027	368.19
379.253	352.19
379.478	356.19
379.704	341.19
379.929	341.19
380.155	348.19
380.38	343.19
380.606	362.19
380.831	365.19
381.057	358.19
381.282	372.19
381.507	355.19
381.733	367.19
381.958	386.19
382.184	371.19
382.409	363.19
382.634	389.19
382.86	363.19
383.085	363.19
383.31	376.19
383.535	379.19
383.761	384.19
383.986	393.19
384.211	372.19
384.436	374.19
384.662	385.19
384.887	388.19
385.112	379.19
385.337	394.19
385.562	375.19
385.787	391.19
386.013	404.19
386.238	403.19
386.463	391.19
386.688	381.19
386.913	385.19
387.138	382.19
387.363	382.19
387.588	405.19
387.813	371.19
388.038	392.19
388.263	372.19
388.488	403.19
388.713	384.19
388.938	390.19
389.163	369.19
389.387	376.19
389.612	396.19
389.837	372.19
390.062	396.19
390.287	398.19
390.512	386.19
390.736	379.19
390.961	386.19
391.186	381.19
391.411	402.19
391.636	399.19
391.86	415.19
392.085	396.19
392.31	414.19
392.534	395.19
392.759	398.19
392.984	416.19
393.208	408.19
393.433	445.19
393.658	423.19
393.882	405.19
394.107	401.19
394.331	392.19
394.556	386.19
394.78	397.19
395.005	391.19
395.229	388.19
395.454	386.19
395.678	397.19
395.903	413.19
396.127	432.19
396.352	423.19
396.576	421.19
396.801	407.19
397.025	433.19
397.249	431.19
397.474	418.19
397.698	448.19
397.922	426.19
398.147	448.19
398.371	441.19
398.595	448.19
398.82	442.19
399.044	450.19
399.268	458.19
399.492	452.19
399.717	500.19
399.941	510.19
400.165	538.19
400.389	547.19
400.613	517.19
400.837	468.19
401.062	465.19
401.286	460.19
401.51	447.19
401.734	450.19
401.958	443.19
402.182	456.19
402.406	470.19
402.63	460.19
402.854	463.19
403.078	460.19
403.302	477.19
403.526	473.19
403.75	464.19
403.974	457.19
404.198	461.19
404.422	456.19
404.645	461.19
404.869	465.19
405.093	495.19
405.317	524.19
405.541	557.19
405.765	533.19
405.988	487.19
406.212	491.19
406.436	491.19
406.66	513.19
406.883	507.19
407.107	529.19
407.331	556.19
407.555	612.19
407.778	604.19
408.002	557.19
408.226	536.19
408.449	527.19
408.673	488.19
408.896	529.19
409.12	574.19
409.344	557.19
409.567	488.19
409.791	464.19
410.014	482.19
410.238	489.19
410.461	470.19
410.685	462.19
410.908	481.19
411.132	532.19
411.355	548.19
411.578	515.19
411.802	459.19
412.025	479.19
412.249	448.19
412.472	467.19
412.695	511.19
412.919	518.19
413.142	477.19
413.365	480.19
413.589	454.19
413.812	455.19
414.035	454.19
414.258	432.19
414.482	453.19
414.705	457.19
414.928	442.19
415.151	447.19
415.374	457.19
415.597	442.19
415.821	445.19
416.044	454.19
416.267	449.19
416.49	435.19
416.713	466.19
416.936	446.19
417.159	429.19
417.382	457.19
417.605	435.19
417.828	460.19
418.051	460.19
418.274	471.19
418.497	451.19
418.72	462.19
418.943	443.19
419.166	457.19
419.389	472.19
419.611	488.19
419.834	476.19
420.057	459.19
420.28	477.19
420.503	460.19
420.726	468.19
420.948	479.19
421.171	527.19
421.394	537.19
421.617	479.19
421.839	462.19
422.062	469.19
422.285	471.19
422.507	536.19
422.73	607.19
422.953	569.19
423.175	547.19
423.398	505.19
423.621	479.19
423.843	519.19
424.066	521.19
424.288	499.19
424.511	538.19
424.733	561.19
424.956	657.19
425.178	602.19
425.401	605.19
425.623	620.19
425.846	534.19
426.068	552.19
426.291	510.19
426.513	488.19
426.735	524.19
426.958	553.19
427.18	624.19
427.402	720.19
427.625	778.19
427.847	701.19
428.069	604.19
428.292	548.19
428.514	531.19
428.736	504.19
428.958	511.19
429.181	467.19
429.403	468.19
429.625	498.19
429.847	521.19
430.069	567.19
430.292	572.19
430.514	513.19
430.736	470.19
430.958	483.19
431.18	468.19
431.402	463.19
431.624	444.19
431.846	452.19
432.068	437.19
432.29	442.19
432.512	471.19
432.734	460.19
432.956	436.19
433.178	461.19
433.4	458.19
433.622	473.19
433.844	449.19
434.066	432.19
434.287	440.19
434.509	459.19
434.731	449.19
434.953	459.19
435.175	465.19
435.397	478.19
435.618	510.19
435.84	559.19
436.062	632.19
436.284	671.19
436.505	600.19
436.727	510.19
436.949	506.19
437.17	475.19
437.392	488.19
437.614	519.19
437.835	523.19
438.057	608.19
438.278	718.19
438.5	695.19
438.721	782.19
438.943	726.19
439.165	607.19
439.386	525.19
439.608	529.19
439.829	520.19
440.05	553.19
440.272	565.19
440.493	523.19
440.715	514.19
440.936	485.19
441.158	474.19
441.379	490.19
441.6	511.19
441.822	493.19
442.043	549.19
442.264	607.19
442.486	667.19
442.707	588.19
442.928	495.19
443.149	534.19
443.371	556.19
443.592	579.19
443.813	687.19
444.034	700.19
444.255	616.19
444.476	554.19
444.698	537.19
444.919	525.19
445.14	637.19
445.361	580.19
445.582	543.19
445.803	600.19
446.024	681.19
446.245	699.19
446.466	624.19
446.687	543.19
446.908	525.19
447.129	484.19
447.35	492.19
447.571	461.19
447.792	482.19
448.013	476.19
448.234	508.19
448.455	560.19
448.675	630.19
448.896	727.19
449.117	635.19
449.338	583.19
449.559	695.19
449.779	771.19
450	615.19
450.221	527.19
450.442	462.19
450.662	460.19
450.883	478.19
451.104	468.19
451.324	466.19
451.545	435.19
451.766	448.19
451.986	410.19
452.207	431.19
452.428	423.19
452.648	431.19
452.869	415.19
453.089	428.19
453.31	450.19
453.53	435.19
453.751	444.19
453.971	428.19
454.192	428.19
454.412	431.19
454.633	423.19
454.853	410.19
455.073	437.19
455.294	465.19
455.514	488.19
455.734	499.19
455.955	433.19
456.175	418.19
456.395	385.19
456.616	391.19
456.836	415.19
457.056	408.19
457.276	396.19
457.497	402.19
457.717	406.19
457.937	401.19
458.157	406.19
458.377	415.19
458.598	448.19
458.818	503.19
459.038	552.19
459.258	547.19
459.478	486.19
459.698	453.19
459.918	441.19
460.138	440.19
460.358	450.19
460.578	464.19
460.798	461.19
461.018	472.19
461.238	451.19
461.458	457.19
461.678	461.19
461.898	454.19
462.118	436.19
462.338	445.19
462.558	486.19
462.777	461.19
462.997	486.19
463.217	487.19
463.437	466.19
463.657	467.19
463.876	483.19
464.096	476.19
464.316	504.19
464.536	503.19
464.755	478.19
464.975	483.19
465.195	497.19
465.414	562.19
465.634	514.19
465.854	485.19
466.073	466.19
466.293	433.19
466.512	455.19
466.732	469.19
466.951	437.19
467.171	448.19
467.391	444.19
467.61	470.19
467.829	464.19
468.049	455.19
468.268	439.19
468.488	420.19
468.707	425.19
468.927	424.19
469.146	456.19
469.365	429.19
469.585	449.19
469.804	447.19
470.023	460.19
470.243	435.19
470.462	448.19
470.681	466.19
470.901	460.19
471.12	451.19
471.339	440.19
471.558	472.19
471.777	467.19
471.997	435.19
472.216	432.19
472.435	479.19
472.654	453.19
472.873	430.19
473.092	431.19
473.311	451.19
473.53	467.19
473.749	455.19
473.968	495.19
474.187	574.19
474.406	581.19
474.625	483.19
474.844	465.19
475.063	451.19
475.282	463.19
475.501	454.19
475.72	452.19
475.939	453.19
476.158	471.19
476.377	466.19
476.596	475.19
476.814	480.19
477.033	481.19
477.252	475.19
477.471	481.19
477.69	492.19
477.908	473.19
478.127	519.19
478.346	472.19
478.564	500.19
478.783	513.19
479.002	499.19
479.22	509.19
479.439	501.19
479.658	524.19
479.876	537.19
480.095	547.19
480.313	533.19
480.532	562.19
480.751	553.19
480.969	549.19
481.188	580.19
481.406	618.19
481.624	572.19
481.843	556.19
482.061	537.19
482.28	554.19
482.498	531.19
482.717	512.19
482.935	525.19
483.153	546.19
483.372	538.19
483.59	540.19
483.808	522.19
484.027	534.19
484.245	525.19
484.463	531.19
484.681	563.19
484.9	552.19
485.118	540.19
485.336	550.19
485.554	553.19
485.772	554.19
485.99	554.19
486.209	560.19
486.427	553.19
486.645	563.19
486.863	595.19
487.081	588.19
487.299	579.19
487.517	583.19
487.735	578.19
487.953	603.19
488.171	579.19
488.389	605.19
488.607	576.19
488.825	595.19
489.043	602.19
489.261	602.19
489.479	601.19
489.696	575.19
489.914	597.19
490.132	599.19
490.35	604.19
490.568	627.19
490.786	617.19
491.003	620.19
491.221	677.19
491.439	651.19
491.657	648.19
491.874	669.19
492.092	644.19
492.31	667.19
492.527	679.19
492.745	689.19
492.963	666.19
493.18	665.19
493.398	675.19
493.615	698.19
493.833	674.19
494.05	697.19
494.268	703.19
494.485	680.19
494.703	683.19
494.92	707.19
495.138	674.19
495.355	713.19
495.573	715.19
495.79	701.19
496.008	691.19
496.225	673.19
496.442	680.19
496.66	705.19
496.877	699.19
497.094	695.19
497.312	702.19
497.529	707.19
497.746	711.19
497.963	723.19
498.181	753.19
498.398	737.19
498.615	739.19
498.832	776.19
499.049	773.19
499.267	791.19
499.484	810.19
499.701	831.19
499.918	859.19
500.135	860.19
500.352	887.19
500.569	928.19
500.786	905.19
501.003	899.19
501.22	895.19
501.437	870.19
501.654	867.19
501.871	833.19
502.088	819.19
