Data from 1970.PennyLincolnUp.Lamp.En5.5.200Scan.071719.P1._HRD10591_15-13-47-842.txt Node
Date: Thu Jul 18 15:13:47 EDT 2019
User: cochatt
Spectrometer: HR+D1059
Trigger mode: 1
Integration Time (sec): 1.000000E-1
Scans to average: 1
Electric dark correction enabled: true
Nonlinearity correction enabled: false
Boxcar width: 0
XAxis mode: Wavelengths
Number of Pixels in Spectrum: 2048
>>>>>Begin Spectral Data<<<<<
223.165	-4.19
223.4	-4.19
223.635	-4.19
223.869	-10.19
224.104	-6.19
224.338	-15.19
224.573	-14.19
224.808	-9.19
225.042	-13.19
225.277	1.81
225.511	-9.19
225.746	0.81
225.98	-0.19
226.215	11.81
226.449	20.81
226.683	13.81
226.918	5.81
227.152	26.81
227.387	36.81
227.621	38.81
227.856	51.81
228.09	51.81
228.324	53.81
228.559	42.81
228.793	55.81
229.027	89.81
229.262	111.81
229.496	110.81
229.73	125.81
229.964	152.81
230.199	134.81
230.433	100.81
230.667	108.81
230.901	112.81
231.136	125.81
231.37	116.81
231.604	111.81
231.838	125.81
232.072	101.81
232.306	120.81
232.541	104.81
232.775	110.81
233.009	106.81
233.243	124.81
233.477	115.81
233.711	119.81
233.945	124.81
234.179	118.81
234.413	116.81
234.647	135.81
234.881	131.81
235.115	112.81
235.349	105.81
235.583	129.81
235.817	126.81
236.051	121.81
236.285	134.81
236.519	127.81
236.753	123.81
236.987	149.81
237.221	186.81
237.455	230.81
237.689	184.81
237.922	146.81
238.156	136.81
238.39	133.81
238.624	132.81
238.858	121.81
239.091	130.81
239.325	132.81
239.559	134.81
239.793	136.81
240.027	136.81
240.26	160.81
240.494	144.81
240.728	160.81
240.961	156.81
241.195	151.81
241.429	151.81
241.662	150.81
241.896	152.81
242.13	137.81
242.363	138.81
242.597	152.81
242.83	136.81
243.064	143.81
243.298	156.81
243.531	155.81
243.765	129.81
243.998	135.81
244.232	143.81
244.465	152.81
244.699	164.81
244.932	152.81
245.166	151.81
245.399	144.81
245.633	141.81
245.866	163.81
246.099	159.81
246.333	141.81
246.566	157.81
246.8	149.81
247.033	144.81
247.266	141.81
247.5	180.81
247.733	186.81
247.966	180.81
248.2	171.81
248.433	181.81
248.666	196.81
248.899	185.81
249.133	196.81
249.366	199.81
249.599	224.81
249.832	196.81
250.066	191.81
250.299	195.81
250.532	190.81
250.765	205.81
250.998	228.81
251.231	232.81
251.465	235.81
251.698	230.81
251.931	222.81
252.164	206.81
252.397	220.81
252.63	220.81
252.863	221.81
253.096	245.81
253.329	232.81
253.562	221.81
253.795	216.81
254.028	229.81
254.261	236.81
254.494	246.81
254.727	265.81
254.96	296.81
255.193	295.81
255.426	269.81
255.659	251.81
255.892	253.81
256.124	244.81
256.357	253.81
256.59	232.81
256.823	243.81
257.056	236.81
257.289	217.81
257.521	225.81
257.754	236.81
257.987	230.81
258.22	207.81
258.452	220.81
258.685	199.81
258.918	204.81
259.151	227.81
259.383	212.81
259.616	237.81
259.849	251.81
260.081	241.81
260.314	259.81
260.547	272.81
260.779	240.81
261.012	223.81
261.244	230.81
261.477	254.81
261.71	216.81
261.942	234.81
262.175	230.81
262.407	224.81
262.64	219.81
262.872	230.81
263.105	217.81
263.337	225.81
263.57	209.81
263.802	217.81
264.035	208.81
264.267	213.81
264.499	215.81
264.732	228.81
264.964	211.81
265.197	233.81
265.429	208.81
265.661	210.81
265.894	218.81
266.126	221.81
266.358	212.81
266.591	232.81
266.823	216.81
267.055	215.81
267.287	232.81
267.52	217.81
267.752	214.81
267.984	222.81
268.216	227.81
268.448	236.81
268.681	239.81
268.913	234.81
269.145	260.81
269.377	285.81
269.609	308.81
269.841	271.81
270.073	283.81
270.306	304.81
270.538	307.81
270.77	317.81
271.002	304.81
271.234	262.81
271.466	294.81
271.698	286.81
271.93	323.81
272.162	321.81
272.394	320.81
272.626	289.81
272.858	296.81
273.09	280.81
273.322	289.81
273.553	283.81
273.785	281.81
274.017	257.81
274.249	266.81
274.481	247.81
274.713	262.81
274.945	261.81
275.176	264.81
275.408	264.81
275.64	246.81
275.872	264.81
276.104	272.81
276.335	267.81
276.567	279.81
276.799	272.81
277.031	301.81
277.262	316.81
277.494	308.81
277.726	278.81
277.957	285.81
278.189	279.81
278.421	277.81
278.652	265.81
278.884	273.81
279.115	272.81
279.347	254.81
279.579	232.81
279.81	268.81
280.042	255.81
280.273	255.81
280.505	252.81
280.736	246.81
280.968	279.81
281.199	252.81
281.431	261.81
281.662	268.81
281.894	268.81
282.125	267.81
282.356	266.81
282.588	294.81
282.819	286.81
283.051	277.81
283.282	255.81
283.513	256.81
283.745	254.81
283.976	244.81
284.207	250.81
284.439	280.81
284.67	270.81
284.901	253.81
285.132	261.81
285.364	268.81
285.595	256.81
285.826	260.81
286.057	261.81
286.288	254.81
286.52	275.81
286.751	254.81
286.982	279.81
287.213	277.81
287.444	262.81
287.675	262.81
287.906	283.81
288.138	302.81
288.369	294.81
288.6	292.81
288.831	284.81
289.062	288.81
289.293	279.81
289.524	278.81
289.755	272.81
289.986	271.81
290.217	284.81
290.448	279.81
290.679	263.81
290.91	284.81
291.141	293.81
291.371	271.81
291.602	279.81
291.833	266.81
292.064	265.81
292.295	270.81
292.526	279.81
292.757	286.81
292.987	281.81
293.218	283.81
293.449	268.81
293.68	272.81
293.91	263.81
294.141	270.81
294.372	268.81
294.603	268.81
294.833	270.81
295.064	256.81
295.295	277.81
295.525	268.81
295.756	288.81
295.987	278.81
296.217	307.81
296.448	307.81
296.679	307.81
296.909	279.81
297.14	278.81
297.37	277.81
297.601	281.81
297.831	278.81
298.062	286.81
298.292	285.81
298.523	296.81
298.753	273.81
298.984	300.81
299.214	299.81
299.445	283.81
299.675	290.81
299.905	279.81
300.136	292.81
300.366	299.81
300.597	290.81
300.827	299.81
301.057	309.81
301.288	295.81
301.518	296.81
301.748	293.81
301.979	293.81
302.209	293.81
302.439	302.81
302.669	300.81
302.9	315.81
303.13	298.81
303.36	316.81
303.59	323.81
303.82	309.81
304.051	311.81
304.281	319.81
304.511	303.81
304.741	316.81
304.971	300.81
305.201	309.81
305.431	299.81
305.661	311.81
305.891	321.81
306.121	310.81
306.352	293.81
306.582	334.81
306.812	320.81
307.042	310.81
307.272	319.81
307.502	303.81
307.731	304.81
307.961	330.81
308.191	307.81
308.421	321.81
308.651	324.81
308.881	316.81
309.111	337.81
309.341	329.81
309.571	327.81
309.8	334.81
310.03	373.81
310.26	368.81
310.49	348.81
310.72	368.81
310.949	372.81
311.179	362.81
311.409	336.81
311.639	353.81
311.868	358.81
312.098	357.81
312.328	371.81
312.557	351.81
312.787	394.81
313.017	393.81
313.246	356.81
313.476	349.81
313.706	358.81
313.935	358.81
314.165	376.81
314.394	351.81
314.624	381.81
314.853	381.81
315.083	374.81
315.312	353.81
315.542	368.81
315.771	356.81
316.001	347.81
316.23	349.81
316.46	351.81
316.689	361.81
316.919	359.81
317.148	372.81
317.377	391.81
317.607	375.81
317.836	371.81
318.065	373.81
318.295	340.81
318.524	357.81
318.753	359.81
318.983	365.81
319.212	352.81
319.441	371.81
319.67	389.81
319.9	358.81
320.129	367.81
320.358	368.81
320.587	379.81
320.816	371.81
321.046	385.81
321.275	375.81
321.504	386.81
321.733	398.81
321.962	392.81
322.191	403.81
322.42	420.81
322.649	424.81
322.878	432.81
323.108	443.81
323.337	474.81
323.566	502.81
323.795	560.81
324.024	583.81
324.253	711.81
324.482	963.81
324.71	1468.81
324.939	2065.81
325.168	1798.81
325.397	995.81
325.626	651.81
325.855	542.81
326.084	505.81
326.313	476.81
326.542	516.81
326.77	559.81
326.999	633.81
327.228	849.81
327.457	1291.81
327.686	1592.81
327.914	1105.81
328.143	733.81
328.372	646.81
328.6	580.81
328.829	574.81
329.058	579.81
329.287	592.81
329.515	560.81
329.744	517.81
329.972	519.81
330.201	505.81
330.43	566.81
330.658	600.81
330.887	617.81
331.115	606.81
331.344	527.81
331.572	481.81
331.801	503.81
332.03	477.81
332.258	473.81
332.486	441.81
332.715	424.81
332.943	439.81
333.172	420.81
333.4	439.81
333.629	435.81
333.857	459.81
334.085	481.81
334.314	475.81
334.542	515.81
334.771	526.81
334.999	481.81
335.227	447.81
335.455	426.81
335.684	447.81
335.912	430.81
336.14	413.81
336.369	410.81
336.597	432.81
336.825	429.81
337.053	417.81
337.281	432.81
337.51	416.81
337.738	426.81
337.966	429.81
338.194	434.81
338.422	419.81
338.65	423.81
338.878	419.81
339.106	394.81
339.334	400.81
339.562	390.81
339.79	388.81
340.018	389.81
340.246	426.81
340.474	415.81
340.702	416.81
340.93	415.81
341.158	423.81
341.386	422.81
341.614	432.81
341.842	404.81
342.07	415.81
342.298	422.81
342.526	414.81
342.754	397.81
342.981	400.81
343.209	394.81
343.437	423.81
343.665	407.81
343.893	402.81
344.12	409.81
344.348	415.81
344.576	411.81
344.804	425.81
345.031	410.81
345.259	447.81
345.487	430.81
345.714	424.81
345.942	409.81
346.17	424.81
346.397	395.81
346.625	399.81
346.853	404.81
347.08	411.81
347.308	412.81
347.535	419.81
347.763	413.81
347.99	408.81
348.218	426.81
348.445	412.81
348.673	435.81
348.9	405.81
349.128	402.81
349.355	408.81
349.583	403.81
349.81	408.81
350.037	384.81
350.265	416.81
350.492	406.81
350.72	393.81
350.947	396.81
351.174	414.81
351.402	437.81
351.629	425.81
351.856	422.81
352.083	419.81
352.311	435.81
352.538	426.81
352.765	438.81
352.992	405.81
353.22	428.81
353.447	423.81
353.674	415.81
353.901	392.81
354.128	379.81
354.355	379.81
354.583	365.81
354.81	393.81
355.037	389.81
355.264	377.81
355.491	374.81
355.718	372.81
355.945	367.81
356.172	372.81
356.399	387.81
356.626	379.81
356.853	384.81
357.08	394.81
357.307	393.81
357.534	372.81
357.761	392.81
357.988	398.81
358.215	399.81
358.441	399.81
358.668	391.81
358.895	398.81
359.122	389.81
359.349	417.81
359.576	424.81
359.802	425.81
360.029	470.81
360.256	469.81
360.483	469.81
360.709	406.81
360.936	424.81
361.163	401.81
361.39	398.81
361.616	424.81
361.843	409.81
362.07	413.81
362.296	406.81
362.523	415.81
362.749	414.81
362.976	424.81
363.203	421.81
363.429	399.81
363.656	404.81
363.882	392.81
364.109	383.81
364.335	400.81
364.562	391.81
364.788	402.81
365.015	405.81
365.241	395.81
365.468	408.81
365.694	417.81
365.92	415.81
366.147	408.81
366.373	398.81
366.599	419.81
366.826	422.81
367.052	398.81
367.278	415.81
367.505	411.81
367.731	400.81
367.957	409.81
368.184	425.81
368.41	406.81
368.636	429.81
368.862	405.81
369.089	424.81
369.315	403.81
369.541	400.81
369.767	408.81
369.993	413.81
370.219	396.81
370.445	414.81
370.672	401.81
370.898	384.81
371.124	394.81
371.35	407.81
371.576	381.81
371.802	397.81
372.028	376.81
372.254	365.81
372.48	377.81
372.706	382.81
372.932	412.81
373.158	413.81
373.384	416.81
373.61	395.81
373.835	413.81
374.061	399.81
374.287	415.81
374.513	424.81
374.739	403.81
374.965	418.81
375.191	411.81
375.416	393.81
375.642	399.81
375.868	417.81
376.094	399.81
376.319	404.81
376.545	413.81
376.771	391.81
376.997	408.81
377.222	396.81
377.448	389.81
377.674	412.81
377.899	394.81
378.125	408.81
378.35	407.81
378.576	390.81
378.802	399.81
379.027	396.81
379.253	398.81
379.478	406.81
379.704	399.81
379.929	408.81
380.155	399.81
380.38	402.81
380.606	402.81
380.831	408.81
381.057	393.81
381.282	388.81
381.507	402.81
381.733	403.81
381.958	403.81
382.184	408.81
382.409	415.81
382.634	411.81
382.86	414.81
383.085	426.81
383.31	423.81
383.535	449.81
383.761	426.81
383.986	401.81
384.211	426.81
384.436	428.81
384.662	404.81
384.887	429.81
385.112	436.81
385.337	446.81
385.562	437.81
385.787	433.81
386.013	465.81
386.238	435.81
386.463	439.81
386.688	438.81
386.913	414.81
387.138	429.81
387.363	450.81
387.588	456.81
387.813	441.81
388.038	439.81
388.263	423.81
388.488	421.81
388.713	452.81
388.938	423.81
389.163	421.81
389.387	438.81
389.612	413.81
389.837	414.81
390.062	434.81
390.287	442.81
390.512	419.81
390.736	419.81
390.961	431.81
391.186	414.81
391.411	429.81
391.636	453.81
391.86	437.81
392.085	463.81
392.31	457.81
392.534	442.81
392.759	433.81
392.984	439.81
393.208	443.81
393.433	445.81
393.658	451.81
393.882	436.81
394.107	418.81
394.331	442.81
394.556	445.81
394.78	428.81
395.005	441.81
395.229	443.81
395.454	466.81
395.678	470.81
395.903	484.81
396.127	472.81
396.352	485.81
396.576	477.81
396.801	444.81
397.025	464.81
397.249	478.81
397.474	468.81
397.698	460.81
397.922	483.81
398.147	487.81
398.371	512.81
398.595	507.81
398.82	508.81
399.044	491.81
399.268	481.81
399.492	528.81
399.717	536.81
399.941	574.81
400.165	601.81
400.389	648.81
400.613	541.81
400.837	512.81
401.062	509.81
401.286	492.81
401.51	494.81
401.734	484.81
401.958	521.81
402.182	506.81
402.406	521.81
402.63	519.81
402.854	527.81
403.078	502.81
403.302	512.81
403.526	508.81
403.75	522.81
403.974	525.81
404.198	501.81
404.422	517.81
404.645	521.81
404.869	519.81
405.093	559.81
405.317	590.81
405.541	612.81
405.765	583.81
405.988	530.81
406.212	549.81
406.436	574.81
406.66	584.81
406.883	557.81
407.107	585.81
407.331	615.81
407.555	709.81
407.778	685.81
408.002	632.81
408.226	587.81
408.449	591.81
408.673	589.81
408.896	589.81
409.12	629.81
409.344	629.81
409.567	567.81
409.791	544.81
410.014	547.81
410.238	541.81
410.461	526.81
410.685	517.81
410.908	535.81
411.132	596.81
411.355	618.81
411.578	592.81
411.802	551.81
412.025	534.81
412.249	547.81
412.472	557.81
412.695	589.81
412.919	559.81
413.142	543.81
413.365	501.81
413.589	501.81
413.812	507.81
414.035	512.81
414.258	512.81
414.482	516.81
414.705	503.81
414.928	477.81
415.151	508.81
415.374	483.81
415.597	481.81
415.821	478.81
416.044	497.81
416.267	510.81
416.49	493.81
416.713	494.81
416.936	500.81
417.159	487.81
417.382	506.81
417.605	505.81
417.828	531.81
418.051	519.81
418.274	505.81
418.497	495.81
418.72	487.81
418.943	488.81
419.166	512.81
419.389	520.81
419.611	511.81
419.834	535.81
420.057	522.81
420.28	533.81
420.503	517.81
420.726	515.81
420.948	556.81
421.171	574.81
421.394	620.81
421.617	556.81
421.839	530.81
422.062	541.81
422.285	552.81
422.507	595.81
422.73	691.81
422.953	643.81
423.175	581.81
423.398	585.81
423.621	552.81
423.843	582.81
424.066	577.81
424.288	556.81
424.511	598.81
424.733	663.81
424.956	723.81
425.178	675.81
425.401	701.81
425.623	717.81
425.846	621.81
426.068	616.81
426.291	582.81
426.513	577.81
426.735	600.81
426.958	619.81
427.18	721.81
427.402	860.81
427.625	931.81
427.847	825.81
428.069	695.81
428.292	637.81
428.514	600.81
428.736	573.81
428.958	569.81
429.181	549.81
429.403	555.81
429.625	554.81
429.847	579.81
430.069	643.81
430.292	641.81
430.514	575.81
430.736	564.81
430.958	539.81
431.18	522.81
431.402	531.81
431.624	517.81
431.846	505.81
432.068	494.81
432.29	487.81
432.512	502.81
432.734	519.81
432.956	536.81
433.178	527.81
433.4	561.81
433.622	530.81
433.844	511.81
434.066	495.81
434.287	511.81
434.509	505.81
434.731	510.81
434.953	523.81
435.175	557.81
435.397	583.81
435.618	573.81
435.84	638.81
436.062	708.81
436.284	807.81
436.505	669.81
436.727	630.81
436.949	557.81
437.17	566.81
437.392	531.81
437.614	547.81
437.835	598.81
438.057	687.81
438.278	803.81
438.5	804.81
438.721	844.81
438.943	824.81
439.165	681.81
439.386	629.81
439.608	593.81
439.829	589.81
440.05	636.81
440.272	658.81
440.493	616.81
440.715	620.81
440.936	590.81
441.158	572.81
441.379	548.81
441.6	565.81
441.822	584.81
442.043	639.81
442.264	704.81
442.486	768.81
442.707	649.81
442.928	590.81
443.149	611.81
443.371	633.81
443.592	658.81
443.813	749.81
444.034	791.81
444.255	659.81
444.476	604.81
444.698	589.81
444.919	580.81
445.14	716.81
445.361	646.81
445.582	636.81
445.803	699.81
446.024	749.81
446.245	806.81
446.466	721.81
446.687	627.81
446.908	597.81
447.129	589.81
447.35	560.81
447.571	565.81
447.792	539.81
448.013	559.81
448.234	573.81
448.455	625.81
448.675	734.81
448.896	843.81
449.117	733.81
449.338	697.81
449.559	764.81
449.779	857.81
450	718.81
450.221	596.81
450.442	587.81
450.662	535.81
450.883	536.81
451.104	576.81
451.324	547.81
451.545	510.81
451.766	515.81
451.986	497.81
452.207	477.81
452.428	483.81
452.648	505.81
452.869	483.81
453.089	493.81
453.31	521.81
453.53	501.81
453.751	491.81
453.971	487.81
454.192	497.81
454.412	519.81
454.633	471.81
454.853	489.81
455.073	494.81
455.294	501.81
455.514	581.81
455.734	572.81
455.955	520.81
456.175	464.81
456.395	468.81
456.616	456.81
456.836	443.81
457.056	456.81
457.276	455.81
457.497	437.81
457.717	463.81
457.937	477.81
458.157	463.81
458.377	478.81
458.598	506.81
458.818	569.81
459.038	654.81
459.258	659.81
459.478	569.81
459.698	494.81
459.918	511.81
460.138	498.81
460.358	506.81
460.578	502.81
460.798	536.81
461.018	517.81
461.238	504.81
461.458	503.81
461.678	495.81
461.898	517.81
462.118	501.81
462.338	517.81
462.558	502.81
462.777	516.81
462.997	539.81
463.217	548.81
463.437	543.81
463.657	535.81
463.876	532.81
464.096	535.81
464.316	519.81
464.536	527.81
464.755	528.81
464.975	534.81
465.195	592.81
465.414	660.81
465.634	607.81
465.854	563.81
466.073	523.81
466.293	513.81
466.512	502.81
466.732	493.81
466.951	507.81
467.171	527.81
467.391	481.81
467.61	505.81
467.829	534.81
468.049	513.81
468.268	523.81
468.488	502.81
468.707	516.81
468.927	491.81
469.146	474.81
469.365	496.81
469.585	533.81
469.804	489.81
470.023	510.81
470.243	517.81
470.462	521.81
470.681	520.81
470.901	511.81
471.12	495.81
471.339	501.81
471.558	487.81
471.777	497.81
471.997	501.81
472.216	508.81
472.435	527.81
472.654	527.81
472.873	510.81
473.092	503.81
473.311	502.81
473.53	516.81
473.749	518.81
473.968	550.81
474.187	655.81
474.406	665.81
474.625	571.81
474.844	535.81
475.063	539.81
475.282	525.81
475.501	506.81
475.72	533.81
475.939	548.81
476.158	499.81
476.377	558.81
476.596	545.81
476.814	532.81
477.033	527.81
477.252	548.81
477.471	541.81
477.69	539.81
477.908	572.81
478.127	575.81
478.346	558.81
478.564	575.81
478.783	557.81
479.002	580.81
479.22	559.81
479.439	607.81
479.658	604.81
479.876	600.81
480.095	588.81
480.313	634.81
480.532	609.81
480.751	599.81
480.969	614.81
481.188	705.81
481.406	708.81
481.624	655.81
481.843	615.81
482.061	617.81
482.28	613.81
482.498	592.81
482.717	602.81
482.935	612.81
483.153	623.81
483.372	610.81
483.59	613.81
483.808	599.81
484.027	595.81
484.245	595.81
484.463	590.81
484.681	605.81
484.9	620.81
485.118	607.81
485.336	613.81
485.554	615.81
485.772	611.81
485.99	627.81
486.209	643.81
486.427	636.81
486.645	651.81
486.863	662.81
487.081	666.81
487.299	652.81
487.517	660.81
487.735	651.81
487.953	671.81
488.171	655.81
488.389	669.81
488.607	689.81
488.825	657.81
489.043	663.81
489.261	686.81
489.479	675.81
489.696	664.81
489.914	672.81
490.132	678.81
490.35	696.81
490.568	709.81
490.786	720.81
491.003	727.81
491.221	727.81
491.439	720.81
491.657	752.81
491.874	752.81
492.092	747.81
492.31	781.81
492.527	779.81
492.745	767.81
492.963	780.81
493.18	799.81
493.398	795.81
493.615	806.81
493.833	789.81
494.05	797.81
494.268	809.81
494.485	811.81
494.703	789.81
494.92	802.81
495.138	793.81
495.355	803.81
495.573	808.81
495.79	797.81
496.008	793.81
496.225	822.81
496.442	782.81
496.66	793.81
496.877	782.81
497.094	803.81
497.312	794.81
497.529	808.81
497.746	809.81
497.963	815.81
498.181	841.81
498.398	833.81
498.615	837.81
498.832	848.81
499.049	862.81
499.267	889.81
499.484	881.81
499.701	933.81
499.918	921.81
500.135	973.81
500.352	972.81
500.569	991.81
500.786	1012.81
501.003	1011.81
501.22	1002.81
501.437	939.81
501.654	975.81
501.871	944.81
