Data from 1970.PennyLincolnUp.Lamp.En5.5.200Scan.071719.P1._HRD10591_15-14-42-843.txt Node
Date: Thu Jul 18 15:14:42 EDT 2019
User: cochatt
Spectrometer: HR+D1059
Trigger mode: 1
Integration Time (sec): 1.000000E-1
Scans to average: 1
Electric dark correction enabled: true
Nonlinearity correction enabled: false
Boxcar width: 0
XAxis mode: Wavelengths
Number of Pixels in Spectrum: 2048
>>>>>Begin Spectral Data<<<<<
223.165	-11.81
223.4	-11.81
223.635	-11.81
223.869	-13.81
224.104	-9.81
224.338	8.19
224.573	-6.81
224.808	-28.81
225.042	-11.81
225.277	-9.81
225.511	-8.81
225.746	4.19
225.98	10.19
226.215	10.19
226.449	16.19
226.683	6.19
226.918	19.19
227.152	27.19
227.387	45.19
227.621	38.19
227.856	58.19
228.09	43.19
228.324	57.19
228.559	52.19
228.793	50.19
229.027	109.19
229.262	107.19
229.496	138.19
229.73	147.19
229.964	176.19
230.199	136.19
230.433	127.19
230.667	114.19
230.901	137.19
231.136	119.19
231.37	112.19
231.604	111.19
231.838	127.19
232.072	119.19
232.306	130.19
232.541	128.19
232.775	125.19
233.009	123.19
233.243	127.19
233.477	118.19
233.711	133.19
233.945	128.19
234.179	131.19
234.413	126.19
234.647	134.19
234.881	122.19
235.115	133.19
235.349	126.19
235.583	119.19
235.817	118.19
236.051	134.19
236.285	130.19
236.519	132.19
236.753	143.19
236.987	149.19
237.221	204.19
237.455	278.19
237.689	226.19
237.922	164.19
238.156	135.19
238.39	139.19
238.624	132.19
238.858	137.19
239.091	129.19
239.325	140.19
239.559	140.19
239.793	139.19
240.027	150.19
240.26	170.19
240.494	164.19
240.728	167.19
240.961	163.19
241.195	171.19
241.429	142.19
241.662	142.19
241.896	138.19
242.13	155.19
242.363	143.19
242.597	152.19
242.83	140.19
243.064	151.19
243.298	146.19
243.531	155.19
243.765	138.19
243.998	153.19
244.232	144.19
244.465	151.19
244.699	167.19
244.932	149.19
245.166	153.19
245.399	160.19
245.633	156.19
245.866	145.19
246.099	156.19
246.333	159.19
246.566	175.19
246.8	172.19
247.033	148.19
247.266	190.19
247.5	194.19
247.733	189.19
247.966	184.19
248.2	196.19
248.433	187.19
248.666	199.19
248.899	194.19
249.133	229.19
249.366	238.19
249.599	227.19
249.832	203.19
250.066	197.19
250.299	217.19
250.532	208.19
250.765	216.19
250.998	242.19
251.231	262.19
251.465	252.19
251.698	229.19
251.931	244.19
252.164	210.19
252.397	213.19
252.63	230.19
252.863	228.19
253.096	265.19
253.329	251.19
253.562	255.19
253.795	248.19
254.028	243.19
254.261	252.19
254.494	258.19
254.727	286.19
254.96	308.19
255.193	314.19
255.426	293.19
255.659	282.19
255.892	250.19
256.124	271.19
256.357	264.19
256.59	248.19
256.823	261.19
257.056	248.19
257.289	256.19
257.521	227.19
257.754	231.19
257.987	230.19
258.22	232.19
258.452	217.19
258.685	234.19
258.918	228.19
259.151	236.19
259.383	243.19
259.616	235.19
259.849	262.19
260.081	271.19
260.314	274.19
260.547	280.19
260.779	280.19
261.012	252.19
261.244	250.19
261.477	239.19
261.71	262.19
261.942	240.19
262.175	260.19
262.407	251.19
262.64	223.19
262.872	220.19
263.105	227.19
263.337	223.19
263.57	231.19
263.802	224.19
264.035	231.19
264.267	234.19
264.499	220.19
264.732	224.19
264.964	232.19
265.197	245.19
265.429	214.19
265.661	215.19
265.894	217.19
266.126	223.19
266.358	230.19
266.591	249.19
266.823	234.19
267.055	261.19
267.287	254.19
267.52	233.19
267.752	233.19
267.984	243.19
268.216	238.19
268.448	245.19
268.681	244.19
268.913	273.19
269.145	267.19
269.377	292.19
269.609	291.19
269.841	298.19
270.073	300.19
270.306	324.19
270.538	328.19
270.77	345.19
271.002	342.19
271.234	315.19
271.466	333.19
271.698	348.19
271.93	356.19
272.162	371.19
272.394	354.19
272.626	342.19
272.858	301.19
273.09	304.19
273.322	312.19
273.553	297.19
273.785	265.19
274.017	289.19
274.249	276.19
274.481	268.19
274.713	302.19
274.945	284.19
275.176	274.19
275.408	277.19
275.64	283.19
275.872	276.19
276.104	284.19
276.335	272.19
276.567	267.19
276.799	316.19
277.031	322.19
277.262	339.19
277.494	354.19
277.726	300.19
277.957	317.19
278.189	308.19
278.421	290.19
278.652	289.19
278.884	298.19
279.115	297.19
279.347	281.19
279.579	284.19
279.81	277.19
280.042	286.19
280.273	269.19
280.505	285.19
280.736	277.19
280.968	263.19
281.199	258.19
281.431	282.19
281.662	254.19
281.894	277.19
282.125	292.19
282.356	285.19
282.588	313.19
282.819	327.19
283.051	285.19
283.282	285.19
283.513	272.19
283.745	290.19
283.976	282.19
284.207	278.19
284.439	287.19
284.67	285.19
284.901	278.19
285.132	275.19
285.364	271.19
285.595	282.19
285.826	280.19
286.057	262.19
286.288	291.19
286.52	276.19
286.751	279.19
286.982	285.19
287.213	282.19
287.444	293.19
287.675	279.19
287.906	296.19
288.138	297.19
288.369	312.19
288.6	315.19
288.831	301.19
289.062	296.19
289.293	292.19
289.524	301.19
289.755	294.19
289.986	292.19
290.217	311.19
290.448	294.19
290.679	295.19
290.91	282.19
291.141	286.19
291.371	296.19
291.602	291.19
291.833	274.19
292.064	292.19
292.295	296.19
292.526	289.19
292.757	310.19
292.987	278.19
293.218	278.19
293.449	284.19
293.68	288.19
293.91	286.19
294.141	284.19
294.372	290.19
294.603	326.19
294.833	301.19
295.064	271.19
295.295	285.19
295.525	300.19
295.756	285.19
295.987	312.19
296.217	341.19
296.448	359.19
296.679	304.19
296.909	291.19
297.14	295.19
297.37	298.19
297.601	295.19
297.831	293.19
298.062	291.19
298.292	302.19
298.523	317.19
298.753	318.19
298.984	302.19
299.214	314.19
299.445	302.19
299.675	311.19
299.905	306.19
300.136	323.19
300.366	298.19
300.597	321.19
300.827	313.19
301.057	319.19
301.288	341.19
301.518	335.19
301.748	338.19
301.979	319.19
302.209	324.19
302.439	350.19
302.669	333.19
302.9	334.19
303.13	316.19
303.36	339.19
303.59	326.19
303.82	351.19
304.051	330.19
304.281	347.19
304.511	332.19
304.741	326.19
304.971	315.19
305.201	322.19
305.431	336.19
305.661	319.19
305.891	340.19
306.121	339.19
306.352	327.19
306.582	330.19
306.812	333.19
307.042	351.19
307.272	345.19
307.502	340.19
307.731	342.19
307.961	320.19
308.191	327.19
308.421	332.19
308.651	344.19
308.881	335.19
309.111	337.19
309.341	378.19
309.571	390.19
309.8	391.19
310.03	391.19
310.26	395.19
310.49	399.19
310.72	415.19
310.949	419.19
311.179	430.19
311.409	396.19
311.639	394.19
311.868	414.19
312.098	394.19
312.328	397.19
312.557	424.19
312.787	444.19
313.017	429.19
313.246	414.19
313.476	395.19
313.706	397.19
313.935	379.19
314.165	415.19
314.394	424.19
314.624	401.19
314.853	399.19
315.083	392.19
315.312	393.19
315.542	390.19
315.771	377.19
316.001	377.19
316.23	391.19
316.46	386.19
316.689	399.19
316.919	388.19
317.148	414.19
317.377	402.19
317.607	386.19
317.836	400.19
318.065	401.19
318.295	396.19
318.524	393.19
318.753	376.19
318.983	407.19
319.212	394.19
319.441	402.19
319.67	393.19
319.9	408.19
320.129	384.19
320.358	402.19
320.587	399.19
320.816	411.19
321.046	413.19
321.275	416.19
321.504	422.19
321.733	421.19
321.962	446.19
322.191	463.19
322.42	446.19
322.649	489.19
322.878	489.19
323.108	511.19
323.337	542.19
323.566	558.19
323.795	626.19
324.024	647.19
324.253	795.19
324.482	1152.19
324.71	1810.19
324.939	2552.19
325.168	2215.19
325.397	1161.19
325.626	780.19
325.855	634.19
326.084	576.19
326.313	554.19
326.542	570.19
326.77	635.19
326.999	730.19
327.228	1032.19
327.457	1598.19
327.686	1877.19
327.914	1282.19
328.143	850.19
328.372	747.19
328.6	692.19
328.829	665.19
329.058	649.19
329.287	659.19
329.515	634.19
329.744	579.19
329.972	578.19
330.201	590.19
330.43	642.19
330.658	680.19
330.887	710.19
331.115	653.19
331.344	582.19
331.572	541.19
331.801	560.19
332.03	543.19
332.258	520.19
332.486	476.19
332.715	486.19
332.943	490.19
333.172	477.19
333.4	494.19
333.629	505.19
333.857	505.19
334.085	507.19
334.314	534.19
334.542	597.19
334.771	619.19
334.999	542.19
335.227	497.19
335.455	506.19
335.684	464.19
335.912	446.19
336.14	448.19
336.369	462.19
336.597	470.19
336.825	486.19
337.053	464.19
337.281	445.19
337.51	457.19
337.738	470.19
337.966	457.19
338.194	477.19
338.422	466.19
338.65	461.19
338.878	457.19
339.106	446.19
339.334	447.19
339.562	421.19
339.79	419.19
340.018	431.19
340.246	468.19
340.474	448.19
340.702	452.19
340.93	444.19
341.158	443.19
341.386	448.19
341.614	444.19
341.842	422.19
342.07	445.19
342.298	435.19
342.526	463.19
342.754	424.19
342.981	418.19
343.209	420.19
343.437	434.19
343.665	430.19
343.893	441.19
344.12	452.19
344.348	435.19
344.576	440.19
344.804	468.19
345.031	454.19
345.259	473.19
345.487	486.19
345.714	435.19
345.942	451.19
346.17	451.19
346.397	438.19
346.625	427.19
346.853	436.19
347.08	441.19
347.308	454.19
347.535	459.19
347.763	472.19
347.99	471.19
348.218	444.19
348.445	466.19
348.673	458.19
348.9	441.19
349.128	456.19
349.355	426.19
349.583	408.19
349.81	420.19
350.037	434.19
350.265	424.19
350.492	426.19
350.72	446.19
350.947	437.19
351.174	461.19
351.402	476.19
351.629	443.19
351.856	469.19
352.083	462.19
352.311	476.19
352.538	471.19
352.765	472.19
352.992	445.19
353.22	441.19
353.447	450.19
353.674	456.19
353.901	441.19
354.128	417.19
354.355	412.19
354.583	406.19
354.81	418.19
355.037	412.19
355.264	408.19
355.491	424.19
355.718	411.19
355.945	406.19
356.172	399.19
356.399	400.19
356.626	399.19
356.853	389.19
357.08	410.19
357.307	404.19
357.534	404.19
357.761	406.19
357.988	415.19
358.215	408.19
358.441	408.19
358.668	393.19
358.895	413.19
359.122	432.19
359.349	440.19
359.576	445.19
359.802	490.19
360.029	518.19
360.256	533.19
360.483	494.19
360.709	438.19
360.936	461.19
361.163	441.19
361.39	466.19
361.616	458.19
361.843	459.19
362.07	444.19
362.296	454.19
362.523	437.19
362.749	468.19
362.976	451.19
363.203	442.19
363.429	427.19
363.656	429.19
363.882	440.19
364.109	433.19
364.335	443.19
364.562	416.19
364.788	424.19
365.015	422.19
365.241	449.19
365.468	431.19
365.694	453.19
365.92	456.19
366.147	408.19
366.373	446.19
366.599	434.19
366.826	435.19
367.052	411.19
367.278	452.19
367.505	415.19
367.731	434.19
367.957	442.19
368.184	427.19
368.41	438.19
368.636	446.19
368.862	435.19
369.089	425.19
369.315	425.19
369.541	428.19
369.767	456.19
369.993	422.19
370.219	428.19
370.445	430.19
370.672	435.19
370.898	420.19
371.124	431.19
371.35	414.19
371.576	409.19
371.802	426.19
372.028	427.19
372.254	419.19
372.48	428.19
372.706	429.19
372.932	434.19
373.158	426.19
373.384	430.19
373.61	420.19
373.835	432.19
374.061	427.19
374.287	427.19
374.513	452.19
374.739	419.19
374.965	415.19
375.191	445.19
375.416	454.19
375.642	437.19
375.868	435.19
376.094	448.19
376.319	414.19
376.545	437.19
376.771	418.19
376.997	402.19
377.222	441.19
377.448	430.19
377.674	440.19
377.899	423.19
378.125	408.19
378.35	427.19
378.576	438.19
378.802	432.19
379.027	426.19
379.253	419.19
379.478	414.19
379.704	427.19
379.929	442.19
380.155	454.19
380.38	430.19
380.606	429.19
380.831	422.19
381.057	444.19
381.282	407.19
381.507	438.19
381.733	431.19
381.958	411.19
382.184	420.19
382.409	452.19
382.634	423.19
382.86	435.19
383.085	439.19
383.31	425.19
383.535	428.19
383.761	456.19
383.986	445.19
384.211	436.19
384.436	442.19
384.662	447.19
384.887	441.19
385.112	410.19
385.337	453.19
385.562	458.19
385.787	450.19
386.013	460.19
386.238	469.19
386.463	461.19
386.688	451.19
386.913	451.19
387.138	443.19
387.363	463.19
387.588	452.19
387.813	461.19
388.038	460.19
388.263	467.19
388.488	466.19
388.713	471.19
388.938	470.19
389.163	475.19
389.387	459.19
389.612	461.19
389.837	446.19
390.062	464.19
390.287	460.19
390.512	438.19
390.736	431.19
390.961	442.19
391.186	468.19
391.411	463.19
391.636	452.19
391.86	459.19
392.085	467.19
392.31	442.19
392.534	481.19
392.759	463.19
392.984	475.19
393.208	474.19
393.433	453.19
393.658	475.19
393.882	446.19
394.107	448.19
394.331	451.19
394.556	458.19
394.78	459.19
395.005	469.19
395.229	461.19
395.454	481.19
395.678	470.19
395.903	490.19
396.127	511.19
396.352	490.19
396.576	485.19
396.801	459.19
397.025	491.19
397.249	503.19
397.474	517.19
397.698	475.19
397.922	495.19
398.147	540.19
398.371	532.19
398.595	529.19
398.82	502.19
399.044	515.19
399.268	534.19
399.492	562.19
399.717	573.19
399.941	608.19
400.165	636.19
400.389	646.19
400.613	585.19
400.837	570.19
401.062	555.19
401.286	528.19
401.51	522.19
401.734	520.19
401.958	514.19
402.182	555.19
402.406	554.19
402.63	539.19
402.854	539.19
403.078	528.19
403.302	540.19
403.526	556.19
403.75	539.19
403.974	534.19
404.198	539.19
404.422	554.19
404.645	546.19
404.869	572.19
405.093	587.19
405.317	654.19
405.541	676.19
405.765	618.19
405.988	599.19
406.212	592.19
406.436	643.19
406.66	649.19
406.883	630.19
407.107	628.19
407.331	670.19
407.555	766.19
407.778	722.19
408.002	700.19
408.226	614.19
408.449	612.19
408.673	608.19
408.896	651.19
409.12	695.19
409.344	655.19
409.567	575.19
409.791	579.19
410.014	556.19
410.238	540.19
410.461	559.19
410.685	580.19
410.908	564.19
411.132	606.19
411.355	649.19
411.578	603.19
411.802	586.19
412.025	580.19
412.249	568.19
412.472	589.19
412.695	614.19
412.919	636.19
413.142	584.19
413.365	546.19
413.589	558.19
413.812	524.19
414.035	536.19
414.258	548.19
414.482	541.19
414.705	518.19
414.928	522.19
415.151	525.19
415.374	530.19
415.597	518.19
415.821	511.19
416.044	504.19
416.267	537.19
416.49	526.19
416.713	533.19
416.936	520.19
417.159	536.19
417.382	531.19
417.605	547.19
417.828	560.19
418.051	568.19
418.274	564.19
418.497	532.19
418.72	532.19
418.943	521.19
419.166	555.19
419.389	562.19
419.611	564.19
419.834	568.19
420.057	560.19
420.28	566.19
420.503	569.19
420.726	574.19
420.948	593.19
421.171	630.19
421.394	663.19
421.617	611.19
421.839	552.19
422.062	591.19
422.285	614.19
422.507	642.19
422.73	728.19
422.953	699.19
423.175	631.19
423.398	592.19
423.621	591.19
423.843	622.19
424.066	632.19
424.288	613.19
424.511	610.19
424.733	701.19
424.956	786.19
425.178	764.19
425.401	783.19
425.623	764.19
425.846	648.19
426.068	654.19
426.291	600.19
426.513	621.19
426.735	666.19
426.958	694.19
427.18	771.19
427.402	907.19
427.625	971.19
427.847	856.19
428.069	786.19
428.292	702.19
428.514	650.19
428.736	616.19
428.958	592.19
429.181	586.19
429.403	569.19
429.625	593.19
429.847	637.19
430.069	696.19
430.292	691.19
430.514	596.19
430.736	603.19
430.958	558.19
431.18	563.19
431.402	552.19
431.624	549.19
431.846	527.19
432.068	527.19
432.29	543.19
432.512	539.19
432.734	559.19
432.956	559.19
433.178	549.19
433.4	593.19
433.622	544.19
433.844	542.19
434.066	532.19
434.287	540.19
434.509	534.19
434.731	525.19
434.953	566.19
435.175	585.19
435.397	621.19
435.618	631.19
435.84	679.19
436.062	778.19
436.284	844.19
436.505	711.19
436.727	654.19
436.949	610.19
437.17	592.19
437.392	575.19
437.614	622.19
437.835	662.19
438.057	766.19
438.278	857.19
438.5	854.19
438.721	916.19
438.943	902.19
439.165	721.19
439.386	682.19
439.608	640.19
439.829	651.19
440.05	670.19
440.272	723.19
440.493	676.19
440.715	635.19
440.936	606.19
441.158	598.19
441.379	580.19
441.6	611.19
441.822	603.19
442.043	696.19
442.264	748.19
442.486	847.19
442.707	709.19
442.928	658.19
443.149	660.19
443.371	671.19
443.592	712.19
443.813	821.19
444.034	887.19
444.255	740.19
444.476	642.19
444.698	642.19
444.919	646.19
445.14	722.19
445.361	692.19
445.582	674.19
445.803	735.19
446.024	860.19
446.245	911.19
446.466	813.19
446.687	677.19
446.908	621.19
447.129	622.19
447.35	583.19
447.571	589.19
447.792	592.19
448.013	592.19
448.234	600.19
448.455	658.19
448.675	772.19
448.896	882.19
449.117	763.19
449.338	729.19
449.559	864.19
449.779	932.19
450	762.19
450.221	638.19
450.442	592.19
450.662	576.19
450.883	602.19
451.104	587.19
451.324	584.19
451.545	589.19
451.766	536.19
451.986	523.19
452.207	525.19
452.428	532.19
452.648	528.19
452.869	527.19
453.089	522.19
453.31	542.19
453.53	532.19
453.751	541.19
453.971	541.19
454.192	550.19
454.412	539.19
454.633	540.19
454.853	521.19
455.073	520.19
455.294	559.19
455.514	607.19
455.734	616.19
455.955	543.19
456.175	493.19
456.395	491.19
456.616	486.19
456.836	481.19
457.056	478.19
457.276	481.19
457.497	487.19
457.717	492.19
457.937	494.19
458.157	471.19
458.377	489.19
458.598	549.19
458.818	623.19
459.038	708.19
459.258	738.19
459.478	609.19
459.698	566.19
459.918	517.19
460.138	549.19
460.358	511.19
460.578	513.19
460.798	538.19
461.018	540.19
461.238	524.19
461.458	546.19
461.678	545.19
461.898	538.19
462.118	540.19
462.338	529.19
462.558	522.19
462.777	566.19
462.997	568.19
463.217	567.19
463.437	575.19
463.657	548.19
463.876	550.19
464.096	550.19
464.316	544.19
464.536	574.19
464.755	572.19
464.975	596.19
465.195	654.19
465.414	751.19
465.634	666.19
465.854	610.19
466.073	589.19
466.293	554.19
466.512	550.19
466.732	534.19
466.951	521.19
467.171	532.19
467.391	546.19
467.61	542.19
467.829	557.19
468.049	564.19
468.268	563.19
468.488	543.19
468.707	495.19
468.927	522.19
469.146	535.19
469.365	517.19
469.585	514.19
469.804	534.19
470.023	536.19
470.243	543.19
470.462	552.19
470.681	586.19
470.901	551.19
471.12	546.19
471.339	549.19
471.558	543.19
471.777	545.19
471.997	516.19
472.216	541.19
472.435	598.19
472.654	590.19
472.873	535.19
473.092	551.19
473.311	526.19
473.53	559.19
473.749	561.19
473.968	605.19
474.187	706.19
474.406	738.19
474.625	631.19
474.844	588.19
475.063	574.19
475.282	542.19
475.501	560.19
475.72	543.19
475.939	548.19
476.158	560.19
476.377	552.19
476.596	550.19
476.814	573.19
477.033	602.19
477.252	595.19
477.471	589.19
477.69	564.19
477.908	606.19
478.127	590.19
478.346	596.19
478.564	612.19
478.783	604.19
479.002	628.19
479.22	615.19
479.439	650.19
479.658	661.19
479.876	674.19
480.095	649.19
480.313	711.19
480.532	692.19
480.751	672.19
480.969	694.19
481.188	760.19
481.406	796.19
481.624	725.19
481.843	696.19
482.061	660.19
482.28	646.19
482.498	647.19
482.717	664.19
482.935	675.19
483.153	661.19
483.372	646.19
483.59	647.19
483.808	639.19
484.027	635.19
484.245	634.19
484.463	651.19
484.681	670.19
484.9	682.19
485.118	647.19
485.336	679.19
485.554	681.19
485.772	654.19
485.99	682.19
486.209	693.19
486.427	657.19
486.645	695.19
486.863	714.19
487.081	734.19
487.299	706.19
487.517	719.19
487.735	701.19
487.953	704.19
488.171	687.19
488.389	742.19
488.607	703.19
488.825	677.19
489.043	694.19
489.261	716.19
489.479	706.19
489.696	716.19
489.914	723.19
490.132	744.19
490.35	732.19
490.568	753.19
490.786	740.19
491.003	784.19
491.221	787.19
491.439	792.19
491.657	802.19
491.874	803.19
492.092	830.19
492.31	837.19
492.527	823.19
492.745	807.19
492.963	858.19
493.18	826.19
493.398	841.19
493.615	883.19
493.833	850.19
494.05	850.19
494.268	860.19
494.485	875.19
494.703	854.19
494.92	847.19
495.138	851.19
495.355	879.19
495.573	848.19
495.79	856.19
496.008	842.19
496.225	851.19
496.442	838.19
496.66	867.19
496.877	852.19
497.094	846.19
497.312	866.19
497.529	855.19
497.746	878.19
497.963	882.19
498.181	925.19
498.398	910.19
498.615	911.19
498.832	909.19
499.049	936.19
499.267	963.19
499.484	950.19
499.701	951.19
499.918	1010.19
500.135	998.19
500.352	1058.19
500.569	1053.19
500.786	1032.19
501.003	1053.19
501.22	1054.19
501.437	1033.19
501.654	1026.19
501.871	1019.19
