Data from 1970.PennyLincolnUp.Lamp.En5.5.200Scan.071719.P1._HRD10591_15-15-52-841.txt Node
Date: Thu Jul 18 15:15:52 EDT 2019
User: cochatt
Spectrometer: HR+D1059
Trigger mode: 1
Integration Time (sec): 1.000000E-1
Scans to average: 1
Electric dark correction enabled: true
Nonlinearity correction enabled: false
Boxcar width: 0
XAxis mode: Wavelengths
Number of Pixels in Spectrum: 2048
>>>>>Begin Spectral Data<<<<<
223.165	-7.62
223.4	-7.62
223.635	-7.62
223.869	-13.62
224.104	-13.62
224.338	-6.62
224.573	-9.62
224.808	-11.62
225.042	-1.62
225.277	-12.62
225.511	-1.62
225.746	11.38
225.98	-4.62
226.215	6.38
226.449	7.38
226.683	18.38
226.918	12.38
227.152	27.38
227.387	35.38
227.621	46.38
227.856	39.38
228.09	36.38
228.324	47.38
228.559	55.38
228.793	59.38
229.027	111.38
229.262	122.38
229.496	136.38
229.73	137.38
229.964	161.38
230.199	154.38
230.433	129.38
230.667	110.38
230.901	113.38
231.136	113.38
231.37	117.38
231.604	121.38
231.838	129.38
232.072	111.38
232.306	111.38
232.541	129.38
232.775	117.38
233.009	111.38
233.243	119.38
233.477	117.38
233.711	127.38
233.945	127.38
234.179	115.38
234.413	128.38
234.647	116.38
234.881	115.38
235.115	119.38
235.349	125.38
235.583	124.38
235.817	130.38
236.051	134.38
236.285	125.38
236.519	127.38
236.753	122.38
236.987	155.38
237.221	204.38
237.455	253.38
237.689	220.38
237.922	162.38
238.156	164.38
238.39	138.38
238.624	127.38
238.858	131.38
239.091	127.38
239.325	137.38
239.559	128.38
239.793	143.38
240.027	148.38
240.26	153.38
240.494	183.38
240.728	168.38
240.961	151.38
241.195	154.38
241.429	138.38
241.662	151.38
241.896	141.38
242.13	149.38
242.363	147.38
242.597	146.38
242.83	152.38
243.064	149.38
243.298	140.38
243.531	153.38
243.765	138.38
243.998	155.38
244.232	146.38
244.465	151.38
244.699	150.38
244.932	157.38
245.166	151.38
245.399	142.38
245.633	162.38
245.866	162.38
246.099	159.38
246.333	191.38
246.566	164.38
246.8	151.38
247.033	150.38
247.266	178.38
247.5	177.38
247.733	181.38
247.966	188.38
248.2	185.38
248.433	197.38
248.666	193.38
248.899	191.38
249.133	214.38
249.366	239.38
249.599	216.38
249.832	203.38
250.066	195.38
250.299	191.38
250.532	213.38
250.765	227.38
250.998	263.38
251.231	271.38
251.465	243.38
251.698	235.38
251.931	209.38
252.164	208.38
252.397	217.38
252.63	233.38
252.863	231.38
253.096	239.38
253.329	253.38
253.562	256.38
253.795	261.38
254.028	253.38
254.261	255.38
254.494	267.38
254.727	266.38
254.96	292.38
255.193	294.38
255.426	266.38
255.659	275.38
255.892	272.38
256.124	276.38
256.357	247.38
256.59	261.38
256.823	245.38
257.056	235.38
257.289	249.38
257.521	233.38
257.754	239.38
257.987	233.38
258.22	219.38
258.452	218.38
258.685	228.38
258.918	229.38
259.151	227.38
259.383	232.38
259.616	231.38
259.849	251.38
260.081	257.38
260.314	267.38
260.547	280.38
260.779	270.38
261.012	245.38
261.244	268.38
261.477	242.38
261.71	231.38
261.942	257.38
262.175	261.38
262.407	230.38
262.64	214.38
262.872	214.38
263.105	236.38
263.337	220.38
263.57	232.38
263.802	222.38
264.035	220.38
264.267	213.38
264.499	211.38
264.732	220.38
264.964	215.38
265.197	232.38
265.429	224.38
265.661	216.38
265.894	233.38
266.126	222.38
266.358	226.38
266.591	220.38
266.823	225.38
267.055	230.38
267.287	242.38
267.52	231.38
267.752	244.38
267.984	241.38
268.216	219.38
268.448	245.38
268.681	257.38
268.913	271.38
269.145	279.38
269.377	287.38
269.609	312.38
269.841	289.38
270.073	305.38
270.306	302.38
270.538	340.38
270.77	360.38
271.002	351.38
271.234	324.38
271.466	330.38
271.698	343.38
271.93	348.38
272.162	351.38
272.394	355.38
272.626	348.38
272.858	312.38
273.09	289.38
273.322	289.38
273.553	285.38
273.785	277.38
274.017	287.38
274.249	282.38
274.481	273.38
274.713	284.38
274.945	271.38
275.176	275.38
275.408	292.38
275.64	285.38
275.872	283.38
276.104	272.38
276.335	268.38
276.567	291.38
276.799	315.38
277.031	318.38
277.262	311.38
277.494	332.38
277.726	316.38
277.957	309.38
278.189	296.38
278.421	279.38
278.652	272.38
278.884	275.38
279.115	284.38
279.347	298.38
279.579	275.38
279.81	277.38
280.042	275.38
280.273	261.38
280.505	286.38
280.736	279.38
280.968	265.38
281.199	290.38
281.431	270.38
281.662	284.38
281.894	264.38
282.125	265.38
282.356	294.38
282.588	331.38
282.819	317.38
283.051	271.38
283.282	287.38
283.513	271.38
283.745	285.38
283.976	284.38
284.207	245.38
284.439	299.38
284.67	283.38
284.901	296.38
285.132	276.38
285.364	277.38
285.595	264.38
285.826	278.38
286.057	290.38
286.288	277.38
286.52	289.38
286.751	291.38
286.982	278.38
287.213	269.38
287.444	283.38
287.675	289.38
287.906	289.38
288.138	298.38
288.369	305.38
288.6	288.38
288.831	321.38
289.062	288.38
289.293	321.38
289.524	279.38
289.755	303.38
289.986	305.38
290.217	283.38
290.448	273.38
290.679	265.38
290.91	270.38
291.141	281.38
291.371	263.38
291.602	272.38
291.833	268.38
292.064	288.38
292.295	287.38
292.526	292.38
292.757	301.38
292.987	279.38
293.218	308.38
293.449	303.38
293.68	297.38
293.91	278.38
294.141	301.38
294.372	289.38
294.603	287.38
294.833	304.38
295.064	286.38
295.295	298.38
295.525	291.38
295.756	290.38
295.987	293.38
296.217	346.38
296.448	330.38
296.679	289.38
296.909	309.38
297.14	273.38
297.37	291.38
297.601	301.38
297.831	309.38
298.062	300.38
298.292	288.38
298.523	292.38
298.753	286.38
298.984	289.38
299.214	301.38
299.445	288.38
299.675	305.38
299.905	332.38
300.136	323.38
300.366	299.38
300.597	301.38
300.827	313.38
301.057	320.38
301.288	324.38
301.518	328.38
301.748	318.38
301.979	324.38
302.209	327.38
302.439	333.38
302.669	332.38
302.9	324.38
303.13	320.38
303.36	315.38
303.59	321.38
303.82	333.38
304.051	347.38
304.281	339.38
304.511	324.38
304.741	311.38
304.971	326.38
305.201	312.38
305.431	319.38
305.661	321.38
305.891	320.38
306.121	330.38
306.352	321.38
306.582	368.38
306.812	336.38
307.042	323.38
307.272	324.38
307.502	333.38
307.731	324.38
307.961	317.38
308.191	308.38
308.421	325.38
308.651	348.38
308.881	327.38
309.111	337.38
309.341	330.38
309.571	356.38
309.8	357.38
310.03	364.38
310.26	404.38
310.49	385.38
310.72	391.38
310.949	399.38
311.179	417.38
311.409	405.38
311.639	399.38
311.868	379.38
312.098	398.38
312.328	413.38
312.557	397.38
312.787	441.38
313.017	422.38
313.246	405.38
313.476	390.38
313.706	375.38
313.935	382.38
314.165	415.38
314.394	401.38
314.624	422.38
314.853	385.38
315.083	395.38
315.312	376.38
315.542	388.38
315.771	376.38
316.001	368.38
316.23	384.38
316.46	388.38
316.689	385.38
316.919	386.38
317.148	401.38
317.377	381.38
317.607	393.38
317.836	399.38
318.065	393.38
318.295	393.38
318.524	389.38
318.753	396.38
318.983	386.38
319.212	377.38
319.441	389.38
319.67	397.38
319.9	380.38
320.129	397.38
320.358	406.38
320.587	405.38
320.816	404.38
321.046	421.38
321.275	434.38
321.504	419.38
321.733	411.38
321.962	441.38
322.191	432.38
322.42	443.38
322.649	466.38
322.878	486.38
323.108	508.38
323.337	557.38
323.566	551.38
323.795	604.38
324.024	673.38
324.253	792.38
324.482	1132.38
324.71	1767.38
324.939	2468.38
325.168	2162.38
325.397	1173.38
325.626	765.38
325.855	623.38
326.084	569.38
326.313	565.38
326.542	578.38
326.77	615.38
326.999	740.38
327.228	1015.38
327.457	1549.38
327.686	1871.38
327.914	1256.38
328.143	853.38
328.372	759.38
328.6	687.38
328.829	641.38
329.058	650.38
329.287	679.38
329.515	621.38
329.744	589.38
329.972	571.38
330.201	592.38
330.43	663.38
330.658	683.38
330.887	709.38
331.115	685.38
331.344	588.38
331.572	538.38
331.801	534.38
332.03	529.38
332.258	511.38
332.486	486.38
332.715	469.38
332.943	460.38
333.172	467.38
333.4	467.38
333.629	473.38
333.857	492.38
334.085	508.38
334.314	550.38
334.542	579.38
334.771	607.38
334.999	544.38
335.227	494.38
335.455	474.38
335.684	466.38
335.912	470.38
336.14	453.38
336.369	448.38
336.597	460.38
336.825	460.38
337.053	449.38
337.281	453.38
337.51	436.38
337.738	452.38
337.966	444.38
338.194	469.38
338.422	460.38
338.65	453.38
338.878	428.38
339.106	437.38
339.334	435.38
339.562	416.38
339.79	430.38
340.018	431.38
340.246	444.38
340.474	469.38
340.702	459.38
340.93	453.38
341.158	430.38
341.386	444.38
341.614	469.38
341.842	455.38
342.07	448.38
342.298	437.38
342.526	432.38
342.754	402.38
342.981	422.38
343.209	413.38
343.437	436.38
343.665	434.38
343.893	434.38
344.12	446.38
344.348	432.38
344.576	442.38
344.804	455.38
345.031	450.38
345.259	466.38
345.487	458.38
345.714	436.38
345.942	446.38
346.17	441.38
346.397	415.38
346.625	443.38
346.853	450.38
347.08	444.38
347.308	449.38
347.535	455.38
347.763	451.38
347.99	444.38
348.218	452.38
348.445	459.38
348.673	470.38
348.9	451.38
349.128	442.38
349.355	441.38
349.583	433.38
349.81	412.38
350.037	411.38
350.265	412.38
350.492	431.38
350.72	409.38
350.947	458.38
351.174	441.38
351.402	468.38
351.629	433.38
351.856	454.38
352.083	449.38
352.311	445.38
352.538	476.38
352.765	479.38
352.992	463.38
353.22	459.38
353.447	453.38
353.674	425.38
353.901	428.38
354.128	433.38
354.355	420.38
354.583	415.38
354.81	410.38
355.037	405.38
355.264	413.38
355.491	392.38
355.718	382.38
355.945	416.38
356.172	386.38
356.399	379.38
356.626	401.38
356.853	398.38
357.08	408.38
357.307	405.38
357.534	413.38
357.761	402.38
357.988	416.38
358.215	385.38
358.441	412.38
358.668	415.38
358.895	409.38
359.122	435.38
359.349	416.38
359.576	439.38
359.802	462.38
360.029	500.38
360.256	527.38
360.483	509.38
360.709	460.38
360.936	442.38
361.163	431.38
361.39	446.38
361.616	451.38
361.843	452.38
362.07	454.38
362.296	471.38
362.523	447.38
362.749	437.38
362.976	433.38
363.203	442.38
363.429	412.38
363.656	386.38
363.882	432.38
364.109	408.38
364.335	425.38
364.562	421.38
364.788	416.38
365.015	426.38
365.241	428.38
365.468	424.38
365.694	439.38
365.92	427.38
366.147	419.38
366.373	426.38
366.599	398.38
366.826	422.38
367.052	408.38
367.278	411.38
367.505	413.38
367.731	428.38
367.957	413.38
368.184	413.38
368.41	445.38
368.636	452.38
368.862	444.38
369.089	453.38
369.315	413.38
369.541	413.38
369.767	427.38
369.993	415.38
370.219	411.38
370.445	416.38
370.672	444.38
370.898	405.38
371.124	412.38
371.35	429.38
371.576	428.38
371.802	417.38
372.028	405.38
372.254	412.38
372.48	409.38
372.706	427.38
372.932	420.38
373.158	413.38
373.384	426.38
373.61	425.38
373.835	423.38
374.061	419.38
374.287	397.38
374.513	434.38
374.739	431.38
374.965	403.38
375.191	422.38
375.416	416.38
375.642	427.38
375.868	429.38
376.094	427.38
376.319	398.38
376.545	435.38
376.771	420.38
376.997	413.38
377.222	395.38
377.448	420.38
377.674	408.38
377.899	397.38
378.125	423.38
378.35	384.38
378.576	422.38
378.802	414.38
379.027	420.38
379.253	421.38
379.478	411.38
379.704	410.38
379.929	418.38
380.155	405.38
380.38	417.38
380.606	423.38
380.831	428.38
381.057	426.38
381.282	415.38
381.507	419.38
381.733	420.38
381.958	421.38
382.184	428.38
382.409	410.38
382.634	418.38
382.86	439.38
383.085	420.38
383.31	435.38
383.535	405.38
383.761	450.38
383.986	429.38
384.211	433.38
384.436	443.38
384.662	431.38
384.887	426.38
385.112	444.38
385.337	453.38
385.562	426.38
385.787	438.38
386.013	469.38
386.238	445.38
386.463	457.38
386.688	464.38
386.913	462.38
387.138	447.38
387.363	447.38
387.588	456.38
387.813	429.38
388.038	451.38
388.263	475.38
388.488	451.38
388.713	448.38
388.938	441.38
389.163	435.38
389.387	447.38
389.612	453.38
389.837	442.38
390.062	461.38
390.287	458.38
390.512	451.38
390.736	450.38
390.961	460.38
391.186	431.38
391.411	447.38
391.636	452.38
391.86	455.38
392.085	446.38
392.31	453.38
392.534	444.38
392.759	439.38
392.984	453.38
393.208	465.38
393.433	457.38
393.658	456.38
393.882	440.38
394.107	442.38
394.331	443.38
394.556	470.38
394.78	437.38
395.005	448.38
395.229	451.38
395.454	449.38
395.678	452.38
395.903	466.38
396.127	486.38
396.352	502.38
396.576	469.38
396.801	472.38
397.025	469.38
397.249	471.38
397.474	490.38
397.698	511.38
397.922	490.38
398.147	491.38
398.371	508.38
398.595	507.38
398.82	518.38
399.044	509.38
399.268	505.38
399.492	544.38
399.717	553.38
399.941	584.38
400.165	604.38
400.389	637.38
400.613	598.38
400.837	561.38
401.062	529.38
401.286	517.38
401.51	520.38
401.734	500.38
401.958	509.38
402.182	524.38
402.406	544.38
402.63	543.38
402.854	527.38
403.078	512.38
403.302	531.38
403.526	529.38
403.75	529.38
403.974	543.38
404.198	529.38
404.422	538.38
404.645	547.38
404.869	526.38
405.093	607.38
405.317	634.38
405.541	654.38
405.765	612.38
405.988	597.38
406.212	568.38
406.436	587.38
406.66	602.38
406.883	596.38
407.107	615.38
407.331	641.38
407.555	731.38
407.778	700.38
408.002	660.38
408.226	618.38
408.449	611.38
408.673	617.38
408.896	646.38
409.12	674.38
409.344	617.38
409.567	587.38
409.791	563.38
410.014	555.38
410.238	556.38
410.461	555.38
410.685	557.38
410.908	576.38
411.132	597.38
411.355	641.38
411.578	622.38
411.802	548.38
412.025	539.38
412.249	572.38
412.472	574.38
412.695	630.38
412.919	616.38
413.142	585.38
413.365	544.38
413.589	545.38
413.812	530.38
414.035	540.38
414.258	552.38
414.482	515.38
414.705	521.38
414.928	514.38
415.151	525.38
415.374	520.38
415.597	524.38
415.821	499.38
416.044	511.38
416.267	541.38
416.49	513.38
416.713	508.38
416.936	525.38
417.159	525.38
417.382	526.38
417.605	533.38
417.828	541.38
418.051	562.38
418.274	539.38
418.497	525.38
418.72	533.38
418.943	525.38
419.166	547.38
419.389	574.38
419.611	569.38
419.834	546.38
420.057	550.38
420.28	549.38
420.503	555.38
420.726	563.38
420.948	560.38
421.171	625.38
421.394	655.38
421.617	594.38
421.839	548.38
422.062	579.38
422.285	575.38
422.507	626.38
422.73	717.38
422.953	666.38
423.175	605.38
423.398	591.38
423.621	575.38
423.843	606.38
424.066	572.38
424.288	581.38
424.511	621.38
424.733	685.38
424.956	756.38
425.178	757.38
425.401	716.38
425.623	770.38
425.846	665.38
426.068	603.38
426.291	612.38
426.513	609.38
426.735	618.38
426.958	674.38
427.18	753.38
427.402	869.38
427.625	966.38
427.847	903.38
428.069	761.38
428.292	694.38
428.514	619.38
428.736	606.38
428.958	611.38
429.181	580.38
429.403	571.38
429.625	579.38
429.847	621.38
430.069	706.38
430.292	704.38
430.514	590.38
430.736	592.38
430.958	558.38
431.18	540.38
431.402	535.38
431.624	532.38
431.846	536.38
432.068	524.38
432.29	502.38
432.512	513.38
432.734	537.38
432.956	545.38
433.178	549.38
433.4	556.38
433.622	530.38
433.844	545.38
434.066	545.38
434.287	509.38
434.509	561.38
434.731	551.38
434.953	535.38
435.175	557.38
435.397	590.38
435.618	613.38
435.84	642.38
436.062	787.38
436.284	820.38
436.505	708.38
436.727	629.38
436.949	593.38
437.17	572.38
437.392	574.38
437.614	598.38
437.835	632.38
438.057	739.38
438.278	841.38
438.5	858.38
438.721	904.38
438.943	867.38
439.165	716.38
439.386	639.38
439.608	640.38
439.829	656.38
440.05	682.38
440.272	740.38
440.493	674.38
440.715	641.38
440.936	593.38
441.158	575.38
441.379	581.38
441.6	583.38
441.822	597.38
442.043	651.38
442.264	740.38
442.486	818.38
442.707	695.38
442.928	615.38
443.149	644.38
443.371	638.38
443.592	719.38
443.813	817.38
444.034	844.38
444.255	748.38
444.476	626.38
444.698	616.38
444.919	633.38
445.14	757.38
445.361	689.38
445.582	680.38
445.803	727.38
446.024	863.38
446.245	864.38
446.466	765.38
446.687	674.38
446.908	637.38
447.129	609.38
447.35	583.38
447.571	573.38
447.792	568.38
448.013	604.38
448.234	629.38
448.455	664.38
448.675	781.38
448.896	897.38
449.117	791.38
449.338	756.38
449.559	827.38
449.779	905.38
450	759.38
450.221	663.38
450.442	600.38
450.662	581.38
450.883	581.38
451.104	609.38
451.324	584.38
451.545	553.38
451.766	548.38
451.986	541.38
452.207	523.38
452.428	524.38
452.648	532.38
452.869	543.38
453.089	531.38
453.31	556.38
453.53	525.38
453.751	513.38
453.971	525.38
454.192	546.38
454.412	541.38
454.633	531.38
454.853	526.38
455.073	520.38
455.294	557.38
455.514	613.38
455.734	611.38
455.955	510.38
456.175	495.38
456.395	497.38
456.616	489.38
456.836	489.38
457.056	476.38
457.276	468.38
457.497	496.38
457.717	486.38
457.937	505.38
458.157	478.38
458.377	477.38
458.598	509.38
458.818	602.38
459.038	682.38
459.258	724.38
459.478	593.38
459.698	563.38
459.918	539.38
460.138	524.38
460.358	548.38
460.578	520.38
460.798	533.38
461.018	497.38
461.238	513.38
461.458	486.38
461.678	513.38
461.898	523.38
462.118	541.38
462.338	520.38
462.558	547.38
462.777	540.38
462.997	552.38
463.217	554.38
463.437	557.38
463.657	537.38
463.876	519.38
464.096	557.38
464.316	551.38
464.536	562.38
464.755	557.38
464.975	569.38
465.195	627.38
465.414	742.38
465.634	643.38
465.854	600.38
466.073	561.38
466.293	557.38
466.512	526.38
466.732	524.38
466.951	534.38
467.171	531.38
467.391	525.38
467.61	564.38
467.829	548.38
468.049	561.38
468.268	557.38
468.488	539.38
468.707	506.38
468.927	524.38
469.146	510.38
469.365	517.38
469.585	495.38
469.804	530.38
470.023	508.38
470.243	539.38
470.462	519.38
470.681	569.38
470.901	536.38
471.12	522.38
471.339	523.38
471.558	539.38
471.777	541.38
471.997	527.38
472.216	553.38
472.435	593.38
472.654	583.38
472.873	554.38
473.092	523.38
473.311	516.38
473.53	551.38
473.749	552.38
473.968	577.38
474.187	730.38
474.406	746.38
474.625	608.38
474.844	561.38
475.063	570.38
475.282	559.38
475.501	540.38
475.72	559.38
475.939	537.38
476.158	569.38
476.377	553.38
476.596	548.38
476.814	566.38
477.033	547.38
477.252	565.38
477.471	582.38
477.69	565.38
477.908	568.38
478.127	576.38
478.346	553.38
478.564	583.38
478.783	601.38
479.002	609.38
479.22	607.38
479.439	628.38
479.658	623.38
479.876	646.38
480.095	651.38
480.313	668.38
480.532	666.38
480.751	664.38
480.969	652.38
481.188	757.38
481.406	810.38
481.624	701.38
481.843	667.38
482.061	674.38
482.28	642.38
482.498	642.38
482.717	648.38
482.935	664.38
483.153	608.38
483.372	621.38
483.59	628.38
483.808	642.38
484.027	633.38
484.245	637.38
484.463	637.38
484.681	659.38
484.9	644.38
485.118	652.38
485.336	643.38
485.554	657.38
485.772	653.38
485.99	682.38
486.209	681.38
486.427	682.38
486.645	700.38
486.863	703.38
487.081	707.38
487.299	710.38
487.517	695.38
487.735	688.38
487.953	675.38
488.171	702.38
488.389	681.38
488.607	689.38
488.825	684.38
489.043	716.38
489.261	703.38
489.479	714.38
489.696	706.38
489.914	716.38
490.132	715.38
490.35	729.38
490.568	755.38
490.786	765.38
491.003	761.38
491.221	796.38
491.439	824.38
491.657	799.38
491.874	791.38
492.092	804.38
492.31	793.38
492.527	850.38
492.745	864.38
492.963	851.38
493.18	829.38
493.398	861.38
493.615	829.38
493.833	850.38
494.05	837.38
494.268	859.38
494.485	836.38
494.703	843.38
494.92	866.38
495.138	851.38
495.355	848.38
495.573	869.38
495.79	872.38
496.008	844.38
496.225	844.38
496.442	840.38
496.66	843.38
496.877	840.38
497.094	843.38
497.312	827.38
497.529	844.38
497.746	869.38
497.963	866.38
498.181	880.38
498.398	891.38
498.615	901.38
498.832	893.38
499.049	885.38
499.267	915.38
499.484	950.38
499.701	945.38
499.918	972.38
500.135	1003.38
500.352	1024.38
500.569	1000.38
500.786	1016.38
501.003	1019.38
501.22	1016.38
501.437	1002.38
501.654	989.38
501.871	996.38
