Data from 1970.PennyLincolnUp.Lamp.En5.5.200Scan.071719.P1._HRD10591_15-13-37-842.txt Node
Date: Thu Jul 18 15:13:37 EDT 2019
User: cochatt
Spectrometer: HR+D1059
Trigger mode: 1
Integration Time (sec): 1.000000E-1
Scans to average: 1
Electric dark correction enabled: true
Nonlinearity correction enabled: false
Boxcar width: 0
XAxis mode: Wavelengths
Number of Pixels in Spectrum: 2048
>>>>>Begin Spectral Data<<<<<
223.165	-8.38
223.4	-8.38
223.635	-8.38
223.869	-19.38
224.104	-16.38
224.338	-14.38
224.573	-9.38
224.808	-21.38
225.042	-10.38
225.277	-9.38
225.511	3.62
225.746	-5.38
225.98	8.62
226.215	11.62
226.449	19.62
226.683	18.62
226.918	20.62
227.152	31.62
227.387	31.62
227.621	24.62
227.856	31.62
228.09	37.62
228.324	50.62
228.559	72.62
228.793	74.62
229.027	102.62
229.262	117.62
229.496	128.62
229.73	130.62
229.964	156.62
230.199	142.62
230.433	114.62
230.667	106.62
230.901	106.62
231.136	119.62
231.37	123.62
231.604	119.62
231.838	119.62
232.072	118.62
232.306	111.62
232.541	114.62
232.775	117.62
233.009	118.62
233.243	130.62
233.477	118.62
233.711	131.62
233.945	123.62
234.179	119.62
234.413	124.62
234.647	111.62
234.881	114.62
235.115	124.62
235.349	118.62
235.583	104.62
235.817	140.62
236.051	134.62
236.285	127.62
236.519	136.62
236.753	132.62
236.987	130.62
237.221	184.62
237.455	235.62
237.689	192.62
237.922	153.62
238.156	136.62
238.39	132.62
238.624	129.62
238.858	139.62
239.091	120.62
239.325	126.62
239.559	130.62
239.793	127.62
240.027	135.62
240.26	133.62
240.494	151.62
240.728	153.62
240.961	146.62
241.195	142.62
241.429	145.62
241.662	134.62
241.896	141.62
242.13	147.62
242.363	143.62
242.597	138.62
242.83	150.62
243.064	147.62
243.298	156.62
243.531	145.62
243.765	138.62
243.998	141.62
244.232	154.62
244.465	160.62
244.699	152.62
244.932	132.62
245.166	152.62
245.399	148.62
245.633	149.62
245.866	166.62
246.099	162.62
246.333	158.62
246.566	148.62
246.8	155.62
247.033	156.62
247.266	158.62
247.5	167.62
247.733	172.62
247.966	172.62
248.2	171.62
248.433	167.62
248.666	186.62
248.899	173.62
249.133	212.62
249.366	219.62
249.599	208.62
249.832	194.62
250.066	181.62
250.299	186.62
250.532	201.62
250.765	209.62
250.998	241.62
251.231	242.62
251.465	228.62
251.698	214.62
251.931	211.62
252.164	196.62
252.397	207.62
252.63	224.62
252.863	223.62
253.096	212.62
253.329	231.62
253.562	223.62
253.795	216.62
254.028	235.62
254.261	220.62
254.494	241.62
254.727	266.62
254.96	297.62
255.193	277.62
255.426	252.62
255.659	238.62
255.892	257.62
256.124	243.62
256.357	237.62
256.59	230.62
256.823	217.62
257.056	206.62
257.289	208.62
257.521	216.62
257.754	216.62
257.987	210.62
258.22	212.62
258.452	206.62
258.685	226.62
258.918	196.62
259.151	209.62
259.383	227.62
259.616	229.62
259.849	230.62
260.081	239.62
260.314	258.62
260.547	266.62
260.779	258.62
261.012	225.62
261.244	213.62
261.477	223.62
261.71	219.62
261.942	219.62
262.175	246.62
262.407	222.62
262.64	204.62
262.872	213.62
263.105	221.62
263.337	215.62
263.57	222.62
263.802	212.62
264.035	200.62
264.267	208.62
264.499	194.62
264.732	200.62
264.964	211.62
265.197	213.62
265.429	204.62
265.661	206.62
265.894	221.62
266.126	203.62
266.358	198.62
266.591	220.62
266.823	210.62
267.055	216.62
267.287	214.62
267.52	203.62
267.752	214.62
267.984	219.62
268.216	215.62
268.448	216.62
268.681	235.62
268.913	243.62
269.145	257.62
269.377	260.62
269.609	258.62
269.841	251.62
270.073	270.62
270.306	283.62
270.538	294.62
270.77	299.62
271.002	304.62
271.234	303.62
271.466	290.62
271.698	282.62
271.93	309.62
272.162	324.62
272.394	310.62
272.626	312.62
272.858	277.62
273.09	287.62
273.322	263.62
273.553	260.62
273.785	234.62
274.017	269.62
274.249	252.62
274.481	248.62
274.713	235.62
274.945	264.62
275.176	260.62
275.408	250.62
275.64	247.62
275.872	234.62
276.104	256.62
276.335	265.62
276.567	271.62
276.799	255.62
277.031	286.62
277.262	279.62
277.494	313.62
277.726	292.62
277.957	290.62
278.189	259.62
278.421	254.62
278.652	254.62
278.884	262.62
279.115	257.62
279.347	247.62
279.579	246.62
279.81	254.62
280.042	242.62
280.273	247.62
280.505	244.62
280.736	257.62
280.968	258.62
281.199	243.62
281.431	245.62
281.662	240.62
281.894	258.62
282.125	251.62
282.356	254.62
282.588	274.62
282.819	282.62
283.051	263.62
283.282	254.62
283.513	256.62
283.745	247.62
283.976	255.62
284.207	266.62
284.439	252.62
284.67	253.62
284.901	262.62
285.132	254.62
285.364	266.62
285.595	263.62
285.826	242.62
286.057	250.62
286.288	262.62
286.52	271.62
286.751	254.62
286.982	264.62
287.213	251.62
287.444	265.62
287.675	250.62
287.906	272.62
288.138	276.62
288.369	274.62
288.6	267.62
288.831	278.62
289.062	263.62
289.293	253.62
289.524	262.62
289.755	267.62
289.986	247.62
290.217	269.62
290.448	260.62
290.679	268.62
290.91	258.62
291.141	276.62
291.371	260.62
291.602	254.62
291.833	272.62
292.064	267.62
292.295	261.62
292.526	271.62
292.757	251.62
292.987	268.62
293.218	248.62
293.449	278.62
293.68	274.62
293.91	253.62
294.141	254.62
294.372	263.62
294.603	255.62
294.833	260.62
295.064	276.62
295.295	279.62
295.525	269.62
295.756	271.62
295.987	289.62
296.217	295.62
296.448	306.62
296.679	276.62
296.909	253.62
297.14	272.62
297.37	285.62
297.601	261.62
297.831	264.62
298.062	265.62
298.292	279.62
298.523	261.62
298.753	254.62
298.984	267.62
299.214	265.62
299.445	259.62
299.675	292.62
299.905	280.62
300.136	283.62
300.366	265.62
300.597	281.62
300.827	298.62
301.057	291.62
301.288	304.62
301.518	291.62
301.748	300.62
301.979	303.62
302.209	291.62
302.439	293.62
302.669	315.62
302.9	294.62
303.13	289.62
303.36	299.62
303.59	308.62
303.82	308.62
304.051	304.62
304.281	306.62
304.511	290.62
304.741	294.62
304.971	301.62
305.201	289.62
305.431	293.62
305.661	316.62
305.891	295.62
306.121	302.62
306.352	280.62
306.582	289.62
306.812	287.62
307.042	298.62
307.272	296.62
307.502	296.62
307.731	286.62
307.961	293.62
308.191	287.62
308.421	327.62
308.651	325.62
308.881	294.62
309.111	304.62
309.341	316.62
309.571	316.62
309.8	319.62
310.03	323.62
310.26	344.62
310.49	345.62
310.72	342.62
310.949	351.62
311.179	371.62
311.409	367.62
311.639	368.62
311.868	354.62
312.098	337.62
312.328	351.62
312.557	354.62
312.787	370.62
313.017	370.62
313.246	361.62
313.476	346.62
313.706	344.62
313.935	355.62
314.165	361.62
314.394	366.62
314.624	362.62
314.853	344.62
315.083	358.62
315.312	353.62
315.542	358.62
315.771	355.62
316.001	333.62
316.23	352.62
316.46	346.62
316.689	353.62
316.919	352.62
317.148	356.62
317.377	348.62
317.607	374.62
317.836	357.62
318.065	358.62
318.295	353.62
318.524	361.62
318.753	342.62
318.983	335.62
319.212	340.62
319.441	342.62
319.67	358.62
319.9	359.62
320.129	350.62
320.358	348.62
320.587	363.62
320.816	347.62
321.046	354.62
321.275	379.62
321.504	372.62
321.733	374.62
321.962	383.62
322.191	385.62
322.42	408.62
322.649	422.62
322.878	438.62
323.108	417.62
323.337	445.62
323.566	469.62
323.795	499.62
324.024	552.62
324.253	656.62
324.482	913.62
324.71	1425.62
324.939	1992.62
325.168	1730.62
325.397	965.62
325.626	643.62
325.855	540.62
326.084	486.62
326.313	469.62
326.542	490.62
326.77	511.62
326.999	610.62
327.228	810.62
327.457	1227.62
327.686	1514.62
327.914	1058.62
328.143	691.62
328.372	618.62
328.6	572.62
328.829	548.62
329.058	562.62
329.287	551.62
329.515	522.62
329.744	476.62
329.972	480.62
330.201	485.62
330.43	540.62
330.658	574.62
330.887	582.62
331.115	570.62
331.344	498.62
331.572	472.62
331.801	470.62
332.03	453.62
332.258	468.62
332.486	429.62
332.715	401.62
332.943	408.62
333.172	414.62
333.4	431.62
333.629	442.62
333.857	444.62
334.085	461.62
334.314	462.62
334.542	504.62
334.771	522.62
334.999	476.62
335.227	429.62
335.455	433.62
335.684	399.62
335.912	391.62
336.14	427.62
336.369	410.62
336.597	412.62
336.825	409.62
337.053	426.62
337.281	400.62
337.51	413.62
337.738	382.62
337.966	400.62
338.194	426.62
338.422	418.62
338.65	423.62
338.878	398.62
339.106	402.62
339.334	386.62
339.562	411.62
339.79	399.62
340.018	416.62
340.246	385.62
340.474	423.62
340.702	397.62
340.93	422.62
341.158	396.62
341.386	401.62
341.614	395.62
341.842	402.62
342.07	413.62
342.298	411.62
342.526	392.62
342.754	381.62
342.981	385.62
343.209	398.62
343.437	411.62
343.665	381.62
343.893	386.62
344.12	394.62
344.348	400.62
344.576	389.62
344.804	405.62
345.031	387.62
345.259	432.62
345.487	436.62
345.714	406.62
345.942	408.62
346.17	390.62
346.397	395.62
346.625	394.62
346.853	379.62
347.08	389.62
347.308	394.62
347.535	391.62
347.763	418.62
347.99	414.62
348.218	413.62
348.445	416.62
348.673	407.62
348.9	395.62
349.128	372.62
349.355	376.62
349.583	398.62
349.81	386.62
350.037	390.62
350.265	382.62
350.492	362.62
350.72	378.62
350.947	393.62
351.174	379.62
351.402	408.62
351.629	409.62
351.856	398.62
352.083	407.62
352.311	407.62
352.538	417.62
352.765	428.62
352.992	412.62
353.22	425.62
353.447	384.62
353.674	391.62
353.901	359.62
354.128	364.62
354.355	379.62
354.583	383.62
354.81	362.62
355.037	380.62
355.264	378.62
355.491	351.62
355.718	370.62
355.945	358.62
356.172	362.62
356.399	376.62
356.626	361.62
356.853	364.62
357.08	359.62
357.307	370.62
357.534	373.62
357.761	350.62
357.988	364.62
358.215	384.62
358.441	374.62
358.668	366.62
358.895	379.62
359.122	388.62
359.349	383.62
359.576	421.62
359.802	417.62
360.029	441.62
360.256	447.62
360.483	421.62
360.709	416.62
360.936	408.62
361.163	396.62
361.39	405.62
361.616	406.62
361.843	385.62
362.07	386.62
362.296	406.62
362.523	409.62
362.749	395.62
362.976	418.62
363.203	391.62
363.429	382.62
363.656	389.62
363.882	383.62
364.109	374.62
364.335	393.62
364.562	403.62
364.788	370.62
365.015	394.62
365.241	397.62
365.468	405.62
365.694	382.62
365.92	394.62
366.147	396.62
366.373	399.62
366.599	372.62
366.826	393.62
367.052	378.62
367.278	377.62
367.505	382.62
367.731	382.62
367.957	378.62
368.184	384.62
368.41	400.62
368.636	394.62
368.862	400.62
369.089	393.62
369.315	391.62
369.541	383.62
369.767	395.62
369.993	404.62
370.219	390.62
370.445	373.62
370.672	396.62
370.898	378.62
371.124	378.62
371.35	395.62
371.576	370.62
371.802	382.62
372.028	383.62
372.254	384.62
372.48	361.62
372.706	398.62
372.932	380.62
373.158	381.62
373.384	387.62
373.61	377.62
373.835	401.62
374.061	404.62
374.287	385.62
374.513	382.62
374.739	400.62
374.965	390.62
375.191	380.62
375.416	402.62
375.642	386.62
375.868	390.62
376.094	395.62
376.319	381.62
376.545	382.62
376.771	382.62
376.997	387.62
377.222	394.62
377.448	384.62
377.674	383.62
377.899	383.62
378.125	358.62
378.35	378.62
378.576	396.62
378.802	384.62
379.027	372.62
379.253	381.62
379.478	389.62
379.704	392.62
379.929	390.62
380.155	387.62
380.38	378.62
380.606	402.62
380.831	392.62
381.057	408.62
381.282	386.62
381.507	397.62
381.733	399.62
381.958	396.62
382.184	409.62
382.409	415.62
382.634	382.62
382.86	397.62
383.085	392.62
383.31	410.62
383.535	403.62
383.761	398.62
383.986	404.62
384.211	408.62
384.436	400.62
384.662	408.62
384.887	420.62
385.112	431.62
385.337	415.62
385.562	393.62
385.787	394.62
386.013	425.62
386.238	445.62
386.463	430.62
386.688	445.62
386.913	428.62
387.138	408.62
387.363	429.62
387.588	425.62
387.813	406.62
388.038	431.62
388.263	425.62
388.488	423.62
388.713	423.62
388.938	416.62
389.163	418.62
389.387	410.62
389.612	410.62
389.837	416.62
390.062	431.62
390.287	423.62
390.512	425.62
390.736	412.62
390.961	413.62
391.186	427.62
391.411	408.62
391.636	409.62
391.86	432.62
392.085	447.62
392.31	440.62
392.534	437.62
392.759	430.62
392.984	431.62
393.208	456.62
393.433	450.62
393.658	426.62
393.882	432.62
394.107	421.62
394.331	422.62
394.556	439.62
394.78	411.62
395.005	420.62
395.229	434.62
395.454	447.62
395.678	452.62
395.903	448.62
396.127	467.62
396.352	468.62
396.576	461.62
396.801	437.62
397.025	459.62
397.249	457.62
397.474	462.62
397.698	458.62
397.922	455.62
398.147	460.62
398.371	484.62
398.595	475.62
398.82	466.62
399.044	469.62
399.268	482.62
399.492	544.62
399.717	526.62
399.941	532.62
400.165	582.62
400.389	589.62
400.613	547.62
400.837	510.62
401.062	495.62
401.286	480.62
401.51	471.62
401.734	481.62
401.958	477.62
402.182	483.62
402.406	480.62
402.63	481.62
402.854	495.62
403.078	483.62
403.302	495.62
403.526	484.62
403.75	495.62
403.974	491.62
404.198	521.62
404.422	493.62
404.645	500.62
404.869	526.62
405.093	542.62
405.317	602.62
405.541	584.62
405.765	541.62
405.988	535.62
406.212	537.62
406.436	546.62
406.66	550.62
406.883	546.62
407.107	565.62
407.331	601.62
407.555	668.62
407.778	662.62
408.002	596.62
408.226	608.62
408.449	566.62
408.673	545.62
408.896	558.62
409.12	619.62
409.344	588.62
409.567	535.62
409.791	550.62
410.014	501.62
410.238	499.62
410.461	536.62
410.685	504.62
410.908	527.62
411.132	557.62
411.355	604.62
411.578	574.62
411.802	535.62
412.025	496.62
412.249	514.62
412.472	558.62
412.695	589.62
412.919	565.62
413.142	516.62
413.365	521.62
413.589	479.62
413.812	491.62
414.035	487.62
414.258	467.62
414.482	482.62
414.705	462.62
414.928	470.62
415.151	470.62
415.374	455.62
415.597	482.62
415.821	499.62
416.044	463.62
416.267	477.62
416.49	491.62
416.713	486.62
416.936	485.62
417.159	475.62
417.382	473.62
417.605	494.62
417.828	503.62
418.051	494.62
418.274	518.62
418.497	501.62
418.72	520.62
418.943	486.62
419.166	500.62
419.389	508.62
419.611	533.62
419.834	502.62
420.057	509.62
420.28	514.62
420.503	505.62
420.726	520.62
420.948	548.62
421.171	572.62
421.394	573.62
421.617	539.62
421.839	525.62
422.062	528.62
422.285	547.62
422.507	612.62
422.73	649.62
422.953	659.62
423.175	576.62
423.398	543.62
423.621	531.62
423.843	532.62
424.066	536.62
424.288	552.62
424.511	564.62
424.733	630.62
424.956	678.62
425.178	686.62
425.401	649.62
425.623	688.62
425.846	614.62
426.068	592.62
426.291	561.62
426.513	564.62
426.735	573.62
426.958	634.62
427.18	693.62
427.402	794.62
427.625	903.62
427.847	821.62
428.069	711.62
428.292	627.62
428.514	578.62
428.736	546.62
428.958	532.62
429.181	544.62
429.403	527.62
429.625	556.62
429.847	568.62
430.069	644.62
430.292	630.62
430.514	539.62
430.736	558.62
430.958	524.62
431.18	509.62
431.402	494.62
431.624	502.62
431.846	476.62
432.068	490.62
432.29	503.62
432.512	483.62
432.734	509.62
432.956	482.62
433.178	516.62
433.4	504.62
433.622	500.62
433.844	501.62
434.066	491.62
434.287	495.62
434.509	504.62
434.731	503.62
434.953	525.62
435.175	530.62
435.397	546.62
435.618	587.62
435.84	597.62
436.062	702.62
436.284	753.62
436.505	652.62
436.727	575.62
436.949	550.62
437.17	522.62
437.392	534.62
437.614	550.62
437.835	573.62
438.057	698.62
438.278	776.62
438.5	782.62
438.721	836.62
438.943	804.62
439.165	649.62
439.386	622.62
439.608	593.62
439.829	578.62
440.05	608.62
440.272	650.62
440.493	609.62
440.715	586.62
440.936	558.62
441.158	535.62
441.379	518.62
441.6	559.62
441.822	562.62
442.043	596.62
442.264	687.62
442.486	714.62
442.707	619.62
442.928	603.62
443.149	590.62
443.371	615.62
443.592	656.62
443.813	724.62
444.034	790.62
444.255	656.62
444.476	600.62
444.698	576.62
444.919	582.62
445.14	665.62
445.361	636.62
445.582	630.62
445.803	666.62
446.024	714.62
446.245	767.62
446.466	690.62
446.687	623.62
446.908	575.62
447.129	554.62
447.35	523.62
447.571	536.62
447.792	532.62
448.013	541.62
448.234	565.62
448.455	620.62
448.675	710.62
448.896	782.62
449.117	714.62
449.338	654.62
449.559	747.62
449.779	835.62
450	672.62
450.221	590.62
450.442	573.62
450.662	522.62
450.883	531.62
451.104	542.62
451.324	507.62
451.545	474.62
451.766	482.62
451.986	469.62
452.207	468.62
452.428	446.62
452.648	477.62
452.869	483.62
453.089	477.62
453.31	481.62
453.53	500.62
453.751	462.62
453.971	473.62
454.192	488.62
454.412	520.62
454.633	476.62
454.853	463.62
455.073	485.62
455.294	492.62
455.514	574.62
455.734	550.62
455.955	464.62
456.175	454.62
456.395	461.62
456.616	431.62
456.836	435.62
457.056	438.62
457.276	424.62
457.497	428.62
457.717	444.62
457.937	459.62
458.157	462.62
458.377	447.62
458.598	487.62
458.818	537.62
459.038	618.62
459.258	644.62
459.478	546.62
459.698	498.62
459.918	500.62
460.138	474.62
460.358	484.62
460.578	470.62
460.798	492.62
461.018	491.62
461.238	476.62
461.458	480.62
461.678	482.62
461.898	475.62
462.118	469.62
462.338	534.62
462.558	510.62
462.777	493.62
462.997	511.62
463.217	502.62
463.437	519.62
463.657	502.62
463.876	518.62
464.096	521.62
464.316	491.62
464.536	552.62
464.755	538.62
464.975	549.62
465.195	563.62
465.414	666.62
465.634	581.62
465.854	550.62
466.073	512.62
466.293	500.62
466.512	480.62
466.732	480.62
466.951	473.62
467.171	464.62
467.391	474.62
467.61	491.62
467.829	509.62
468.049	496.62
468.268	489.62
468.488	482.62
468.707	489.62
468.927	481.62
469.146	465.62
469.365	471.62
469.585	473.62
469.804	499.62
470.023	509.62
470.243	503.62
470.462	518.62
470.681	519.62
470.901	511.62
471.12	508.62
471.339	484.62
471.558	510.62
471.777	500.62
471.997	485.62
472.216	498.62
472.435	534.62
472.654	485.62
472.873	498.62
473.092	495.62
473.311	494.62
473.53	476.62
473.749	495.62
473.968	542.62
474.187	645.62
474.406	670.62
474.625	568.62
474.844	538.62
475.063	486.62
475.282	503.62
475.501	504.62
475.72	516.62
475.939	522.62
476.158	505.62
476.377	510.62
476.596	511.62
476.814	523.62
477.033	537.62
477.252	526.62
477.471	516.62
477.69	529.62
477.908	543.62
478.127	551.62
478.346	545.62
478.564	536.62
478.783	558.62
479.002	554.62
479.22	559.62
479.439	573.62
479.658	570.62
479.876	611.62
480.095	580.62
480.313	599.62
480.532	604.62
480.751	615.62
480.969	622.62
481.188	657.62
481.406	678.62
481.624	635.62
481.843	619.62
482.061	600.62
482.28	619.62
482.498	597.62
482.717	565.62
482.935	574.62
483.153	589.62
483.372	596.62
483.59	594.62
483.808	590.62
484.027	584.62
484.245	579.62
484.463	619.62
484.681	597.62
484.9	585.62
485.118	613.62
485.336	607.62
485.554	593.62
485.772	611.62
485.99	605.62
486.209	603.62
486.427	608.62
486.645	623.62
486.863	652.62
487.081	642.62
487.299	653.62
487.517	625.62
487.735	615.62
487.953	610.62
488.171	638.62
488.389	664.62
488.607	658.62
488.825	628.62
489.043	626.62
489.261	667.62
489.479	662.62
489.696	649.62
489.914	652.62
490.132	637.62
490.35	688.62
490.568	689.62
490.786	674.62
491.003	696.62
491.221	711.62
491.439	733.62
491.657	742.62
491.874	733.62
492.092	749.62
492.31	737.62
492.527	760.62
492.745	754.62
492.963	742.62
493.18	758.62
493.398	778.62
493.615	772.62
493.833	766.62
494.05	774.62
494.268	768.62
494.485	767.62
494.703	772.62
494.92	758.62
495.138	759.62
495.355	763.62
495.573	786.62
495.79	782.62
496.008	775.62
496.225	776.62
496.442	752.62
496.66	792.62
496.877	767.62
497.094	774.62
497.312	766.62
497.529	790.62
497.746	793.62
497.963	783.62
498.181	849.62
498.398	833.62
498.615	826.62
498.832	838.62
499.049	842.62
499.267	857.62
499.484	872.62
499.701	903.62
499.918	914.62
500.135	909.62
500.352	954.62
500.569	950.62
500.786	950.62
501.003	964.62
501.22	939.62
501.437	919.62
501.654	931.62
501.871	913.62
