Data from 1970.PennyLincolnUp.Lamp.En5.5.200Scan.071719.P1._HRD10591_15-16-16-842.txt Node
Date: Thu Jul 18 15:16:16 EDT 2019
User: cochatt
Spectrometer: HR+D1059
Trigger mode: 1
Integration Time (sec): 1.000000E-1
Scans to average: 1
Electric dark correction enabled: true
Nonlinearity correction enabled: false
Boxcar width: 0
XAxis mode: Wavelengths
Number of Pixels in Spectrum: 2048
>>>>>Begin Spectral Data<<<<<
223.165	-16.44
223.4	-16.44
223.635	-16.44
223.869	-34.44
224.104	-16.44
224.338	-0.44
224.573	-10.44
224.808	-8.44
225.042	-12.44
225.277	4.56
225.511	-8.44
225.746	-0.44
225.98	0.56
226.215	4.56
226.449	21.56
226.683	15.56
226.918	30.56
227.152	30.56
227.387	15.56
227.621	36.56
227.856	45.56
228.09	42.56
228.324	53.56
228.559	54.56
228.793	69.56
229.027	108.56
229.262	122.56
229.496	123.56
229.73	161.56
229.964	178.56
230.199	138.56
230.433	127.56
230.667	139.56
230.901	130.56
231.136	126.56
231.37	113.56
231.604	120.56
231.838	119.56
232.072	124.56
232.306	122.56
232.541	122.56
232.775	118.56
233.009	113.56
233.243	109.56
233.477	125.56
233.711	130.56
233.945	127.56
234.179	124.56
234.413	128.56
234.647	124.56
234.881	120.56
235.115	128.56
235.349	128.56
235.583	142.56
235.817	133.56
236.051	140.56
236.285	154.56
236.519	139.56
236.753	152.56
236.987	168.56
237.221	204.56
237.455	268.56
237.689	218.56
237.922	154.56
238.156	158.56
238.39	135.56
238.624	138.56
238.858	126.56
239.091	146.56
239.325	125.56
239.559	141.56
239.793	143.56
240.027	156.56
240.26	149.56
240.494	188.56
240.728	188.56
240.961	180.56
241.195	172.56
241.429	140.56
241.662	141.56
241.896	142.56
242.13	143.56
242.363	142.56
242.597	159.56
242.83	163.56
243.064	160.56
243.298	172.56
243.531	144.56
243.765	148.56
243.998	146.56
244.232	150.56
244.465	157.56
244.699	169.56
244.932	165.56
245.166	159.56
245.399	160.56
245.633	163.56
245.866	162.56
246.099	162.56
246.333	183.56
246.566	156.56
246.8	170.56
247.033	175.56
247.266	167.56
247.5	174.56
247.733	178.56
247.966	188.56
248.2	186.56
248.433	195.56
248.666	188.56
248.899	207.56
249.133	226.56
249.366	235.56
249.599	227.56
249.832	207.56
250.066	203.56
250.299	202.56
250.532	214.56
250.765	228.56
250.998	263.56
251.231	273.56
251.465	265.56
251.698	237.56
251.931	212.56
252.164	214.56
252.397	229.56
252.63	233.56
252.863	241.56
253.096	241.56
253.329	252.56
253.562	251.56
253.795	255.56
254.028	244.56
254.261	237.56
254.494	246.56
254.727	282.56
254.96	319.56
255.193	321.56
255.426	297.56
255.659	264.56
255.892	260.56
256.124	262.56
256.357	283.56
256.59	269.56
256.823	263.56
257.056	270.56
257.289	260.56
257.521	237.56
257.754	235.56
257.987	251.56
258.22	244.56
258.452	209.56
258.685	223.56
258.918	229.56
259.151	230.56
259.383	255.56
259.616	249.56
259.849	242.56
260.081	265.56
260.314	297.56
260.547	294.56
260.779	271.56
261.012	251.56
261.244	265.56
261.477	280.56
261.71	256.56
261.942	261.56
262.175	289.56
262.407	266.56
262.64	235.56
262.872	230.56
263.105	233.56
263.337	235.56
263.57	234.56
263.802	222.56
264.035	242.56
264.267	213.56
264.499	225.56
264.732	239.56
264.964	235.56
265.197	235.56
265.429	235.56
265.661	233.56
265.894	223.56
266.126	219.56
266.358	237.56
266.591	225.56
266.823	245.56
267.055	263.56
267.287	236.56
267.52	218.56
267.752	231.56
267.984	256.56
268.216	235.56
268.448	232.56
268.681	258.56
268.913	281.56
269.145	263.56
269.377	316.56
269.609	306.56
269.841	280.56
270.073	299.56
270.306	310.56
270.538	362.56
270.77	355.56
271.002	348.56
271.234	319.56
271.466	350.56
271.698	350.56
271.93	362.56
272.162	375.56
272.394	350.56
272.626	327.56
272.858	318.56
273.09	301.56
273.322	310.56
273.553	287.56
273.785	305.56
274.017	272.56
274.249	278.56
274.481	280.56
274.713	287.56
274.945	286.56
275.176	298.56
275.408	302.56
275.64	282.56
275.872	279.56
276.104	288.56
276.335	265.56
276.567	314.56
276.799	318.56
277.031	348.56
277.262	356.56
277.494	366.56
277.726	328.56
277.957	332.56
278.189	300.56
278.421	283.56
278.652	283.56
278.884	295.56
279.115	287.56
279.347	275.56
279.579	286.56
279.81	276.56
280.042	300.56
280.273	263.56
280.505	283.56
280.736	279.56
280.968	278.56
281.199	293.56
281.431	279.56
281.662	265.56
281.894	272.56
282.125	295.56
282.356	322.56
282.588	321.56
282.819	336.56
283.051	301.56
283.282	268.56
283.513	280.56
283.745	290.56
283.976	296.56
284.207	278.56
284.439	294.56
284.67	295.56
284.901	280.56
285.132	256.56
285.364	304.56
285.595	291.56
285.826	286.56
286.057	300.56
286.288	280.56
286.52	295.56
286.751	282.56
286.982	287.56
287.213	285.56
287.444	299.56
287.675	294.56
287.906	310.56
288.138	310.56
288.369	311.56
288.6	321.56
288.831	319.56
289.062	303.56
289.293	322.56
289.524	294.56
289.755	303.56
289.986	289.56
290.217	310.56
290.448	284.56
290.679	299.56
290.91	294.56
291.141	294.56
291.371	291.56
291.602	295.56
291.833	280.56
292.064	303.56
292.295	291.56
292.526	291.56
292.757	307.56
292.987	297.56
293.218	303.56
293.449	312.56
293.68	309.56
293.91	278.56
294.141	285.56
294.372	286.56
294.603	284.56
294.833	314.56
295.064	294.56
295.295	327.56
295.525	303.56
295.756	313.56
295.987	302.56
296.217	353.56
296.448	364.56
296.679	310.56
296.909	284.56
297.14	297.56
297.37	323.56
297.601	324.56
297.831	302.56
298.062	297.56
298.292	294.56
298.523	299.56
298.753	311.56
298.984	318.56
299.214	316.56
299.445	311.56
299.675	328.56
299.905	319.56
300.136	312.56
300.366	318.56
300.597	335.56
300.827	326.56
301.057	334.56
301.288	339.56
301.518	336.56
301.748	343.56
301.979	334.56
302.209	331.56
302.439	334.56
302.669	328.56
302.9	334.56
303.13	328.56
303.36	311.56
303.59	345.56
303.82	355.56
304.051	361.56
304.281	327.56
304.511	311.56
304.741	330.56
304.971	340.56
305.201	322.56
305.431	328.56
305.661	330.56
305.891	342.56
306.121	326.56
306.352	321.56
306.582	358.56
306.812	335.56
307.042	336.56
307.272	339.56
307.502	334.56
307.731	344.56
307.961	344.56
308.191	332.56
308.421	350.56
308.651	374.56
308.881	339.56
309.111	365.56
309.341	354.56
309.571	362.56
309.8	362.56
310.03	407.56
310.26	406.56
310.49	393.56
310.72	404.56
310.949	417.56
311.179	414.56
311.409	426.56
311.639	410.56
311.868	407.56
312.098	403.56
312.328	412.56
312.557	434.56
312.787	453.56
313.017	450.56
313.246	411.56
313.476	407.56
313.706	410.56
313.935	388.56
314.165	408.56
314.394	439.56
314.624	430.56
314.853	413.56
315.083	420.56
315.312	396.56
315.542	390.56
315.771	404.56
316.001	382.56
316.23	395.56
316.46	379.56
316.689	386.56
316.919	400.56
317.148	420.56
317.377	423.56
317.607	410.56
317.836	420.56
318.065	394.56
318.295	379.56
318.524	396.56
318.753	398.56
318.983	385.56
319.212	385.56
319.441	424.56
319.67	424.56
319.9	406.56
320.129	400.56
320.358	405.56
320.587	417.56
320.816	422.56
321.046	423.56
321.275	436.56
321.504	408.56
321.733	439.56
321.962	442.56
322.191	462.56
322.42	492.56
322.649	492.56
322.878	507.56
323.108	540.56
323.337	556.56
323.566	570.56
323.795	631.56
324.024	689.56
324.253	816.56
324.482	1186.56
324.71	1848.56
324.939	2615.56
325.168	2291.56
325.397	1250.56
325.626	821.56
325.855	668.56
326.084	588.56
326.313	586.56
326.542	578.56
326.77	643.56
326.999	763.56
327.228	1063.56
327.457	1649.56
327.686	2003.56
327.914	1354.56
328.143	878.56
328.372	759.56
328.6	716.56
328.829	664.56
329.058	680.56
329.287	693.56
329.515	636.56
329.744	580.56
329.972	586.56
330.201	616.56
330.43	686.56
330.658	700.56
330.887	736.56
331.115	709.56
331.344	602.56
331.572	552.56
331.801	547.56
332.03	558.56
332.258	531.56
332.486	500.56
332.715	491.56
332.943	495.56
333.172	486.56
333.4	507.56
333.629	494.56
333.857	526.56
334.085	538.56
334.314	570.56
334.542	616.56
334.771	641.56
334.999	559.56
335.227	520.56
335.455	501.56
335.684	479.56
335.912	459.56
336.14	475.56
336.369	456.56
336.597	499.56
336.825	464.56
337.053	475.56
337.281	483.56
337.51	470.56
337.738	478.56
337.966	442.56
338.194	473.56
338.422	473.56
338.65	453.56
338.878	464.56
339.106	453.56
339.334	454.56
339.562	448.56
339.79	451.56
340.018	453.56
340.246	456.56
340.474	466.56
340.702	455.56
340.93	443.56
341.158	448.56
341.386	479.56
341.614	442.56
341.842	464.56
342.07	462.56
342.298	450.56
342.526	462.56
342.754	423.56
342.981	434.56
343.209	429.56
343.437	424.56
343.665	443.56
343.893	421.56
344.12	448.56
344.348	455.56
344.576	463.56
344.804	451.56
345.031	491.56
345.259	493.56
345.487	497.56
345.714	475.56
345.942	443.56
346.17	451.56
346.397	441.56
346.625	448.56
346.853	424.56
347.08	450.56
347.308	470.56
347.535	447.56
347.763	487.56
347.99	482.56
348.218	456.56
348.445	468.56
348.673	475.56
348.9	480.56
349.128	453.56
349.355	422.56
349.583	438.56
349.81	444.56
350.037	446.56
350.265	429.56
350.492	442.56
350.72	450.56
350.947	454.56
351.174	472.56
351.402	487.56
351.629	475.56
351.856	475.56
352.083	468.56
352.311	485.56
352.538	498.56
352.765	500.56
352.992	479.56
353.22	461.56
353.447	450.56
353.674	457.56
353.901	431.56
354.128	429.56
354.355	425.56
354.583	424.56
354.81	426.56
355.037	418.56
355.264	414.56
355.491	420.56
355.718	403.56
355.945	414.56
356.172	410.56
356.399	398.56
356.626	433.56
356.853	412.56
357.08	401.56
357.307	436.56
357.534	419.56
357.761	423.56
357.988	427.56
358.215	430.56
358.441	414.56
358.668	420.56
358.895	419.56
359.122	434.56
359.349	445.56
359.576	473.56
359.802	515.56
360.029	545.56
360.256	555.56
360.483	503.56
360.709	464.56
360.936	472.56
361.163	475.56
361.39	467.56
361.616	476.56
361.843	463.56
362.07	459.56
362.296	463.56
362.523	475.56
362.749	460.56
362.976	472.56
363.203	437.56
363.429	429.56
363.656	439.56
363.882	455.56
364.109	439.56
364.335	430.56
364.562	438.56
364.788	435.56
365.015	429.56
365.241	428.56
365.468	453.56
365.694	454.56
365.92	446.56
366.147	438.56
366.373	443.56
366.599	428.56
366.826	443.56
367.052	441.56
367.278	434.56
367.505	445.56
367.731	443.56
367.957	436.56
368.184	437.56
368.41	439.56
368.636	464.56
368.862	463.56
369.089	461.56
369.315	430.56
369.541	436.56
369.767	406.56
369.993	444.56
370.219	442.56
370.445	458.56
370.672	432.56
370.898	447.56
371.124	435.56
371.35	436.56
371.576	416.56
371.802	424.56
372.028	420.56
372.254	422.56
372.48	438.56
372.706	416.56
372.932	393.56
373.158	420.56
373.384	423.56
373.61	420.56
373.835	447.56
374.061	412.56
374.287	415.56
374.513	442.56
374.739	455.56
374.965	434.56
375.191	468.56
375.416	434.56
375.642	449.56
375.868	439.56
376.094	424.56
376.319	415.56
376.545	438.56
376.771	422.56
376.997	432.56
377.222	418.56
377.448	415.56
377.674	401.56
377.899	453.56
378.125	427.56
378.35	428.56
378.576	426.56
378.802	430.56
379.027	434.56
379.253	426.56
379.478	406.56
379.704	422.56
379.929	423.56
380.155	443.56
380.38	425.56
380.606	440.56
380.831	442.56
381.057	468.56
381.282	439.56
381.507	443.56
381.733	437.56
381.958	444.56
382.184	442.56
382.409	459.56
382.634	462.56
382.86	451.56
383.085	447.56
383.31	444.56
383.535	459.56
383.761	446.56
383.986	454.56
384.211	456.56
384.436	444.56
384.662	440.56
384.887	459.56
385.112	454.56
385.337	447.56
385.562	451.56
385.787	435.56
386.013	480.56
386.238	475.56
386.463	500.56
386.688	471.56
386.913	466.56
387.138	458.56
387.363	464.56
387.588	470.56
387.813	460.56
388.038	442.56
388.263	479.56
388.488	471.56
388.713	484.56
388.938	468.56
389.163	474.56
389.387	504.56
389.612	457.56
389.837	464.56
390.062	452.56
390.287	475.56
390.512	468.56
390.736	450.56
390.961	467.56
391.186	472.56
391.411	459.56
391.636	452.56
391.86	459.56
392.085	486.56
392.31	481.56
392.534	485.56
392.759	473.56
392.984	472.56
393.208	462.56
393.433	459.56
393.658	467.56
393.882	470.56
394.107	446.56
394.331	460.56
394.556	476.56
394.78	483.56
395.005	477.56
395.229	444.56
395.454	481.56
395.678	485.56
395.903	489.56
396.127	528.56
396.352	522.56
396.576	511.56
396.801	477.56
397.025	506.56
397.249	498.56
397.474	468.56
397.698	494.56
397.922	519.56
398.147	535.56
398.371	539.56
398.595	535.56
398.82	510.56
399.044	523.56
399.268	544.56
399.492	551.56
399.717	589.56
399.941	618.56
400.165	636.56
400.389	642.56
400.613	619.56
400.837	571.56
401.062	556.56
401.286	568.56
401.51	536.56
401.734	559.56
401.958	552.56
402.182	564.56
402.406	569.56
402.63	577.56
402.854	552.56
403.078	542.56
403.302	548.56
403.526	538.56
403.75	542.56
403.974	552.56
404.198	550.56
404.422	544.56
404.645	565.56
404.869	599.56
405.093	613.56
405.317	636.56
405.541	688.56
405.765	633.56
405.988	626.56
406.212	622.56
406.436	650.56
406.66	626.56
406.883	637.56
407.107	628.56
407.331	671.56
407.555	771.56
407.778	731.56
408.002	685.56
408.226	637.56
408.449	607.56
408.673	628.56
408.896	649.56
409.12	710.56
409.344	653.56
409.567	602.56
409.791	570.56
410.014	567.56
410.238	564.56
410.461	564.56
410.685	574.56
410.908	581.56
411.132	636.56
411.355	686.56
411.578	642.56
411.802	602.56
412.025	570.56
412.249	552.56
412.472	604.56
412.695	660.56
412.919	629.56
413.142	585.56
413.365	572.56
413.589	574.56
413.812	511.56
414.035	540.56
414.258	537.56
414.482	548.56
414.705	524.56
414.928	537.56
415.151	544.56
415.374	534.56
415.597	521.56
415.821	539.56
416.044	527.56
416.267	533.56
416.49	558.56
416.713	548.56
416.936	542.56
417.159	538.56
417.382	551.56
417.605	543.56
417.828	558.56
418.051	579.56
418.274	569.56
418.497	536.56
418.72	548.56
418.943	545.56
419.166	576.56
419.389	591.56
419.611	565.56
419.834	560.56
420.057	571.56
420.28	576.56
420.503	573.56
420.726	571.56
420.948	588.56
421.171	640.56
421.394	684.56
421.617	629.56
421.839	586.56
422.062	581.56
422.285	593.56
422.507	650.56
422.73	730.56
422.953	719.56
423.175	649.56
423.398	600.56
423.621	610.56
423.843	614.56
424.066	655.56
424.288	646.56
424.511	645.56
424.733	717.56
424.956	793.56
425.178	756.56
425.401	787.56
425.623	756.56
425.846	691.56
426.068	640.56
426.291	611.56
426.513	654.56
426.735	630.56
426.958	696.56
427.18	793.56
427.402	904.56
427.625	1011.56
427.847	941.56
428.069	816.56
428.292	718.56
428.514	667.56
428.736	644.56
428.958	619.56
429.181	600.56
429.403	607.56
429.625	605.56
429.847	633.56
430.069	722.56
430.292	735.56
430.514	607.56
430.736	581.56
430.958	558.56
431.18	559.56
431.402	581.56
431.624	544.56
431.846	537.56
432.068	553.56
432.29	568.56
432.512	545.56
432.734	574.56
432.956	563.56
433.178	577.56
433.4	570.56
433.622	562.56
433.844	543.56
434.066	556.56
434.287	550.56
434.509	546.56
434.731	559.56
434.953	591.56
435.175	603.56
435.397	617.56
435.618	633.56
435.84	678.56
436.062	798.56
436.284	847.56
436.505	738.56
436.727	668.56
436.949	637.56
437.17	606.56
437.392	595.56
437.614	612.56
437.835	658.56
438.057	790.56
438.278	886.56
438.5	895.56
438.721	962.56
438.943	896.56
439.165	731.56
439.386	702.56
439.608	674.56
439.829	682.56
440.05	681.56
440.272	749.56
440.493	696.56
440.715	616.56
440.936	611.56
441.158	625.56
441.379	580.56
441.6	602.56
441.822	650.56
442.043	696.56
442.264	806.56
442.486	843.56
442.707	716.56
442.928	657.56
443.149	668.56
443.371	710.56
443.592	727.56
443.813	843.56
444.034	889.56
444.255	742.56
444.476	666.56
444.698	640.56
444.919	645.56
445.14	734.56
445.361	690.56
445.582	675.56
445.803	783.56
446.024	887.56
446.245	864.56
446.466	807.56
446.687	697.56
446.908	678.56
447.129	633.56
447.35	610.56
447.571	586.56
447.792	595.56
448.013	608.56
448.234	628.56
448.455	670.56
448.675	803.56
448.896	909.56
449.117	805.56
449.338	774.56
449.559	868.56
449.779	951.56
450	800.56
450.221	668.56
450.442	612.56
450.662	635.56
450.883	618.56
451.104	628.56
451.324	645.56
451.545	582.56
451.766	552.56
451.986	555.56
452.207	538.56
452.428	529.56
452.648	521.56
452.869	537.56
453.089	554.56
453.31	575.56
453.53	544.56
453.751	541.56
453.971	530.56
454.192	588.56
454.412	555.56
454.633	545.56
454.853	544.56
455.073	541.56
455.294	591.56
455.514	633.56
455.734	634.56
455.955	552.56
456.175	516.56
456.395	495.56
456.616	502.56
456.836	490.56
457.056	508.56
457.276	487.56
457.497	504.56
457.717	505.56
457.937	502.56
458.157	504.56
458.377	506.56
458.598	548.56
458.818	623.56
459.038	711.56
459.258	736.56
459.478	621.56
459.698	564.56
459.918	553.56
460.138	524.56
460.358	552.56
460.578	531.56
460.798	541.56
461.018	557.56
461.238	538.56
461.458	535.56
461.678	558.56
461.898	534.56
462.118	535.56
462.338	539.56
462.558	532.56
462.777	556.56
462.997	554.56
463.217	581.56
463.437	573.56
463.657	572.56
463.876	584.56
464.096	579.56
464.316	586.56
464.536	584.56
464.755	589.56
464.975	599.56
465.195	647.56
465.414	771.56
465.634	653.56
465.854	630.56
466.073	603.56
466.293	578.56
466.512	530.56
466.732	550.56
466.951	533.56
467.171	531.56
467.391	541.56
467.61	549.56
467.829	568.56
468.049	573.56
468.268	583.56
468.488	559.56
468.707	528.56
468.927	503.56
469.146	518.56
469.365	512.56
469.585	542.56
469.804	536.56
470.023	536.56
470.243	552.56
470.462	563.56
470.681	592.56
470.901	580.56
471.12	554.56
471.339	546.56
471.558	586.56
471.777	559.56
471.997	552.56
472.216	569.56
472.435	632.56
472.654	607.56
472.873	578.56
473.092	543.56
473.311	553.56
473.53	567.56
473.749	563.56
473.968	618.56
474.187	740.56
474.406	775.56
474.625	640.56
474.844	578.56
475.063	554.56
475.282	553.56
475.501	564.56
475.72	575.56
475.939	570.56
476.158	550.56
476.377	566.56
476.596	557.56
476.814	578.56
477.033	595.56
477.252	585.56
477.471	588.56
477.69	576.56
477.908	602.56
478.127	594.56
478.346	632.56
478.564	596.56
478.783	622.56
479.002	621.56
479.22	618.56
479.439	632.56
479.658	662.56
479.876	668.56
480.095	675.56
480.313	694.56
480.532	679.56
480.751	677.56
480.969	695.56
481.188	784.56
481.406	856.56
481.624	747.56
481.843	712.56
482.061	670.56
482.28	681.56
482.498	668.56
482.717	668.56
482.935	690.56
483.153	664.56
483.372	654.56
483.59	686.56
483.808	664.56
484.027	654.56
484.245	646.56
484.463	685.56
484.681	667.56
484.9	668.56
485.118	675.56
485.336	663.56
485.554	675.56
485.772	695.56
485.99	670.56
486.209	679.56
486.427	698.56
486.645	721.56
486.863	728.56
487.081	731.56
487.299	740.56
487.517	733.56
487.735	704.56
487.953	718.56
488.171	716.56
488.389	725.56
488.607	752.56
488.825	742.56
489.043	736.56
489.261	724.56
489.479	738.56
489.696	734.56
489.914	733.56
490.132	745.56
490.35	759.56
490.568	761.56
490.786	806.56
491.003	802.56
491.221	800.56
491.439	822.56
491.657	831.56
491.874	835.56
492.092	855.56
492.31	847.56
492.527	849.56
492.745	848.56
492.963	875.56
493.18	855.56
493.398	856.56
493.615	859.56
493.833	854.56
494.05	890.56
494.268	870.56
494.485	887.56
494.703	879.56
494.92	871.56
495.138	864.56
495.355	893.56
495.573	877.56
495.79	842.56
496.008	877.56
496.225	869.56
496.442	853.56
496.66	848.56
496.877	875.56
497.094	889.56
497.312	861.56
497.529	882.56
497.746	875.56
497.963	895.56
498.181	931.56
498.398	928.56
498.615	905.56
498.832	922.56
499.049	931.56
499.267	911.56
499.484	968.56
499.701	979.56
499.918	1015.56
500.135	1018.56
500.352	1048.56
500.569	1068.56
500.786	1090.56
501.003	1086.56
501.22	1044.56
501.437	1020.56
501.654	1015.56
