Data from 1970.PennyLincolnUp.Lamp.En5.5.200Scan.071719.P1._HRD10591_15-13-12-843.txt Node
Date: Thu Jul 18 15:13:12 EDT 2019
User: cochatt
Spectrometer: HR+D1059
Trigger mode: 1
Integration Time (sec): 1.000000E-1
Scans to average: 1
Electric dark correction enabled: true
Nonlinearity correction enabled: false
Boxcar width: 0
XAxis mode: Wavelengths
Number of Pixels in Spectrum: 2048
>>>>>Begin Spectral Data<<<<<
223.165	-30.69
223.4	-30.69
223.635	-30.69
223.869	-2.69
224.104	-11.69
224.338	-9.69
224.573	-11.69
224.808	-10.69
225.042	-5.69
225.277	-16.69
225.511	-8.69
225.746	1.31
225.98	2.31
226.215	22.31
226.449	17.31
226.683	19.31
226.918	20.31
227.152	25.31
227.387	29.31
227.621	35.31
227.856	49.31
228.09	38.31
228.324	68.31
228.559	64.31
228.793	54.31
229.027	93.31
229.262	99.31
229.496	115.31
229.73	125.31
229.964	151.31
230.199	119.31
230.433	101.31
230.667	121.31
230.901	103.31
231.136	119.31
231.37	113.31
231.604	103.31
231.838	115.31
232.072	105.31
232.306	105.31
232.541	106.31
232.775	112.31
233.009	115.31
233.243	111.31
233.477	101.31
233.711	114.31
233.945	99.31
234.179	115.31
234.413	102.31
234.647	99.31
234.881	103.31
235.115	99.31
235.349	106.31
235.583	114.31
235.817	129.31
236.051	105.31
236.285	110.31
236.519	114.31
236.753	140.31
236.987	149.31
237.221	152.31
237.455	211.31
237.689	196.31
237.922	140.31
238.156	129.31
238.39	134.31
238.624	129.31
238.858	122.31
239.091	116.31
239.325	109.31
239.559	122.31
239.793	123.31
240.027	115.31
240.26	131.31
240.494	155.31
240.728	141.31
240.961	133.31
241.195	124.31
241.429	117.31
241.662	137.31
241.896	123.31
242.13	126.31
242.363	121.31
242.597	124.31
242.83	125.31
243.064	125.31
243.298	130.31
243.531	132.31
243.765	131.31
243.998	132.31
244.232	123.31
244.465	141.31
244.699	141.31
244.932	142.31
245.166	132.31
245.399	140.31
245.633	135.31
245.866	146.31
246.099	138.31
246.333	153.31
246.566	149.31
246.8	135.31
247.033	140.31
247.266	158.31
247.5	159.31
247.733	146.31
247.966	168.31
248.2	181.31
248.433	169.31
248.666	161.31
248.899	173.31
249.133	176.31
249.366	205.31
249.599	196.31
249.832	178.31
250.066	189.31
250.299	174.31
250.532	188.31
250.765	187.31
250.998	210.31
251.231	222.31
251.465	222.31
251.698	199.31
251.931	185.31
252.164	193.31
252.397	182.31
252.63	190.31
252.863	193.31
253.096	213.31
253.329	214.31
253.562	235.31
253.795	218.31
254.028	210.31
254.261	217.31
254.494	199.31
254.727	230.31
254.96	251.31
255.193	252.31
255.426	232.31
255.659	235.31
255.892	213.31
256.124	193.31
256.357	193.31
256.59	200.31
256.823	189.31
257.056	199.31
257.289	188.31
257.521	186.31
257.754	203.31
257.987	198.31
258.22	201.31
258.452	190.31
258.685	195.31
258.918	193.31
259.151	199.31
259.383	211.31
259.616	194.31
259.849	211.31
260.081	205.31
260.314	218.31
260.547	228.31
260.779	216.31
261.012	225.31
261.244	190.31
261.477	213.31
261.71	184.31
261.942	199.31
262.175	199.31
262.407	199.31
262.64	191.31
262.872	193.31
263.105	180.31
263.337	171.31
263.57	182.31
263.802	191.31
264.035	183.31
264.267	189.31
264.499	190.31
264.732	186.31
264.964	188.31
265.197	188.31
265.429	191.31
265.661	183.31
265.894	191.31
266.126	202.31
266.358	207.31
266.591	183.31
266.823	174.31
267.055	196.31
267.287	220.31
267.52	203.31
267.752	189.31
267.984	196.31
268.216	209.31
268.448	202.31
268.681	204.31
268.913	212.31
269.145	226.31
269.377	227.31
269.609	238.31
269.841	243.31
270.073	255.31
270.306	233.31
270.538	279.31
270.77	252.31
271.002	259.31
271.234	263.31
271.466	239.31
271.698	250.31
271.93	260.31
272.162	275.31
272.394	271.31
272.626	255.31
272.858	250.31
273.09	253.31
273.322	226.31
273.553	232.31
273.785	217.31
274.017	203.31
274.249	225.31
274.481	219.31
274.713	210.31
274.945	198.31
275.176	222.31
275.408	229.31
275.64	224.31
275.872	230.31
276.104	206.31
276.335	228.31
276.567	234.31
276.799	244.31
277.031	252.31
277.262	252.31
277.494	248.31
277.726	254.31
277.957	249.31
278.189	244.31
278.421	219.31
278.652	220.31
278.884	229.31
279.115	217.31
279.347	223.31
279.579	228.31
279.81	221.31
280.042	226.31
280.273	223.31
280.505	211.31
280.736	214.31
280.968	233.31
281.199	233.31
281.431	198.31
281.662	215.31
281.894	229.31
282.125	217.31
282.356	229.31
282.588	237.31
282.819	239.31
283.051	238.31
283.282	213.31
283.513	218.31
283.745	236.31
283.976	219.31
284.207	213.31
284.439	251.31
284.67	245.31
284.901	229.31
285.132	228.31
285.364	229.31
285.595	244.31
285.826	244.31
286.057	243.31
286.288	229.31
286.52	214.31
286.751	212.31
286.982	212.31
287.213	222.31
287.444	232.31
287.675	236.31
287.906	236.31
288.138	257.31
288.369	257.31
288.6	255.31
288.831	237.31
289.062	225.31
289.293	236.31
289.524	234.31
289.755	261.31
289.986	222.31
290.217	236.31
290.448	236.31
290.679	233.31
290.91	246.31
291.141	226.31
291.371	237.31
291.602	219.31
291.833	245.31
292.064	210.31
292.295	231.31
292.526	235.31
292.757	211.31
292.987	237.31
293.218	239.31
293.449	221.31
293.68	241.31
293.91	245.31
294.141	246.31
294.372	242.31
294.603	237.31
294.833	232.31
295.064	233.31
295.295	231.31
295.525	247.31
295.756	241.31
295.987	249.31
296.217	254.31
296.448	267.31
296.679	249.31
296.909	244.31
297.14	244.31
297.37	234.31
297.601	247.31
297.831	237.31
298.062	241.31
298.292	228.31
298.523	255.31
298.753	257.31
298.984	239.31
299.214	259.31
299.445	257.31
299.675	261.31
299.905	248.31
300.136	258.31
300.366	249.31
300.597	243.31
300.827	251.31
301.057	277.31
301.288	259.31
301.518	258.31
301.748	250.31
301.979	272.31
302.209	244.31
302.439	269.31
302.669	257.31
302.9	247.31
303.13	249.31
303.36	252.31
303.59	274.31
303.82	276.31
304.051	259.31
304.281	262.31
304.511	269.31
304.741	269.31
304.971	257.31
305.201	244.31
305.431	236.31
305.661	265.31
305.891	233.31
306.121	259.31
306.352	270.31
306.582	274.31
306.812	245.31
307.042	271.31
307.272	266.31
307.502	284.31
307.731	278.31
307.961	258.31
308.191	250.31
308.421	252.31
308.651	260.31
308.881	279.31
309.111	282.31
309.341	265.31
309.571	283.31
309.8	294.31
310.03	298.31
310.26	311.31
310.49	285.31
310.72	295.31
310.949	287.31
311.179	322.31
311.409	303.31
311.639	284.31
311.868	298.31
312.098	294.31
312.328	309.31
312.557	311.31
312.787	316.31
313.017	325.31
313.246	325.31
313.476	310.31
313.706	308.31
313.935	300.31
314.165	321.31
314.394	331.31
314.624	315.31
314.853	330.31
315.083	309.31
315.312	298.31
315.542	301.31
315.771	307.31
316.001	281.31
316.23	317.31
316.46	295.31
316.689	301.31
316.919	305.31
317.148	306.31
317.377	313.31
317.607	315.31
317.836	317.31
318.065	302.31
318.295	315.31
318.524	315.31
318.753	306.31
318.983	307.31
319.212	309.31
319.441	326.31
319.67	320.31
319.9	305.31
320.129	297.31
320.358	326.31
320.587	291.31
320.816	307.31
321.046	326.31
321.275	330.31
321.504	308.31
321.733	312.31
321.962	330.31
322.191	352.31
322.42	350.31
322.649	354.31
322.878	350.31
323.108	363.31
323.337	390.31
323.566	403.31
323.795	412.31
324.024	449.31
324.253	511.31
324.482	753.31
324.71	1162.31
324.939	1601.31
325.168	1433.31
325.397	791.31
325.626	510.31
325.855	445.31
326.084	401.31
326.313	393.31
326.542	413.31
326.77	436.31
326.999	507.31
327.228	668.31
327.457	1052.31
327.686	1218.31
327.914	842.31
328.143	564.31
328.372	483.31
328.6	480.31
328.829	438.31
329.058	452.31
329.287	459.31
329.515	432.31
329.744	423.31
329.972	400.31
330.201	414.31
330.43	448.31
330.658	472.31
330.887	483.31
331.115	470.31
331.344	421.31
331.572	392.31
331.801	387.31
332.03	408.31
332.258	379.31
332.486	389.31
332.715	369.31
332.943	360.31
333.172	356.31
333.4	365.31
333.629	377.31
333.857	381.31
334.085	391.31
334.314	365.31
334.542	409.31
334.771	422.31
334.999	409.31
335.227	385.31
335.455	353.31
335.684	350.31
335.912	361.31
336.14	365.31
336.369	383.31
336.597	391.31
336.825	364.31
337.053	355.31
337.281	359.31
337.51	346.31
337.738	357.31
337.966	361.31
338.194	360.31
338.422	347.31
338.65	353.31
338.878	347.31
339.106	355.31
339.334	330.31
339.562	349.31
339.79	337.31
340.018	343.31
340.246	339.31
340.474	361.31
340.702	345.31
340.93	356.31
341.158	350.31
341.386	364.31
341.614	360.31
341.842	375.31
342.07	337.31
342.298	349.31
342.526	344.31
342.754	332.31
342.981	338.31
343.209	343.31
343.437	361.31
343.665	357.31
343.893	358.31
344.12	354.31
344.348	356.31
344.576	345.31
344.804	350.31
345.031	355.31
345.259	362.31
345.487	332.31
345.714	359.31
345.942	342.31
346.17	341.31
346.397	334.31
346.625	355.31
346.853	338.31
347.08	331.31
347.308	355.31
347.535	353.31
347.763	351.31
347.99	342.31
348.218	349.31
348.445	363.31
348.673	361.31
348.9	341.31
349.128	340.31
349.355	337.31
349.583	331.31
349.81	319.31
350.037	322.31
350.265	335.31
350.492	346.31
350.72	325.31
350.947	334.31
351.174	342.31
351.402	389.31
351.629	355.31
351.856	353.31
352.083	356.31
352.311	371.31
352.538	367.31
352.765	366.31
352.992	353.31
353.22	347.31
353.447	352.31
353.674	342.31
353.901	338.31
354.128	344.31
354.355	346.31
354.583	355.31
354.81	331.31
355.037	349.31
355.264	339.31
355.491	298.31
355.718	302.31
355.945	309.31
356.172	316.31
356.399	320.31
356.626	338.31
356.853	335.31
357.08	320.31
357.307	323.31
357.534	325.31
357.761	313.31
357.988	339.31
358.215	338.31
358.441	330.31
358.668	326.31
358.895	361.31
359.122	351.31
359.349	344.31
359.576	345.31
359.802	360.31
360.029	387.31
360.256	418.31
360.483	395.31
360.709	383.31
360.936	353.31
361.163	378.31
361.39	373.31
361.616	348.31
361.843	353.31
362.07	361.31
362.296	345.31
362.523	366.31
362.749	362.31
362.976	355.31
363.203	373.31
363.429	344.31
363.656	329.31
363.882	335.31
364.109	361.31
364.335	329.31
364.562	342.31
364.788	345.31
365.015	345.31
365.241	345.31
365.468	336.31
365.694	377.31
365.92	366.31
366.147	356.31
366.373	355.31
366.599	347.31
366.826	320.31
367.052	346.31
367.278	323.31
367.505	331.31
367.731	336.31
367.957	353.31
368.184	345.31
368.41	354.31
368.636	375.31
368.862	357.31
369.089	369.31
369.315	338.31
369.541	339.31
369.767	339.31
369.993	338.31
370.219	340.31
370.445	360.31
370.672	344.31
370.898	347.31
371.124	360.31
371.35	363.31
371.576	334.31
371.802	335.31
372.028	350.31
372.254	369.31
372.48	344.31
372.706	330.31
372.932	370.31
373.158	344.31
373.384	368.31
373.61	353.31
373.835	347.31
374.061	362.31
374.287	348.31
374.513	356.31
374.739	355.31
374.965	363.31
375.191	350.31
375.416	355.31
375.642	366.31
375.868	335.31
376.094	366.31
376.319	341.31
376.545	361.31
376.771	346.31
376.997	362.31
377.222	329.31
377.448	355.31
377.674	342.31
377.899	357.31
378.125	357.31
378.35	360.31
378.576	351.31
378.802	358.31
379.027	363.31
379.253	357.31
379.478	350.31
379.704	349.31
379.929	374.31
380.155	366.31
380.38	337.31
380.606	349.31
380.831	355.31
381.057	343.31
381.282	339.31
381.507	361.31
381.733	374.31
381.958	359.31
382.184	353.31
382.409	358.31
382.634	360.31
382.86	357.31
383.085	358.31
383.31	372.31
383.535	375.31
383.761	379.31
383.986	348.31
384.211	374.31
384.436	373.31
384.662	363.31
384.887	374.31
385.112	371.31
385.337	390.31
385.562	382.31
385.787	391.31
386.013	379.31
386.238	385.31
386.463	389.31
386.688	388.31
386.913	391.31
387.138	383.31
387.363	387.31
387.588	387.31
387.813	399.31
388.038	383.31
388.263	393.31
388.488	392.31
388.713	414.31
388.938	395.31
389.163	382.31
389.387	385.31
389.612	371.31
389.837	392.31
390.062	386.31
390.287	389.31
390.512	381.31
390.736	381.31
390.961	380.31
391.186	389.31
391.411	382.31
391.636	391.31
391.86	389.31
392.085	388.31
392.31	414.31
392.534	391.31
392.759	388.31
392.984	413.31
393.208	385.31
393.433	404.31
393.658	451.31
393.882	398.31
394.107	380.31
394.331	390.31
394.556	389.31
394.78	389.31
395.005	391.31
395.229	356.31
395.454	400.31
395.678	406.31
395.903	425.31
396.127	418.31
396.352	405.31
396.576	420.31
396.801	391.31
397.025	435.31
397.249	418.31
397.474	418.31
397.698	400.31
397.922	402.31
398.147	438.31
398.371	433.31
398.595	434.31
398.82	414.31
399.044	447.31
399.268	449.31
399.492	458.31
399.717	478.31
399.941	492.31
400.165	523.31
400.389	539.31
400.613	490.31
400.837	466.31
401.062	450.31
401.286	441.31
401.51	425.31
401.734	441.31
401.958	435.31
402.182	425.31
402.406	441.31
402.63	425.31
402.854	448.31
403.078	446.31
403.302	441.31
403.526	451.31
403.75	456.31
403.974	442.31
404.198	418.31
404.422	455.31
404.645	447.31
404.869	449.31
405.093	497.31
405.317	518.31
405.541	545.31
405.765	504.31
405.988	475.31
406.212	486.31
406.436	515.31
406.66	533.31
406.883	490.31
407.107	523.31
407.331	561.31
407.555	587.31
407.778	595.31
408.002	549.31
408.226	483.31
408.449	491.31
408.673	471.31
408.896	510.31
409.12	562.31
409.344	533.31
409.567	487.31
409.791	465.31
410.014	455.31
410.238	435.31
410.461	465.31
410.685	454.31
410.908	472.31
411.132	521.31
411.355	524.31
411.578	510.31
411.802	473.31
412.025	449.31
412.249	456.31
412.472	485.31
412.695	497.31
412.919	484.31
413.142	490.31
413.365	453.31
413.589	463.31
413.812	439.31
414.035	439.31
414.258	443.31
414.482	444.31
414.705	428.31
414.928	441.31
415.151	451.31
415.374	448.31
415.597	428.31
415.821	422.31
416.044	422.31
416.267	413.31
416.49	434.31
416.713	421.31
416.936	427.31
417.159	427.31
417.382	452.31
417.605	443.31
417.828	446.31
418.051	471.31
418.274	452.31
418.497	414.31
418.72	445.31
418.943	438.31
419.166	456.31
419.389	452.31
419.611	444.31
419.834	459.31
420.057	470.31
420.28	462.31
420.503	448.31
420.726	443.31
420.948	468.31
421.171	513.31
421.394	567.31
421.617	469.31
421.839	483.31
422.062	459.31
422.285	459.31
422.507	522.31
422.73	606.31
422.953	569.31
423.175	508.31
423.398	484.31
423.621	482.31
423.843	499.31
424.066	509.31
424.288	499.31
424.511	533.31
424.733	561.31
424.956	606.31
425.178	611.31
425.401	591.31
425.623	614.31
425.846	561.31
426.068	521.31
426.291	515.31
426.513	517.31
426.735	514.31
426.958	551.31
427.18	629.31
427.402	730.31
427.625	789.31
427.847	734.31
428.069	612.31
428.292	554.31
428.514	481.31
428.736	487.31
428.958	517.31
429.181	470.31
429.403	452.31
429.625	471.31
429.847	489.31
430.069	554.31
430.292	561.31
430.514	499.31
430.736	457.31
430.958	467.31
431.18	445.31
431.402	455.31
431.624	428.31
431.846	426.31
432.068	424.31
432.29	431.31
432.512	433.31
432.734	441.31
432.956	457.31
433.178	448.31
433.4	453.31
433.622	455.31
433.844	439.31
434.066	445.31
434.287	433.31
434.509	438.31
434.731	443.31
434.953	439.31
435.175	462.31
435.397	492.31
435.618	509.31
435.84	538.31
436.062	618.31
436.284	687.31
436.505	577.31
436.727	515.31
436.949	490.31
437.17	504.31
437.392	484.31
437.614	465.31
437.835	490.31
438.057	582.31
438.278	691.31
438.5	695.31
438.721	730.31
438.943	714.31
439.165	566.31
439.386	524.31
439.608	527.31
439.829	523.31
440.05	499.31
440.272	583.31
440.493	537.31
440.715	492.31
440.936	482.31
441.158	493.31
441.379	477.31
441.6	492.31
441.822	492.31
442.043	552.31
442.264	615.31
442.486	667.31
442.707	573.31
442.928	509.31
443.149	527.31
443.371	542.31
443.592	575.31
443.813	666.31
444.034	698.31
444.255	600.31
444.476	523.31
444.698	516.31
444.919	516.31
445.14	626.31
445.361	552.31
445.582	544.31
445.803	591.31
446.024	687.31
446.245	668.31
446.466	647.31
446.687	528.31
446.908	500.31
447.129	489.31
447.35	476.31
447.571	491.31
447.792	452.31
448.013	486.31
448.234	483.31
448.455	537.31
448.675	604.31
448.896	700.31
449.117	635.31
449.338	599.31
449.559	700.31
449.779	768.31
450	605.31
450.221	550.31
450.442	516.31
450.662	463.31
450.883	461.31
451.104	475.31
451.324	459.31
451.545	443.31
451.766	424.31
451.986	443.31
452.207	424.31
452.428	422.31
452.648	426.31
452.869	427.31
453.089	418.31
453.31	441.31
453.53	443.31
453.751	422.31
453.971	423.31
454.192	427.31
454.412	434.31
454.633	427.31
454.853	420.31
455.073	427.31
455.294	455.31
455.514	524.31
455.734	489.31
455.955	443.31
456.175	417.31
456.395	395.31
456.616	391.31
456.836	399.31
457.056	429.31
457.276	386.31
457.497	401.31
457.717	399.31
457.937	407.31
458.157	406.31
458.377	404.31
458.598	428.31
458.818	476.31
459.038	544.31
459.258	573.31
459.478	490.31
459.698	459.31
459.918	473.31
460.138	427.31
460.358	441.31
460.578	441.31
460.798	453.31
461.018	446.31
461.238	457.31
461.458	447.31
461.678	439.31
461.898	442.31
462.118	433.31
462.338	445.31
462.558	451.31
462.777	474.31
462.997	477.31
463.217	483.31
463.437	450.31
463.657	475.31
463.876	447.31
464.096	455.31
464.316	459.31
464.536	456.31
464.755	461.31
464.975	483.31
465.195	507.31
465.414	570.31
465.634	500.31
465.854	464.31
466.073	459.31
466.293	457.31
466.512	428.31
466.732	429.31
466.951	439.31
467.171	448.31
467.391	457.31
467.61	456.31
467.829	449.31
468.049	444.31
468.268	446.31
468.488	437.31
468.707	426.31
468.927	425.31
469.146	424.31
469.365	419.31
469.585	423.31
469.804	442.31
470.023	446.31
470.243	417.31
470.462	439.31
470.681	439.31
470.901	453.31
471.12	451.31
471.339	446.31
471.558	433.31
471.777	453.31
471.997	411.31
472.216	430.31
472.435	479.31
472.654	468.31
472.873	439.31
473.092	438.31
473.311	447.31
473.53	434.31
473.749	425.31
473.968	505.31
474.187	581.31
474.406	594.31
474.625	495.31
474.844	460.31
475.063	457.31
475.282	451.31
475.501	437.31
475.72	443.31
475.939	458.31
476.158	449.31
476.377	452.31
476.596	451.31
476.814	466.31
477.033	486.31
477.252	478.31
477.471	481.31
477.69	464.31
477.908	474.31
478.127	454.31
478.346	459.31
478.564	481.31
478.783	474.31
479.002	484.31
479.22	490.31
479.439	491.31
479.658	523.31
479.876	527.31
480.095	538.31
480.313	542.31
480.532	540.31
480.751	553.31
480.969	530.31
481.188	578.31
481.406	588.31
481.624	566.31
481.843	550.31
482.061	524.31
482.28	507.31
482.498	513.31
482.717	494.31
482.935	519.31
483.153	508.31
483.372	498.31
483.59	535.31
483.808	478.31
484.027	511.31
484.245	528.31
484.463	536.31
484.681	545.31
484.9	537.31
485.118	552.31
485.336	548.31
485.554	538.31
485.772	556.31
485.99	538.31
486.209	540.31
486.427	564.31
486.645	532.31
486.863	595.31
487.081	565.31
487.299	567.31
487.517	587.31
487.735	567.31
487.953	574.31
488.171	588.31
488.389	573.31
488.607	590.31
488.825	586.31
489.043	570.31
489.261	566.31
489.479	585.31
489.696	606.31
489.914	593.31
490.132	593.31
490.35	614.31
490.568	605.31
490.786	616.31
491.003	602.31
491.221	639.31
491.439	647.31
491.657	637.31
491.874	661.31
492.092	670.31
492.31	661.31
492.527	665.31
492.745	681.31
492.963	678.31
493.18	666.31
493.398	664.31
493.615	695.31
493.833	676.31
494.05	700.31
494.268	701.31
494.485	661.31
494.703	700.31
494.92	674.31
495.138	705.31
495.355	685.31
495.573	693.31
495.79	689.31
496.008	698.31
496.225	695.31
496.442	700.31
496.66	679.31
496.877	691.31
497.094	703.31
497.312	676.31
497.529	717.31
497.746	714.31
497.963	713.31
498.181	724.31
498.398	715.31
498.615	773.31
498.832	754.31
499.049	755.31
499.267	779.31
499.484	769.31
499.701	816.31
499.918	835.31
500.135	849.31
500.352	853.31
500.569	879.31
500.786	875.31
501.003	875.31
501.22	866.31
501.437	869.31
501.654	844.31
501.871	833.31
502.088	797.31
