Data from 1970.PennyLincolnUp.Lamp.En5.5.200Scan.071719.P1._HRD10591_15-14-21-842.txt Node
Date: Thu Jul 18 15:14:21 EDT 2019
User: cochatt
Spectrometer: HR+D1059
Trigger mode: 1
Integration Time (sec): 1.000000E-1
Scans to average: 1
Electric dark correction enabled: true
Nonlinearity correction enabled: false
Boxcar width: 0
XAxis mode: Wavelengths
Number of Pixels in Spectrum: 2048
>>>>>Begin Spectral Data<<<<<
223.165	-21.88
223.4	-21.88
223.635	-21.88
223.869	-15.88
224.104	-10.88
224.338	-15.88
224.573	-19.88
224.808	-16.88
225.042	-7.88
225.277	-2.88
225.511	5.12
225.746	0.12
225.98	13.12
226.215	14.12
226.449	8.12
226.683	16.12
226.918	23.12
227.152	32.12
227.387	40.12
227.621	23.12
227.856	43.12
228.09	42.12
228.324	48.12
228.559	61.12
228.793	74.12
229.027	91.12
229.262	119.12
229.496	137.12
229.73	151.12
229.964	171.12
230.199	140.12
230.433	116.12
230.667	123.12
230.901	108.12
231.136	118.12
231.37	114.12
231.604	114.12
231.838	108.12
232.072	122.12
232.306	110.12
232.541	111.12
232.775	112.12
233.009	103.12
233.243	109.12
233.477	112.12
233.711	122.12
233.945	104.12
234.179	114.12
234.413	116.12
234.647	123.12
234.881	127.12
235.115	125.12
235.349	116.12
235.583	129.12
235.817	138.12
236.051	138.12
236.285	143.12
236.519	146.12
236.753	142.12
236.987	166.12
237.221	198.12
237.455	265.12
237.689	212.12
237.922	146.12
238.156	156.12
238.39	130.12
238.624	138.12
238.858	127.12
239.091	130.12
239.325	130.12
239.559	130.12
239.793	153.12
240.027	139.12
240.26	166.12
240.494	180.12
240.728	160.12
240.961	180.12
241.195	164.12
241.429	130.12
241.662	147.12
241.896	162.12
242.13	140.12
242.363	149.12
242.597	142.12
242.83	154.12
243.064	142.12
243.298	154.12
243.531	149.12
243.765	158.12
243.998	151.12
244.232	151.12
244.465	152.12
244.699	152.12
244.932	159.12
245.166	154.12
245.399	158.12
245.633	161.12
245.866	153.12
246.099	142.12
246.333	171.12
246.566	160.12
246.8	160.12
247.033	165.12
247.266	158.12
247.5	170.12
247.733	195.12
247.966	181.12
248.2	173.12
248.433	200.12
248.666	199.12
248.899	205.12
249.133	220.12
249.366	227.12
249.599	212.12
249.832	208.12
250.066	201.12
250.299	199.12
250.532	203.12
250.765	214.12
250.998	232.12
251.231	246.12
251.465	242.12
251.698	249.12
251.931	236.12
252.164	214.12
252.397	235.12
252.63	258.12
252.863	214.12
253.096	236.12
253.329	256.12
253.562	256.12
253.795	234.12
254.028	235.12
254.261	227.12
254.494	253.12
254.727	282.12
254.96	318.12
255.193	312.12
255.426	282.12
255.659	263.12
255.892	275.12
256.124	250.12
256.357	276.12
256.59	252.12
256.823	252.12
257.056	223.12
257.289	222.12
257.521	209.12
257.754	220.12
257.987	229.12
258.22	215.12
258.452	226.12
258.685	236.12
258.918	222.12
259.151	238.12
259.383	228.12
259.616	249.12
259.849	249.12
260.081	264.12
260.314	275.12
260.547	291.12
260.779	286.12
261.012	279.12
261.244	273.12
261.477	246.12
261.71	247.12
261.942	238.12
262.175	272.12
262.407	258.12
262.64	238.12
262.872	232.12
263.105	232.12
263.337	223.12
263.57	239.12
263.802	235.12
264.035	223.12
264.267	222.12
264.499	219.12
264.732	211.12
264.964	211.12
265.197	224.12
265.429	219.12
265.661	225.12
265.894	217.12
266.126	222.12
266.358	214.12
266.591	250.12
266.823	258.12
267.055	243.12
267.287	242.12
267.52	225.12
267.752	230.12
267.984	229.12
268.216	235.12
268.448	237.12
268.681	247.12
268.913	273.12
269.145	270.12
269.377	272.12
269.609	284.12
269.841	307.12
270.073	295.12
270.306	306.12
270.538	338.12
270.77	345.12
271.002	335.12
271.234	335.12
271.466	319.12
271.698	335.12
271.93	322.12
272.162	333.12
272.394	328.12
272.626	328.12
272.858	299.12
273.09	294.12
273.322	301.12
273.553	286.12
273.785	280.12
274.017	270.12
274.249	264.12
274.481	277.12
274.713	293.12
274.945	290.12
275.176	280.12
275.408	263.12
275.64	258.12
275.872	271.12
276.104	274.12
276.335	272.12
276.567	301.12
276.799	297.12
277.031	321.12
277.262	318.12
277.494	328.12
277.726	315.12
277.957	309.12
278.189	296.12
278.421	271.12
278.652	275.12
278.884	290.12
279.115	274.12
279.347	258.12
279.579	284.12
279.81	277.12
280.042	283.12
280.273	287.12
280.505	271.12
280.736	279.12
280.968	284.12
281.199	277.12
281.431	265.12
281.662	276.12
281.894	274.12
282.125	274.12
282.356	282.12
282.588	324.12
282.819	310.12
283.051	288.12
283.282	283.12
283.513	272.12
283.745	286.12
283.976	277.12
284.207	268.12
284.439	278.12
284.67	287.12
284.901	276.12
285.132	287.12
285.364	295.12
285.595	303.12
285.826	270.12
286.057	286.12
286.288	272.12
286.52	288.12
286.751	283.12
286.982	284.12
287.213	286.12
287.444	276.12
287.675	298.12
287.906	296.12
288.138	322.12
288.369	315.12
288.6	312.12
288.831	310.12
289.062	297.12
289.293	283.12
289.524	296.12
289.755	297.12
289.986	293.12
290.217	283.12
290.448	274.12
290.679	290.12
290.91	286.12
291.141	282.12
291.371	282.12
291.602	274.12
291.833	297.12
292.064	281.12
292.295	290.12
292.526	286.12
292.757	291.12
292.987	296.12
293.218	300.12
293.449	296.12
293.68	272.12
293.91	295.12
294.141	286.12
294.372	283.12
294.603	285.12
294.833	302.12
295.064	299.12
295.295	276.12
295.525	291.12
295.756	291.12
295.987	294.12
296.217	343.12
296.448	335.12
296.679	308.12
296.909	303.12
297.14	297.12
297.37	311.12
297.601	290.12
297.831	298.12
298.062	308.12
298.292	276.12
298.523	300.12
298.753	308.12
298.984	314.12
299.214	324.12
299.445	298.12
299.675	301.12
299.905	313.12
300.136	294.12
300.366	325.12
300.597	303.12
300.827	309.12
301.057	328.12
301.288	338.12
301.518	337.12
301.748	336.12
301.979	328.12
302.209	323.12
302.439	312.12
302.669	326.12
302.9	317.12
303.13	324.12
303.36	326.12
303.59	340.12
303.82	332.12
304.051	351.12
304.281	320.12
304.511	303.12
304.741	332.12
304.971	333.12
305.201	334.12
305.431	320.12
305.661	312.12
305.891	308.12
306.121	321.12
306.352	342.12
306.582	343.12
306.812	349.12
307.042	322.12
307.272	326.12
307.502	329.12
307.731	328.12
307.961	340.12
308.191	341.12
308.421	342.12
308.651	334.12
308.881	360.12
309.111	359.12
309.341	348.12
309.571	362.12
309.8	374.12
310.03	389.12
310.26	379.12
310.49	384.12
310.72	406.12
310.949	413.12
311.179	414.12
311.409	410.12
311.639	379.12
311.868	386.12
312.098	378.12
312.328	418.12
312.557	399.12
312.787	418.12
313.017	412.12
313.246	410.12
313.476	399.12
313.706	367.12
313.935	416.12
314.165	402.12
314.394	419.12
314.624	410.12
314.853	409.12
315.083	412.12
315.312	382.12
315.542	393.12
315.771	366.12
316.001	378.12
316.23	399.12
316.46	387.12
316.689	380.12
316.919	399.12
317.148	406.12
317.377	384.12
317.607	392.12
317.836	386.12
318.065	394.12
318.295	388.12
318.524	378.12
318.753	382.12
318.983	393.12
319.212	390.12
319.441	393.12
319.67	411.12
319.9	390.12
320.129	394.12
320.358	386.12
320.587	375.12
320.816	417.12
321.046	399.12
321.275	415.12
321.504	413.12
321.733	405.12
321.962	429.12
322.191	454.12
322.42	455.12
322.649	467.12
322.878	482.12
323.108	483.12
323.337	528.12
323.566	546.12
323.795	598.12
324.024	632.12
324.253	761.12
324.482	1058.12
324.71	1690.12
324.939	2378.12
325.168	2046.12
325.397	1128.12
325.626	757.12
325.855	606.12
326.084	570.12
326.313	552.12
326.542	531.12
326.77	624.12
326.999	731.12
327.228	1003.12
327.457	1491.12
327.686	1794.12
327.914	1260.12
328.143	826.12
328.372	702.12
328.6	660.12
328.829	629.12
329.058	645.12
329.287	646.12
329.515	610.12
329.744	562.12
329.972	548.12
330.201	578.12
330.43	616.12
330.658	643.12
330.887	685.12
331.115	677.12
331.344	579.12
331.572	527.12
331.801	527.12
332.03	519.12
332.258	495.12
332.486	476.12
332.715	459.12
332.943	469.12
333.172	447.12
333.4	485.12
333.629	473.12
333.857	515.12
334.085	526.12
334.314	524.12
334.542	571.12
334.771	565.12
334.999	532.12
335.227	510.12
335.455	474.12
335.684	475.12
335.912	458.12
336.14	445.12
336.369	454.12
336.597	474.12
336.825	474.12
337.053	463.12
337.281	466.12
337.51	456.12
337.738	445.12
337.966	450.12
338.194	459.12
338.422	453.12
338.65	440.12
338.878	451.12
339.106	430.12
339.334	459.12
339.562	433.12
339.79	453.12
340.018	447.12
340.246	446.12
340.474	455.12
340.702	449.12
340.93	438.12
341.158	464.12
341.386	450.12
341.614	434.12
341.842	435.12
342.07	448.12
342.298	443.12
342.526	421.12
342.754	410.12
342.981	427.12
343.209	441.12
343.437	427.12
343.665	449.12
343.893	446.12
344.12	442.12
344.348	435.12
344.576	452.12
344.804	480.12
345.031	455.12
345.259	456.12
345.487	450.12
345.714	446.12
345.942	435.12
346.17	478.12
346.397	452.12
346.625	438.12
346.853	434.12
347.08	447.12
347.308	441.12
347.535	432.12
347.763	455.12
347.99	441.12
348.218	457.12
348.445	461.12
348.673	457.12
348.9	446.12
349.128	438.12
349.355	422.12
349.583	424.12
349.81	425.12
350.037	403.12
350.265	401.12
350.492	412.12
350.72	429.12
350.947	448.12
351.174	437.12
351.402	470.12
351.629	449.12
351.856	437.12
352.083	451.12
352.311	453.12
352.538	465.12
352.765	482.12
352.992	468.12
353.22	457.12
353.447	452.12
353.674	427.12
353.901	419.12
354.128	413.12
354.355	410.12
354.583	415.12
354.81	443.12
355.037	417.12
355.264	382.12
355.491	399.12
355.718	402.12
355.945	415.12
356.172	392.12
356.399	386.12
356.626	408.12
356.853	394.12
357.08	397.12
357.307	403.12
357.534	397.12
357.761	384.12
357.988	401.12
358.215	412.12
358.441	418.12
358.668	418.12
358.895	423.12
359.122	417.12
359.349	446.12
359.576	445.12
359.802	479.12
360.029	503.12
360.256	543.12
360.483	493.12
360.709	478.12
360.936	459.12
361.163	444.12
361.39	446.12
361.616	450.12
361.843	474.12
362.07	450.12
362.296	453.12
362.523	446.12
362.749	433.12
362.976	447.12
363.203	444.12
363.429	426.12
363.656	423.12
363.882	408.12
364.109	418.12
364.335	425.12
364.562	424.12
364.788	419.12
365.015	426.12
365.241	422.12
365.468	437.12
365.694	434.12
365.92	438.12
366.147	414.12
366.373	437.12
366.599	443.12
366.826	428.12
367.052	430.12
367.278	436.12
367.505	421.12
367.731	444.12
367.957	421.12
368.184	407.12
368.41	422.12
368.636	446.12
368.862	446.12
369.089	438.12
369.315	429.12
369.541	423.12
369.767	422.12
369.993	436.12
370.219	424.12
370.445	423.12
370.672	403.12
370.898	432.12
371.124	434.12
371.35	428.12
371.576	419.12
371.802	414.12
372.028	398.12
372.254	428.12
372.48	441.12
372.706	434.12
372.932	419.12
373.158	419.12
373.384	420.12
373.61	422.12
373.835	419.12
374.061	444.12
374.287	430.12
374.513	426.12
374.739	438.12
374.965	426.12
375.191	426.12
375.416	428.12
375.642	424.12
375.868	429.12
376.094	413.12
376.319	422.12
376.545	406.12
376.771	441.12
376.997	422.12
377.222	414.12
377.448	430.12
377.674	428.12
377.899	411.12
378.125	427.12
378.35	411.12
378.576	403.12
378.802	418.12
379.027	423.12
379.253	417.12
379.478	420.12
379.704	421.12
379.929	430.12
380.155	423.12
380.38	430.12
380.606	424.12
380.831	445.12
381.057	434.12
381.282	436.12
381.507	435.12
381.733	420.12
381.958	435.12
382.184	422.12
382.409	440.12
382.634	427.12
382.86	419.12
383.085	433.12
383.31	455.12
383.535	437.12
383.761	444.12
383.986	430.12
384.211	430.12
384.436	424.12
384.662	416.12
384.887	450.12
385.112	445.12
385.337	446.12
385.562	453.12
385.787	454.12
386.013	475.12
386.238	457.12
386.463	458.12
386.688	463.12
386.913	445.12
387.138	442.12
387.363	469.12
387.588	475.12
387.813	447.12
388.038	460.12
388.263	447.12
388.488	447.12
388.713	447.12
388.938	444.12
389.163	455.12
389.387	456.12
389.612	469.12
389.837	466.12
390.062	452.12
390.287	450.12
390.512	461.12
390.736	431.12
390.961	458.12
391.186	461.12
391.411	415.12
391.636	479.12
391.86	476.12
392.085	482.12
392.31	481.12
392.534	466.12
392.759	476.12
392.984	470.12
393.208	466.12
393.433	505.12
393.658	488.12
393.882	468.12
394.107	455.12
394.331	442.12
394.556	447.12
394.78	461.12
395.005	454.12
395.229	476.12
395.454	464.12
395.678	476.12
395.903	495.12
396.127	516.12
396.352	519.12
396.576	490.12
396.801	508.12
397.025	470.12
397.249	491.12
397.474	482.12
397.698	482.12
397.922	505.12
398.147	509.12
398.371	515.12
398.595	521.12
398.82	524.12
399.044	525.12
399.268	542.12
399.492	576.12
399.717	575.12
399.941	623.12
400.165	630.12
400.389	644.12
400.613	586.12
400.837	548.12
401.062	556.12
401.286	548.12
401.51	505.12
401.734	520.12
401.958	520.12
402.182	523.12
402.406	559.12
402.63	561.12
402.854	541.12
403.078	566.12
403.302	559.12
403.526	572.12
403.75	536.12
403.974	564.12
404.198	552.12
404.422	540.12
404.645	574.12
404.869	566.12
405.093	566.12
405.317	635.12
405.541	666.12
405.765	630.12
405.988	591.12
406.212	602.12
406.436	638.12
406.66	652.12
406.883	631.12
407.107	611.12
407.331	651.12
407.555	735.12
407.778	731.12
408.002	669.12
408.226	610.12
408.449	616.12
408.673	636.12
408.896	670.12
409.12	680.12
409.344	633.12
409.567	610.12
409.791	570.12
410.014	545.12
410.238	565.12
410.461	562.12
410.685	574.12
410.908	570.12
411.132	634.12
411.355	668.12
411.578	616.12
411.802	599.12
412.025	572.12
412.249	558.12
412.472	604.12
412.695	649.12
412.919	643.12
413.142	575.12
413.365	554.12
413.589	555.12
413.812	535.12
414.035	551.12
414.258	521.12
414.482	542.12
414.705	523.12
414.928	516.12
415.151	517.12
415.374	512.12
415.597	524.12
415.821	531.12
416.044	520.12
416.267	538.12
416.49	528.12
416.713	527.12
416.936	542.12
417.159	516.12
417.382	537.12
417.605	544.12
417.828	547.12
418.051	564.12
418.274	567.12
418.497	521.12
418.72	538.12
418.943	539.12
419.166	569.12
419.389	600.12
419.611	563.12
419.834	578.12
420.057	571.12
420.28	570.12
420.503	584.12
420.726	554.12
420.948	588.12
421.171	636.12
421.394	672.12
421.617	597.12
421.839	562.12
422.062	578.12
422.285	588.12
422.507	635.12
422.73	732.12
422.953	704.12
423.175	633.12
423.398	608.12
423.621	599.12
423.843	601.12
424.066	626.12
424.288	630.12
424.511	625.12
424.733	708.12
424.956	744.12
425.178	751.12
425.401	733.12
425.623	766.12
425.846	677.12
426.068	642.12
426.291	630.12
426.513	604.12
426.735	640.12
426.958	685.12
427.18	754.12
427.402	914.12
427.625	1028.12
427.847	866.12
428.069	766.12
428.292	691.12
428.514	621.12
428.736	605.12
428.958	600.12
429.181	581.12
429.403	580.12
429.625	591.12
429.847	611.12
430.069	703.12
430.292	689.12
430.514	609.12
430.736	592.12
430.958	558.12
431.18	542.12
431.402	542.12
431.624	519.12
431.846	529.12
432.068	528.12
432.29	556.12
432.512	532.12
432.734	551.12
432.956	563.12
433.178	570.12
433.4	554.12
433.622	575.12
433.844	566.12
434.066	540.12
434.287	542.12
434.509	543.12
434.731	542.12
434.953	557.12
435.175	595.12
435.397	630.12
435.618	601.12
435.84	664.12
436.062	782.12
436.284	857.12
436.505	706.12
436.727	648.12
436.949	607.12
437.17	573.12
437.392	582.12
437.614	566.12
437.835	610.12
438.057	769.12
438.278	821.12
438.5	850.12
438.721	908.12
438.943	875.12
439.165	706.12
439.386	654.12
439.608	652.12
439.829	630.12
440.05	671.12
440.272	719.12
440.493	665.12
440.715	602.12
440.936	607.12
441.158	581.12
441.379	584.12
441.6	618.12
441.822	614.12
442.043	661.12
442.264	756.12
442.486	810.12
442.707	687.12
442.928	648.12
443.149	650.12
443.371	677.12
443.592	724.12
443.813	815.12
444.034	858.12
444.255	740.12
444.476	660.12
444.698	633.12
444.919	606.12
445.14	744.12
445.361	733.12
445.582	687.12
445.803	738.12
446.024	835.12
446.245	866.12
446.466	778.12
446.687	665.12
446.908	640.12
447.129	593.12
447.35	582.12
447.571	601.12
447.792	572.12
448.013	589.12
448.234	615.12
448.455	670.12
448.675	762.12
448.896	877.12
449.117	774.12
449.338	750.12
449.559	841.12
449.779	934.12
450	802.12
450.221	654.12
450.442	603.12
450.662	586.12
450.883	604.12
451.104	616.12
451.324	592.12
451.545	573.12
451.766	538.12
451.986	536.12
452.207	511.12
452.428	526.12
452.648	549.12
452.869	527.12
453.089	539.12
453.31	537.12
453.53	525.12
453.751	521.12
453.971	532.12
454.192	542.12
454.412	535.12
454.633	506.12
454.853	527.12
455.073	534.12
455.294	580.12
455.514	637.12
455.734	614.12
455.955	514.12
456.175	499.12
456.395	481.12
456.616	487.12
456.836	476.12
457.056	469.12
457.276	469.12
457.497	468.12
457.717	511.12
457.937	501.12
458.157	499.12
458.377	486.12
458.598	520.12
458.818	584.12
459.038	691.12
459.258	700.12
459.478	597.12
459.698	570.12
459.918	520.12
460.138	543.12
460.358	531.12
460.578	540.12
460.798	530.12
461.018	534.12
461.238	534.12
461.458	514.12
461.678	529.12
461.898	538.12
462.118	515.12
462.338	545.12
462.558	542.12
462.777	551.12
462.997	544.12
463.217	571.12
463.437	563.12
463.657	566.12
463.876	546.12
464.096	564.12
464.316	557.12
464.536	585.12
464.755	573.12
464.975	594.12
465.195	665.12
465.414	730.12
465.634	670.12
465.854	572.12
466.073	568.12
466.293	571.12
466.512	531.12
466.732	505.12
466.951	520.12
467.171	537.12
467.391	536.12
467.61	550.12
467.829	554.12
468.049	551.12
468.268	542.12
468.488	532.12
468.707	495.12
468.927	504.12
469.146	524.12
469.365	522.12
469.585	550.12
469.804	508.12
470.023	539.12
470.243	530.12
470.462	546.12
470.681	554.12
470.901	568.12
471.12	557.12
471.339	562.12
471.558	533.12
471.777	557.12
471.997	532.12
472.216	550.12
472.435	582.12
472.654	575.12
472.873	551.12
473.092	540.12
473.311	534.12
473.53	562.12
473.749	566.12
473.968	612.12
474.187	708.12
474.406	712.12
474.625	619.12
474.844	562.12
475.063	555.12
475.282	551.12
475.501	532.12
475.72	547.12
475.939	544.12
476.158	572.12
476.377	538.12
476.596	533.12
476.814	547.12
477.033	579.12
477.252	573.12
477.471	570.12
477.69	571.12
477.908	606.12
478.127	594.12
478.346	593.12
478.564	603.12
478.783	590.12
479.002	614.12
479.22	623.12
479.439	643.12
479.658	680.12
479.876	647.12
480.095	647.12
480.313	694.12
480.532	652.12
480.751	660.12
480.969	692.12
481.188	725.12
481.406	818.12
481.624	701.12
481.843	692.12
482.061	660.12
482.28	654.12
482.498	651.12
482.717	643.12
482.935	657.12
483.153	646.12
483.372	651.12
483.59	642.12
483.808	623.12
484.027	630.12
484.245	648.12
484.463	655.12
484.681	666.12
484.9	646.12
485.118	658.12
485.336	659.12
485.554	676.12
485.772	667.12
485.99	675.12
486.209	660.12
486.427	694.12
486.645	685.12
486.863	697.12
487.081	717.12
487.299	709.12
487.517	675.12
487.735	710.12
487.953	721.12
488.171	704.12
488.389	708.12
488.607	704.12
488.825	692.12
489.043	693.12
489.261	694.12
489.479	718.12
489.696	734.12
489.914	730.12
490.132	757.12
490.35	746.12
490.568	740.12
490.786	760.12
491.003	771.12
491.221	776.12
491.439	790.12
491.657	846.12
491.874	795.12
492.092	814.12
492.31	847.12
492.527	842.12
492.745	818.12
492.963	838.12
493.18	843.12
493.398	843.12
493.615	862.12
493.833	848.12
494.05	864.12
494.268	868.12
494.485	852.12
494.703	839.12
494.92	853.12
495.138	845.12
495.355	860.12
495.573	830.12
495.79	856.12
496.008	831.12
496.225	861.12
496.442	846.12
496.66	841.12
496.877	839.12
497.094	866.12
497.312	874.12
497.529	871.12
497.746	868.12
497.963	861.12
498.181	884.12
498.398	884.12
498.615	899.12
498.832	933.12
499.049	916.12
499.267	954.12
499.484	939.12
499.701	958.12
499.918	977.12
500.135	1004.12
500.352	1046.12
500.569	1062.12
500.786	1080.12
501.003	1043.12
501.22	1032.12
501.437	1046.12
501.654	1031.12
