Data from 1970.PennyLincolnUp.Lamp.En5.5.200Scan.071719.P1._HRD10591_15-14-07-842.txt Node
Date: Thu Jul 18 15:14:07 EDT 2019
User: cochatt
Spectrometer: HR+D1059
Trigger mode: 1
Integration Time (sec): 1.000000E-1
Scans to average: 1
Electric dark correction enabled: true
Nonlinearity correction enabled: false
Boxcar width: 0
XAxis mode: Wavelengths
Number of Pixels in Spectrum: 2048
>>>>>Begin Spectral Data<<<<<
223.165	-8.81
223.4	-8.81
223.635	-8.81
223.869	-14.81
224.104	-9.81
224.338	-22.81
224.573	-21.81
224.808	-10.81
225.042	-11.81
225.277	-12.81
225.511	-10.81
225.746	16.19
225.98	4.19
226.215	10.19
226.449	11.19
226.683	21.19
226.918	23.19
227.152	38.19
227.387	35.19
227.621	22.19
227.856	43.19
228.09	44.19
228.324	52.19
228.559	57.19
228.793	59.19
229.027	110.19
229.262	112.19
229.496	114.19
229.73	128.19
229.964	166.19
230.199	143.19
230.433	124.19
230.667	130.19
230.901	118.19
231.136	122.19
231.37	130.19
231.604	115.19
231.838	106.19
232.072	108.19
232.306	125.19
232.541	114.19
232.775	122.19
233.009	124.19
233.243	116.19
233.477	118.19
233.711	122.19
233.945	125.19
234.179	113.19
234.413	121.19
234.647	113.19
234.881	113.19
235.115	125.19
235.349	117.19
235.583	112.19
235.817	135.19
236.051	138.19
236.285	133.19
236.519	123.19
236.753	131.19
236.987	169.19
237.221	202.19
237.455	226.19
237.689	203.19
237.922	140.19
238.156	143.19
238.39	152.19
238.624	129.19
238.858	121.19
239.091	138.19
239.325	129.19
239.559	130.19
239.793	141.19
240.027	147.19
240.26	142.19
240.494	169.19
240.728	178.19
240.961	138.19
241.195	143.19
241.429	158.19
241.662	139.19
241.896	132.19
242.13	141.19
242.363	158.19
242.597	135.19
242.83	123.19
243.064	130.19
243.298	150.19
243.531	141.19
243.765	145.19
243.998	140.19
244.232	153.19
244.465	153.19
244.699	162.19
244.932	143.19
245.166	166.19
245.399	138.19
245.633	152.19
245.866	164.19
246.099	150.19
246.333	172.19
246.566	160.19
246.8	157.19
247.033	159.19
247.266	166.19
247.5	187.19
247.733	181.19
247.966	186.19
248.2	185.19
248.433	170.19
248.666	193.19
248.899	190.19
249.133	215.19
249.366	213.19
249.599	209.19
249.832	201.19
250.066	201.19
250.299	203.19
250.532	193.19
250.765	235.19
250.998	245.19
251.231	264.19
251.465	245.19
251.698	232.19
251.931	218.19
252.164	216.19
252.397	194.19
252.63	214.19
252.863	235.19
253.096	249.19
253.329	258.19
253.562	253.19
253.795	236.19
254.028	231.19
254.261	222.19
254.494	244.19
254.727	288.19
254.96	280.19
255.193	299.19
255.426	279.19
255.659	258.19
255.892	252.19
256.124	265.19
256.357	264.19
256.59	254.19
256.823	221.19
257.056	242.19
257.289	222.19
257.521	233.19
257.754	214.19
257.987	219.19
258.22	227.19
258.452	216.19
258.685	228.19
258.918	236.19
259.151	235.19
259.383	222.19
259.616	232.19
259.849	232.19
260.081	247.19
260.314	256.19
260.547	275.19
260.779	260.19
261.012	257.19
261.244	229.19
261.477	225.19
261.71	242.19
261.942	231.19
262.175	254.19
262.407	237.19
262.64	220.19
262.872	229.19
263.105	207.19
263.337	219.19
263.57	219.19
263.802	229.19
264.035	224.19
264.267	213.19
264.499	232.19
264.732	218.19
264.964	217.19
265.197	226.19
265.429	225.19
265.661	212.19
265.894	210.19
266.126	210.19
266.358	219.19
266.591	196.19
266.823	216.19
267.055	218.19
267.287	231.19
267.52	221.19
267.752	230.19
267.984	234.19
268.216	223.19
268.448	214.19
268.681	237.19
268.913	274.19
269.145	254.19
269.377	269.19
269.609	275.19
269.841	285.19
270.073	286.19
270.306	295.19
270.538	329.19
270.77	324.19
271.002	310.19
271.234	313.19
271.466	307.19
271.698	313.19
271.93	311.19
272.162	317.19
272.394	316.19
272.626	310.19
272.858	305.19
273.09	290.19
273.322	250.19
273.553	266.19
273.785	269.19
274.017	271.19
274.249	280.19
274.481	260.19
274.713	261.19
274.945	263.19
275.176	279.19
275.408	262.19
275.64	264.19
275.872	275.19
276.104	270.19
276.335	277.19
276.567	253.19
276.799	297.19
277.031	318.19
277.262	313.19
277.494	333.19
277.726	305.19
277.957	293.19
278.189	274.19
278.421	262.19
278.652	274.19
278.884	257.19
279.115	239.19
279.347	243.19
279.579	250.19
279.81	280.19
280.042	254.19
280.273	259.19
280.505	268.19
280.736	254.19
280.968	272.19
281.199	270.19
281.431	245.19
281.662	241.19
281.894	258.19
282.125	266.19
282.356	284.19
282.588	301.19
282.819	311.19
283.051	262.19
283.282	252.19
283.513	257.19
283.745	271.19
283.976	256.19
284.207	267.19
284.439	264.19
284.67	281.19
284.901	261.19
285.132	269.19
285.364	274.19
285.595	277.19
285.826	266.19
286.057	270.19
286.288	269.19
286.52	262.19
286.751	260.19
286.982	276.19
287.213	264.19
287.444	263.19
287.675	275.19
287.906	276.19
288.138	271.19
288.369	281.19
288.6	270.19
288.831	292.19
289.062	278.19
289.293	293.19
289.524	262.19
289.755	273.19
289.986	277.19
290.217	274.19
290.448	284.19
290.679	267.19
290.91	281.19
291.141	264.19
291.371	282.19
291.602	270.19
291.833	268.19
292.064	282.19
292.295	264.19
292.526	278.19
292.757	272.19
292.987	288.19
293.218	281.19
293.449	269.19
293.68	280.19
293.91	275.19
294.141	270.19
294.372	284.19
294.603	262.19
294.833	286.19
295.064	278.19
295.295	281.19
295.525	278.19
295.756	292.19
295.987	290.19
296.217	318.19
296.448	321.19
296.679	300.19
296.909	283.19
297.14	280.19
297.37	286.19
297.601	291.19
297.831	295.19
298.062	293.19
298.292	297.19
298.523	285.19
298.753	282.19
298.984	294.19
299.214	302.19
299.445	284.19
299.675	311.19
299.905	325.19
300.136	301.19
300.366	298.19
300.597	307.19
300.827	324.19
301.057	314.19
301.288	316.19
301.518	315.19
301.748	319.19
301.979	313.19
302.209	320.19
302.439	305.19
302.669	322.19
302.9	301.19
303.13	314.19
303.36	306.19
303.59	310.19
303.82	322.19
304.051	335.19
304.281	314.19
304.511	318.19
304.741	307.19
304.971	314.19
305.201	319.19
305.431	304.19
305.661	326.19
305.891	318.19
306.121	318.19
306.352	320.19
306.582	313.19
306.812	320.19
307.042	316.19
307.272	303.19
307.502	320.19
307.731	331.19
307.961	318.19
308.191	326.19
308.421	309.19
308.651	309.19
308.881	328.19
309.111	334.19
309.341	329.19
309.571	345.19
309.8	322.19
310.03	352.19
310.26	352.19
310.49	350.19
310.72	368.19
310.949	376.19
311.179	370.19
311.409	380.19
311.639	364.19
311.868	368.19
312.098	370.19
312.328	383.19
312.557	397.19
312.787	421.19
313.017	397.19
313.246	388.19
313.476	379.19
313.706	386.19
313.935	380.19
314.165	388.19
314.394	372.19
314.624	396.19
314.853	363.19
315.083	371.19
315.312	351.19
315.542	362.19
315.771	381.19
316.001	355.19
316.23	352.19
316.46	365.19
316.689	357.19
316.919	356.19
317.148	402.19
317.377	383.19
317.607	370.19
317.836	371.19
318.065	369.19
318.295	382.19
318.524	379.19
318.753	360.19
318.983	365.19
319.212	355.19
319.441	388.19
319.67	376.19
319.9	374.19
320.129	364.19
320.358	373.19
320.587	387.19
320.816	374.19
321.046	400.19
321.275	405.19
321.504	413.19
321.733	379.19
321.962	401.19
322.191	432.19
322.42	425.19
322.649	450.19
322.878	459.19
323.108	469.19
323.337	489.19
323.566	500.19
323.795	546.19
324.024	612.19
324.253	719.19
324.482	986.19
324.71	1581.19
324.939	2188.19
325.168	1860.19
325.397	1013.19
325.626	702.19
325.855	573.19
326.084	515.19
326.313	520.19
326.542	521.19
326.77	565.19
326.999	666.19
327.228	916.19
327.457	1348.19
327.686	1629.19
327.914	1128.19
328.143	776.19
328.372	666.19
328.6	615.19
328.829	585.19
329.058	579.19
329.287	594.19
329.515	576.19
329.744	530.19
329.972	540.19
330.201	560.19
330.43	596.19
330.658	625.19
330.887	620.19
331.115	614.19
331.344	522.19
331.572	509.19
331.801	473.19
332.03	476.19
332.258	475.19
332.486	457.19
332.715	444.19
332.943	456.19
333.172	448.19
333.4	453.19
333.629	477.19
333.857	464.19
334.085	476.19
334.314	497.19
334.542	532.19
334.771	557.19
334.999	514.19
335.227	481.19
335.455	439.19
335.684	457.19
335.912	428.19
336.14	413.19
336.369	445.19
336.597	441.19
336.825	451.19
337.053	428.19
337.281	446.19
337.51	435.19
337.738	436.19
337.966	436.19
338.194	443.19
338.422	456.19
338.65	430.19
338.878	421.19
339.106	433.19
339.334	422.19
339.562	394.19
339.79	410.19
340.018	427.19
340.246	408.19
340.474	412.19
340.702	425.19
340.93	409.19
341.158	442.19
341.386	418.19
341.614	433.19
341.842	440.19
342.07	427.19
342.298	422.19
342.526	432.19
342.754	421.19
342.981	411.19
343.209	422.19
343.437	414.19
343.665	421.19
343.893	419.19
344.12	414.19
344.348	417.19
344.576	419.19
344.804	427.19
345.031	432.19
345.259	443.19
345.487	452.19
345.714	446.19
345.942	425.19
346.17	424.19
346.397	438.19
346.625	407.19
346.853	423.19
347.08	410.19
347.308	416.19
347.535	411.19
347.763	425.19
347.99	415.19
348.218	427.19
348.445	436.19
348.673	421.19
348.9	403.19
349.128	401.19
349.355	393.19
349.583	387.19
349.81	400.19
350.037	384.19
350.265	399.19
350.492	408.19
350.72	416.19
350.947	402.19
351.174	429.19
351.402	450.19
351.629	414.19
351.856	435.19
352.083	439.19
352.311	453.19
352.538	459.19
352.765	466.19
352.992	434.19
353.22	421.19
353.447	417.19
353.674	411.19
353.901	399.19
354.128	397.19
354.355	388.19
354.583	419.19
354.81	390.19
355.037	401.19
355.264	386.19
355.491	387.19
355.718	385.19
355.945	394.19
356.172	384.19
356.399	396.19
356.626	374.19
356.853	380.19
357.08	378.19
357.307	397.19
357.534	403.19
357.761	399.19
357.988	377.19
358.215	390.19
358.441	402.19
358.668	396.19
358.895	386.19
359.122	396.19
359.349	408.19
359.576	401.19
359.802	460.19
360.029	468.19
360.256	482.19
360.483	461.19
360.709	422.19
360.936	444.19
361.163	432.19
361.39	428.19
361.616	438.19
361.843	397.19
362.07	420.19
362.296	429.19
362.523	421.19
362.749	442.19
362.976	429.19
363.203	422.19
363.429	416.19
363.656	408.19
363.882	403.19
364.109	400.19
364.335	409.19
364.562	419.19
364.788	404.19
365.015	402.19
365.241	395.19
365.468	404.19
365.694	404.19
365.92	413.19
366.147	411.19
366.373	403.19
366.599	420.19
366.826	413.19
367.052	392.19
367.278	395.19
367.505	408.19
367.731	410.19
367.957	422.19
368.184	404.19
368.41	422.19
368.636	429.19
368.862	421.19
369.089	421.19
369.315	427.19
369.541	404.19
369.767	384.19
369.993	406.19
370.219	425.19
370.445	388.19
370.672	408.19
370.898	393.19
371.124	389.19
371.35	400.19
371.576	392.19
371.802	385.19
372.028	380.19
372.254	406.19
372.48	420.19
372.706	413.19
372.932	394.19
373.158	405.19
373.384	414.19
373.61	396.19
373.835	387.19
374.061	416.19
374.287	401.19
374.513	396.19
374.739	421.19
374.965	426.19
375.191	432.19
375.416	413.19
375.642	420.19
375.868	425.19
376.094	408.19
376.319	422.19
376.545	420.19
376.771	396.19
376.997	410.19
377.222	402.19
377.448	407.19
377.674	409.19
377.899	418.19
378.125	402.19
378.35	418.19
378.576	403.19
378.802	404.19
379.027	404.19
379.253	417.19
379.478	406.19
379.704	426.19
379.929	407.19
380.155	415.19
380.38	404.19
380.606	395.19
380.831	390.19
381.057	417.19
381.282	417.19
381.507	436.19
381.733	435.19
381.958	396.19
382.184	417.19
382.409	414.19
382.634	433.19
382.86	410.19
383.085	415.19
383.31	393.19
383.535	416.19
383.761	422.19
383.986	424.19
384.211	411.19
384.436	448.19
384.662	435.19
384.887	435.19
385.112	418.19
385.337	444.19
385.562	451.19
385.787	428.19
386.013	426.19
386.238	447.19
386.463	429.19
386.688	454.19
386.913	446.19
387.138	422.19
387.363	434.19
387.588	459.19
387.813	441.19
388.038	428.19
388.263	456.19
388.488	440.19
388.713	418.19
388.938	440.19
389.163	432.19
389.387	467.19
389.612	442.19
389.837	454.19
390.062	446.19
390.287	438.19
390.512	440.19
390.736	433.19
390.961	446.19
391.186	438.19
391.411	449.19
391.636	453.19
391.86	458.19
392.085	463.19
392.31	447.19
392.534	423.19
392.759	455.19
392.984	421.19
393.208	427.19
393.433	461.19
393.658	465.19
393.882	440.19
394.107	437.19
394.331	432.19
394.556	454.19
394.78	445.19
395.005	442.19
395.229	455.19
395.454	460.19
395.678	452.19
395.903	467.19
396.127	487.19
396.352	504.19
396.576	474.19
396.801	460.19
397.025	483.19
397.249	470.19
397.474	477.19
397.698	458.19
397.922	480.19
398.147	489.19
398.371	511.19
398.595	490.19
398.82	474.19
399.044	488.19
399.268	511.19
399.492	539.19
399.717	560.19
399.941	573.19
400.165	598.19
400.389	602.19
400.613	560.19
400.837	530.19
401.062	530.19
401.286	522.19
401.51	501.19
401.734	485.19
401.958	495.19
402.182	492.19
402.406	512.19
402.63	500.19
402.854	505.19
403.078	521.19
403.302	530.19
403.526	522.19
403.75	540.19
403.974	526.19
404.198	525.19
404.422	540.19
404.645	544.19
404.869	530.19
405.093	579.19
405.317	596.19
405.541	652.19
405.765	600.19
405.988	592.19
406.212	594.19
406.436	611.19
406.66	613.19
406.883	582.19
407.107	605.19
407.331	636.19
407.555	694.19
407.778	700.19
408.002	642.19
408.226	607.19
408.449	594.19
408.673	596.19
408.896	623.19
409.12	632.19
409.344	648.19
409.567	563.19
409.791	537.19
410.014	564.19
410.238	526.19
410.461	536.19
410.685	541.19
410.908	550.19
411.132	607.19
411.355	620.19
411.578	605.19
411.802	573.19
412.025	537.19
412.249	542.19
412.472	590.19
412.695	602.19
412.919	596.19
413.142	540.19
413.365	519.19
413.589	559.19
413.812	512.19
414.035	523.19
414.258	505.19
414.482	514.19
414.705	525.19
414.928	490.19
415.151	507.19
415.374	502.19
415.597	504.19
415.821	499.19
416.044	501.19
416.267	501.19
416.49	514.19
416.713	516.19
416.936	509.19
417.159	501.19
417.382	518.19
417.605	514.19
417.828	512.19
418.051	526.19
418.274	550.19
418.497	516.19
418.72	506.19
418.943	529.19
419.166	568.19
419.389	549.19
419.611	536.19
419.834	518.19
420.057	554.19
420.28	556.19
420.503	541.19
420.726	566.19
420.948	567.19
421.171	611.19
421.394	638.19
421.617	580.19
421.839	547.19
422.062	551.19
422.285	570.19
422.507	605.19
422.73	698.19
422.953	660.19
423.175	597.19
423.398	595.19
423.621	545.19
423.843	583.19
424.066	589.19
424.288	587.19
424.511	614.19
424.733	663.19
424.956	746.19
425.178	704.19
425.401	706.19
425.623	740.19
425.846	626.19
426.068	610.19
426.291	597.19
426.513	589.19
426.735	627.19
426.958	644.19
427.18	735.19
427.402	866.19
427.625	918.19
427.847	866.19
428.069	764.19
428.292	670.19
428.514	610.19
428.736	573.19
428.958	591.19
429.181	584.19
429.403	553.19
429.625	562.19
429.847	627.19
430.069	673.19
430.292	660.19
430.514	582.19
430.736	546.19
430.958	563.19
431.18	530.19
431.402	549.19
431.624	539.19
431.846	515.19
432.068	492.19
432.29	510.19
432.512	498.19
432.734	516.19
432.956	521.19
433.178	532.19
433.4	528.19
433.622	514.19
433.844	521.19
434.066	535.19
434.287	538.19
434.509	518.19
434.731	528.19
434.953	532.19
435.175	591.19
435.397	577.19
435.618	581.19
435.84	637.19
436.062	737.19
436.284	785.19
436.505	672.19
436.727	615.19
436.949	589.19
437.17	565.19
437.392	555.19
437.614	577.19
437.835	604.19
438.057	715.19
438.278	810.19
438.5	826.19
438.721	855.19
438.943	835.19
439.165	681.19
439.386	619.19
439.608	628.19
439.829	590.19
440.05	614.19
440.272	683.19
440.493	635.19
440.715	609.19
440.936	592.19
441.158	568.19
441.379	564.19
441.6	583.19
441.822	593.19
442.043	656.19
442.264	712.19
442.486	764.19
442.707	661.19
442.928	640.19
443.149	601.19
443.371	620.19
443.592	684.19
443.813	765.19
444.034	820.19
444.255	707.19
444.476	622.19
444.698	587.19
444.919	605.19
445.14	724.19
445.361	665.19
445.582	633.19
445.803	692.19
446.024	798.19
446.245	830.19
446.466	743.19
446.687	640.19
446.908	616.19
447.129	583.19
447.35	565.19
447.571	576.19
447.792	564.19
448.013	564.19
448.234	582.19
448.455	620.19
448.675	736.19
448.896	817.19
449.117	717.19
449.338	708.19
449.559	820.19
449.779	862.19
450	711.19
450.221	631.19
450.442	584.19
450.662	555.19
450.883	535.19
451.104	566.19
451.324	582.19
451.545	545.19
451.766	508.19
451.986	494.19
452.207	506.19
452.428	491.19
452.648	498.19
452.869	508.19
453.089	497.19
453.31	510.19
453.53	493.19
453.751	483.19
453.971	517.19
454.192	501.19
454.412	534.19
454.633	500.19
454.853	505.19
455.073	515.19
455.294	516.19
455.514	590.19
455.734	573.19
455.955	529.19
456.175	473.19
456.395	473.19
456.616	463.19
456.836	460.19
457.056	456.19
457.276	484.19
457.497	460.19
457.717	470.19
457.937	469.19
458.157	473.19
458.377	505.19
458.598	493.19
458.818	567.19
459.038	658.19
459.258	658.19
459.478	574.19
459.698	543.19
459.918	532.19
460.138	512.19
460.358	520.19
460.578	500.19
460.798	539.19
461.018	555.19
461.238	493.19
461.458	501.19
461.678	501.19
461.898	518.19
462.118	518.19
462.338	505.19
462.558	534.19
462.777	528.19
462.997	541.19
463.217	530.19
463.437	566.19
463.657	556.19
463.876	547.19
464.096	520.19
464.316	541.19
464.536	546.19
464.755	555.19
464.975	565.19
465.195	606.19
465.414	684.19
465.634	614.19
465.854	566.19
466.073	556.19
466.293	518.19
466.512	498.19
466.732	509.19
466.951	499.19
467.171	512.19
467.391	501.19
467.61	524.19
467.829	540.19
468.049	526.19
468.268	526.19
468.488	504.19
468.707	510.19
468.927	491.19
469.146	481.19
469.365	508.19
469.585	510.19
469.804	525.19
470.023	523.19
470.243	512.19
470.462	520.19
470.681	538.19
470.901	540.19
471.12	517.19
471.339	503.19
471.558	510.19
471.777	527.19
471.997	522.19
472.216	530.19
472.435	553.19
472.654	524.19
472.873	538.19
473.092	512.19
473.311	518.19
473.53	524.19
473.749	519.19
473.968	583.19
474.187	653.19
474.406	704.19
474.625	595.19
474.844	530.19
475.063	532.19
475.282	534.19
475.501	537.19
475.72	539.19
475.939	523.19
476.158	533.19
476.377	534.19
476.596	545.19
476.814	529.19
477.033	550.19
477.252	568.19
477.471	534.19
477.69	580.19
477.908	560.19
478.127	568.19
478.346	540.19
478.564	576.19
478.783	584.19
479.002	586.19
479.22	588.19
479.439	594.19
479.658	624.19
479.876	609.19
480.095	628.19
480.313	646.19
480.532	641.19
480.751	635.19
480.969	648.19
481.188	716.19
481.406	762.19
481.624	694.19
481.843	641.19
482.061	628.19
482.28	614.19
482.498	616.19
482.717	633.19
482.935	610.19
483.153	603.19
483.372	633.19
483.59	605.19
483.808	606.19
484.027	606.19
484.245	620.19
484.463	609.19
484.681	624.19
484.9	637.19
485.118	645.19
485.336	643.19
485.554	632.19
485.772	630.19
485.99	628.19
486.209	650.19
486.427	643.19
486.645	668.19
486.863	704.19
487.081	690.19
487.299	679.19
487.517	670.19
487.735	691.19
487.953	661.19
488.171	681.19
488.389	678.19
488.607	684.19
488.825	679.19
489.043	705.19
489.261	692.19
489.479	684.19
489.696	677.19
489.914	698.19
490.132	675.19
490.35	722.19
490.568	717.19
490.786	718.19
491.003	736.19
491.221	762.19
491.439	769.19
491.657	776.19
491.874	785.19
492.092	784.19
492.31	775.19
492.527	786.19
492.745	811.19
492.963	792.19
493.18	791.19
493.398	809.19
493.615	815.19
493.833	813.19
494.05	814.19
494.268	785.19
494.485	793.19
494.703	804.19
494.92	811.19
495.138	804.19
495.355	823.19
495.573	810.19
495.79	826.19
496.008	824.19
496.225	804.19
496.442	801.19
496.66	789.19
496.877	818.19
497.094	837.19
497.312	834.19
497.529	825.19
497.746	822.19
497.963	842.19
498.181	855.19
498.398	868.19
498.615	884.19
498.832	888.19
499.049	865.19
499.267	920.19
499.484	916.19
499.701	931.19
499.918	969.19
500.135	970.19
500.352	1010.19
500.569	1020.19
500.786	1005.19
501.003	983.19
501.22	993.19
501.437	988.19
501.654	978.19
501.871	982.19
