Data from 1970.PennyLincolnUp.Lamp.En5.5.200Scan.071719.P1._HRD10591_15-14-23-842.txt Node
Date: Thu Jul 18 15:14:23 EDT 2019
User: cochatt
Spectrometer: HR+D1059
Trigger mode: 1
Integration Time (sec): 1.000000E-1
Scans to average: 1
Electric dark correction enabled: true
Nonlinearity correction enabled: false
Boxcar width: 0
XAxis mode: Wavelengths
Number of Pixels in Spectrum: 2048
>>>>>Begin Spectral Data<<<<<
223.165	-18.88
223.4	-18.88
223.635	-18.88
223.869	-35.88
224.104	-20.88
224.338	-9.88
224.573	-11.88
224.808	3.12
225.042	0.12
225.277	-0.88
225.511	-6.88
225.746	0.12
225.98	14.12
226.215	7.12
226.449	9.12
226.683	22.12
226.918	17.12
227.152	32.12
227.387	26.12
227.621	36.12
227.856	47.12
228.09	45.12
228.324	45.12
228.559	48.12
228.793	67.12
229.027	99.12
229.262	112.12
229.496	152.12
229.73	156.12
229.964	158.12
230.199	146.12
230.433	126.12
230.667	119.12
230.901	119.12
231.136	110.12
231.37	115.12
231.604	113.12
231.838	110.12
232.072	121.12
232.306	101.12
232.541	123.12
232.775	105.12
233.009	115.12
233.243	120.12
233.477	110.12
233.711	113.12
233.945	110.12
234.179	125.12
234.413	124.12
234.647	130.12
234.881	122.12
235.115	135.12
235.349	123.12
235.583	130.12
235.817	118.12
236.051	135.12
236.285	140.12
236.519	133.12
236.753	134.12
236.987	158.12
237.221	166.12
237.455	264.12
237.689	209.12
237.922	160.12
238.156	133.12
238.39	139.12
238.624	133.12
238.858	137.12
239.091	137.12
239.325	128.12
239.559	152.12
239.793	139.12
240.027	135.12
240.26	147.12
240.494	173.12
240.728	174.12
240.961	153.12
241.195	161.12
241.429	135.12
241.662	149.12
241.896	149.12
242.13	137.12
242.363	145.12
242.597	138.12
242.83	151.12
243.064	148.12
243.298	156.12
243.531	146.12
243.765	155.12
243.998	143.12
244.232	154.12
244.465	155.12
244.699	163.12
244.932	159.12
245.166	163.12
245.399	173.12
245.633	170.12
245.866	152.12
246.099	145.12
246.333	156.12
246.566	151.12
246.8	150.12
247.033	167.12
247.266	162.12
247.5	165.12
247.733	187.12
247.966	183.12
248.2	188.12
248.433	189.12
248.666	195.12
248.899	195.12
249.133	228.12
249.366	223.12
249.599	216.12
249.832	209.12
250.066	205.12
250.299	192.12
250.532	195.12
250.765	212.12
250.998	243.12
251.231	265.12
251.465	227.12
251.698	228.12
251.931	221.12
252.164	235.12
252.397	209.12
252.63	218.12
252.863	217.12
253.096	234.12
253.329	241.12
253.562	250.12
253.795	247.12
254.028	264.12
254.261	235.12
254.494	259.12
254.727	271.12
254.96	313.12
255.193	305.12
255.426	267.12
255.659	254.12
255.892	241.12
256.124	264.12
256.357	257.12
256.59	253.12
256.823	246.12
257.056	240.12
257.289	225.12
257.521	227.12
257.754	235.12
257.987	221.12
258.22	221.12
258.452	211.12
258.685	216.12
258.918	250.12
259.151	221.12
259.383	222.12
259.616	236.12
259.849	237.12
260.081	248.12
260.314	263.12
260.547	280.12
260.779	265.12
261.012	250.12
261.244	259.12
261.477	241.12
261.71	245.12
261.942	258.12
262.175	259.12
262.407	245.12
262.64	225.12
262.872	205.12
263.105	221.12
263.337	236.12
263.57	211.12
263.802	225.12
264.035	220.12
264.267	219.12
264.499	215.12
264.732	212.12
264.964	220.12
265.197	246.12
265.429	204.12
265.661	222.12
265.894	221.12
266.126	225.12
266.358	215.12
266.591	215.12
266.823	233.12
267.055	231.12
267.287	232.12
267.52	224.12
267.752	232.12
267.984	246.12
268.216	231.12
268.448	236.12
268.681	241.12
268.913	245.12
269.145	261.12
269.377	270.12
269.609	292.12
269.841	279.12
270.073	283.12
270.306	304.12
270.538	325.12
270.77	339.12
271.002	324.12
271.234	303.12
271.466	316.12
271.698	333.12
271.93	338.12
272.162	328.12
272.394	343.12
272.626	325.12
272.858	311.12
273.09	277.12
273.322	282.12
273.553	287.12
273.785	283.12
274.017	263.12
274.249	279.12
274.481	267.12
274.713	279.12
274.945	281.12
275.176	265.12
275.408	288.12
275.64	282.12
275.872	263.12
276.104	269.12
276.335	280.12
276.567	259.12
276.799	298.12
277.031	314.12
277.262	326.12
277.494	327.12
277.726	302.12
277.957	322.12
278.189	314.12
278.421	281.12
278.652	275.12
278.884	289.12
279.115	267.12
279.347	276.12
279.579	277.12
279.81	279.12
280.042	264.12
280.273	270.12
280.505	265.12
280.736	258.12
280.968	269.12
281.199	265.12
281.431	253.12
281.662	270.12
281.894	255.12
282.125	262.12
282.356	289.12
282.588	313.12
282.819	295.12
283.051	276.12
283.282	259.12
283.513	292.12
283.745	280.12
283.976	287.12
284.207	294.12
284.439	280.12
284.67	280.12
284.901	271.12
285.132	273.12
285.364	270.12
285.595	285.12
285.826	277.12
286.057	274.12
286.288	275.12
286.52	263.12
286.751	286.12
286.982	301.12
287.213	275.12
287.444	285.12
287.675	298.12
287.906	296.12
288.138	302.12
288.369	308.12
288.6	289.12
288.831	297.12
289.062	288.12
289.293	277.12
289.524	309.12
289.755	269.12
289.986	266.12
290.217	273.12
290.448	284.12
290.679	305.12
290.91	279.12
291.141	278.12
291.371	288.12
291.602	282.12
291.833	278.12
292.064	272.12
292.295	284.12
292.526	277.12
292.757	289.12
292.987	274.12
293.218	281.12
293.449	283.12
293.68	291.12
293.91	276.12
294.141	272.12
294.372	274.12
294.603	291.12
294.833	278.12
295.064	281.12
295.295	281.12
295.525	289.12
295.756	294.12
295.987	313.12
296.217	324.12
296.448	357.12
296.679	294.12
296.909	265.12
297.14	313.12
297.37	288.12
297.601	313.12
297.831	299.12
298.062	298.12
298.292	302.12
298.523	297.12
298.753	305.12
298.984	309.12
299.214	310.12
299.445	285.12
299.675	317.12
299.905	302.12
300.136	314.12
300.366	301.12
300.597	301.12
300.827	311.12
301.057	322.12
301.288	334.12
301.518	317.12
301.748	316.12
301.979	299.12
302.209	316.12
302.439	321.12
302.669	335.12
302.9	329.12
303.13	313.12
303.36	337.12
303.59	311.12
303.82	343.12
304.051	337.12
304.281	325.12
304.511	322.12
304.741	308.12
304.971	321.12
305.201	325.12
305.431	312.12
305.661	325.12
305.891	326.12
306.121	311.12
306.352	330.12
306.582	324.12
306.812	334.12
307.042	308.12
307.272	332.12
307.502	346.12
307.731	333.12
307.961	329.12
308.191	329.12
308.421	326.12
308.651	321.12
308.881	344.12
309.111	327.12
309.341	334.12
309.571	350.12
309.8	378.12
310.03	365.12
310.26	359.12
310.49	383.12
310.72	382.12
310.949	416.12
311.179	426.12
311.409	396.12
311.639	404.12
311.868	389.12
312.098	356.12
312.328	389.12
312.557	407.12
312.787	423.12
313.017	435.12
313.246	377.12
313.476	361.12
313.706	381.12
313.935	397.12
314.165	403.12
314.394	415.12
314.624	392.12
314.853	388.12
315.083	397.12
315.312	380.12
315.542	378.12
315.771	363.12
316.001	361.12
316.23	372.12
316.46	381.12
316.689	377.12
316.919	381.12
317.148	391.12
317.377	413.12
317.607	399.12
317.836	390.12
318.065	374.12
318.295	391.12
318.524	385.12
318.753	389.12
318.983	390.12
319.212	393.12
319.441	395.12
319.67	418.12
319.9	393.12
320.129	394.12
320.358	399.12
320.587	370.12
320.816	398.12
321.046	409.12
321.275	411.12
321.504	405.12
321.733	403.12
321.962	397.12
322.191	428.12
322.42	435.12
322.649	465.12
322.878	478.12
323.108	486.12
323.337	528.12
323.566	545.12
323.795	576.12
324.024	636.12
324.253	759.12
324.482	1081.12
324.71	1674.12
324.939	2355.12
325.168	2037.12
325.397	1087.12
325.626	761.12
325.855	617.12
326.084	551.12
326.313	551.12
326.542	555.12
326.77	610.12
326.999	690.12
327.228	977.12
327.457	1483.12
327.686	1799.12
327.914	1237.12
328.143	814.12
328.372	699.12
328.6	663.12
328.829	611.12
329.058	639.12
329.287	665.12
329.515	611.12
329.744	565.12
329.972	570.12
330.201	572.12
330.43	625.12
330.658	650.12
330.887	641.12
331.115	652.12
331.344	551.12
331.572	521.12
331.801	535.12
332.03	517.12
332.258	492.12
332.486	467.12
332.715	486.12
332.943	461.12
333.172	451.12
333.4	473.12
333.629	467.12
333.857	507.12
334.085	510.12
334.314	517.12
334.542	574.12
334.771	598.12
334.999	524.12
335.227	477.12
335.455	473.12
335.684	472.12
335.912	466.12
336.14	452.12
336.369	447.12
336.597	474.12
336.825	444.12
337.053	445.12
337.281	419.12
337.51	454.12
337.738	438.12
337.966	446.12
338.194	469.12
338.422	459.12
338.65	446.12
338.878	432.12
339.106	424.12
339.334	453.12
339.562	443.12
339.79	447.12
340.018	445.12
340.246	434.12
340.474	427.12
340.702	448.12
340.93	437.12
341.158	447.12
341.386	452.12
341.614	440.12
341.842	455.12
342.07	443.12
342.298	454.12
342.526	441.12
342.754	421.12
342.981	435.12
343.209	411.12
343.437	426.12
343.665	441.12
343.893	441.12
344.12	416.12
344.348	429.12
344.576	431.12
344.804	443.12
345.031	456.12
345.259	472.12
345.487	483.12
345.714	456.12
345.942	428.12
346.17	442.12
346.397	407.12
346.625	442.12
346.853	422.12
347.08	422.12
347.308	414.12
347.535	446.12
347.763	450.12
347.99	469.12
348.218	435.12
348.445	460.12
348.673	457.12
348.9	440.12
349.128	437.12
349.355	426.12
349.583	411.12
349.81	423.12
350.037	412.12
350.265	398.12
350.492	414.12
350.72	414.12
350.947	422.12
351.174	444.12
351.402	428.12
351.629	447.12
351.856	453.12
352.083	468.12
352.311	478.12
352.538	461.12
352.765	449.12
352.992	459.12
353.22	448.12
353.447	446.12
353.674	450.12
353.901	407.12
354.128	412.12
354.355	405.12
354.583	407.12
354.81	407.12
355.037	401.12
355.264	402.12
355.491	374.12
355.718	380.12
355.945	401.12
356.172	392.12
356.399	424.12
356.626	414.12
356.853	393.12
357.08	391.12
357.307	417.12
357.534	410.12
357.761	400.12
357.988	402.12
358.215	406.12
358.441	410.12
358.668	384.12
358.895	407.12
359.122	408.12
359.349	415.12
359.576	437.12
359.802	468.12
360.029	497.12
360.256	506.12
360.483	475.12
360.709	459.12
360.936	465.12
361.163	437.12
361.39	433.12
361.616	438.12
361.843	445.12
362.07	419.12
362.296	459.12
362.523	451.12
362.749	429.12
362.976	405.12
363.203	427.12
363.429	431.12
363.656	430.12
363.882	415.12
364.109	433.12
364.335	426.12
364.562	417.12
364.788	449.12
365.015	422.12
365.241	414.12
365.468	451.12
365.694	433.12
365.92	426.12
366.147	439.12
366.373	417.12
366.599	419.12
366.826	420.12
367.052	411.12
367.278	420.12
367.505	451.12
367.731	403.12
367.957	425.12
368.184	448.12
368.41	415.12
368.636	427.12
368.862	439.12
369.089	394.12
369.315	430.12
369.541	420.12
369.767	407.12
369.993	421.12
370.219	424.12
370.445	403.12
370.672	433.12
370.898	421.12
371.124	425.12
371.35	418.12
371.576	417.12
371.802	429.12
372.028	413.12
372.254	419.12
372.48	403.12
372.706	413.12
372.932	412.12
373.158	409.12
373.384	427.12
373.61	428.12
373.835	406.12
374.061	395.12
374.287	434.12
374.513	426.12
374.739	431.12
374.965	436.12
375.191	445.12
375.416	429.12
375.642	409.12
375.868	413.12
376.094	425.12
376.319	427.12
376.545	431.12
376.771	433.12
376.997	414.12
377.222	413.12
377.448	424.12
377.674	417.12
377.899	414.12
378.125	422.12
378.35	407.12
378.576	423.12
378.802	412.12
379.027	422.12
379.253	410.12
379.478	414.12
379.704	405.12
379.929	414.12
380.155	429.12
380.38	432.12
380.606	424.12
380.831	435.12
381.057	422.12
381.282	435.12
381.507	418.12
381.733	418.12
381.958	442.12
382.184	423.12
382.409	419.12
382.634	419.12
382.86	424.12
383.085	417.12
383.31	433.12
383.535	444.12
383.761	442.12
383.986	455.12
384.211	440.12
384.436	428.12
384.662	450.12
384.887	441.12
385.112	436.12
385.337	425.12
385.562	434.12
385.787	447.12
386.013	461.12
386.238	467.12
386.463	465.12
386.688	469.12
386.913	452.12
387.138	447.12
387.363	457.12
387.588	448.12
387.813	443.12
388.038	460.12
388.263	445.12
388.488	443.12
388.713	451.12
388.938	450.12
389.163	448.12
389.387	479.12
389.612	461.12
389.837	449.12
390.062	443.12
390.287	466.12
390.512	450.12
390.736	446.12
390.961	450.12
391.186	451.12
391.411	456.12
391.636	447.12
391.86	451.12
392.085	462.12
392.31	449.12
392.534	458.12
392.759	464.12
392.984	468.12
393.208	470.12
393.433	469.12
393.658	466.12
393.882	454.12
394.107	439.12
394.331	457.12
394.556	456.12
394.78	459.12
395.005	458.12
395.229	447.12
395.454	458.12
395.678	473.12
395.903	473.12
396.127	481.12
396.352	508.12
396.576	469.12
396.801	505.12
397.025	493.12
397.249	477.12
397.474	476.12
397.698	482.12
397.922	501.12
398.147	515.12
398.371	529.12
398.595	503.12
398.82	504.12
399.044	509.12
399.268	519.12
399.492	513.12
399.717	577.12
399.941	596.12
400.165	612.12
400.389	626.12
400.613	573.12
400.837	549.12
401.062	539.12
401.286	523.12
401.51	522.12
401.734	510.12
401.958	514.12
402.182	525.12
402.406	543.12
402.63	530.12
402.854	533.12
403.078	551.12
403.302	552.12
403.526	572.12
403.75	549.12
403.974	536.12
404.198	543.12
404.422	551.12
404.645	540.12
404.869	558.12
405.093	575.12
405.317	616.12
405.541	650.12
405.765	636.12
405.988	570.12
406.212	603.12
406.436	627.12
406.66	639.12
406.883	603.12
407.107	637.12
407.331	681.12
407.555	685.12
407.778	728.12
408.002	651.12
408.226	632.12
408.449	609.12
408.673	605.12
408.896	632.12
409.12	666.12
409.344	645.12
409.567	585.12
409.791	595.12
410.014	567.12
410.238	542.12
410.461	564.12
410.685	562.12
410.908	582.12
411.132	598.12
411.355	655.12
411.578	608.12
411.802	587.12
412.025	554.12
412.249	580.12
412.472	608.12
412.695	626.12
412.919	599.12
413.142	577.12
413.365	563.12
413.589	547.12
413.812	534.12
414.035	522.12
414.258	533.12
414.482	507.12
414.705	533.12
414.928	527.12
415.151	504.12
415.374	505.12
415.597	511.12
415.821	531.12
416.044	511.12
416.267	525.12
416.49	527.12
416.713	536.12
416.936	511.12
417.159	520.12
417.382	535.12
417.605	545.12
417.828	532.12
418.051	554.12
418.274	551.12
418.497	528.12
418.72	547.12
418.943	526.12
419.166	525.12
419.389	568.12
419.611	557.12
419.834	552.12
420.057	563.12
420.28	569.12
420.503	559.12
420.726	564.12
420.948	574.12
421.171	620.12
421.394	680.12
421.617	610.12
421.839	555.12
422.062	575.12
422.285	573.12
422.507	631.12
422.73	731.12
422.953	703.12
423.175	625.12
423.398	597.12
423.621	575.12
423.843	631.12
424.066	612.12
424.288	594.12
424.511	652.12
424.733	691.12
424.956	754.12
425.178	768.12
425.401	732.12
425.623	751.12
425.846	664.12
426.068	625.12
426.291	612.12
426.513	618.12
426.735	600.12
426.958	661.12
427.18	755.12
427.402	881.12
427.625	951.12
427.847	894.12
428.069	790.12
428.292	701.12
428.514	621.12
428.736	586.12
428.958	626.12
429.181	571.12
429.403	575.12
429.625	603.12
429.847	612.12
430.069	690.12
430.292	699.12
430.514	612.12
430.736	580.12
430.958	580.12
431.18	564.12
431.402	536.12
431.624	517.12
431.846	516.12
432.068	510.12
432.29	531.12
432.512	501.12
432.734	535.12
432.956	581.12
433.178	535.12
433.4	558.12
433.622	533.12
433.844	527.12
434.066	542.12
434.287	534.12
434.509	519.12
434.731	547.12
434.953	556.12
435.175	564.12
435.397	606.12
435.618	627.12
435.84	673.12
436.062	748.12
436.284	825.12
436.505	716.12
436.727	617.12
436.949	596.12
437.17	587.12
437.392	582.12
437.614	586.12
437.835	636.12
438.057	757.12
438.278	847.12
438.5	819.12
438.721	926.12
438.943	854.12
439.165	703.12
439.386	641.12
439.608	645.12
439.829	643.12
440.05	669.12
440.272	728.12
440.493	673.12
440.715	638.12
440.936	590.12
441.158	588.12
441.379	578.12
441.6	614.12
441.822	617.12
442.043	662.12
442.264	760.12
442.486	788.12
442.707	709.12
442.928	638.12
443.149	655.12
443.371	669.12
443.592	724.12
443.813	813.12
444.034	871.12
444.255	735.12
444.476	673.12
444.698	625.12
444.919	611.12
445.14	751.12
445.361	685.12
445.582	665.12
445.803	731.12
446.024	843.12
446.245	875.12
446.466	762.12
446.687	685.12
446.908	637.12
447.129	600.12
447.35	587.12
447.571	602.12
447.792	566.12
448.013	597.12
448.234	602.12
448.455	671.12
448.675	786.12
448.896	875.12
449.117	780.12
449.338	743.12
449.559	876.12
449.779	940.12
450	779.12
450.221	648.12
450.442	614.12
450.662	569.12
450.883	585.12
451.104	583.12
451.324	585.12
451.545	572.12
451.766	544.12
451.986	534.12
452.207	514.12
452.428	500.12
452.648	503.12
452.869	529.12
453.089	530.12
453.31	548.12
453.53	534.12
453.751	521.12
453.971	519.12
454.192	553.12
454.412	546.12
454.633	522.12
454.853	513.12
455.073	516.12
455.294	543.12
455.514	620.12
455.734	613.12
455.955	537.12
456.175	490.12
456.395	479.12
456.616	476.12
456.836	457.12
457.056	476.12
457.276	473.12
457.497	475.12
457.717	478.12
457.937	488.12
458.157	501.12
458.377	518.12
458.598	529.12
458.818	591.12
459.038	694.12
459.258	719.12
459.478	587.12
459.698	552.12
459.918	517.12
460.138	511.12
460.358	522.12
460.578	515.12
460.798	524.12
461.018	528.12
461.238	541.12
461.458	528.12
461.678	513.12
461.898	510.12
462.118	521.12
462.338	541.12
462.558	537.12
462.777	563.12
462.997	580.12
463.217	565.12
463.437	574.12
463.657	547.12
463.876	561.12
464.096	536.12
464.316	550.12
464.536	579.12
464.755	577.12
464.975	601.12
465.195	620.12
465.414	720.12
465.634	647.12
465.854	608.12
466.073	556.12
466.293	542.12
466.512	539.12
466.732	528.12
466.951	531.12
467.171	534.12
467.391	530.12
467.61	540.12
467.829	539.12
468.049	557.12
468.268	525.12
468.488	528.12
468.707	522.12
468.927	499.12
469.146	512.12
469.365	510.12
469.585	523.12
469.804	519.12
470.023	543.12
470.243	540.12
470.462	551.12
470.681	547.12
470.901	553.12
471.12	551.12
471.339	551.12
471.558	544.12
471.777	544.12
471.997	537.12
472.216	552.12
472.435	585.12
472.654	564.12
472.873	529.12
473.092	545.12
473.311	548.12
473.53	544.12
473.749	545.12
473.968	590.12
474.187	678.12
474.406	725.12
474.625	607.12
474.844	570.12
475.063	534.12
475.282	542.12
475.501	551.12
475.72	560.12
475.939	556.12
476.158	562.12
476.377	550.12
476.596	561.12
476.814	565.12
477.033	564.12
477.252	589.12
477.471	564.12
477.69	562.12
477.908	583.12
478.127	588.12
478.346	588.12
478.564	581.12
478.783	590.12
479.002	614.12
479.22	618.12
479.439	641.12
479.658	670.12
479.876	646.12
480.095	644.12
480.313	686.12
480.532	666.12
480.751	637.12
480.969	669.12
481.188	755.12
481.406	781.12
481.624	716.12
481.843	651.12
482.061	655.12
482.28	637.12
482.498	649.12
482.717	637.12
482.935	637.12
483.153	628.12
483.372	629.12
483.59	627.12
483.808	639.12
484.027	639.12
484.245	633.12
484.463	638.12
484.681	666.12
484.9	662.12
485.118	630.12
485.336	647.12
485.554	659.12
485.772	687.12
485.99	677.12
486.209	666.12
486.427	679.12
486.645	703.12
486.863	715.12
487.081	726.12
487.299	682.12
487.517	667.12
487.735	708.12
487.953	704.12
488.171	706.12
488.389	711.12
488.607	728.12
488.825	706.12
489.043	703.12
489.261	723.12
489.479	711.12
489.696	701.12
489.914	703.12
490.132	735.12
490.35	746.12
490.568	743.12
490.786	772.12
491.003	764.12
491.221	764.12
491.439	782.12
491.657	806.12
491.874	796.12
492.092	806.12
492.31	791.12
492.527	823.12
492.745	842.12
492.963	827.12
493.18	817.12
493.398	818.12
493.615	824.12
493.833	820.12
494.05	829.12
494.268	835.12
494.485	798.12
494.703	847.12
494.92	867.12
495.138	831.12
495.355	860.12
495.573	857.12
495.79	845.12
496.008	843.12
496.225	846.12
496.442	863.12
496.66	846.12
496.877	843.12
497.094	863.12
497.312	833.12
497.529	854.12
497.746	841.12
497.963	856.12
498.181	886.12
498.398	878.12
498.615	894.12
498.832	886.12
499.049	912.12
499.267	939.12
499.484	957.12
499.701	963.12
499.918	983.12
500.135	1001.12
500.352	1057.12
500.569	1040.12
500.786	1048.12
501.003	1051.12
501.22	1036.12
501.437	1035.12
501.654	1013.12
501.871	1017.12
