Data from 1970.PennyLincolnUp.Lamp.En5.5.200Scan.071719.P1._HRD10591_15-13-55-842.txt Node
Date: Thu Jul 18 15:13:55 EDT 2019
User: cochatt
Spectrometer: HR+D1059
Trigger mode: 1
Integration Time (sec): 1.000000E-1
Scans to average: 1
Electric dark correction enabled: true
Nonlinearity correction enabled: false
Boxcar width: 0
XAxis mode: Wavelengths
Number of Pixels in Spectrum: 2048
>>>>>Begin Spectral Data<<<<<
223.165	-8.38
223.4	-8.38
223.635	-8.38
223.869	-15.38
224.104	-19.38
224.338	-29.38
224.573	-13.38
224.808	-20.38
225.042	-8.38
225.277	-5.38
225.511	6.62
225.746	11.62
225.98	6.62
226.215	2.62
226.449	14.62
226.683	21.62
226.918	29.62
227.152	26.62
227.387	42.62
227.621	37.62
227.856	50.62
228.09	44.62
228.324	54.62
228.559	54.62
228.793	66.62
229.027	99.62
229.262	101.62
229.496	112.62
229.73	140.62
229.964	171.62
230.199	137.62
230.433	123.62
230.667	117.62
230.901	103.62
231.136	110.62
231.37	107.62
231.604	116.62
231.838	116.62
232.072	118.62
232.306	124.62
232.541	115.62
232.775	118.62
233.009	126.62
233.243	119.62
233.477	121.62
233.711	117.62
233.945	121.62
234.179	111.62
234.413	121.62
234.647	117.62
234.881	132.62
235.115	119.62
235.349	110.62
235.583	116.62
235.817	130.62
236.051	131.62
236.285	132.62
236.519	129.62
236.753	132.62
236.987	157.62
237.221	203.62
237.455	251.62
237.689	190.62
237.922	156.62
238.156	137.62
238.39	126.62
238.624	140.62
238.858	135.62
239.091	129.62
239.325	134.62
239.559	139.62
239.793	134.62
240.027	150.62
240.26	142.62
240.494	171.62
240.728	168.62
240.961	166.62
241.195	150.62
241.429	141.62
241.662	142.62
241.896	136.62
242.13	141.62
242.363	136.62
242.597	150.62
242.83	148.62
243.064	151.62
243.298	153.62
243.531	149.62
243.765	158.62
243.998	143.62
244.232	145.62
244.465	144.62
244.699	143.62
244.932	140.62
245.166	148.62
245.399	147.62
245.633	152.62
245.866	152.62
246.099	153.62
246.333	163.62
246.566	162.62
246.8	158.62
247.033	152.62
247.266	163.62
247.5	174.62
247.733	196.62
247.966	197.62
248.2	182.62
248.433	191.62
248.666	194.62
248.899	201.62
249.133	208.62
249.366	209.62
249.599	213.62
249.832	198.62
250.066	198.62
250.299	198.62
250.532	183.62
250.765	203.62
250.998	227.62
251.231	235.62
251.465	211.62
251.698	224.62
251.931	207.62
252.164	216.62
252.397	209.62
252.63	207.62
252.863	222.62
253.096	217.62
253.329	246.62
253.562	262.62
253.795	242.62
254.028	247.62
254.261	234.62
254.494	245.62
254.727	260.62
254.96	287.62
255.193	302.62
255.426	263.62
255.659	242.62
255.892	245.62
256.124	238.62
256.357	276.62
256.59	247.62
256.823	216.62
257.056	232.62
257.289	226.62
257.521	231.62
257.754	225.62
257.987	237.62
258.22	219.62
258.452	217.62
258.685	227.62
258.918	220.62
259.151	229.62
259.383	230.62
259.616	227.62
259.849	226.62
260.081	252.62
260.314	270.62
260.547	271.62
260.779	258.62
261.012	260.62
261.244	228.62
261.477	234.62
261.71	224.62
261.942	244.62
262.175	251.62
262.407	230.62
262.64	233.62
262.872	196.62
263.105	207.62
263.337	215.62
263.57	217.62
263.802	220.62
264.035	215.62
264.267	208.62
264.499	203.62
264.732	210.62
264.964	202.62
265.197	214.62
265.429	226.62
265.661	222.62
265.894	214.62
266.126	219.62
266.358	220.62
266.591	220.62
266.823	228.62
267.055	232.62
267.287	236.62
267.52	228.62
267.752	235.62
267.984	241.62
268.216	251.62
268.448	234.62
268.681	232.62
268.913	239.62
269.145	250.62
269.377	286.62
269.609	293.62
269.841	280.62
270.073	279.62
270.306	308.62
270.538	338.62
270.77	308.62
271.002	322.62
271.234	298.62
271.466	303.62
271.698	333.62
271.93	315.62
272.162	334.62
272.394	319.62
272.626	299.62
272.858	303.62
273.09	286.62
273.322	266.62
273.553	267.62
273.785	276.62
274.017	269.62
274.249	274.62
274.481	268.62
274.713	275.62
274.945	265.62
275.176	271.62
275.408	267.62
275.64	267.62
275.872	273.62
276.104	258.62
276.335	262.62
276.567	267.62
276.799	292.62
277.031	315.62
277.262	295.62
277.494	314.62
277.726	314.62
277.957	301.62
278.189	285.62
278.421	270.62
278.652	261.62
278.884	236.62
279.115	254.62
279.347	274.62
279.579	282.62
279.81	258.62
280.042	244.62
280.273	260.62
280.505	254.62
280.736	252.62
280.968	250.62
281.199	246.62
281.431	256.62
281.662	250.62
281.894	255.62
282.125	270.62
282.356	259.62
282.588	303.62
282.819	298.62
283.051	282.62
283.282	262.62
283.513	255.62
283.745	269.62
283.976	278.62
284.207	280.62
284.439	290.62
284.67	277.62
284.901	286.62
285.132	259.62
285.364	262.62
285.595	264.62
285.826	258.62
286.057	266.62
286.288	245.62
286.52	264.62
286.751	258.62
286.982	278.62
287.213	258.62
287.444	280.62
287.675	272.62
287.906	281.62
288.138	289.62
288.369	270.62
288.6	296.62
288.831	299.62
289.062	292.62
289.293	286.62
289.524	280.62
289.755	276.62
289.986	267.62
290.217	274.62
290.448	262.62
290.679	278.62
290.91	279.62
291.141	266.62
291.371	274.62
291.602	267.62
291.833	274.62
292.064	266.62
292.295	274.62
292.526	272.62
292.757	276.62
292.987	287.62
293.218	266.62
293.449	273.62
293.68	283.62
293.91	275.62
294.141	275.62
294.372	281.62
294.603	271.62
294.833	272.62
295.064	264.62
295.295	274.62
295.525	286.62
295.756	283.62
295.987	297.62
296.217	295.62
296.448	314.62
296.679	293.62
296.909	278.62
297.14	282.62
297.37	275.62
297.601	274.62
297.831	274.62
298.062	275.62
298.292	288.62
298.523	308.62
298.753	290.62
298.984	279.62
299.214	274.62
299.445	296.62
299.675	288.62
299.905	291.62
300.136	294.62
300.366	293.62
300.597	311.62
300.827	303.62
301.057	306.62
301.288	322.62
301.518	290.62
301.748	316.62
301.979	301.62
302.209	308.62
302.439	333.62
302.669	295.62
302.9	331.62
303.13	308.62
303.36	308.62
303.59	319.62
303.82	336.62
304.051	313.62
304.281	317.62
304.511	315.62
304.741	298.62
304.971	299.62
305.201	301.62
305.431	298.62
305.661	308.62
305.891	308.62
306.121	306.62
306.352	339.62
306.582	317.62
306.812	330.62
307.042	319.62
307.272	325.62
307.502	317.62
307.731	326.62
307.961	310.62
308.191	350.62
308.421	308.62
308.651	310.62
308.881	348.62
309.111	340.62
309.341	330.62
309.571	361.62
309.8	344.62
310.03	366.62
310.26	363.62
310.49	363.62
310.72	359.62
310.949	367.62
311.179	364.62
311.409	373.62
311.639	355.62
311.868	337.62
312.098	376.62
312.328	365.62
312.557	390.62
312.787	418.62
313.017	398.62
313.246	382.62
313.476	352.62
313.706	367.62
313.935	393.62
314.165	375.62
314.394	374.62
314.624	379.62
314.853	380.62
315.083	378.62
315.312	368.62
315.542	360.62
315.771	360.62
316.001	359.62
316.23	381.62
316.46	356.62
316.689	368.62
316.919	396.62
317.148	371.62
317.377	358.62
317.607	377.62
317.836	376.62
318.065	367.62
318.295	350.62
318.524	356.62
318.753	359.62
318.983	377.62
319.212	362.62
319.441	381.62
319.67	363.62
319.9	380.62
320.129	365.62
320.358	363.62
320.587	376.62
320.816	382.62
321.046	388.62
321.275	396.62
321.504	381.62
321.733	414.62
321.962	424.62
322.191	427.62
322.42	430.62
322.649	436.62
322.878	427.62
323.108	445.62
323.337	468.62
323.566	518.62
323.795	552.62
324.024	580.62
324.253	695.62
324.482	1020.62
324.71	1550.62
324.939	2160.62
325.168	1854.62
325.397	981.62
325.626	671.62
325.855	563.62
326.084	534.62
326.313	494.62
326.542	507.62
326.77	543.62
326.999	631.62
327.228	911.62
327.457	1328.62
327.686	1607.62
327.914	1132.62
328.143	738.62
328.372	640.62
328.6	610.62
328.829	566.62
329.058	583.62
329.287	585.62
329.515	552.62
329.744	534.62
329.972	522.62
330.201	539.62
330.43	577.62
330.658	593.62
330.887	632.62
331.115	610.62
331.344	536.62
331.572	513.62
331.801	483.62
332.03	488.62
332.258	475.62
332.486	461.62
332.715	465.62
332.943	445.62
333.172	455.62
333.4	448.62
333.629	458.62
333.857	453.62
334.085	471.62
334.314	474.62
334.542	514.62
334.771	526.62
334.999	478.62
335.227	456.62
335.455	444.62
335.684	446.62
335.912	444.62
336.14	426.62
336.369	424.62
336.597	448.62
336.825	446.62
337.053	429.62
337.281	458.62
337.51	407.62
337.738	419.62
337.966	435.62
338.194	418.62
338.422	432.62
338.65	423.62
338.878	421.62
339.106	411.62
339.334	425.62
339.562	433.62
339.79	410.62
340.018	413.62
340.246	420.62
340.474	416.62
340.702	439.62
340.93	435.62
341.158	437.62
341.386	444.62
341.614	441.62
341.842	415.62
342.07	419.62
342.298	413.62
342.526	393.62
342.754	400.62
342.981	380.62
343.209	394.62
343.437	402.62
343.665	388.62
343.893	418.62
344.12	416.62
344.348	424.62
344.576	423.62
344.804	425.62
345.031	431.62
345.259	429.62
345.487	441.62
345.714	447.62
345.942	431.62
346.17	415.62
346.397	404.62
346.625	403.62
346.853	423.62
347.08	403.62
347.308	416.62
347.535	427.62
347.763	420.62
347.99	428.62
348.218	426.62
348.445	453.62
348.673	422.62
348.9	413.62
349.128	412.62
349.355	396.62
349.583	403.62
349.81	418.62
350.037	406.62
350.265	399.62
350.492	391.62
350.72	382.62
350.947	430.62
351.174	421.62
351.402	427.62
351.629	422.62
351.856	430.62
352.083	446.62
352.311	459.62
352.538	438.62
352.765	446.62
352.992	422.62
353.22	423.62
353.447	409.62
353.674	414.62
353.901	404.62
354.128	401.62
354.355	393.62
354.583	393.62
354.81	379.62
355.037	381.62
355.264	396.62
355.491	392.62
355.718	393.62
355.945	389.62
356.172	396.62
356.399	380.62
356.626	373.62
356.853	384.62
357.08	404.62
357.307	383.62
357.534	380.62
357.761	388.62
357.988	391.62
358.215	394.62
358.441	401.62
358.668	400.62
358.895	411.62
359.122	420.62
359.349	412.62
359.576	416.62
359.802	471.62
360.029	480.62
360.256	482.62
360.483	461.62
360.709	439.62
360.936	440.62
361.163	434.62
361.39	435.62
361.616	429.62
361.843	413.62
362.07	424.62
362.296	412.62
362.523	414.62
362.749	419.62
362.976	422.62
363.203	413.62
363.429	414.62
363.656	418.62
363.882	416.62
364.109	412.62
364.335	403.62
364.562	418.62
364.788	399.62
365.015	404.62
365.241	411.62
365.468	428.62
365.694	420.62
365.92	422.62
366.147	410.62
366.373	431.62
366.599	405.62
366.826	402.62
367.052	398.62
367.278	408.62
367.505	401.62
367.731	414.62
367.957	398.62
368.184	407.62
368.41	418.62
368.636	422.62
368.862	429.62
369.089	426.62
369.315	412.62
369.541	406.62
369.767	417.62
369.993	415.62
370.219	393.62
370.445	399.62
370.672	426.62
370.898	401.62
371.124	423.62
371.35	411.62
371.576	420.62
371.802	406.62
372.028	412.62
372.254	412.62
372.48	404.62
372.706	407.62
372.932	417.62
373.158	421.62
373.384	430.62
373.61	410.62
373.835	431.62
374.061	422.62
374.287	413.62
374.513	422.62
374.739	405.62
374.965	407.62
375.191	406.62
375.416	424.62
375.642	413.62
375.868	429.62
376.094	386.62
376.319	405.62
376.545	399.62
376.771	414.62
376.997	418.62
377.222	394.62
377.448	406.62
377.674	416.62
377.899	399.62
378.125	407.62
378.35	416.62
378.576	410.62
378.802	404.62
379.027	413.62
379.253	404.62
379.478	403.62
379.704	419.62
379.929	412.62
380.155	392.62
380.38	400.62
380.606	413.62
380.831	415.62
381.057	419.62
381.282	412.62
381.507	398.62
381.733	425.62
381.958	404.62
382.184	418.62
382.409	414.62
382.634	417.62
382.86	408.62
383.085	434.62
383.31	425.62
383.535	431.62
383.761	395.62
383.986	430.62
384.211	420.62
384.436	434.62
384.662	442.62
384.887	428.62
385.112	450.62
385.337	420.62
385.562	429.62
385.787	445.62
386.013	439.62
386.238	453.62
386.463	455.62
386.688	442.62
386.913	430.62
387.138	432.62
387.363	435.62
387.588	434.62
387.813	436.62
388.038	458.62
388.263	441.62
388.488	445.62
388.713	431.62
388.938	446.62
389.163	444.62
389.387	440.62
389.612	435.62
389.837	416.62
390.062	438.62
390.287	446.62
390.512	448.62
390.736	426.62
390.961	452.62
391.186	454.62
391.411	436.62
391.636	442.62
391.86	427.62
392.085	468.62
392.31	447.62
392.534	470.62
392.759	448.62
392.984	447.62
393.208	461.62
393.433	487.62
393.658	440.62
393.882	462.62
394.107	440.62
394.331	456.62
394.556	458.62
394.78	442.62
395.005	446.62
395.229	467.62
395.454	434.62
395.678	457.62
395.903	450.62
396.127	471.62
396.352	494.62
396.576	471.62
396.801	462.62
397.025	464.62
397.249	474.62
397.474	474.62
397.698	479.62
397.922	490.62
398.147	495.62
398.371	532.62
398.595	502.62
398.82	502.62
399.044	504.62
399.268	524.62
399.492	529.62
399.717	568.62
399.941	570.62
400.165	584.62
400.389	610.62
400.613	554.62
400.837	539.62
401.062	522.62
401.286	498.62
401.51	525.62
401.734	516.62
401.958	534.62
402.182	520.62
402.406	529.62
402.63	518.62
402.854	503.62
403.078	508.62
403.302	518.62
403.526	513.62
403.75	531.62
403.974	518.62
404.198	521.62
404.422	536.62
404.645	548.62
404.869	529.62
405.093	559.62
405.317	613.62
405.541	632.62
405.765	598.62
405.988	572.62
406.212	582.62
406.436	579.62
406.66	597.62
406.883	587.62
407.107	597.62
407.331	646.62
407.555	698.62
407.778	700.62
408.002	631.62
408.226	614.62
408.449	603.62
408.673	557.62
408.896	594.62
409.12	638.62
409.344	596.62
409.567	550.62
409.791	543.62
410.014	540.62
410.238	528.62
410.461	549.62
410.685	552.62
410.908	560.62
411.132	586.62
411.355	642.62
411.578	587.62
411.802	552.62
412.025	517.62
412.249	520.62
412.472	555.62
412.695	614.62
412.919	578.62
413.142	551.62
413.365	542.62
413.589	502.62
413.812	517.62
414.035	511.62
414.258	495.62
414.482	491.62
414.705	498.62
414.928	506.62
415.151	514.62
415.374	522.62
415.597	513.62
415.821	514.62
416.044	502.62
416.267	527.62
416.49	499.62
416.713	506.62
416.936	494.62
417.159	505.62
417.382	538.62
417.605	519.62
417.828	532.62
418.051	537.62
418.274	540.62
418.497	517.62
418.72	512.62
418.943	520.62
419.166	528.62
419.389	557.62
419.611	554.62
419.834	551.62
420.057	543.62
420.28	542.62
420.503	556.62
420.726	542.62
420.948	544.62
421.171	611.62
421.394	626.62
421.617	568.62
421.839	554.62
422.062	563.62
422.285	554.62
422.507	624.62
422.73	687.62
422.953	646.62
423.175	603.62
423.398	585.62
423.621	562.62
423.843	573.62
424.066	598.62
424.288	588.62
424.511	603.62
424.733	656.62
424.956	727.62
425.178	718.62
425.401	732.62
425.623	765.62
425.846	648.62
426.068	584.62
426.291	588.62
426.513	590.62
426.735	586.62
426.958	655.62
427.18	730.62
427.402	847.62
427.625	950.62
427.847	854.62
428.069	745.62
428.292	669.62
428.514	602.62
428.736	568.62
428.958	577.62
429.181	552.62
429.403	555.62
429.625	553.62
429.847	604.62
430.069	671.62
430.292	668.62
430.514	578.62
430.736	568.62
430.958	555.62
431.18	532.62
431.402	542.62
431.624	519.62
431.846	521.62
432.068	512.62
432.29	519.62
432.512	533.62
432.734	535.62
432.956	531.62
433.178	521.62
433.4	554.62
433.622	541.62
433.844	506.62
434.066	500.62
434.287	518.62
434.509	527.62
434.731	516.62
434.953	523.62
435.175	541.62
435.397	584.62
435.618	599.62
435.84	630.62
436.062	719.62
436.284	795.62
436.505	684.62
436.727	605.62
436.949	586.62
437.17	569.62
437.392	579.62
437.614	593.62
437.835	618.62
438.057	730.62
438.278	824.62
438.5	820.62
438.721	872.62
438.943	811.62
439.165	682.62
439.386	622.62
439.608	600.62
439.829	603.62
440.05	655.62
440.272	696.62
440.493	644.62
440.715	607.62
440.936	591.62
441.158	576.62
441.379	562.62
441.6	546.62
441.822	604.62
442.043	630.62
442.264	724.62
442.486	757.62
442.707	652.62
442.928	631.62
443.149	629.62
443.371	638.62
443.592	695.62
443.813	777.62
444.034	822.62
444.255	708.62
444.476	619.62
444.698	594.62
444.919	605.62
445.14	707.62
445.361	644.62
445.582	631.62
445.803	696.62
446.024	813.62
446.245	786.62
446.466	726.62
446.687	653.62
446.908	598.62
447.129	584.62
447.35	580.62
447.571	573.62
447.792	546.62
448.013	562.62
448.234	581.62
448.455	641.62
448.675	751.62
448.896	830.62
449.117	716.62
449.338	692.62
449.559	803.62
449.779	876.62
450	744.62
450.221	602.62
450.442	567.62
450.662	553.62
450.883	559.62
451.104	575.62
451.324	567.62
451.545	546.62
451.766	520.62
451.986	486.62
452.207	488.62
452.428	501.62
452.648	507.62
452.869	478.62
453.089	524.62
453.31	512.62
453.53	500.62
453.751	514.62
453.971	517.62
454.192	527.62
454.412	499.62
454.633	522.62
454.853	483.62
455.073	504.62
455.294	537.62
455.514	601.62
455.734	603.62
455.955	508.62
456.175	457.62
456.395	469.62
456.616	477.62
456.836	465.62
457.056	461.62
457.276	466.62
457.497	448.62
457.717	467.62
457.937	466.62
458.157	466.62
458.377	471.62
458.598	509.62
458.818	559.62
459.038	650.62
459.258	670.62
459.478	576.62
459.698	520.62
459.918	522.62
460.138	513.62
460.358	504.62
460.578	519.62
460.798	538.62
461.018	511.62
461.238	534.62
461.458	515.62
461.678	493.62
461.898	513.62
462.118	503.62
462.338	507.62
462.558	506.62
462.777	518.62
462.997	523.62
463.217	530.62
463.437	548.62
463.657	554.62
463.876	542.62
464.096	549.62
464.316	539.62
464.536	553.62
464.755	542.62
464.975	548.62
465.195	621.62
465.414	699.62
465.634	599.62
465.854	566.62
466.073	547.62
466.293	536.62
466.512	507.62
466.732	478.62
466.951	508.62
467.171	492.62
467.391	523.62
467.61	506.62
467.829	516.62
468.049	530.62
468.268	523.62
468.488	511.62
468.707	493.62
468.927	489.62
469.146	491.62
469.365	488.62
469.585	497.62
469.804	504.62
470.023	540.62
470.243	514.62
470.462	521.62
470.681	527.62
470.901	534.62
471.12	514.62
471.339	506.62
471.558	542.62
471.777	527.62
471.997	519.62
472.216	525.62
472.435	536.62
472.654	552.62
472.873	543.62
473.092	521.62
473.311	523.62
473.53	522.62
473.749	546.62
473.968	539.62
474.187	678.62
474.406	706.62
474.625	610.62
474.844	565.62
475.063	527.62
475.282	519.62
475.501	502.62
475.72	523.62
475.939	532.62
476.158	532.62
476.377	557.62
476.596	544.62
476.814	554.62
477.033	544.62
477.252	565.62
477.471	562.62
477.69	559.62
477.908	581.62
478.127	568.62
478.346	568.62
478.564	566.62
478.783	571.62
479.002	578.62
479.22	590.62
479.439	602.62
479.658	619.62
479.876	617.62
480.095	626.62
480.313	662.62
480.532	631.62
480.751	592.62
480.969	644.62
481.188	727.62
481.406	752.62
481.624	684.62
481.843	653.62
482.061	632.62
482.28	613.62
482.498	644.62
482.717	604.62
482.935	632.62
483.153	620.62
483.372	604.62
483.59	606.62
483.808	640.62
484.027	633.62
484.245	627.62
484.463	627.62
484.681	627.62
484.9	621.62
485.118	648.62
485.336	650.62
485.554	647.62
485.772	638.62
485.99	645.62
486.209	619.62
486.427	639.62
486.645	679.62
486.863	674.62
487.081	684.62
487.299	698.62
487.517	676.62
487.735	666.62
487.953	662.62
488.171	655.62
488.389	644.62
488.607	662.62
488.825	694.62
489.043	677.62
489.261	686.62
489.479	679.62
489.696	673.62
489.914	682.62
490.132	686.62
490.35	699.62
490.568	716.62
490.786	711.62
491.003	724.62
491.221	747.62
491.439	746.62
491.657	798.62
491.874	810.62
492.092	772.62
492.31	784.62
492.527	763.62
492.745	808.62
492.963	799.62
493.18	812.62
493.398	812.62
493.615	811.62
493.833	815.62
494.05	825.62
494.268	820.62
494.485	812.62
494.703	788.62
494.92	816.62
495.138	805.62
495.355	810.62
495.573	844.62
495.79	816.62
496.008	836.62
496.225	812.62
496.442	823.62
496.66	834.62
496.877	803.62
497.094	797.62
497.312	840.62
497.529	840.62
497.746	854.62
497.963	828.62
498.181	896.62
498.398	850.62
498.615	854.62
498.832	880.62
499.049	889.62
499.267	886.62
499.484	919.62
499.701	930.62
499.918	928.62
500.135	984.62
500.352	1005.62
500.569	993.62
500.786	1010.62
501.003	1012.62
501.22	983.62
501.437	987.62
501.654	956.62
501.871	1001.62
