Data from 1970.PennyLincolnUp.Lamp.En5.5.200Scan.071719.P1._HRD10591_15-13-21-844.txt Node
Date: Thu Jul 18 15:13:21 EDT 2019
User: cochatt
Spectrometer: HR+D1059
Trigger mode: 1
Integration Time (sec): 1.000000E-1
Scans to average: 1
Electric dark correction enabled: true
Nonlinearity correction enabled: false
Boxcar width: 0
XAxis mode: Wavelengths
Number of Pixels in Spectrum: 2048
>>>>>Begin Spectral Data<<<<<
223.165	-18.56
223.4	-18.56
223.635	-18.56
223.869	-12.56
224.104	-6.56
224.338	-12.56
224.573	-16.56
224.808	-25.56
225.042	-3.56
225.277	-9.56
225.511	-5.56
225.746	8.44
225.98	1.44
226.215	-0.56
226.449	13.44
226.683	20.44
226.918	25.44
227.152	42.44
227.387	38.44
227.621	40.44
227.856	37.44
228.09	36.44
228.324	60.44
228.559	61.44
228.793	62.44
229.027	99.44
229.262	106.44
229.496	107.44
229.73	141.44
229.964	149.44
230.199	114.44
230.433	98.44
230.667	92.44
230.901	124.44
231.136	103.44
231.37	108.44
231.604	99.44
231.838	107.44
232.072	93.44
232.306	105.44
232.541	117.44
232.775	107.44
233.009	94.44
233.243	108.44
233.477	111.44
233.711	113.44
233.945	122.44
234.179	103.44
234.413	107.44
234.647	109.44
234.881	114.44
235.115	129.44
235.349	129.44
235.583	128.44
235.817	109.44
236.051	127.44
236.285	123.44
236.519	122.44
236.753	115.44
236.987	156.44
237.221	154.44
237.455	213.44
237.689	177.44
237.922	133.44
238.156	119.44
238.39	121.44
238.624	144.44
238.858	119.44
239.091	119.44
239.325	121.44
239.559	107.44
239.793	115.44
240.027	119.44
240.26	134.44
240.494	137.44
240.728	137.44
240.961	135.44
241.195	141.44
241.429	131.44
241.662	139.44
241.896	139.44
242.13	123.44
242.363	125.44
242.597	138.44
242.83	139.44
243.064	127.44
243.298	134.44
243.531	135.44
243.765	122.44
243.998	127.44
244.232	143.44
244.465	127.44
244.699	142.44
244.932	151.44
245.166	147.44
245.399	137.44
245.633	155.44
245.866	144.44
246.099	156.44
246.333	143.44
246.566	147.44
246.8	133.44
247.033	153.44
247.266	159.44
247.5	157.44
247.733	150.44
247.966	169.44
248.2	181.44
248.433	159.44
248.666	173.44
248.899	164.44
249.133	168.44
249.366	194.44
249.599	195.44
249.832	190.44
250.066	190.44
250.299	164.44
250.532	185.44
250.765	194.44
250.998	196.44
251.231	218.44
251.465	205.44
251.698	206.44
251.931	208.44
252.164	206.44
252.397	202.44
252.63	190.44
252.863	189.44
253.096	188.44
253.329	218.44
253.562	207.44
253.795	212.44
254.028	197.44
254.261	209.44
254.494	221.44
254.727	237.44
254.96	248.44
255.193	257.44
255.426	246.44
255.659	230.44
255.892	197.44
256.124	231.44
256.357	222.44
256.59	206.44
256.823	201.44
257.056	207.44
257.289	195.44
257.521	187.44
257.754	196.44
257.987	187.44
258.22	202.44
258.452	183.44
258.685	183.44
258.918	197.44
259.151	209.44
259.383	199.44
259.616	192.44
259.849	214.44
260.081	234.44
260.314	226.44
260.547	233.44
260.779	226.44
261.012	232.44
261.244	227.44
261.477	217.44
261.71	217.44
261.942	224.44
262.175	209.44
262.407	219.44
262.64	210.44
262.872	196.44
263.105	192.44
263.337	202.44
263.57	193.44
263.802	185.44
264.035	204.44
264.267	193.44
264.499	207.44
264.732	195.44
264.964	180.44
265.197	190.44
265.429	197.44
265.661	185.44
265.894	190.44
266.126	193.44
266.358	179.44
266.591	191.44
266.823	195.44
267.055	209.44
267.287	200.44
267.52	211.44
267.752	189.44
267.984	171.44
268.216	197.44
268.448	198.44
268.681	205.44
268.913	216.44
269.145	238.44
269.377	255.44
269.609	234.44
269.841	237.44
270.073	249.44
270.306	266.44
270.538	284.44
270.77	287.44
271.002	265.44
271.234	236.44
271.466	265.44
271.698	267.44
271.93	278.44
272.162	277.44
272.394	271.44
272.626	251.44
272.858	267.44
273.09	249.44
273.322	244.44
273.553	230.44
273.785	211.44
274.017	236.44
274.249	225.44
274.481	228.44
274.713	225.44
274.945	250.44
275.176	229.44
275.408	229.44
275.64	231.44
275.872	235.44
276.104	226.44
276.335	248.44
276.567	234.44
276.799	243.44
277.031	253.44
277.262	281.44
277.494	270.44
277.726	262.44
277.957	241.44
278.189	215.44
278.421	238.44
278.652	223.44
278.884	229.44
279.115	208.44
279.347	233.44
279.579	242.44
279.81	234.44
280.042	221.44
280.273	229.44
280.505	238.44
280.736	234.44
280.968	216.44
281.199	216.44
281.431	229.44
281.662	237.44
281.894	228.44
282.125	243.44
282.356	247.44
282.588	249.44
282.819	249.44
283.051	235.44
283.282	213.44
283.513	228.44
283.745	234.44
283.976	237.44
284.207	243.44
284.439	237.44
284.67	250.44
284.901	242.44
285.132	248.44
285.364	238.44
285.595	248.44
285.826	230.44
286.057	230.44
286.288	225.44
286.52	225.44
286.751	238.44
286.982	241.44
287.213	254.44
287.444	229.44
287.675	222.44
287.906	237.44
288.138	241.44
288.369	256.44
288.6	250.44
288.831	273.44
289.062	252.44
289.293	242.44
289.524	250.44
289.755	259.44
289.986	239.44
290.217	252.44
290.448	250.44
290.679	248.44
290.91	253.44
291.141	239.44
291.371	237.44
291.602	242.44
291.833	239.44
292.064	247.44
292.295	231.44
292.526	235.44
292.757	245.44
292.987	247.44
293.218	247.44
293.449	248.44
293.68	236.44
293.91	248.44
294.141	254.44
294.372	241.44
294.603	236.44
294.833	250.44
295.064	242.44
295.295	228.44
295.525	245.44
295.756	242.44
295.987	246.44
296.217	283.44
296.448	266.44
296.679	260.44
296.909	244.44
297.14	258.44
297.37	253.44
297.601	256.44
297.831	239.44
298.062	259.44
298.292	261.44
298.523	259.44
298.753	246.44
298.984	254.44
299.214	250.44
299.445	246.44
299.675	258.44
299.905	277.44
300.136	273.44
300.366	249.44
300.597	258.44
300.827	265.44
301.057	262.44
301.288	276.44
301.518	269.44
301.748	274.44
301.979	275.44
302.209	265.44
302.439	266.44
302.669	274.44
302.9	278.44
303.13	284.44
303.36	275.44
303.59	247.44
303.82	285.44
304.051	277.44
304.281	285.44
304.511	265.44
304.741	267.44
304.971	271.44
305.201	266.44
305.431	265.44
305.661	275.44
305.891	260.44
306.121	263.44
306.352	276.44
306.582	273.44
306.812	277.44
307.042	283.44
307.272	274.44
307.502	280.44
307.731	292.44
307.961	267.44
308.191	284.44
308.421	289.44
308.651	287.44
308.881	290.44
309.111	275.44
309.341	270.44
309.571	300.44
309.8	311.44
310.03	319.44
310.26	315.44
310.49	318.44
310.72	311.44
310.949	336.44
311.179	340.44
311.409	305.44
311.639	307.44
311.868	321.44
312.098	329.44
312.328	321.44
312.557	323.44
312.787	335.44
313.017	343.44
313.246	314.44
313.476	319.44
313.706	320.44
313.935	313.44
314.165	327.44
314.394	347.44
314.624	336.44
314.853	334.44
315.083	305.44
315.312	323.44
315.542	312.44
315.771	310.44
316.001	317.44
316.23	325.44
316.46	292.44
316.689	317.44
316.919	317.44
317.148	339.44
317.377	341.44
317.607	313.44
317.836	342.44
318.065	318.44
318.295	306.44
318.524	312.44
318.753	328.44
318.983	335.44
319.212	308.44
319.441	323.44
319.67	322.44
319.9	329.44
320.129	336.44
320.358	321.44
320.587	326.44
320.816	323.44
321.046	315.44
321.275	340.44
321.504	341.44
321.733	319.44
321.962	335.44
322.191	348.44
322.42	341.44
322.649	376.44
322.878	389.44
323.108	389.44
323.337	396.44
323.566	427.44
323.795	462.44
324.024	488.44
324.253	575.44
324.482	821.44
324.71	1213.44
324.939	1723.44
325.168	1502.44
325.397	809.44
325.626	565.44
325.855	463.44
326.084	429.44
326.313	422.44
326.542	425.44
326.77	470.44
326.999	549.44
327.228	693.44
327.457	1103.44
327.686	1313.44
327.914	921.44
328.143	635.44
328.372	524.44
328.6	529.44
328.829	464.44
329.058	492.44
329.287	507.44
329.515	462.44
329.744	438.44
329.972	428.44
330.201	441.44
330.43	473.44
330.658	482.44
330.887	518.44
331.115	527.44
331.344	438.44
331.572	420.44
331.801	429.44
332.03	414.44
332.258	397.44
332.486	368.44
332.715	383.44
332.943	363.44
333.172	375.44
333.4	376.44
333.629	389.44
333.857	385.44
334.085	388.44
334.314	407.44
334.542	441.44
334.771	448.44
334.999	410.44
335.227	413.44
335.455	379.44
335.684	373.44
335.912	372.44
336.14	360.44
336.369	392.44
336.597	398.44
336.825	375.44
337.053	381.44
337.281	370.44
337.51	377.44
337.738	380.44
337.966	375.44
338.194	373.44
338.422	392.44
338.65	359.44
338.878	373.44
339.106	365.44
339.334	375.44
339.562	371.44
339.79	357.44
340.018	369.44
340.246	376.44
340.474	355.44
340.702	360.44
340.93	362.44
341.158	365.44
341.386	374.44
341.614	371.44
341.842	377.44
342.07	370.44
342.298	370.44
342.526	346.44
342.754	366.44
342.981	353.44
343.209	348.44
343.437	378.44
343.665	358.44
343.893	379.44
344.12	357.44
344.348	375.44
344.576	385.44
344.804	377.44
345.031	392.44
345.259	385.44
345.487	373.44
345.714	373.44
345.942	351.44
346.17	363.44
346.397	359.44
346.625	338.44
346.853	360.44
347.08	357.44
347.308	350.44
347.535	357.44
347.763	378.44
347.99	379.44
348.218	372.44
348.445	375.44
348.673	383.44
348.9	385.44
349.128	379.44
349.355	347.44
349.583	350.44
349.81	363.44
350.037	341.44
350.265	341.44
350.492	366.44
350.72	366.44
350.947	369.44
351.174	371.44
351.402	379.44
351.629	386.44
351.856	361.44
352.083	362.44
352.311	366.44
352.538	382.44
352.765	362.44
352.992	389.44
353.22	373.44
353.447	371.44
353.674	364.44
353.901	350.44
354.128	362.44
354.355	348.44
354.583	340.44
354.81	354.44
355.037	341.44
355.264	349.44
355.491	358.44
355.718	354.44
355.945	344.44
356.172	360.44
356.399	349.44
356.626	357.44
356.853	346.44
357.08	333.44
357.307	344.44
357.534	338.44
357.761	325.44
357.988	342.44
358.215	345.44
358.441	334.44
358.668	323.44
358.895	372.44
359.122	362.44
359.349	348.44
359.576	364.44
359.802	401.44
360.029	387.44
360.256	425.44
360.483	393.44
360.709	381.44
360.936	382.44
361.163	337.44
361.39	369.44
361.616	386.44
361.843	367.44
362.07	357.44
362.296	376.44
362.523	379.44
362.749	365.44
362.976	373.44
363.203	364.44
363.429	366.44
363.656	357.44
363.882	346.44
364.109	375.44
364.335	375.44
364.562	364.44
364.788	365.44
365.015	353.44
365.241	356.44
365.468	339.44
365.694	355.44
365.92	378.44
366.147	377.44
366.373	349.44
366.599	356.44
366.826	337.44
367.052	372.44
367.278	343.44
367.505	367.44
367.731	364.44
367.957	372.44
368.184	371.44
368.41	375.44
368.636	360.44
368.862	375.44
369.089	358.44
369.315	375.44
369.541	353.44
369.767	353.44
369.993	370.44
370.219	355.44
370.445	364.44
370.672	367.44
370.898	364.44
371.124	363.44
371.35	364.44
371.576	351.44
371.802	379.44
372.028	363.44
372.254	371.44
372.48	350.44
372.706	366.44
372.932	361.44
373.158	365.44
373.384	362.44
373.61	369.44
373.835	353.44
374.061	369.44
374.287	379.44
374.513	373.44
374.739	371.44
374.965	361.44
375.191	369.44
375.416	354.44
375.642	353.44
375.868	385.44
376.094	360.44
376.319	373.44
376.545	372.44
376.771	378.44
376.997	374.44
377.222	376.44
377.448	369.44
377.674	375.44
377.899	365.44
378.125	357.44
378.35	362.44
378.576	364.44
378.802	362.44
379.027	381.44
379.253	385.44
379.478	380.44
379.704	379.44
379.929	361.44
380.155	355.44
380.38	367.44
380.606	371.44
380.831	361.44
381.057	373.44
381.282	373.44
381.507	372.44
381.733	360.44
381.958	357.44
382.184	370.44
382.409	379.44
382.634	374.44
382.86	364.44
383.085	365.44
383.31	379.44
383.535	385.44
383.761	394.44
383.986	393.44
384.211	390.44
384.436	369.44
384.662	377.44
384.887	380.44
385.112	400.44
385.337	404.44
385.562	397.44
385.787	382.44
386.013	405.44
386.238	402.44
386.463	413.44
386.688	406.44
386.913	392.44
387.138	382.44
387.363	398.44
387.588	410.44
387.813	400.44
388.038	414.44
388.263	399.44
388.488	399.44
388.713	426.44
388.938	377.44
389.163	406.44
389.387	389.44
389.612	390.44
389.837	389.44
390.062	392.44
390.287	385.44
390.512	400.44
390.736	378.44
390.961	399.44
391.186	383.44
391.411	389.44
391.636	392.44
391.86	417.44
392.085	390.44
392.31	407.44
392.534	414.44
392.759	396.44
392.984	412.44
393.208	419.44
393.433	413.44
393.658	409.44
393.882	414.44
394.107	389.44
394.331	402.44
394.556	384.44
394.78	400.44
395.005	403.44
395.229	407.44
395.454	421.44
395.678	427.44
395.903	406.44
396.127	452.44
396.352	439.44
396.576	415.44
396.801	422.44
397.025	418.44
397.249	416.44
397.474	447.44
397.698	436.44
397.922	437.44
398.147	453.44
398.371	451.44
398.595	427.44
398.82	442.44
399.044	430.44
399.268	437.44
399.492	461.44
399.717	474.44
399.941	517.44
400.165	543.44
400.389	555.44
400.613	478.44
400.837	466.44
401.062	467.44
401.286	450.44
401.51	474.44
401.734	467.44
401.958	444.44
402.182	451.44
402.406	479.44
402.63	463.44
402.854	467.44
403.078	433.44
403.302	469.44
403.526	478.44
403.75	451.44
403.974	468.44
404.198	458.44
404.422	486.44
404.645	465.44
404.869	470.44
405.093	515.44
405.317	527.44
405.541	556.44
405.765	550.44
405.988	497.44
406.212	510.44
406.436	503.44
406.66	540.44
406.883	508.44
407.107	527.44
407.331	543.44
407.555	600.44
407.778	602.44
408.002	557.44
408.226	504.44
408.449	558.44
408.673	499.44
408.896	545.44
409.12	568.44
409.344	549.44
409.567	504.44
409.791	476.44
410.014	488.44
410.238	471.44
410.461	484.44
410.685	489.44
410.908	504.44
411.132	515.44
411.355	545.44
411.578	548.44
411.802	509.44
412.025	482.44
412.249	469.44
412.472	515.44
412.695	533.44
412.919	532.44
413.142	498.44
413.365	465.44
413.589	472.44
413.812	480.44
414.035	474.44
414.258	461.44
414.482	452.44
414.705	446.44
414.928	449.44
415.151	458.44
415.374	450.44
415.597	463.44
415.821	453.44
416.044	452.44
416.267	439.44
416.49	444.44
416.713	454.44
416.936	448.44
417.159	466.44
417.382	460.44
417.605	477.44
417.828	433.44
418.051	455.44
418.274	475.44
418.497	443.44
418.72	449.44
418.943	465.44
419.166	488.44
419.389	508.44
419.611	489.44
419.834	474.44
420.057	465.44
420.28	475.44
420.503	453.44
420.726	468.44
420.948	478.44
421.171	531.44
421.394	568.44
421.617	506.44
421.839	467.44
422.062	475.44
422.285	513.44
422.507	537.44
422.73	604.44
422.953	601.44
423.175	537.44
423.398	517.44
423.621	479.44
423.843	524.44
424.066	518.44
424.288	536.44
424.511	549.44
424.733	583.44
424.956	661.44
425.178	609.44
425.401	601.44
425.623	645.44
425.846	550.44
426.068	532.44
426.291	517.44
426.513	522.44
426.735	529.44
426.958	557.44
427.18	652.44
427.402	740.44
427.625	802.44
427.847	742.44
428.069	650.44
428.292	567.44
428.514	547.44
428.736	494.44
428.958	499.44
429.181	481.44
429.403	488.44
429.625	486.44
429.847	528.44
430.069	589.44
430.292	600.44
430.514	539.44
430.736	485.44
430.958	485.44
431.18	461.44
431.402	471.44
431.624	442.44
431.846	437.44
432.068	469.44
432.29	471.44
432.512	480.44
432.734	478.44
432.956	457.44
433.178	492.44
433.4	472.44
433.622	474.44
433.844	487.44
434.066	481.44
434.287	467.44
434.509	473.44
434.731	483.44
434.953	469.44
435.175	469.44
435.397	493.44
435.618	526.44
435.84	558.44
436.062	637.44
436.284	712.44
436.505	618.44
436.727	539.44
436.949	502.44
437.17	500.44
437.392	497.44
437.614	517.44
437.835	527.44
438.057	620.44
438.278	715.44
438.5	699.44
438.721	754.44
438.943	726.44
439.165	613.44
439.386	549.44
439.608	533.44
439.829	549.44
440.05	573.44
440.272	591.44
440.493	571.44
440.715	538.44
440.936	492.44
441.158	489.44
441.379	519.44
441.6	497.44
441.822	534.44
442.043	563.44
442.264	612.44
442.486	675.44
442.707	580.44
442.928	540.44
443.149	540.44
443.371	565.44
443.592	606.44
443.813	664.44
444.034	745.44
444.255	603.44
444.476	565.44
444.698	505.44
444.919	541.44
445.14	647.44
445.361	596.44
445.582	551.44
445.803	609.44
446.024	717.44
446.245	723.44
446.466	663.44
446.687	575.44
446.908	542.44
447.129	527.44
447.35	498.44
447.571	499.44
447.792	489.44
448.013	504.44
448.234	527.44
448.455	571.44
448.675	649.44
448.896	754.44
449.117	635.44
449.338	626.44
449.559	725.44
449.779	793.44
450	646.44
450.221	561.44
450.442	507.44
450.662	500.44
450.883	502.44
451.104	501.44
451.324	492.44
451.545	467.44
451.766	451.44
451.986	436.44
452.207	427.44
452.428	420.44
452.648	445.44
452.869	443.44
453.089	453.44
453.31	456.44
453.53	437.44
453.751	430.44
453.971	452.44
454.192	453.44
454.412	433.44
454.633	433.44
454.853	446.44
455.073	425.44
455.294	463.44
455.514	536.44
455.734	488.44
455.955	427.44
456.175	415.44
456.395	429.44
456.616	427.44
456.836	427.44
457.056	413.44
457.276	414.44
457.497	414.44
457.717	396.44
457.937	399.44
458.157	439.44
458.377	429.44
458.598	466.44
458.818	479.44
459.038	574.44
459.258	571.44
459.478	522.44
459.698	468.44
459.918	443.44
460.138	462.44
460.358	465.44
460.578	479.44
460.798	481.44
461.018	475.44
461.238	471.44
461.458	466.44
461.678	457.44
461.898	482.44
462.118	461.44
462.338	451.44
462.558	467.44
462.777	467.44
462.997	467.44
463.217	486.44
463.437	491.44
463.657	489.44
463.876	497.44
464.096	481.44
464.316	487.44
464.536	493.44
464.755	486.44
464.975	493.44
465.195	518.44
465.414	607.44
465.634	538.44
465.854	485.44
466.073	463.44
466.293	479.44
466.512	450.44
466.732	452.44
466.951	444.44
467.171	444.44
467.391	460.44
467.61	445.44
467.829	484.44
468.049	462.44
468.268	461.44
468.488	449.44
468.707	460.44
468.927	426.44
469.146	436.44
469.365	421.44
469.585	446.44
469.804	475.44
470.023	489.44
470.243	447.44
470.462	465.44
470.681	469.44
470.901	484.44
471.12	464.44
471.339	451.44
471.558	470.44
471.777	459.44
471.997	453.44
472.216	445.44
472.435	492.44
472.654	483.44
472.873	463.44
473.092	447.44
473.311	450.44
473.53	467.44
473.749	469.44
473.968	518.44
474.187	574.44
474.406	616.44
474.625	521.44
474.844	474.44
475.063	470.44
475.282	492.44
475.501	462.44
475.72	461.44
475.939	463.44
476.158	473.44
476.377	476.44
476.596	464.44
476.814	486.44
477.033	473.44
477.252	500.44
477.471	494.44
477.69	493.44
477.908	515.44
478.127	513.44
478.346	496.44
478.564	495.44
478.783	485.44
479.002	531.44
479.22	518.44
479.439	530.44
479.658	542.44
479.876	542.44
480.095	538.44
480.313	560.44
480.532	573.44
480.751	576.44
480.969	570.44
481.188	620.44
481.406	631.44
481.624	583.44
481.843	551.44
482.061	555.44
482.28	548.44
482.498	561.44
482.717	552.44
482.935	545.44
483.153	543.44
483.372	566.44
483.59	541.44
483.808	547.44
484.027	536.44
484.245	543.44
484.463	557.44
484.681	554.44
484.9	551.44
485.118	563.44
485.336	555.44
485.554	567.44
485.772	559.44
485.99	547.44
486.209	586.44
486.427	559.44
486.645	575.44
486.863	585.44
487.081	593.44
487.299	575.44
487.517	589.44
487.735	594.44
487.953	606.44
488.171	575.44
488.389	626.44
488.607	582.44
488.825	599.44
489.043	592.44
489.261	619.44
489.479	583.44
489.696	610.44
489.914	591.44
490.132	592.44
490.35	614.44
490.568	611.44
490.786	643.44
491.003	642.44
491.221	650.44
491.439	652.44
491.657	665.44
491.874	703.44
492.092	691.44
492.31	687.44
492.527	700.44
492.745	667.44
492.963	692.44
493.18	709.44
493.398	721.44
493.615	724.44
493.833	696.44
494.05	709.44
494.268	717.44
494.485	717.44
494.703	715.44
494.92	716.44
495.138	695.44
495.355	724.44
495.573	689.44
495.79	710.44
496.008	710.44
496.225	723.44
496.442	721.44
496.66	695.44
496.877	717.44
497.094	714.44
497.312	704.44
497.529	731.44
497.746	730.44
497.963	757.44
498.181	744.44
498.398	769.44
498.615	777.44
498.832	772.44
499.049	793.44
499.267	795.44
499.484	825.44
499.701	819.44
499.918	869.44
500.135	874.44
500.352	906.44
500.569	907.44
500.786	928.44
501.003	901.44
501.22	914.44
501.437	853.44
501.654	863.44
501.871	838.44
502.088	838.44
