Data from 1970.PennyLincolnUp.Lamp.En5.5.200Scan.071719.P1._HRD10591_15-13-18-844.txt Node
Date: Thu Jul 18 15:13:18 EDT 2019
User: cochatt
Spectrometer: HR+D1059
Trigger mode: 1
Integration Time (sec): 1.000000E-1
Scans to average: 1
Electric dark correction enabled: true
Nonlinearity correction enabled: false
Boxcar width: 0
XAxis mode: Wavelengths
Number of Pixels in Spectrum: 2048
>>>>>Begin Spectral Data<<<<<
223.165	-8.62
223.4	-8.62
223.635	-8.62
223.869	-19.62
224.104	-20.62
224.338	-8.62
224.573	-8.62
224.808	-12.62
225.042	-13.62
225.277	0.38
225.511	5.38
225.746	-9.62
225.98	4.38
226.215	16.38
226.449	7.38
226.683	21.38
226.918	19.38
227.152	27.38
227.387	27.38
227.621	32.38
227.856	34.38
228.09	48.38
228.324	44.38
228.559	64.38
228.793	60.38
229.027	89.38
229.262	93.38
229.496	109.38
229.73	125.38
229.964	145.38
230.199	112.38
230.433	118.38
230.667	102.38
230.901	106.38
231.136	109.38
231.37	106.38
231.604	104.38
231.838	113.38
232.072	101.38
232.306	119.38
232.541	105.38
232.775	94.38
233.009	108.38
233.243	122.38
233.477	116.38
233.711	112.38
233.945	114.38
234.179	109.38
234.413	116.38
234.647	106.38
234.881	90.38
235.115	90.38
235.349	132.38
235.583	107.38
235.817	116.38
236.051	121.38
236.285	123.38
236.519	123.38
236.753	114.38
236.987	140.38
237.221	148.38
237.455	205.38
237.689	168.38
237.922	138.38
238.156	131.38
238.39	114.38
238.624	137.38
238.858	119.38
239.091	109.38
239.325	108.38
239.559	111.38
239.793	131.38
240.027	136.38
240.26	142.38
240.494	146.38
240.728	136.38
240.961	146.38
241.195	132.38
241.429	128.38
241.662	130.38
241.896	128.38
242.13	137.38
242.363	136.38
242.597	127.38
242.83	149.38
243.064	140.38
243.298	138.38
243.531	132.38
243.765	135.38
243.998	135.38
244.232	128.38
244.465	123.38
244.699	136.38
244.932	138.38
245.166	138.38
245.399	142.38
245.633	134.38
245.866	135.38
246.099	146.38
246.333	128.38
246.566	145.38
246.8	144.38
247.033	147.38
247.266	157.38
247.5	149.38
247.733	180.38
247.966	155.38
248.2	172.38
248.433	184.38
248.666	160.38
248.899	166.38
249.133	182.38
249.366	183.38
249.599	191.38
249.832	180.38
250.066	166.38
250.299	168.38
250.532	185.38
250.765	193.38
250.998	199.38
251.231	237.38
251.465	213.38
251.698	190.38
251.931	196.38
252.164	182.38
252.397	189.38
252.63	186.38
252.863	184.38
253.096	201.38
253.329	204.38
253.562	213.38
253.795	213.38
254.028	206.38
254.261	195.38
254.494	204.38
254.727	245.38
254.96	248.38
255.193	252.38
255.426	240.38
255.659	220.38
255.892	220.38
256.124	223.38
256.357	230.38
256.59	216.38
256.823	211.38
257.056	189.38
257.289	194.38
257.521	198.38
257.754	178.38
257.987	191.38
258.22	202.38
258.452	195.38
258.685	212.38
258.918	184.38
259.151	202.38
259.383	196.38
259.616	192.38
259.849	197.38
260.081	224.38
260.314	208.38
260.547	229.38
260.779	222.38
261.012	217.38
261.244	216.38
261.477	209.38
261.71	186.38
261.942	212.38
262.175	203.38
262.407	220.38
262.64	192.38
262.872	184.38
263.105	202.38
263.337	202.38
263.57	206.38
263.802	198.38
264.035	199.38
264.267	198.38
264.499	206.38
264.732	205.38
264.964	165.38
265.197	180.38
265.429	187.38
265.661	188.38
265.894	183.38
266.126	193.38
266.358	189.38
266.591	195.38
266.823	186.38
267.055	178.38
267.287	193.38
267.52	194.38
267.752	206.38
267.984	185.38
268.216	187.38
268.448	200.38
268.681	212.38
268.913	229.38
269.145	220.38
269.377	229.38
269.609	246.38
269.841	220.38
270.073	238.38
270.306	260.38
270.538	266.38
270.77	280.38
271.002	252.38
271.234	240.38
271.466	259.38
271.698	268.38
271.93	278.38
272.162	278.38
272.394	254.38
272.626	254.38
272.858	265.38
273.09	239.38
273.322	242.38
273.553	233.38
273.785	218.38
274.017	218.38
274.249	234.38
274.481	245.38
274.713	228.38
274.945	232.38
275.176	223.38
275.408	215.38
275.64	220.38
275.872	211.38
276.104	229.38
276.335	213.38
276.567	226.38
276.799	222.38
277.031	256.38
277.262	262.38
277.494	266.38
277.726	246.38
277.957	244.38
278.189	247.38
278.421	227.38
278.652	240.38
278.884	237.38
279.115	233.38
279.347	217.38
279.579	233.38
279.81	228.38
280.042	225.38
280.273	223.38
280.505	214.38
280.736	225.38
280.968	219.38
281.199	218.38
281.431	210.38
281.662	226.38
281.894	220.38
282.125	220.38
282.356	217.38
282.588	237.38
282.819	265.38
283.051	237.38
283.282	230.38
283.513	233.38
283.745	242.38
283.976	228.38
284.207	241.38
284.439	238.38
284.67	222.38
284.901	230.38
285.132	213.38
285.364	228.38
285.595	225.38
285.826	235.38
286.057	232.38
286.288	220.38
286.52	238.38
286.751	233.38
286.982	229.38
287.213	225.38
287.444	234.38
287.675	223.38
287.906	235.38
288.138	235.38
288.369	262.38
288.6	262.38
288.831	250.38
289.062	238.38
289.293	238.38
289.524	242.38
289.755	209.38
289.986	240.38
290.217	244.38
290.448	233.38
290.679	234.38
290.91	225.38
291.141	215.38
291.371	241.38
291.602	243.38
291.833	244.38
292.064	235.38
292.295	238.38
292.526	234.38
292.757	240.38
292.987	253.38
293.218	249.38
293.449	248.38
293.68	263.38
293.91	245.38
294.141	226.38
294.372	235.38
294.603	244.38
294.833	246.38
295.064	243.38
295.295	245.38
295.525	250.38
295.756	234.38
295.987	256.38
296.217	245.38
296.448	269.38
296.679	262.38
296.909	248.38
297.14	236.38
297.37	245.38
297.601	249.38
297.831	251.38
298.062	229.38
298.292	246.38
298.523	251.38
298.753	251.38
298.984	258.38
299.214	236.38
299.445	242.38
299.675	238.38
299.905	240.38
300.136	242.38
300.366	250.38
300.597	252.38
300.827	267.38
301.057	246.38
301.288	283.38
301.518	262.38
301.748	262.38
301.979	268.38
302.209	273.38
302.439	278.38
302.669	280.38
302.9	261.38
303.13	273.38
303.36	281.38
303.59	273.38
303.82	280.38
304.051	289.38
304.281	271.38
304.511	259.38
304.741	271.38
304.971	270.38
305.201	292.38
305.431	285.38
305.661	276.38
305.891	264.38
306.121	279.38
306.352	275.38
306.582	288.38
306.812	269.38
307.042	269.38
307.272	257.38
307.502	287.38
307.731	274.38
307.961	276.38
308.191	250.38
308.421	260.38
308.651	262.38
308.881	285.38
309.111	293.38
309.341	277.38
309.571	292.38
309.8	299.38
310.03	302.38
310.26	293.38
310.49	289.38
310.72	301.38
310.949	344.38
311.179	328.38
311.409	321.38
311.639	310.38
311.868	310.38
312.098	293.38
312.328	299.38
312.557	332.38
312.787	342.38
313.017	308.38
313.246	328.38
313.476	318.38
313.706	299.38
313.935	314.38
314.165	331.38
314.394	320.38
314.624	314.38
314.853	311.38
315.083	318.38
315.312	290.38
315.542	323.38
315.771	313.38
316.001	311.38
316.23	320.38
316.46	312.38
316.689	309.38
316.919	316.38
317.148	329.38
317.377	306.38
317.607	296.38
317.836	325.38
318.065	314.38
318.295	305.38
318.524	336.38
318.753	313.38
318.983	319.38
319.212	297.38
319.441	313.38
319.67	320.38
319.9	305.38
320.129	298.38
320.358	319.38
320.587	308.38
320.816	324.38
321.046	320.38
321.275	328.38
321.504	332.38
321.733	321.38
321.962	325.38
322.191	341.38
322.42	348.38
322.649	347.38
322.878	341.38
323.108	367.38
323.337	389.38
323.566	393.38
323.795	438.38
324.024	453.38
324.253	557.38
324.482	768.38
324.71	1165.38
324.939	1658.38
325.168	1423.38
325.397	796.38
325.626	542.38
325.855	468.38
326.084	438.38
326.313	393.38
326.542	411.38
326.77	455.38
326.999	496.38
327.228	717.38
327.457	1020.38
327.686	1261.38
327.914	876.38
328.143	593.38
328.372	512.38
328.6	491.38
328.829	465.38
329.058	458.38
329.287	477.38
329.515	449.38
329.744	400.38
329.972	411.38
330.201	434.38
330.43	456.38
330.658	458.38
330.887	505.38
331.115	485.38
331.344	427.38
331.572	404.38
331.801	402.38
332.03	416.38
332.258	360.38
332.486	383.38
332.715	379.38
332.943	360.38
333.172	362.38
333.4	374.38
333.629	393.38
333.857	378.38
334.085	372.38
334.314	390.38
334.542	422.38
334.771	439.38
334.999	416.38
335.227	376.38
335.455	376.38
335.684	358.38
335.912	378.38
336.14	345.38
336.369	373.38
336.597	369.38
336.825	362.38
337.053	356.38
337.281	364.38
337.51	362.38
337.738	353.38
337.966	354.38
338.194	378.38
338.422	361.38
338.65	361.38
338.878	342.38
339.106	345.38
339.334	357.38
339.562	357.38
339.79	334.38
340.018	357.38
340.246	343.38
340.474	378.38
340.702	352.38
340.93	343.38
341.158	342.38
341.386	359.38
341.614	377.38
341.842	365.38
342.07	355.38
342.298	348.38
342.526	355.38
342.754	345.38
342.981	329.38
343.209	346.38
343.437	349.38
343.665	331.38
343.893	340.38
344.12	340.38
344.348	344.38
344.576	368.38
344.804	366.38
345.031	363.38
345.259	348.38
345.487	361.38
345.714	392.38
345.942	375.38
346.17	339.38
346.397	349.38
346.625	356.38
346.853	352.38
347.08	349.38
347.308	358.38
347.535	364.38
347.763	371.38
347.99	362.38
348.218	361.38
348.445	346.38
348.673	365.38
348.9	370.38
349.128	359.38
349.355	336.38
349.583	336.38
349.81	341.38
350.037	337.38
350.265	339.38
350.492	333.38
350.72	343.38
350.947	369.38
351.174	372.38
351.402	369.38
351.629	370.38
351.856	365.38
352.083	373.38
352.311	365.38
352.538	375.38
352.765	379.38
352.992	361.38
353.22	362.38
353.447	360.38
353.674	351.38
353.901	343.38
354.128	352.38
354.355	322.38
354.583	343.38
354.81	342.38
355.037	342.38
355.264	332.38
355.491	336.38
355.718	335.38
355.945	306.38
356.172	321.38
356.399	330.38
356.626	310.38
356.853	355.38
357.08	327.38
357.307	340.38
357.534	341.38
357.761	330.38
357.988	345.38
358.215	345.38
358.441	333.38
358.668	333.38
358.895	323.38
359.122	345.38
359.349	355.38
359.576	343.38
359.802	367.38
360.029	414.38
360.256	403.38
360.483	388.38
360.709	358.38
360.936	361.38
361.163	353.38
361.39	355.38
361.616	361.38
361.843	356.38
362.07	356.38
362.296	360.38
362.523	353.38
362.749	372.38
362.976	368.38
363.203	364.38
363.429	342.38
363.656	342.38
363.882	357.38
364.109	352.38
364.335	353.38
364.562	354.38
364.788	358.38
365.015	331.38
365.241	347.38
365.468	351.38
365.694	341.38
365.92	351.38
366.147	373.38
366.373	347.38
366.599	362.38
366.826	353.38
367.052	340.38
367.278	347.38
367.505	345.38
367.731	365.38
367.957	337.38
368.184	332.38
368.41	386.38
368.636	378.38
368.862	375.38
369.089	346.38
369.315	362.38
369.541	370.38
369.767	336.38
369.993	339.38
370.219	357.38
370.445	356.38
370.672	360.38
370.898	330.38
371.124	339.38
371.35	345.38
371.576	330.38
371.802	363.38
372.028	352.38
372.254	345.38
372.48	351.38
372.706	363.38
372.932	363.38
373.158	369.38
373.384	376.38
373.61	358.38
373.835	343.38
374.061	359.38
374.287	351.38
374.513	370.38
374.739	354.38
374.965	350.38
375.191	362.38
375.416	359.38
375.642	359.38
375.868	354.38
376.094	369.38
376.319	352.38
376.545	358.38
376.771	364.38
376.997	360.38
377.222	357.38
377.448	347.38
377.674	368.38
377.899	350.38
378.125	366.38
378.35	358.38
378.576	368.38
378.802	360.38
379.027	364.38
379.253	350.38
379.478	363.38
379.704	359.38
379.929	349.38
380.155	364.38
380.38	357.38
380.606	358.38
380.831	362.38
381.057	365.38
381.282	344.38
381.507	350.38
381.733	373.38
381.958	371.38
382.184	361.38
382.409	365.38
382.634	354.38
382.86	372.38
383.085	376.38
383.31	386.38
383.535	380.38
383.761	375.38
383.986	373.38
384.211	380.38
384.436	387.38
384.662	384.38
384.887	416.38
385.112	364.38
385.337	380.38
385.562	386.38
385.787	361.38
386.013	382.38
386.238	392.38
386.463	395.38
386.688	384.38
386.913	403.38
387.138	393.38
387.363	388.38
387.588	397.38
387.813	388.38
388.038	384.38
388.263	393.38
388.488	411.38
388.713	385.38
388.938	378.38
389.163	393.38
389.387	390.38
389.612	405.38
389.837	397.38
390.062	390.38
390.287	386.38
390.512	374.38
390.736	390.38
390.961	394.38
391.186	405.38
391.411	388.38
391.636	381.38
391.86	410.38
392.085	391.38
392.31	398.38
392.534	388.38
392.759	412.38
392.984	387.38
393.208	380.38
393.433	411.38
393.658	434.38
393.882	390.38
394.107	396.38
394.331	390.38
394.556	393.38
394.78	387.38
395.005	397.38
395.229	402.38
395.454	400.38
395.678	397.38
395.903	420.38
396.127	444.38
396.352	419.38
396.576	425.38
396.801	440.38
397.025	412.38
397.249	402.38
397.474	421.38
397.698	422.38
397.922	428.38
398.147	449.38
398.371	443.38
398.595	425.38
398.82	422.38
399.044	438.38
399.268	439.38
399.492	451.38
399.717	467.38
399.941	488.38
400.165	526.38
400.389	547.38
400.613	481.38
400.837	472.38
401.062	472.38
401.286	434.38
401.51	443.38
401.734	442.38
401.958	435.38
402.182	443.38
402.406	442.38
402.63	455.38
402.854	457.38
403.078	449.38
403.302	452.38
403.526	457.38
403.75	468.38
403.974	456.38
404.198	449.38
404.422	450.38
404.645	468.38
404.869	464.38
405.093	496.38
405.317	528.38
405.541	565.38
405.765	511.38
405.988	482.38
406.212	510.38
406.436	501.38
406.66	524.38
406.883	498.38
407.107	528.38
407.331	555.38
407.555	604.38
407.778	580.38
408.002	549.38
408.226	524.38
408.449	524.38
408.673	490.38
408.896	531.38
409.12	568.38
409.344	542.38
409.567	500.38
409.791	498.38
410.014	461.38
410.238	446.38
410.461	474.38
410.685	483.38
410.908	491.38
411.132	516.38
411.355	530.38
411.578	484.38
411.802	466.38
412.025	472.38
412.249	482.38
412.472	500.38
412.695	521.38
412.919	512.38
413.142	472.38
413.365	469.38
413.589	443.38
413.812	457.38
414.035	431.38
414.258	442.38
414.482	432.38
414.705	443.38
414.928	436.38
415.151	450.38
415.374	441.38
415.597	428.38
415.821	425.38
416.044	424.38
416.267	452.38
416.49	436.38
416.713	452.38
416.936	472.38
417.159	451.38
417.382	448.38
417.605	432.38
417.828	452.38
418.051	464.38
418.274	458.38
418.497	439.38
418.72	461.38
418.943	440.38
419.166	457.38
419.389	480.38
419.611	468.38
419.834	456.38
420.057	473.38
420.28	467.38
420.503	473.38
420.726	477.38
420.948	483.38
421.171	517.38
421.394	541.38
421.617	502.38
421.839	485.38
422.062	475.38
422.285	492.38
422.507	537.38
422.73	601.38
422.953	581.38
423.175	518.38
423.398	474.38
423.621	489.38
423.843	481.38
424.066	512.38
424.288	499.38
424.511	528.38
424.733	571.38
424.956	638.38
425.178	606.38
425.401	608.38
425.623	619.38
425.846	573.38
426.068	525.38
426.291	522.38
426.513	501.38
426.735	497.38
426.958	562.38
427.18	643.38
427.402	732.38
427.625	797.38
427.847	700.38
428.069	638.38
428.292	549.38
428.514	518.38
428.736	507.38
428.958	477.38
429.181	478.38
429.403	479.38
429.625	495.38
429.847	510.38
430.069	565.38
430.292	564.38
430.514	485.38
430.736	465.38
430.958	475.38
431.18	459.38
431.402	449.38
431.624	453.38
431.846	434.38
432.068	430.38
432.29	458.38
432.512	438.38
432.734	452.38
432.956	440.38
433.178	445.38
433.4	450.38
433.622	467.38
433.844	450.38
434.066	437.38
434.287	457.38
434.509	449.38
434.731	456.38
434.953	443.38
435.175	462.38
435.397	507.38
435.618	530.38
435.84	556.38
436.062	640.38
436.284	677.38
436.505	612.38
436.727	552.38
436.949	499.38
437.17	468.38
437.392	498.38
437.614	518.38
437.835	504.38
438.057	614.38
438.278	694.38
438.5	694.38
438.721	711.38
438.943	718.38
439.165	588.38
439.386	539.38
439.608	526.38
439.829	518.38
440.05	551.38
440.272	557.38
440.493	565.38
440.715	508.38
440.936	490.38
441.158	473.38
441.379	492.38
441.6	490.38
441.822	516.38
442.043	538.38
442.264	620.38
442.486	656.38
442.707	566.38
442.928	528.38
443.149	530.38
443.371	544.38
443.592	579.38
443.813	675.38
444.034	729.38
444.255	609.38
444.476	534.38
444.698	530.38
444.919	502.38
445.14	634.38
445.361	570.38
445.582	543.38
445.803	588.38
446.024	662.38
446.245	687.38
446.466	643.38
446.687	562.38
446.908	530.38
447.129	521.38
447.35	498.38
447.571	497.38
447.792	483.38
448.013	486.38
448.234	484.38
448.455	549.38
448.675	659.38
448.896	711.38
449.117	644.38
449.338	592.38
449.559	702.38
449.779	770.38
450	632.38
450.221	542.38
450.442	502.38
450.662	472.38
450.883	472.38
451.104	477.38
451.324	483.38
451.545	452.38
451.766	439.38
451.986	442.38
452.207	443.38
452.428	399.38
452.648	453.38
452.869	440.38
453.089	425.38
453.31	422.38
453.53	441.38
453.751	438.38
453.971	443.38
454.192	441.38
454.412	432.38
454.633	428.38
454.853	423.38
455.073	410.38
455.294	459.38
455.514	510.38
455.734	505.38
455.955	447.38
456.175	419.38
456.395	398.38
456.616	389.38
456.836	408.38
457.056	398.38
457.276	407.38
457.497	389.38
457.717	409.38
457.937	417.38
458.157	414.38
458.377	428.38
458.598	459.38
458.818	492.38
459.038	548.38
459.258	565.38
459.478	502.38
459.698	456.38
459.918	456.38
460.138	443.38
460.358	449.38
460.578	443.38
460.798	467.38
461.018	457.38
461.238	426.38
461.458	447.38
461.678	445.38
461.898	434.38
462.118	456.38
462.338	434.38
462.558	467.38
462.777	459.38
462.997	467.38
463.217	468.38
463.437	482.38
463.657	501.38
463.876	493.38
464.096	484.38
464.316	469.38
464.536	488.38
464.755	498.38
464.975	495.38
465.195	509.38
465.414	566.38
465.634	520.38
465.854	497.38
466.073	463.38
466.293	454.38
466.512	457.38
466.732	449.38
466.951	445.38
467.171	459.38
467.391	445.38
467.61	438.38
467.829	451.38
468.049	455.38
468.268	439.38
468.488	443.38
468.707	451.38
468.927	429.38
469.146	429.38
469.365	426.38
469.585	443.38
469.804	444.38
470.023	457.38
470.243	452.38
470.462	448.38
470.681	443.38
470.901	457.38
471.12	436.38
471.339	438.38
471.558	443.38
471.777	442.38
471.997	443.38
472.216	461.38
472.435	482.38
472.654	478.38
472.873	444.38
473.092	462.38
473.311	453.38
473.53	426.38
473.749	447.38
473.968	463.38
474.187	580.38
474.406	595.38
474.625	509.38
474.844	476.38
475.063	472.38
475.282	457.38
475.501	459.38
475.72	477.38
475.939	452.38
476.158	469.38
476.377	460.38
476.596	459.38
476.814	456.38
477.033	468.38
477.252	475.38
477.471	470.38
477.69	484.38
477.908	480.38
478.127	474.38
478.346	482.38
478.564	512.38
478.783	507.38
479.002	491.38
479.22	500.38
479.439	517.38
479.658	536.38
479.876	545.38
480.095	512.38
480.313	548.38
480.532	538.38
480.751	532.38
480.969	561.38
481.188	590.38
481.406	588.38
481.624	575.38
481.843	545.38
482.061	538.38
482.28	538.38
482.498	531.38
482.717	529.38
482.935	525.38
483.153	542.38
483.372	546.38
483.59	538.38
483.808	545.38
484.027	530.38
484.245	557.38
484.463	539.38
484.681	565.38
484.9	557.38
485.118	549.38
485.336	527.38
485.554	556.38
485.772	568.38
485.99	551.38
486.209	549.38
486.427	573.38
486.645	575.38
486.863	590.38
487.081	588.38
487.299	603.38
487.517	586.38
487.735	572.38
487.953	601.38
488.171	563.38
488.389	595.38
488.607	575.38
488.825	572.38
489.043	587.38
489.261	573.38
489.479	579.38
489.696	590.38
489.914	586.38
490.132	607.38
490.35	629.38
490.568	615.38
490.786	625.38
491.003	636.38
491.221	650.38
491.439	676.38
491.657	650.38
491.874	655.38
492.092	678.38
492.31	664.38
492.527	657.38
492.745	699.38
492.963	694.38
493.18	690.38
493.398	684.38
493.615	692.38
493.833	679.38
494.05	707.38
494.268	696.38
494.485	660.38
494.703	676.38
494.92	685.38
495.138	675.38
495.355	674.38
495.573	701.38
495.79	706.38
496.008	711.38
496.225	693.38
496.442	685.38
496.66	723.38
496.877	721.38
497.094	693.38
497.312	714.38
497.529	716.38
497.746	709.38
497.963	694.38
498.181	732.38
498.398	747.38
498.615	742.38
498.832	775.38
499.049	750.38
499.267	774.38
499.484	806.38
499.701	813.38
499.918	845.38
500.135	847.38
500.352	861.38
500.569	898.38
500.786	916.38
501.003	902.38
501.22	873.38
501.437	880.38
501.654	850.38
501.871	843.38
502.088	798.38
