Data from 1970.PennyLincolnUp.Lamp.En5.5.200Scan.071719.P1._HRD10591_15-15-13-841.txt Node
Date: Thu Jul 18 15:15:13 EDT 2019
User: cochatt
Spectrometer: HR+D1059
Trigger mode: 1
Integration Time (sec): 1.000000E-1
Scans to average: 1
Electric dark correction enabled: true
Nonlinearity correction enabled: false
Boxcar width: 0
XAxis mode: Wavelengths
Number of Pixels in Spectrum: 2048
>>>>>Begin Spectral Data<<<<<
223.165	-14.06
223.4	-14.06
223.635	-14.06
223.869	-13.06
224.104	-19.06
224.338	-13.06
224.573	-19.06
224.808	-20.06
225.042	-5.06
225.277	1.94
225.511	-4.06
225.746	2.94
225.98	4.94
226.215	22.94
226.449	14.94
226.683	12.94
226.918	15.94
227.152	30.94
227.387	26.94
227.621	38.94
227.856	49.94
228.09	53.94
228.324	47.94
228.559	60.94
228.793	59.94
229.027	108.94
229.262	122.94
229.496	142.94
229.73	155.94
229.964	164.94
230.199	147.94
230.433	145.94
230.667	125.94
230.901	126.94
231.136	118.94
231.37	126.94
231.604	124.94
231.838	122.94
232.072	119.94
232.306	120.94
232.541	120.94
232.775	130.94
233.009	128.94
233.243	128.94
233.477	134.94
233.711	120.94
233.945	121.94
234.179	136.94
234.413	126.94
234.647	116.94
234.881	117.94
235.115	134.94
235.349	130.94
235.583	138.94
235.817	132.94
236.051	129.94
236.285	138.94
236.519	139.94
236.753	135.94
236.987	162.94
237.221	222.94
237.455	273.94
237.689	211.94
237.922	158.94
238.156	177.94
238.39	160.94
238.624	145.94
238.858	145.94
239.091	142.94
239.325	142.94
239.559	129.94
239.793	126.94
240.027	157.94
240.26	163.94
240.494	175.94
240.728	190.94
240.961	162.94
241.195	165.94
241.429	130.94
241.662	159.94
241.896	157.94
242.13	126.94
242.363	161.94
242.597	155.94
242.83	159.94
243.064	149.94
243.298	160.94
243.531	152.94
243.765	163.94
243.998	154.94
244.232	146.94
244.465	165.94
244.699	155.94
244.932	166.94
245.166	158.94
245.399	161.94
245.633	161.94
245.866	162.94
246.099	148.94
246.333	184.94
246.566	194.94
246.8	181.94
247.033	182.94
247.266	185.94
247.5	170.94
247.733	174.94
247.966	204.94
248.2	193.94
248.433	182.94
248.666	191.94
248.899	210.94
249.133	228.94
249.366	238.94
249.599	234.94
249.832	219.94
250.066	196.94
250.299	227.94
250.532	217.94
250.765	233.94
250.998	251.94
251.231	267.94
251.465	250.94
251.698	249.94
251.931	232.94
252.164	215.94
252.397	233.94
252.63	222.94
252.863	234.94
253.096	255.94
253.329	270.94
253.562	258.94
253.795	270.94
254.028	285.94
254.261	267.94
254.494	284.94
254.727	293.94
254.96	319.94
255.193	321.94
255.426	283.94
255.659	271.94
255.892	257.94
256.124	275.94
256.357	271.94
256.59	251.94
256.823	267.94
257.056	241.94
257.289	230.94
257.521	229.94
257.754	232.94
257.987	230.94
258.22	239.94
258.452	237.94
258.685	216.94
258.918	246.94
259.151	245.94
259.383	249.94
259.616	239.94
259.849	259.94
260.081	286.94
260.314	293.94
260.547	299.94
260.779	275.94
261.012	265.94
261.244	263.94
261.477	237.94
261.71	253.94
261.942	258.94
262.175	265.94
262.407	260.94
262.64	238.94
262.872	240.94
263.105	240.94
263.337	239.94
263.57	224.94
263.802	240.94
264.035	238.94
264.267	246.94
264.499	217.94
264.732	231.94
264.964	226.94
265.197	238.94
265.429	241.94
265.661	246.94
265.894	257.94
266.126	221.94
266.358	236.94
266.591	247.94
266.823	233.94
267.055	242.94
267.287	250.94
267.52	256.94
267.752	262.94
267.984	242.94
268.216	237.94
268.448	262.94
268.681	262.94
268.913	262.94
269.145	286.94
269.377	307.94
269.609	298.94
269.841	303.94
270.073	293.94
270.306	302.94
270.538	355.94
270.77	352.94
271.002	350.94
271.234	330.94
271.466	342.94
271.698	360.94
271.93	357.94
272.162	362.94
272.394	360.94
272.626	343.94
272.858	328.94
273.09	314.94
273.322	306.94
273.553	303.94
273.785	290.94
274.017	289.94
274.249	288.94
274.481	279.94
274.713	281.94
274.945	286.94
275.176	280.94
275.408	275.94
275.64	298.94
275.872	280.94
276.104	294.94
276.335	283.94
276.567	305.94
276.799	308.94
277.031	340.94
277.262	345.94
277.494	348.94
277.726	331.94
277.957	331.94
278.189	298.94
278.421	305.94
278.652	288.94
278.884	301.94
279.115	299.94
279.347	279.94
279.579	273.94
279.81	282.94
280.042	269.94
280.273	318.94
280.505	292.94
280.736	295.94
280.968	269.94
281.199	286.94
281.431	278.94
281.662	282.94
281.894	265.94
282.125	260.94
282.356	293.94
282.588	319.94
282.819	327.94
283.051	316.94
283.282	276.94
283.513	290.94
283.745	279.94
283.976	289.94
284.207	290.94
284.439	285.94
284.67	276.94
284.901	298.94
285.132	289.94
285.364	294.94
285.595	293.94
285.826	288.94
286.057	282.94
286.288	290.94
286.52	283.94
286.751	283.94
286.982	319.94
287.213	290.94
287.444	300.94
287.675	307.94
287.906	292.94
288.138	315.94
288.369	327.94
288.6	341.94
288.831	306.94
289.062	302.94
289.293	301.94
289.524	313.94
289.755	315.94
289.986	305.94
290.217	291.94
290.448	298.94
290.679	304.94
290.91	292.94
291.141	301.94
291.371	285.94
291.602	286.94
291.833	314.94
292.064	314.94
292.295	299.94
292.526	303.94
292.757	296.94
292.987	303.94
293.218	302.94
293.449	284.94
293.68	313.94
293.91	285.94
294.141	300.94
294.372	298.94
294.603	304.94
294.833	299.94
295.064	304.94
295.295	295.94
295.525	301.94
295.756	303.94
295.987	304.94
296.217	354.94
296.448	347.94
296.679	335.94
296.909	304.94
297.14	312.94
297.37	305.94
297.601	295.94
297.831	314.94
298.062	304.94
298.292	302.94
298.523	314.94
298.753	317.94
298.984	315.94
299.214	311.94
299.445	316.94
299.675	310.94
299.905	325.94
300.136	299.94
300.366	328.94
300.597	328.94
300.827	335.94
301.057	342.94
301.288	342.94
301.518	328.94
301.748	335.94
301.979	322.94
302.209	339.94
302.439	342.94
302.669	334.94
302.9	325.94
303.13	340.94
303.36	337.94
303.59	356.94
303.82	359.94
304.051	337.94
304.281	331.94
304.511	313.94
304.741	329.94
304.971	333.94
305.201	327.94
305.431	337.94
305.661	355.94
305.891	333.94
306.121	346.94
306.352	363.94
306.582	341.94
306.812	330.94
307.042	341.94
307.272	315.94
307.502	341.94
307.731	361.94
307.961	332.94
308.191	341.94
308.421	335.94
308.651	367.94
308.881	359.94
309.111	346.94
309.341	343.94
309.571	378.94
309.8	384.94
310.03	389.94
310.26	415.94
310.49	395.94
310.72	403.94
310.949	445.94
311.179	451.94
311.409	416.94
311.639	407.94
311.868	413.94
312.098	396.94
312.328	423.94
312.557	427.94
312.787	434.94
313.017	447.94
313.246	423.94
313.476	413.94
313.706	390.94
313.935	421.94
314.165	435.94
314.394	443.94
314.624	426.94
314.853	419.94
315.083	403.94
315.312	392.94
315.542	392.94
315.771	416.94
316.001	389.94
316.23	404.94
316.46	393.94
316.689	387.94
316.919	407.94
317.148	407.94
317.377	418.94
317.607	415.94
317.836	410.94
318.065	423.94
318.295	399.94
318.524	380.94
318.753	379.94
318.983	375.94
319.212	393.94
319.441	410.94
319.67	424.94
319.9	408.94
320.129	401.94
320.358	402.94
320.587	408.94
320.816	411.94
321.046	435.94
321.275	437.94
321.504	439.94
321.733	417.94
321.962	447.94
322.191	477.94
322.42	497.94
322.649	507.94
322.878	497.94
323.108	523.94
323.337	554.94
323.566	565.94
323.795	620.94
324.024	679.94
324.253	808.94
324.482	1198.94
324.71	1817.94
324.939	2573.94
325.168	2261.94
325.397	1205.94
325.626	797.94
325.855	656.94
326.084	589.94
326.313	581.94
326.542	567.94
326.77	632.94
326.999	767.94
327.228	1066.94
327.457	1589.94
327.686	1951.94
327.914	1287.94
328.143	890.94
328.372	777.94
328.6	715.94
328.829	646.94
329.058	674.94
329.287	694.94
329.515	641.94
329.744	613.94
329.972	588.94
330.201	617.94
330.43	651.94
330.658	701.94
330.887	726.94
331.115	702.94
331.344	601.94
331.572	564.94
331.801	563.94
332.03	559.94
332.258	533.94
332.486	498.94
332.715	497.94
332.943	481.94
333.172	510.94
333.4	505.94
333.629	524.94
333.857	517.94
334.085	514.94
334.314	541.94
334.542	589.94
334.771	612.94
334.999	552.94
335.227	517.94
335.455	498.94
335.684	472.94
335.912	481.94
336.14	472.94
336.369	478.94
336.597	483.94
336.825	503.94
337.053	465.94
337.281	474.94
337.51	458.94
337.738	450.94
337.966	465.94
338.194	477.94
338.422	480.94
338.65	456.94
338.878	458.94
339.106	453.94
339.334	461.94
339.562	449.94
339.79	441.94
340.018	463.94
340.246	453.94
340.474	470.94
340.702	461.94
340.93	454.94
341.158	464.94
341.386	442.94
341.614	482.94
341.842	472.94
342.07	467.94
342.298	452.94
342.526	470.94
342.754	457.94
342.981	464.94
343.209	418.94
343.437	451.94
343.665	444.94
343.893	478.94
344.12	476.94
344.348	462.94
344.576	464.94
344.804	461.94
345.031	457.94
345.259	510.94
345.487	467.94
345.714	489.94
345.942	462.94
346.17	452.94
346.397	446.94
346.625	454.94
346.853	450.94
347.08	437.94
347.308	449.94
347.535	466.94
347.763	478.94
347.99	469.94
348.218	466.94
348.445	464.94
348.673	493.94
348.9	455.94
349.128	454.94
349.355	438.94
349.583	424.94
349.81	437.94
350.037	442.94
350.265	432.94
350.492	454.94
350.72	447.94
350.947	439.94
351.174	452.94
351.402	482.94
351.629	458.94
351.856	469.94
352.083	468.94
352.311	488.94
352.538	515.94
352.765	506.94
352.992	485.94
353.22	473.94
353.447	472.94
353.674	450.94
353.901	451.94
354.128	432.94
354.355	442.94
354.583	421.94
354.81	430.94
355.037	429.94
355.264	427.94
355.491	412.94
355.718	411.94
355.945	422.94
356.172	425.94
356.399	410.94
356.626	425.94
356.853	422.94
357.08	403.94
357.307	413.94
357.534	418.94
357.761	433.94
357.988	440.94
358.215	407.94
358.441	429.94
358.668	450.94
358.895	430.94
359.122	434.94
359.349	467.94
359.576	459.94
359.802	495.94
360.029	543.94
360.256	540.94
360.483	526.94
360.709	489.94
360.936	459.94
361.163	464.94
361.39	460.94
361.616	471.94
361.843	483.94
362.07	486.94
362.296	471.94
362.523	471.94
362.749	459.94
362.976	465.94
363.203	465.94
363.429	465.94
363.656	443.94
363.882	454.94
364.109	434.94
364.335	428.94
364.562	449.94
364.788	450.94
365.015	462.94
365.241	465.94
365.468	440.94
365.694	463.94
365.92	448.94
366.147	459.94
366.373	429.94
366.599	442.94
366.826	453.94
367.052	424.94
367.278	457.94
367.505	454.94
367.731	443.94
367.957	445.94
368.184	449.94
368.41	456.94
368.636	443.94
368.862	454.94
369.089	455.94
369.315	451.94
369.541	444.94
369.767	435.94
369.993	428.94
370.219	419.94
370.445	448.94
370.672	426.94
370.898	423.94
371.124	423.94
371.35	431.94
371.576	421.94
371.802	441.94
372.028	437.94
372.254	440.94
372.48	438.94
372.706	429.94
372.932	441.94
373.158	429.94
373.384	460.94
373.61	414.94
373.835	458.94
374.061	443.94
374.287	455.94
374.513	447.94
374.739	435.94
374.965	454.94
375.191	438.94
375.416	450.94
375.642	449.94
375.868	443.94
376.094	469.94
376.319	446.94
376.545	426.94
376.771	443.94
376.997	422.94
377.222	443.94
377.448	449.94
377.674	436.94
377.899	427.94
378.125	440.94
378.35	435.94
378.576	426.94
378.802	432.94
379.027	459.94
379.253	428.94
379.478	452.94
379.704	412.94
379.929	435.94
380.155	451.94
380.38	461.94
380.606	451.94
380.831	454.94
381.057	446.94
381.282	425.94
381.507	450.94
381.733	417.94
381.958	443.94
382.184	430.94
382.409	455.94
382.634	427.94
382.86	446.94
383.085	450.94
383.31	456.94
383.535	446.94
383.761	443.94
383.986	468.94
384.211	461.94
384.436	439.94
384.662	461.94
384.887	475.94
385.112	455.94
385.337	478.94
385.562	468.94
385.787	472.94
386.013	479.94
386.238	462.94
386.463	465.94
386.688	471.94
386.913	481.94
387.138	453.94
387.363	468.94
387.588	465.94
387.813	482.94
388.038	473.94
388.263	459.94
388.488	473.94
388.713	462.94
388.938	458.94
389.163	505.94
389.387	474.94
389.612	472.94
389.837	468.94
390.062	482.94
390.287	497.94
390.512	456.94
390.736	468.94
390.961	487.94
391.186	492.94
391.411	487.94
391.636	473.94
391.86	496.94
392.085	489.94
392.31	477.94
392.534	470.94
392.759	494.94
392.984	486.94
393.208	483.94
393.433	482.94
393.658	492.94
393.882	473.94
394.107	487.94
394.331	496.94
394.556	449.94
394.78	485.94
395.005	474.94
395.229	483.94
395.454	488.94
395.678	478.94
395.903	496.94
396.127	535.94
396.352	536.94
396.576	509.94
396.801	473.94
397.025	494.94
397.249	497.94
397.474	521.94
397.698	515.94
397.922	524.94
398.147	529.94
398.371	551.94
398.595	522.94
398.82	506.94
399.044	528.94
399.268	553.94
399.492	576.94
399.717	600.94
399.941	605.94
400.165	655.94
400.389	684.94
400.613	624.94
400.837	573.94
401.062	561.94
401.286	552.94
401.51	560.94
401.734	547.94
401.958	561.94
402.182	537.94
402.406	562.94
402.63	551.94
402.854	559.94
403.078	545.94
403.302	560.94
403.526	580.94
403.75	577.94
403.974	568.94
404.198	561.94
404.422	584.94
404.645	563.94
404.869	559.94
405.093	620.94
405.317	663.94
405.541	703.94
405.765	630.94
405.988	610.94
406.212	604.94
406.436	626.94
406.66	675.94
406.883	639.94
407.107	671.94
407.331	703.94
407.555	755.94
407.778	758.94
408.002	697.94
408.226	653.94
408.449	632.94
408.673	622.94
408.896	669.94
409.12	690.94
409.344	680.94
409.567	606.94
409.791	598.94
410.014	583.94
410.238	584.94
410.461	570.94
410.685	593.94
410.908	609.94
411.132	639.94
411.355	674.94
411.578	660.94
411.802	601.94
412.025	581.94
412.249	579.94
412.472	631.94
412.695	664.94
412.919	666.94
413.142	605.94
413.365	572.94
413.589	542.94
413.812	561.94
414.035	550.94
414.258	539.94
414.482	518.94
414.705	541.94
414.928	536.94
415.151	543.94
415.374	540.94
415.597	538.94
415.821	507.94
416.044	555.94
416.267	534.94
416.49	525.94
416.713	525.94
416.936	556.94
417.159	531.94
417.382	573.94
417.605	559.94
417.828	578.94
418.051	575.94
418.274	587.94
418.497	558.94
418.72	584.94
418.943	572.94
419.166	562.94
419.389	579.94
419.611	603.94
419.834	583.94
420.057	594.94
420.28	576.94
420.503	560.94
420.726	594.94
420.948	584.94
421.171	638.94
421.394	671.94
421.617	601.94
421.839	582.94
422.062	586.94
422.285	640.94
422.507	695.94
422.73	753.94
422.953	709.94
423.175	658.94
423.398	611.94
423.621	618.94
423.843	642.94
424.066	625.94
424.288	638.94
424.511	636.94
424.733	719.94
424.956	806.94
425.178	783.94
425.401	810.94
425.623	800.94
425.846	701.94
426.068	657.94
426.291	641.94
426.513	635.94
426.735	649.94
426.958	693.94
427.18	783.94
427.402	933.94
427.625	1033.94
427.847	930.94
428.069	823.94
428.292	720.94
428.514	651.94
428.736	629.94
428.958	631.94
429.181	631.94
429.403	613.94
429.625	608.94
429.847	655.94
430.069	716.94
430.292	723.94
430.514	628.94
430.736	589.94
430.958	601.94
431.18	559.94
431.402	578.94
431.624	561.94
431.846	553.94
432.068	547.94
432.29	561.94
432.512	569.94
432.734	572.94
432.956	578.94
433.178	589.94
433.4	587.94
433.622	541.94
433.844	567.94
434.066	565.94
434.287	578.94
434.509	572.94
434.731	572.94
434.953	572.94
435.175	578.94
435.397	618.94
435.618	627.94
435.84	725.94
436.062	805.94
436.284	877.94
436.505	753.94
436.727	675.94
436.949	615.94
437.17	601.94
437.392	609.94
437.614	636.94
437.835	653.94
438.057	809.94
438.278	874.94
438.5	895.94
438.721	935.94
438.943	871.94
439.165	737.94
439.386	674.94
439.608	672.94
439.829	683.94
440.05	703.94
440.272	736.94
440.493	707.94
440.715	665.94
440.936	631.94
441.158	610.94
441.379	610.94
441.6	604.94
441.822	625.94
442.043	701.94
442.264	793.94
442.486	824.94
442.707	708.94
442.928	656.94
443.149	696.94
443.371	686.94
443.592	749.94
443.813	863.94
444.034	882.94
444.255	766.94
444.476	674.94
444.698	662.94
444.919	673.94
445.14	745.94
445.361	687.94
445.582	681.94
445.803	805.94
446.024	897.94
446.245	873.94
446.466	818.94
446.687	700.94
446.908	655.94
447.129	626.94
447.35	618.94
447.571	598.94
447.792	579.94
448.013	612.94
448.234	641.94
448.455	693.94
448.675	843.94
448.896	897.94
449.117	816.94
449.338	777.94
449.559	892.94
449.779	976.94
450	809.94
450.221	655.94
450.442	617.94
450.662	599.94
450.883	613.94
451.104	642.94
451.324	614.94
451.545	575.94
451.766	573.94
451.986	573.94
452.207	514.94
452.428	515.94
452.648	527.94
452.869	541.94
453.089	547.94
453.31	533.94
453.53	539.94
453.751	541.94
453.971	534.94
454.192	578.94
454.412	553.94
454.633	537.94
454.853	536.94
455.073	551.94
455.294	576.94
455.514	653.94
455.734	635.94
455.955	538.94
456.175	537.94
456.395	503.94
456.616	521.94
456.836	504.94
457.056	489.94
457.276	493.94
457.497	503.94
457.717	521.94
457.937	521.94
458.157	496.94
458.377	517.94
458.598	562.94
458.818	633.94
459.038	713.94
459.258	743.94
459.478	633.94
459.698	568.94
459.918	546.94
460.138	546.94
460.358	556.94
460.578	555.94
460.798	568.94
461.018	559.94
461.238	575.94
461.458	566.94
461.678	544.94
461.898	537.94
462.118	544.94
462.338	567.94
462.558	537.94
462.777	558.94
462.997	573.94
463.217	575.94
463.437	591.94
463.657	584.94
463.876	590.94
464.096	590.94
464.316	562.94
464.536	562.94
464.755	603.94
464.975	623.94
465.195	641.94
465.414	769.94
465.634	683.94
465.854	615.94
466.073	584.94
466.293	555.94
466.512	551.94
466.732	578.94
466.951	549.94
467.171	543.94
467.391	555.94
467.61	588.94
467.829	587.94
468.049	563.94
468.268	570.94
468.488	545.94
468.707	533.94
468.927	553.94
469.146	526.94
469.365	532.94
469.585	507.94
469.804	549.94
470.023	573.94
470.243	552.94
470.462	555.94
470.681	583.94
470.901	614.94
471.12	563.94
471.339	557.94
471.558	555.94
471.777	566.94
471.997	566.94
472.216	553.94
472.435	629.94
472.654	615.94
472.873	570.94
473.092	555.94
473.311	560.94
473.53	568.94
473.749	578.94
473.968	663.94
474.187	730.94
474.406	746.94
474.625	645.94
474.844	594.94
475.063	592.94
475.282	581.94
475.501	567.94
475.72	566.94
475.939	560.94
476.158	567.94
476.377	593.94
476.596	576.94
476.814	581.94
477.033	583.94
477.252	592.94
477.471	594.94
477.69	615.94
477.908	592.94
478.127	630.94
478.346	587.94
478.564	621.94
478.783	621.94
479.002	606.94
479.22	637.94
479.439	659.94
479.658	663.94
479.876	682.94
480.095	674.94
480.313	723.94
480.532	703.94
480.751	683.94
480.969	714.94
481.188	791.94
481.406	841.94
481.624	765.94
481.843	690.94
482.061	659.94
482.28	681.94
482.498	672.94
482.717	670.94
482.935	660.94
483.153	667.94
483.372	657.94
483.59	679.94
483.808	685.94
484.027	667.94
484.245	679.94
484.463	683.94
484.681	698.94
484.9	693.94
485.118	683.94
485.336	684.94
485.554	687.94
485.772	702.94
485.99	683.94
486.209	695.94
486.427	682.94
486.645	714.94
486.863	746.94
487.081	753.94
487.299	715.94
487.517	728.94
487.735	760.94
487.953	735.94
488.171	757.94
488.389	731.94
488.607	728.94
488.825	716.94
489.043	725.94
489.261	735.94
489.479	742.94
489.696	731.94
489.914	749.94
490.132	756.94
490.35	775.94
490.568	788.94
490.786	803.94
491.003	779.94
491.221	838.94
491.439	831.94
491.657	824.94
491.874	808.94
492.092	852.94
492.31	865.94
492.527	854.94
492.745	849.94
492.963	869.94
493.18	870.94
493.398	880.94
493.615	894.94
493.833	866.94
494.05	897.94
494.268	879.94
494.485	872.94
494.703	866.94
494.92	877.94
495.138	867.94
495.355	872.94
495.573	876.94
495.79	874.94
496.008	878.94
496.225	851.94
496.442	864.94
496.66	878.94
496.877	861.94
497.094	873.94
497.312	888.94
497.529	887.94
497.746	891.94
497.963	881.94
498.181	923.94
498.398	915.94
498.615	922.94
498.832	936.94
499.049	944.94
499.267	968.94
499.484	974.94
499.701	995.94
499.918	1027.94
500.135	1021.94
500.352	1053.94
500.569	1076.94
500.786	1075.94
501.003	1056.94
501.22	1077.94
501.437	1062.94
501.654	1046.94
