Data from 1970.PennyLincolnUp.Lamp.En5.5.200Scan.071719.P1._HRD10591_15-14-02-842.txt Node
Date: Thu Jul 18 15:14:02 EDT 2019
User: cochatt
Spectrometer: HR+D1059
Trigger mode: 1
Integration Time (sec): 1.000000E-1
Scans to average: 1
Electric dark correction enabled: true
Nonlinearity correction enabled: false
Boxcar width: 0
XAxis mode: Wavelengths
Number of Pixels in Spectrum: 2048
>>>>>Begin Spectral Data<<<<<
223.165	-9.31
223.4	-9.31
223.635	-9.31
223.869	-25.31
224.104	-17.31
224.338	-27.31
224.573	-6.31
224.808	-5.31
225.042	-9.31
225.277	-8.31
225.511	1.69
225.746	7.69
225.98	2.69
226.215	10.69
226.449	28.69
226.683	1.69
226.918	22.69
227.152	32.69
227.387	23.69
227.621	40.69
227.856	36.69
228.09	32.69
228.324	40.69
228.559	52.69
228.793	62.69
229.027	92.69
229.262	113.69
229.496	104.69
229.73	147.69
229.964	145.69
230.199	133.69
230.433	115.69
230.667	116.69
230.901	121.69
231.136	119.69
231.37	115.69
231.604	115.69
231.838	106.69
232.072	107.69
232.306	112.69
232.541	112.69
232.775	125.69
233.009	101.69
233.243	111.69
233.477	122.69
233.711	112.69
233.945	112.69
234.179	122.69
234.413	117.69
234.647	112.69
234.881	124.69
235.115	120.69
235.349	132.69
235.583	130.69
235.817	129.69
236.051	117.69
236.285	120.69
236.519	139.69
236.753	133.69
236.987	154.69
237.221	196.69
237.455	236.69
237.689	203.69
237.922	166.69
238.156	129.69
238.39	129.69
238.624	124.69
238.858	119.69
239.091	120.69
239.325	140.69
239.559	121.69
239.793	146.69
240.027	140.69
240.26	145.69
240.494	163.69
240.728	170.69
240.961	144.69
241.195	135.69
241.429	148.69
241.662	145.69
241.896	141.69
242.13	141.69
242.363	129.69
242.597	139.69
242.83	146.69
243.064	132.69
243.298	148.69
243.531	156.69
243.765	158.69
243.998	154.69
244.232	153.69
244.465	151.69
244.699	159.69
244.932	151.69
245.166	144.69
245.399	147.69
245.633	152.69
245.866	150.69
246.099	158.69
246.333	151.69
246.566	154.69
246.8	160.69
247.033	155.69
247.266	160.69
247.5	170.69
247.733	182.69
247.966	177.69
248.2	184.69
248.433	182.69
248.666	192.69
248.899	192.69
249.133	191.69
249.366	225.69
249.599	208.69
249.832	208.69
250.066	186.69
250.299	188.69
250.532	214.69
250.765	225.69
250.998	235.69
251.231	240.69
251.465	226.69
251.698	217.69
251.931	218.69
252.164	200.69
252.397	210.69
252.63	203.69
252.863	215.69
253.096	226.69
253.329	234.69
253.562	218.69
253.795	234.69
254.028	234.69
254.261	227.69
254.494	245.69
254.727	263.69
254.96	290.69
255.193	291.69
255.426	256.69
255.659	254.69
255.892	257.69
256.124	261.69
256.357	240.69
256.59	240.69
256.823	230.69
257.056	218.69
257.289	215.69
257.521	218.69
257.754	221.69
257.987	205.69
258.22	234.69
258.452	227.69
258.685	229.69
258.918	212.69
259.151	228.69
259.383	243.69
259.616	227.69
259.849	236.69
260.081	246.69
260.314	263.69
260.547	255.69
260.779	263.69
261.012	240.69
261.244	229.69
261.477	224.69
261.71	223.69
261.942	245.69
262.175	238.69
262.407	243.69
262.64	234.69
262.872	217.69
263.105	230.69
263.337	217.69
263.57	213.69
263.802	208.69
264.035	220.69
264.267	216.69
264.499	214.69
264.732	228.69
264.964	233.69
265.197	207.69
265.429	206.69
265.661	194.69
265.894	205.69
266.126	197.69
266.358	216.69
266.591	225.69
266.823	222.69
267.055	216.69
267.287	254.69
267.52	229.69
267.752	230.69
267.984	231.69
268.216	235.69
268.448	236.69
268.681	250.69
268.913	240.69
269.145	266.69
269.377	273.69
269.609	280.69
269.841	289.69
270.073	286.69
270.306	284.69
270.538	312.69
270.77	337.69
271.002	299.69
271.234	292.69
271.466	308.69
271.698	337.69
271.93	334.69
272.162	313.69
272.394	322.69
272.626	301.69
272.858	294.69
273.09	279.69
273.322	286.69
273.553	272.69
273.785	281.69
274.017	278.69
274.249	259.69
274.481	265.69
274.713	261.69
274.945	233.69
275.176	277.69
275.408	264.69
275.64	258.69
275.872	247.69
276.104	283.69
276.335	278.69
276.567	266.69
276.799	298.69
277.031	307.69
277.262	313.69
277.494	315.69
277.726	319.69
277.957	291.69
278.189	280.69
278.421	268.69
278.652	268.69
278.884	269.69
279.115	280.69
279.347	256.69
279.579	259.69
279.81	253.69
280.042	279.69
280.273	266.69
280.505	275.69
280.736	265.69
280.968	266.69
281.199	272.69
281.431	264.69
281.662	263.69
281.894	239.69
282.125	259.69
282.356	286.69
282.588	295.69
282.819	297.69
283.051	276.69
283.282	282.69
283.513	275.69
283.745	272.69
283.976	271.69
284.207	278.69
284.439	263.69
284.67	275.69
284.901	274.69
285.132	257.69
285.364	275.69
285.595	253.69
285.826	289.69
286.057	277.69
286.288	253.69
286.52	252.69
286.751	249.69
286.982	279.69
287.213	291.69
287.444	280.69
287.675	258.69
287.906	294.69
288.138	302.69
288.369	297.69
288.6	293.69
288.831	291.69
289.062	278.69
289.293	280.69
289.524	283.69
289.755	275.69
289.986	272.69
290.217	264.69
290.448	280.69
290.679	267.69
290.91	266.69
291.141	258.69
291.371	273.69
291.602	276.69
291.833	258.69
292.064	275.69
292.295	271.69
292.526	285.69
292.757	282.69
292.987	277.69
293.218	282.69
293.449	293.69
293.68	284.69
293.91	264.69
294.141	278.69
294.372	280.69
294.603	282.69
294.833	279.69
295.064	277.69
295.295	275.69
295.525	273.69
295.756	303.69
295.987	278.69
296.217	307.69
296.448	315.69
296.679	302.69
296.909	285.69
297.14	292.69
297.37	289.69
297.601	305.69
297.831	290.69
298.062	270.69
298.292	281.69
298.523	294.69
298.753	302.69
298.984	313.69
299.214	297.69
299.445	288.69
299.675	302.69
299.905	302.69
300.136	290.69
300.366	295.69
300.597	308.69
300.827	318.69
301.057	319.69
301.288	318.69
301.518	311.69
301.748	312.69
301.979	311.69
302.209	310.69
302.439	314.69
302.669	297.69
302.9	292.69
303.13	306.69
303.36	315.69
303.59	296.69
303.82	330.69
304.051	302.69
304.281	295.69
304.511	321.69
304.741	344.69
304.971	320.69
305.201	297.69
305.431	304.69
305.661	305.69
305.891	319.69
306.121	315.69
306.352	347.69
306.582	310.69
306.812	322.69
307.042	331.69
307.272	310.69
307.502	319.69
307.731	320.69
307.961	331.69
308.191	328.69
308.421	328.69
308.651	330.69
308.881	318.69
309.111	332.69
309.341	337.69
309.571	334.69
309.8	345.69
310.03	361.69
310.26	366.69
310.49	364.69
310.72	367.69
310.949	394.69
311.179	388.69
311.409	367.69
311.639	363.69
311.868	365.69
312.098	371.69
312.328	370.69
312.557	402.69
312.787	421.69
313.017	412.69
313.246	402.69
313.476	367.69
313.706	347.69
313.935	364.69
314.165	364.69
314.394	414.69
314.624	403.69
314.853	380.69
315.083	370.69
315.312	383.69
315.542	384.69
315.771	373.69
316.001	358.69
316.23	361.69
316.46	368.69
316.689	384.69
316.919	360.69
317.148	392.69
317.377	386.69
317.607	403.69
317.836	372.69
318.065	379.69
318.295	363.69
318.524	366.69
318.753	361.69
318.983	380.69
319.212	385.69
319.441	384.69
319.67	391.69
319.9	383.69
320.129	361.69
320.358	367.69
320.587	366.69
320.816	390.69
321.046	401.69
321.275	402.69
321.504	394.69
321.733	389.69
321.962	391.69
322.191	439.69
322.42	434.69
322.649	451.69
322.878	464.69
323.108	458.69
323.337	510.69
323.566	519.69
323.795	572.69
324.024	625.69
324.253	739.69
324.482	1041.69
324.71	1584.69
324.939	2238.69
325.168	1910.69
325.397	1050.69
325.626	692.69
325.855	594.69
326.084	540.69
326.313	523.69
326.542	521.69
326.77	581.69
326.999	676.69
327.228	909.69
327.457	1402.69
327.686	1684.69
327.914	1146.69
328.143	784.69
328.372	674.69
328.6	626.69
328.829	581.69
329.058	619.69
329.287	627.69
329.515	570.69
329.744	521.69
329.972	537.69
330.201	551.69
330.43	601.69
330.658	617.69
330.887	669.69
331.115	634.69
331.344	524.69
331.572	486.69
331.801	509.69
332.03	519.69
332.258	492.69
332.486	474.69
332.715	459.69
332.943	450.69
333.172	467.69
333.4	460.69
333.629	468.69
333.857	465.69
334.085	473.69
334.314	488.69
334.542	527.69
334.771	578.69
334.999	504.69
335.227	462.69
335.455	460.69
335.684	459.69
335.912	435.69
336.14	431.69
336.369	448.69
336.597	440.69
336.825	446.69
337.053	435.69
337.281	420.69
337.51	420.69
337.738	406.69
337.966	432.69
338.194	446.69
338.422	444.69
338.65	450.69
338.878	427.69
339.106	425.69
339.334	413.69
339.562	428.69
339.79	421.69
340.018	433.69
340.246	458.69
340.474	439.69
340.702	415.69
340.93	412.69
341.158	420.69
341.386	423.69
341.614	441.69
341.842	426.69
342.07	420.69
342.298	437.69
342.526	410.69
342.754	425.69
342.981	428.69
343.209	410.69
343.437	417.69
343.665	415.69
343.893	408.69
344.12	419.69
344.348	422.69
344.576	423.69
344.804	424.69
345.031	459.69
345.259	448.69
345.487	432.69
345.714	422.69
345.942	440.69
346.17	423.69
346.397	422.69
346.625	433.69
346.853	430.69
347.08	414.69
347.308	411.69
347.535	440.69
347.763	427.69
347.99	434.69
348.218	410.69
348.445	449.69
348.673	448.69
348.9	419.69
349.128	417.69
349.355	400.69
349.583	416.69
349.81	427.69
350.037	402.69
350.265	411.69
350.492	403.69
350.72	411.69
350.947	417.69
351.174	435.69
351.402	433.69
351.629	433.69
351.856	408.69
352.083	424.69
352.311	461.69
352.538	468.69
352.765	450.69
352.992	444.69
353.22	435.69
353.447	442.69
353.674	424.69
353.901	409.69
354.128	394.69
354.355	394.69
354.583	386.69
354.81	394.69
355.037	390.69
355.264	406.69
355.491	394.69
355.718	416.69
355.945	382.69
356.172	383.69
356.399	390.69
356.626	373.69
356.853	382.69
357.08	379.69
357.307	385.69
357.534	386.69
357.761	378.69
357.988	414.69
358.215	395.69
358.441	385.69
358.668	402.69
358.895	396.69
359.122	411.69
359.349	399.69
359.576	419.69
359.802	459.69
360.029	470.69
360.256	499.69
360.483	502.69
360.709	452.69
360.936	443.69
361.163	440.69
361.39	421.69
361.616	435.69
361.843	427.69
362.07	433.69
362.296	439.69
362.523	419.69
362.749	423.69
362.976	403.69
363.203	413.69
363.429	405.69
363.656	405.69
363.882	403.69
364.109	419.69
364.335	409.69
364.562	396.69
364.788	403.69
365.015	402.69
365.241	427.69
365.468	435.69
365.694	428.69
365.92	430.69
366.147	416.69
366.373	400.69
366.599	424.69
366.826	409.69
367.052	415.69
367.278	412.69
367.505	419.69
367.731	417.69
367.957	436.69
368.184	397.69
368.41	432.69
368.636	434.69
368.862	450.69
369.089	424.69
369.315	414.69
369.541	397.69
369.767	392.69
369.993	417.69
370.219	412.69
370.445	425.69
370.672	423.69
370.898	410.69
371.124	411.69
371.35	421.69
371.576	419.69
371.802	392.69
372.028	390.69
372.254	396.69
372.48	404.69
372.706	400.69
372.932	405.69
373.158	410.69
373.384	424.69
373.61	398.69
373.835	413.69
374.061	427.69
374.287	414.69
374.513	420.69
374.739	403.69
374.965	400.69
375.191	426.69
375.416	417.69
375.642	426.69
375.868	433.69
376.094	405.69
376.319	416.69
376.545	412.69
376.771	410.69
376.997	420.69
377.222	420.69
377.448	415.69
377.674	406.69
377.899	384.69
378.125	384.69
378.35	403.69
378.576	405.69
378.802	388.69
379.027	392.69
379.253	432.69
379.478	408.69
379.704	434.69
379.929	382.69
380.155	416.69
380.38	407.69
380.606	416.69
380.831	414.69
381.057	428.69
381.282	406.69
381.507	402.69
381.733	411.69
381.958	421.69
382.184	432.69
382.409	417.69
382.634	440.69
382.86	433.69
383.085	425.69
383.31	454.69
383.535	446.69
383.761	432.69
383.986	424.69
384.211	435.69
384.436	440.69
384.662	449.69
384.887	441.69
385.112	425.69
385.337	450.69
385.562	446.69
385.787	428.69
386.013	472.69
386.238	465.69
386.463	449.69
386.688	439.69
386.913	448.69
387.138	452.69
387.363	432.69
387.588	434.69
387.813	419.69
388.038	450.69
388.263	447.69
388.488	438.69
388.713	451.69
388.938	438.69
389.163	456.69
389.387	439.69
389.612	458.69
389.837	452.69
390.062	438.69
390.287	437.69
390.512	439.69
390.736	450.69
390.961	442.69
391.186	444.69
391.411	462.69
391.636	463.69
391.86	463.69
392.085	455.69
392.31	462.69
392.534	457.69
392.759	446.69
392.984	437.69
393.208	449.69
393.433	478.69
393.658	478.69
393.882	469.69
394.107	451.69
394.331	440.69
394.556	455.69
394.78	465.69
395.005	451.69
395.229	449.69
395.454	481.69
395.678	473.69
395.903	474.69
396.127	490.69
396.352	494.69
396.576	484.69
396.801	475.69
397.025	468.69
397.249	475.69
397.474	474.69
397.698	469.69
397.922	488.69
398.147	506.69
398.371	505.69
398.595	505.69
398.82	499.69
399.044	497.69
399.268	522.69
399.492	551.69
399.717	560.69
399.941	599.69
400.165	607.69
400.389	631.69
400.613	581.69
400.837	552.69
401.062	533.69
401.286	506.69
401.51	505.69
401.734	514.69
401.958	523.69
402.182	551.69
402.406	518.69
402.63	542.69
402.854	547.69
403.078	523.69
403.302	534.69
403.526	540.69
403.75	549.69
403.974	548.69
404.198	531.69
404.422	555.69
404.645	551.69
404.869	566.69
405.093	612.69
405.317	603.69
405.541	663.69
405.765	582.69
405.988	578.69
406.212	558.69
406.436	626.69
406.66	618.69
406.883	597.69
407.107	594.69
407.331	675.69
407.555	709.69
407.778	720.69
408.002	650.69
408.226	615.69
408.449	592.69
408.673	589.69
408.896	622.69
409.12	654.69
409.344	631.69
409.567	586.69
409.791	546.69
410.014	536.69
410.238	562.69
410.461	545.69
410.685	542.69
410.908	569.69
411.132	612.69
411.355	636.69
411.578	613.69
411.802	566.69
412.025	539.69
412.249	528.69
412.472	584.69
412.695	617.69
412.919	611.69
413.142	585.69
413.365	522.69
413.589	553.69
413.812	503.69
414.035	516.69
414.258	530.69
414.482	490.69
414.705	500.69
414.928	527.69
415.151	510.69
415.374	475.69
415.597	506.69
415.821	519.69
416.044	521.69
416.267	506.69
416.49	519.69
416.713	510.69
416.936	516.69
417.159	494.69
417.382	487.69
417.605	514.69
417.828	524.69
418.051	562.69
418.274	546.69
418.497	514.69
418.72	530.69
418.943	510.69
419.166	535.69
419.389	577.69
419.611	570.69
419.834	548.69
420.057	561.69
420.28	537.69
420.503	537.69
420.726	564.69
420.948	559.69
421.171	602.69
421.394	613.69
421.617	572.69
421.839	555.69
422.062	550.69
422.285	564.69
422.507	599.69
422.73	687.69
422.953	678.69
423.175	603.69
423.398	570.69
423.621	585.69
423.843	583.69
424.066	580.69
424.288	601.69
424.511	603.69
424.733	651.69
424.956	756.69
425.178	724.69
425.401	742.69
425.623	735.69
425.846	646.69
426.068	588.69
426.291	566.69
426.513	591.69
426.735	609.69
426.958	667.69
427.18	759.69
427.402	828.69
427.625	966.69
427.847	861.69
428.069	743.69
428.292	670.69
428.514	635.69
428.736	584.69
428.958	568.69
429.181	560.69
429.403	564.69
429.625	587.69
429.847	622.69
430.069	668.69
430.292	693.69
430.514	566.69
430.736	572.69
430.958	571.69
431.18	521.69
431.402	517.69
431.624	504.69
431.846	518.69
432.068	523.69
432.29	491.69
432.512	529.69
432.734	543.69
432.956	537.69
433.178	544.69
433.4	549.69
433.622	540.69
433.844	507.69
434.066	520.69
434.287	515.69
434.509	524.69
434.731	544.69
434.953	534.69
435.175	557.69
435.397	578.69
435.618	600.69
435.84	630.69
436.062	738.69
436.284	815.69
436.505	692.69
436.727	628.69
436.949	564.69
437.17	559.69
437.392	571.69
437.614	571.69
437.835	603.69
438.057	710.69
438.278	807.69
438.5	811.69
438.721	898.69
438.943	825.69
439.165	676.69
439.386	652.69
439.608	639.69
439.829	623.69
440.05	671.69
440.272	695.69
440.493	670.69
440.715	602.69
440.936	586.69
441.158	575.69
441.379	607.69
441.6	578.69
441.822	597.69
442.043	644.69
442.264	744.69
442.486	780.69
442.707	669.69
442.928	631.69
443.149	627.69
443.371	646.69
443.592	706.69
443.813	799.69
444.034	813.69
444.255	699.69
444.476	634.69
444.698	621.69
444.919	580.69
445.14	700.69
445.361	652.69
445.582	653.69
445.803	750.69
446.024	823.69
446.245	829.69
446.466	774.69
446.687	646.69
446.908	603.69
447.129	583.69
447.35	562.69
447.571	548.69
447.792	552.69
448.013	546.69
448.234	618.69
448.455	644.69
448.675	730.69
448.896	859.69
449.117	746.69
449.338	712.69
449.559	779.69
449.779	902.69
450	725.69
450.221	619.69
450.442	600.69
450.662	566.69
450.883	571.69
451.104	605.69
451.324	574.69
451.545	554.69
451.766	500.69
451.986	504.69
452.207	497.69
452.428	518.69
452.648	520.69
452.869	500.69
453.089	517.69
453.31	549.69
453.53	518.69
453.751	495.69
453.971	527.69
454.192	552.69
454.412	529.69
454.633	506.69
454.853	498.69
455.073	507.69
455.294	544.69
455.514	608.69
455.734	587.69
455.955	490.69
456.175	493.69
456.395	500.69
456.616	459.69
456.836	472.69
457.056	465.69
457.276	471.69
457.497	495.69
457.717	454.69
457.937	475.69
458.157	480.69
458.377	484.69
458.598	533.69
458.818	588.69
459.038	676.69
459.258	661.69
459.478	615.69
459.698	548.69
459.918	534.69
460.138	512.69
460.358	524.69
460.578	505.69
460.798	547.69
461.018	510.69
461.238	512.69
461.458	522.69
461.678	506.69
461.898	527.69
462.118	492.69
462.338	526.69
462.558	529.69
462.777	521.69
462.997	558.69
463.217	550.69
463.437	577.69
463.657	566.69
463.876	526.69
464.096	580.69
464.316	566.69
464.536	575.69
464.755	584.69
464.975	583.69
465.195	607.69
465.414	720.69
465.634	625.69
465.854	598.69
466.073	558.69
466.293	535.69
466.512	515.69
466.732	512.69
466.951	483.69
467.171	513.69
467.391	514.69
467.61	529.69
467.829	550.69
468.049	533.69
468.268	518.69
468.488	507.69
468.707	499.69
468.927	486.69
469.146	505.69
469.365	520.69
469.585	492.69
469.804	497.69
470.023	525.69
470.243	523.69
470.462	536.69
470.681	568.69
470.901	545.69
471.12	508.69
471.339	528.69
471.558	510.69
471.777	523.69
471.997	517.69
472.216	553.69
472.435	577.69
472.654	536.69
472.873	528.69
473.092	511.69
473.311	530.69
473.53	535.69
473.749	530.69
473.968	599.69
474.187	674.69
474.406	708.69
474.625	596.69
474.844	569.69
475.063	524.69
475.282	534.69
475.501	522.69
475.72	542.69
475.939	553.69
476.158	524.69
476.377	536.69
476.596	539.69
476.814	569.69
477.033	560.69
477.252	553.69
477.471	576.69
477.69	549.69
477.908	565.69
478.127	550.69
478.346	579.69
478.564	577.69
478.783	581.69
479.002	597.69
479.22	604.69
479.439	629.69
479.658	620.69
479.876	642.69
480.095	632.69
480.313	640.69
480.532	658.69
480.751	631.69
480.969	645.69
481.188	736.69
481.406	766.69
481.624	689.69
481.843	651.69
482.061	646.69
482.28	631.69
482.498	633.69
482.717	649.69
482.935	642.69
483.153	607.69
483.372	624.69
483.59	622.69
483.808	642.69
484.027	641.69
484.245	627.69
484.463	629.69
484.681	630.69
484.9	654.69
485.118	628.69
485.336	651.69
485.554	648.69
485.772	632.69
485.99	652.69
486.209	666.69
486.427	656.69
486.645	652.69
486.863	704.69
487.081	694.69
487.299	671.69
487.517	679.69
487.735	695.69
487.953	682.69
488.171	693.69
488.389	674.69
488.607	689.69
488.825	698.69
489.043	682.69
489.261	692.69
489.479	713.69
489.696	707.69
489.914	699.69
490.132	713.69
490.35	730.69
490.568	715.69
490.786	714.69
491.003	752.69
491.221	774.69
491.439	758.69
491.657	811.69
491.874	790.69
492.092	775.69
492.31	788.69
492.527	798.69
492.745	795.69
492.963	815.69
493.18	788.69
493.398	832.69
493.615	798.69
493.833	814.69
494.05	838.69
494.268	838.69
494.485	828.69
494.703	796.69
494.92	840.69
495.138	843.69
495.355	819.69
495.573	814.69
495.79	814.69
496.008	808.69
496.225	808.69
496.442	818.69
496.66	849.69
496.877	816.69
497.094	793.69
497.312	825.69
497.529	850.69
497.746	846.69
497.963	839.69
498.181	869.69
498.398	884.69
498.615	867.69
498.832	895.69
499.049	882.69
499.267	907.69
499.484	918.69
499.701	932.69
499.918	966.69
500.135	983.69
500.352	1017.69
500.569	1044.69
500.786	1037.69
501.003	1024.69
501.22	1010.69
501.437	1023.69
501.654	992.69
501.871	1002.69
