Data from 1970.PennyLincolnUp.Lamp.En5.5.200Scan.071719.P1._HRD10591_15-15-12-841.txt Node
Date: Thu Jul 18 15:15:12 EDT 2019
User: cochatt
Spectrometer: HR+D1059
Trigger mode: 1
Integration Time (sec): 1.000000E-1
Scans to average: 1
Electric dark correction enabled: true
Nonlinearity correction enabled: false
Boxcar width: 0
XAxis mode: Wavelengths
Number of Pixels in Spectrum: 2048
>>>>>Begin Spectral Data<<<<<
223.165	-8.31
223.4	-8.31
223.635	-8.31
223.869	-21.31
224.104	-22.31
224.338	-20.31
224.573	-3.31
224.808	-5.31
225.042	-16.31
225.277	-0.31
225.511	10.69
225.746	-3.31
225.98	3.69
226.215	4.69
226.449	20.69
226.683	19.69
226.918	15.69
227.152	25.69
227.387	29.69
227.621	33.69
227.856	32.69
228.09	35.69
228.324	46.69
228.559	40.69
228.793	73.69
229.027	91.69
229.262	111.69
229.496	127.69
229.73	150.69
229.964	158.69
230.199	150.69
230.433	135.69
230.667	118.69
230.901	120.69
231.136	111.69
231.37	112.69
231.604	116.69
231.838	128.69
232.072	126.69
232.306	118.69
232.541	127.69
232.775	122.69
233.009	126.69
233.243	131.69
233.477	118.69
233.711	121.69
233.945	130.69
234.179	118.69
234.413	134.69
234.647	126.69
234.881	123.69
235.115	130.69
235.349	122.69
235.583	136.69
235.817	128.69
236.051	148.69
236.285	120.69
236.519	126.69
236.753	162.69
236.987	150.69
237.221	208.69
237.455	268.69
237.689	207.69
237.922	168.69
238.156	153.69
238.39	136.69
238.624	142.69
238.858	158.69
239.091	142.69
239.325	136.69
239.559	146.69
239.793	137.69
240.027	135.69
240.26	161.69
240.494	173.69
240.728	163.69
240.961	168.69
241.195	163.69
241.429	155.69
241.662	136.69
241.896	146.69
242.13	156.69
242.363	146.69
242.597	156.69
242.83	151.69
243.064	143.69
243.298	148.69
243.531	150.69
243.765	141.69
243.998	152.69
244.232	154.69
244.465	150.69
244.699	151.69
244.932	150.69
245.166	148.69
245.399	156.69
245.633	155.69
245.866	154.69
246.099	168.69
246.333	167.69
246.566	157.69
246.8	168.69
247.033	164.69
247.266	170.69
247.5	165.69
247.733	176.69
247.966	200.69
248.2	184.69
248.433	210.69
248.666	191.69
248.899	207.69
249.133	213.69
249.366	226.69
249.599	207.69
249.832	191.69
250.066	205.69
250.299	213.69
250.532	209.69
250.765	228.69
250.998	247.69
251.231	255.69
251.465	258.69
251.698	260.69
251.931	215.69
252.164	207.69
252.397	227.69
252.63	222.69
252.863	223.69
253.096	230.69
253.329	247.69
253.562	250.69
253.795	251.69
254.028	238.69
254.261	237.69
254.494	246.69
254.727	288.69
254.96	338.69
255.193	299.69
255.426	289.69
255.659	270.69
255.892	278.69
256.124	266.69
256.357	266.69
256.59	271.69
256.823	248.69
257.056	219.69
257.289	253.69
257.521	247.69
257.754	233.69
257.987	239.69
258.22	223.69
258.452	232.69
258.685	227.69
258.918	234.69
259.151	221.69
259.383	237.69
259.616	247.69
259.849	255.69
260.081	259.69
260.314	264.69
260.547	280.69
260.779	279.69
261.012	271.69
261.244	244.69
261.477	254.69
261.71	232.69
261.942	258.69
262.175	264.69
262.407	251.69
262.64	234.69
262.872	246.69
263.105	222.69
263.337	223.69
263.57	235.69
263.802	226.69
264.035	234.69
264.267	216.69
264.499	227.69
264.732	219.69
264.964	223.69
265.197	228.69
265.429	237.69
265.661	228.69
265.894	237.69
266.126	219.69
266.358	224.69
266.591	226.69
266.823	251.69
267.055	244.69
267.287	246.69
267.52	244.69
267.752	230.69
267.984	232.69
268.216	244.69
268.448	247.69
268.681	249.69
268.913	265.69
269.145	271.69
269.377	303.69
269.609	305.69
269.841	278.69
270.073	306.69
270.306	319.69
270.538	347.69
270.77	329.69
271.002	310.69
271.234	331.69
271.466	317.69
271.698	323.69
271.93	348.69
272.162	353.69
272.394	332.69
272.626	311.69
272.858	307.69
273.09	311.69
273.322	295.69
273.553	290.69
273.785	278.69
274.017	281.69
274.249	283.69
274.481	288.69
274.713	280.69
274.945	274.69
275.176	264.69
275.408	276.69
275.64	267.69
275.872	283.69
276.104	268.69
276.335	290.69
276.567	272.69
276.799	313.69
277.031	334.69
277.262	348.69
277.494	341.69
277.726	322.69
277.957	306.69
278.189	296.69
278.421	293.69
278.652	293.69
278.884	288.69
279.115	288.69
279.347	279.69
279.579	278.69
279.81	279.69
280.042	294.69
280.273	266.69
280.505	265.69
280.736	274.69
280.968	269.69
281.199	286.69
281.431	275.69
281.662	265.69
281.894	266.69
282.125	286.69
282.356	288.69
282.588	322.69
282.819	332.69
283.051	300.69
283.282	282.69
283.513	272.69
283.745	274.69
283.976	286.69
284.207	280.69
284.439	291.69
284.67	271.69
284.901	273.69
285.132	284.69
285.364	284.69
285.595	274.69
285.826	263.69
286.057	264.69
286.288	303.69
286.52	274.69
286.751	283.69
286.982	265.69
287.213	280.69
287.444	294.69
287.675	307.69
287.906	291.69
288.138	318.69
288.369	308.69
288.6	314.69
288.831	294.69
289.062	291.69
289.293	283.69
289.524	294.69
289.755	302.69
289.986	278.69
290.217	289.69
290.448	296.69
290.679	297.69
290.91	306.69
291.141	274.69
291.371	286.69
291.602	279.69
291.833	296.69
292.064	291.69
292.295	296.69
292.526	314.69
292.757	290.69
292.987	313.69
293.218	286.69
293.449	301.69
293.68	298.69
293.91	290.69
294.141	298.69
294.372	282.69
294.603	278.69
294.833	283.69
295.064	296.69
295.295	301.69
295.525	297.69
295.756	310.69
295.987	308.69
296.217	325.69
296.448	354.69
296.679	328.69
296.909	299.69
297.14	293.69
297.37	288.69
297.601	317.69
297.831	302.69
298.062	286.69
298.292	294.69
298.523	314.69
298.753	313.69
298.984	302.69
299.214	318.69
299.445	299.69
299.675	312.69
299.905	312.69
300.136	302.69
300.366	314.69
300.597	315.69
300.827	311.69
301.057	336.69
301.288	341.69
301.518	325.69
301.748	357.69
301.979	327.69
302.209	328.69
302.439	356.69
302.669	332.69
302.9	320.69
303.13	330.69
303.36	319.69
303.59	335.69
303.82	349.69
304.051	346.69
304.281	332.69
304.511	319.69
304.741	326.69
304.971	322.69
305.201	325.69
305.431	327.69
305.661	340.69
305.891	329.69
306.121	336.69
306.352	354.69
306.582	333.69
306.812	344.69
307.042	343.69
307.272	336.69
307.502	339.69
307.731	340.69
307.961	331.69
308.191	342.69
308.421	332.69
308.651	352.69
308.881	363.69
309.111	364.69
309.341	359.69
309.571	344.69
309.8	372.69
310.03	376.69
310.26	394.69
310.49	384.69
310.72	405.69
310.949	398.69
311.179	432.69
311.409	392.69
311.639	386.69
311.868	394.69
312.098	375.69
312.328	398.69
312.557	442.69
312.787	422.69
313.017	453.69
313.246	404.69
313.476	394.69
313.706	379.69
313.935	405.69
314.165	400.69
314.394	424.69
314.624	426.69
314.853	409.69
315.083	381.69
315.312	397.69
315.542	386.69
315.771	387.69
316.001	396.69
316.23	375.69
316.46	386.69
316.689	392.69
316.919	418.69
317.148	405.69
317.377	402.69
317.607	400.69
317.836	401.69
318.065	398.69
318.295	400.69
318.524	388.69
318.753	381.69
318.983	394.69
319.212	406.69
319.441	422.69
319.67	397.69
319.9	414.69
320.129	394.69
320.358	393.69
320.587	404.69
320.816	397.69
321.046	424.69
321.275	414.69
321.504	419.69
321.733	445.69
321.962	415.69
322.191	450.69
322.42	470.69
322.649	482.69
322.878	476.69
323.108	488.69
323.337	528.69
323.566	538.69
323.795	584.69
324.024	635.69
324.253	807.69
324.482	1114.69
324.71	1730.69
324.939	2480.69
325.168	2166.69
325.397	1138.69
325.626	744.69
325.855	614.69
326.084	603.69
326.313	535.69
326.542	559.69
326.77	611.69
326.999	728.69
327.228	1015.69
327.457	1532.69
327.686	1836.69
327.914	1259.69
328.143	858.69
328.372	723.69
328.6	647.69
328.829	642.69
329.058	655.69
329.287	670.69
329.515	640.69
329.744	571.69
329.972	580.69
330.201	600.69
330.43	640.69
330.658	695.69
330.887	688.69
331.115	666.69
331.344	599.69
331.572	546.69
331.801	512.69
332.03	534.69
332.258	519.69
332.486	479.69
332.715	492.69
332.943	484.69
333.172	481.69
333.4	472.69
333.629	470.69
333.857	493.69
334.085	530.69
334.314	548.69
334.542	552.69
334.771	600.69
334.999	546.69
335.227	497.69
335.455	475.69
335.684	486.69
335.912	467.69
336.14	480.69
336.369	477.69
336.597	483.69
336.825	491.69
337.053	443.69
337.281	447.69
337.51	432.69
337.738	452.69
337.966	463.69
338.194	478.69
338.422	458.69
338.65	457.69
338.878	450.69
339.106	451.69
339.334	454.69
339.562	434.69
339.79	424.69
340.018	438.69
340.246	459.69
340.474	459.69
340.702	457.69
340.93	437.69
341.158	451.69
341.386	462.69
341.614	461.69
341.842	460.69
342.07	450.69
342.298	443.69
342.526	408.69
342.754	416.69
342.981	441.69
343.209	420.69
343.437	444.69
343.665	414.69
343.893	447.69
344.12	430.69
344.348	446.69
344.576	454.69
344.804	466.69
345.031	465.69
345.259	473.69
345.487	483.69
345.714	473.69
345.942	450.69
346.17	447.69
346.397	448.69
346.625	431.69
346.853	454.69
347.08	439.69
347.308	460.69
347.535	466.69
347.763	482.69
347.99	444.69
348.218	447.69
348.445	468.69
348.673	462.69
348.9	432.69
349.128	453.69
349.355	437.69
349.583	432.69
349.81	433.69
350.037	411.69
350.265	435.69
350.492	443.69
350.72	438.69
350.947	419.69
351.174	459.69
351.402	452.69
351.629	477.69
351.856	458.69
352.083	463.69
352.311	459.69
352.538	482.69
352.765	483.69
352.992	464.69
353.22	440.69
353.447	441.69
353.674	453.69
353.901	420.69
354.128	435.69
354.355	411.69
354.583	396.69
354.81	443.69
355.037	416.69
355.264	427.69
355.491	446.69
355.718	420.69
355.945	408.69
356.172	400.69
356.399	414.69
356.626	418.69
356.853	409.69
357.08	391.69
357.307	417.69
357.534	407.69
357.761	416.69
357.988	400.69
358.215	418.69
358.441	420.69
358.668	426.69
358.895	419.69
359.122	447.69
359.349	434.69
359.576	468.69
359.802	474.69
360.029	519.69
360.256	542.69
360.483	500.69
360.709	438.69
360.936	447.69
361.163	443.69
361.39	458.69
361.616	458.69
361.843	451.69
362.07	446.69
362.296	449.69
362.523	461.69
362.749	458.69
362.976	446.69
363.203	436.69
363.429	457.69
363.656	431.69
363.882	440.69
364.109	436.69
364.335	424.69
364.562	429.69
364.788	438.69
365.015	420.69
365.241	404.69
365.468	450.69
365.694	469.69
365.92	438.69
366.147	427.69
366.373	448.69
366.599	413.69
366.826	438.69
367.052	420.69
367.278	421.69
367.505	421.69
367.731	438.69
367.957	440.69
368.184	421.69
368.41	440.69
368.636	443.69
368.862	453.69
369.089	438.69
369.315	436.69
369.541	424.69
369.767	439.69
369.993	437.69
370.219	427.69
370.445	427.69
370.672	430.69
370.898	432.69
371.124	422.69
371.35	429.69
371.576	432.69
371.802	416.69
372.028	429.69
372.254	413.69
372.48	413.69
372.706	407.69
372.932	413.69
373.158	422.69
373.384	443.69
373.61	446.69
373.835	442.69
374.061	426.69
374.287	436.69
374.513	419.69
374.739	445.69
374.965	408.69
375.191	420.69
375.416	429.69
375.642	445.69
375.868	432.69
376.094	414.69
376.319	420.69
376.545	430.69
376.771	434.69
376.997	426.69
377.222	413.69
377.448	413.69
377.674	426.69
377.899	429.69
378.125	410.69
378.35	417.69
378.576	426.69
378.802	424.69
379.027	431.69
379.253	451.69
379.478	427.69
379.704	427.69
379.929	408.69
380.155	411.69
380.38	427.69
380.606	448.69
380.831	435.69
381.057	439.69
381.282	436.69
381.507	439.69
381.733	426.69
381.958	441.69
382.184	466.69
382.409	447.69
382.634	437.69
382.86	443.69
383.085	450.69
383.31	460.69
383.535	452.69
383.761	427.69
383.986	443.69
384.211	444.69
384.436	456.69
384.662	442.69
384.887	455.69
385.112	455.69
385.337	441.69
385.562	486.69
385.787	443.69
386.013	470.69
386.238	460.69
386.463	469.69
386.688	471.69
386.913	463.69
387.138	465.69
387.363	453.69
387.588	462.69
387.813	462.69
388.038	442.69
388.263	470.69
388.488	465.69
388.713	477.69
388.938	459.69
389.163	461.69
389.387	479.69
389.612	473.69
389.837	482.69
390.062	463.69
390.287	444.69
390.512	459.69
390.736	457.69
390.961	454.69
391.186	470.69
391.411	464.69
391.636	456.69
391.86	460.69
392.085	481.69
392.31	472.69
392.534	474.69
392.759	497.69
392.984	455.69
393.208	480.69
393.433	462.69
393.658	478.69
393.882	481.69
394.107	461.69
394.331	477.69
394.556	454.69
394.78	459.69
395.005	474.69
395.229	479.69
395.454	476.69
395.678	464.69
395.903	486.69
396.127	506.69
396.352	525.69
396.576	507.69
396.801	471.69
397.025	473.69
397.249	502.69
397.474	506.69
397.698	524.69
397.922	504.69
398.147	546.69
398.371	527.69
398.595	514.69
398.82	536.69
399.044	536.69
399.268	551.69
399.492	582.69
399.717	589.69
399.941	608.69
400.165	630.69
400.389	652.69
400.613	631.69
400.837	564.69
401.062	564.69
401.286	552.69
401.51	555.69
401.734	536.69
401.958	538.69
402.182	538.69
402.406	535.69
402.63	565.69
402.854	538.69
403.078	550.69
403.302	572.69
403.526	575.69
403.75	600.69
403.974	548.69
404.198	527.69
404.422	583.69
404.645	562.69
404.869	550.69
405.093	613.69
405.317	655.69
405.541	673.69
405.765	616.69
405.988	602.69
406.212	598.69
406.436	617.69
406.66	615.69
406.883	616.69
407.107	624.69
407.331	682.69
407.555	751.69
407.778	748.69
408.002	691.69
408.226	642.69
408.449	618.69
408.673	618.69
408.896	654.69
409.12	680.69
409.344	671.69
409.567	587.69
409.791	584.69
410.014	576.69
410.238	584.69
410.461	563.69
410.685	566.69
410.908	599.69
411.132	612.69
411.355	631.69
411.578	636.69
411.802	596.69
412.025	580.69
412.249	571.69
412.472	614.69
412.695	658.69
412.919	646.69
413.142	592.69
413.365	597.69
413.589	550.69
413.812	571.69
414.035	541.69
414.258	556.69
414.482	554.69
414.705	538.69
414.928	520.69
415.151	547.69
415.374	526.69
415.597	526.69
415.821	516.69
416.044	532.69
416.267	552.69
416.49	535.69
416.713	534.69
416.936	545.69
417.159	522.69
417.382	534.69
417.605	553.69
417.828	559.69
418.051	571.69
418.274	559.69
418.497	548.69
418.72	549.69
418.943	547.69
419.166	574.69
419.389	576.69
419.611	606.69
419.834	576.69
420.057	581.69
420.28	588.69
420.503	569.69
420.726	590.69
420.948	596.69
421.171	626.69
421.394	687.69
421.617	602.69
421.839	583.69
422.062	583.69
422.285	615.69
422.507	645.69
422.73	728.69
422.953	702.69
423.175	630.69
423.398	603.69
423.621	592.69
423.843	612.69
424.066	619.69
424.288	611.69
424.511	657.69
424.733	702.69
424.956	808.69
425.178	771.69
425.401	766.69
425.623	792.69
425.846	685.69
426.068	644.69
426.291	627.69
426.513	626.69
426.735	651.69
426.958	703.69
427.18	782.69
427.402	909.69
427.625	973.69
427.847	891.69
428.069	794.69
428.292	712.69
428.514	638.69
428.736	621.69
428.958	595.69
429.181	591.69
429.403	582.69
429.625	597.69
429.847	651.69
430.069	694.69
430.292	693.69
430.514	600.69
430.736	587.69
430.958	574.69
431.18	561.69
431.402	540.69
431.624	540.69
431.846	553.69
432.068	534.69
432.29	552.69
432.512	551.69
432.734	578.69
432.956	570.69
433.178	573.69
433.4	571.69
433.622	567.69
433.844	552.69
434.066	541.69
434.287	520.69
434.509	551.69
434.731	552.69
434.953	558.69
435.175	592.69
435.397	612.69
435.618	635.69
435.84	677.69
436.062	774.69
436.284	851.69
436.505	713.69
436.727	652.69
436.949	609.69
437.17	596.69
437.392	598.69
437.614	605.69
437.835	642.69
438.057	735.69
438.278	847.69
438.5	895.69
438.721	916.69
438.943	902.69
439.165	741.69
439.386	658.69
439.608	671.69
439.829	672.69
440.05	682.69
440.272	732.69
440.493	687.69
440.715	632.69
440.936	630.69
441.158	590.69
441.379	614.69
441.6	592.69
441.822	632.69
442.043	688.69
442.264	758.69
442.486	806.69
442.707	701.69
442.928	643.69
443.149	670.69
443.371	682.69
443.592	729.69
443.813	840.69
444.034	886.69
444.255	755.69
444.476	660.69
444.698	630.69
444.919	636.69
445.14	719.69
445.361	703.69
445.582	682.69
445.803	738.69
446.024	846.69
446.245	866.69
446.466	807.69
446.687	674.69
446.908	660.69
447.129	632.69
447.35	605.69
447.571	592.69
447.792	583.69
448.013	632.69
448.234	620.69
448.455	687.69
448.675	808.69
448.896	924.69
449.117	811.69
449.338	749.69
449.559	868.69
449.779	926.69
450	772.69
450.221	672.69
450.442	627.69
450.662	570.69
450.883	597.69
451.104	618.69
451.324	596.69
451.545	564.69
451.766	533.69
451.986	537.69
452.207	536.69
452.428	516.69
452.648	528.69
452.869	551.69
453.089	565.69
453.31	573.69
453.53	541.69
453.751	544.69
453.971	555.69
454.192	547.69
454.412	535.69
454.633	540.69
454.853	516.69
455.073	533.69
455.294	563.69
455.514	633.69
455.734	618.69
455.955	532.69
456.175	506.69
456.395	506.69
456.616	471.69
456.836	458.69
457.056	477.69
457.276	478.69
457.497	476.69
457.717	494.69
457.937	510.69
458.157	483.69
458.377	524.69
458.598	524.69
458.818	600.69
459.038	718.69
459.258	726.69
459.478	608.69
459.698	555.69
459.918	566.69
460.138	559.69
460.358	532.69
460.578	545.69
460.798	543.69
461.018	528.69
461.238	539.69
461.458	553.69
461.678	528.69
461.898	531.69
462.118	538.69
462.338	557.69
462.558	544.69
462.777	552.69
462.997	571.69
463.217	547.69
463.437	578.69
463.657	565.69
463.876	543.69
464.096	588.69
464.316	555.69
464.536	565.69
464.755	576.69
464.975	589.69
465.195	634.69
465.414	740.69
465.634	635.69
465.854	601.69
466.073	568.69
466.293	547.69
466.512	545.69
466.732	543.69
466.951	530.69
467.171	534.69
467.391	537.69
467.61	542.69
467.829	571.69
468.049	578.69
468.268	538.69
468.488	531.69
468.707	533.69
468.927	520.69
469.146	529.69
469.365	552.69
469.585	505.69
469.804	500.69
470.023	564.69
470.243	544.69
470.462	559.69
470.681	559.69
470.901	576.69
471.12	544.69
471.339	565.69
471.558	561.69
471.777	555.69
471.997	544.69
472.216	563.69
472.435	582.69
472.654	596.69
472.873	566.69
473.092	589.69
473.311	555.69
473.53	547.69
473.749	584.69
473.968	607.69
474.187	733.69
474.406	750.69
474.625	636.69
474.844	600.69
475.063	587.69
475.282	558.69
475.501	535.69
475.72	573.69
475.939	547.69
476.158	570.69
476.377	580.69
476.596	576.69
476.814	585.69
477.033	576.69
477.252	576.69
477.471	600.69
477.69	589.69
477.908	587.69
478.127	586.69
478.346	603.69
478.564	616.69
478.783	607.69
479.002	607.69
479.22	631.69
479.439	650.69
479.658	649.69
479.876	665.69
480.095	660.69
480.313	698.69
480.532	687.69
480.751	658.69
480.969	697.69
481.188	778.69
481.406	830.69
481.624	737.69
481.843	676.69
482.061	664.69
482.28	666.69
482.498	652.69
482.717	675.69
482.935	656.69
483.153	659.69
483.372	652.69
483.59	643.69
483.808	637.69
484.027	663.69
484.245	644.69
484.463	650.69
484.681	650.69
484.9	674.69
485.118	675.69
485.336	660.69
485.554	679.69
485.772	685.69
485.99	678.69
486.209	700.69
486.427	688.69
486.645	709.69
486.863	739.69
487.081	720.69
487.299	734.69
487.517	712.69
487.735	707.69
487.953	709.69
488.171	719.69
488.389	728.69
488.607	713.69
488.825	731.69
489.043	740.69
489.261	718.69
489.479	707.69
489.696	730.69
489.914	736.69
490.132	734.69
490.35	775.69
490.568	762.69
490.786	756.69
491.003	787.69
491.221	802.69
491.439	822.69
491.657	817.69
491.874	836.69
492.092	815.69
492.31	856.69
492.527	873.69
492.745	867.69
492.963	873.69
493.18	843.69
493.398	855.69
493.615	865.69
493.833	839.69
494.05	879.69
494.268	840.69
494.485	861.69
494.703	868.69
494.92	853.69
495.138	853.69
495.355	861.69
495.573	866.69
495.79	855.69
496.008	872.69
496.225	852.69
496.442	860.69
496.66	879.69
496.877	843.69
497.094	851.69
497.312	841.69
497.529	898.69
497.746	867.69
497.963	873.69
498.181	894.69
498.398	914.69
498.615	899.69
498.832	924.69
499.049	931.69
499.267	942.69
499.484	950.69
499.701	990.69
499.918	998.69
500.135	1022.69
500.352	1054.69
500.569	1078.69
500.786	1086.69
501.003	1080.69
501.22	1023.69
501.437	1029.69
501.654	1026.69
501.871	1055.69
