Data from 1970.PennyLincolnUp.Lamp.En5.5.200Scan.071719.P1._HRD10591_15-15-46-842.txt Node
Date: Thu Jul 18 15:15:46 EDT 2019
User: cochatt
Spectrometer: HR+D1059
Trigger mode: 1
Integration Time (sec): 1.000000E-1
Scans to average: 1
Electric dark correction enabled: true
Nonlinearity correction enabled: false
Boxcar width: 0
XAxis mode: Wavelengths
Number of Pixels in Spectrum: 2048
>>>>>Begin Spectral Data<<<<<
223.165	-0.44
223.4	-0.44
223.635	-0.44
223.869	-8.44
224.104	-18.44
224.338	-11.44
224.573	4.56
224.808	-23.44
225.042	-11.44
225.277	-11.44
225.511	-1.44
225.746	-5.44
225.98	7.56
226.215	1.56
226.449	7.56
226.683	12.56
226.918	26.56
227.152	31.56
227.387	27.56
227.621	35.56
227.856	59.56
228.09	38.56
228.324	48.56
228.559	68.56
228.793	76.56
229.027	119.56
229.262	129.56
229.496	129.56
229.73	160.56
229.964	172.56
230.199	151.56
230.433	128.56
230.667	139.56
230.901	144.56
231.136	120.56
231.37	121.56
231.604	128.56
231.838	121.56
232.072	123.56
232.306	113.56
232.541	139.56
232.775	115.56
233.009	119.56
233.243	121.56
233.477	122.56
233.711	130.56
233.945	126.56
234.179	122.56
234.413	121.56
234.647	132.56
234.881	118.56
235.115	135.56
235.349	136.56
235.583	125.56
235.817	136.56
236.051	125.56
236.285	144.56
236.519	131.56
236.753	131.56
236.987	155.56
237.221	196.56
237.455	284.56
237.689	216.56
237.922	173.56
238.156	162.56
238.39	137.56
238.624	145.56
238.858	129.56
239.091	132.56
239.325	125.56
239.559	129.56
239.793	131.56
240.027	144.56
240.26	163.56
240.494	179.56
240.728	160.56
240.961	183.56
241.195	165.56
241.429	143.56
241.662	152.56
241.896	154.56
242.13	146.56
242.363	132.56
242.597	155.56
242.83	145.56
243.064	158.56
243.298	153.56
243.531	145.56
243.765	144.56
243.998	144.56
244.232	153.56
244.465	147.56
244.699	160.56
244.932	152.56
245.166	166.56
245.399	170.56
245.633	157.56
245.866	157.56
246.099	145.56
246.333	167.56
246.566	170.56
246.8	164.56
247.033	172.56
247.266	177.56
247.5	188.56
247.733	191.56
247.966	171.56
248.2	200.56
248.433	193.56
248.666	205.56
248.899	208.56
249.133	229.56
249.366	225.56
249.599	234.56
249.832	200.56
250.066	208.56
250.299	194.56
250.532	210.56
250.765	226.56
250.998	267.56
251.231	249.56
251.465	260.56
251.698	229.56
251.931	227.56
252.164	217.56
252.397	214.56
252.63	221.56
252.863	229.56
253.096	244.56
253.329	261.56
253.562	271.56
253.795	266.56
254.028	255.56
254.261	255.56
254.494	250.56
254.727	288.56
254.96	331.56
255.193	317.56
255.426	298.56
255.659	279.56
255.892	285.56
256.124	270.56
256.357	257.56
256.59	274.56
256.823	245.56
257.056	256.56
257.289	232.56
257.521	232.56
257.754	238.56
257.987	241.56
258.22	247.56
258.452	228.56
258.685	235.56
258.918	247.56
259.151	233.56
259.383	256.56
259.616	243.56
259.849	242.56
260.081	266.56
260.314	286.56
260.547	300.56
260.779	286.56
261.012	281.56
261.244	248.56
261.477	246.56
261.71	246.56
261.942	247.56
262.175	252.56
262.407	243.56
262.64	235.56
262.872	245.56
263.105	203.56
263.337	223.56
263.57	230.56
263.802	219.56
264.035	212.56
264.267	232.56
264.499	235.56
264.732	232.56
264.964	230.56
265.197	236.56
265.429	205.56
265.661	223.56
265.894	213.56
266.126	212.56
266.358	224.56
266.591	220.56
266.823	240.56
267.055	228.56
267.287	246.56
267.52	237.56
267.752	235.56
267.984	233.56
268.216	242.56
268.448	248.56
268.681	246.56
268.913	283.56
269.145	294.56
269.377	308.56
269.609	286.56
269.841	294.56
270.073	294.56
270.306	311.56
270.538	363.56
270.77	345.56
271.002	328.56
271.234	326.56
271.466	345.56
271.698	352.56
271.93	332.56
272.162	333.56
272.394	360.56
272.626	356.56
272.858	319.56
273.09	290.56
273.322	299.56
273.553	278.56
273.785	301.56
274.017	270.56
274.249	302.56
274.481	282.56
274.713	287.56
274.945	280.56
275.176	307.56
275.408	299.56
275.64	278.56
275.872	270.56
276.104	261.56
276.335	274.56
276.567	273.56
276.799	319.56
277.031	319.56
277.262	339.56
277.494	334.56
277.726	313.56
277.957	311.56
278.189	313.56
278.421	305.56
278.652	295.56
278.884	293.56
279.115	280.56
279.347	291.56
279.579	277.56
279.81	283.56
280.042	284.56
280.273	268.56
280.505	276.56
280.736	284.56
280.968	272.56
281.199	278.56
281.431	269.56
281.662	277.56
281.894	255.56
282.125	271.56
282.356	293.56
282.588	311.56
282.819	315.56
283.051	286.56
283.282	278.56
283.513	297.56
283.745	283.56
283.976	281.56
284.207	291.56
284.439	288.56
284.67	296.56
284.901	272.56
285.132	268.56
285.364	283.56
285.595	296.56
285.826	284.56
286.057	282.56
286.288	280.56
286.52	276.56
286.751	284.56
286.982	285.56
287.213	294.56
287.444	274.56
287.675	300.56
287.906	301.56
288.138	311.56
288.369	299.56
288.6	307.56
288.831	300.56
289.062	305.56
289.293	292.56
289.524	278.56
289.755	287.56
289.986	289.56
290.217	294.56
290.448	283.56
290.679	304.56
290.91	294.56
291.141	298.56
291.371	291.56
291.602	290.56
291.833	292.56
292.064	304.56
292.295	284.56
292.526	291.56
292.757	285.56
292.987	283.56
293.218	281.56
293.449	299.56
293.68	292.56
293.91	295.56
294.141	284.56
294.372	299.56
294.603	298.56
294.833	296.56
295.064	307.56
295.295	300.56
295.525	294.56
295.756	303.56
295.987	302.56
296.217	332.56
296.448	340.56
296.679	304.56
296.909	294.56
297.14	307.56
297.37	311.56
297.601	318.56
297.831	289.56
298.062	294.56
298.292	305.56
298.523	314.56
298.753	313.56
298.984	309.56
299.214	296.56
299.445	279.56
299.675	309.56
299.905	320.56
300.136	302.56
300.366	302.56
300.597	324.56
300.827	312.56
301.057	323.56
301.288	310.56
301.518	320.56
301.748	321.56
301.979	320.56
302.209	336.56
302.439	339.56
302.669	319.56
302.9	319.56
303.13	319.56
303.36	303.56
303.59	326.56
303.82	347.56
304.051	353.56
304.281	338.56
304.511	328.56
304.741	327.56
304.971	324.56
305.201	290.56
305.431	322.56
305.661	310.56
305.891	321.56
306.121	336.56
306.352	347.56
306.582	368.56
306.812	327.56
307.042	330.56
307.272	321.56
307.502	357.56
307.731	354.56
307.961	347.56
308.191	340.56
308.421	333.56
308.651	355.56
308.881	335.56
309.111	344.56
309.341	352.56
309.571	349.56
309.8	385.56
310.03	380.56
310.26	375.56
310.49	399.56
310.72	404.56
310.949	416.56
311.179	423.56
311.409	387.56
311.639	399.56
311.868	408.56
312.098	386.56
312.328	411.56
312.557	415.56
312.787	433.56
313.017	436.56
313.246	407.56
313.476	384.56
313.706	381.56
313.935	410.56
314.165	421.56
314.394	423.56
314.624	430.56
314.853	405.56
315.083	383.56
315.312	398.56
315.542	391.56
315.771	394.56
316.001	389.56
316.23	379.56
316.46	381.56
316.689	379.56
316.919	401.56
317.148	416.56
317.377	408.56
317.607	389.56
317.836	391.56
318.065	408.56
318.295	404.56
318.524	397.56
318.753	374.56
318.983	388.56
319.212	377.56
319.441	402.56
319.67	411.56
319.9	415.56
320.129	390.56
320.358	391.56
320.587	411.56
320.816	421.56
321.046	431.56
321.275	416.56
321.504	417.56
321.733	435.56
321.962	451.56
322.191	443.56
322.42	461.56
322.649	478.56
322.878	499.56
323.108	487.56
323.337	536.56
323.566	542.56
323.795	565.56
324.024	659.56
324.253	804.56
324.482	1157.56
324.71	1766.56
324.939	2555.56
325.168	2236.56
325.397	1184.56
325.626	760.56
325.855	631.56
326.084	570.56
326.313	557.56
326.542	560.56
326.77	612.56
326.999	725.56
327.228	1009.56
327.457	1571.56
327.686	1919.56
327.914	1269.56
328.143	867.56
328.372	743.56
328.6	695.56
328.829	635.56
329.058	662.56
329.287	673.56
329.515	636.56
329.744	576.56
329.972	566.56
330.201	600.56
330.43	640.56
330.658	687.56
330.887	720.56
331.115	686.56
331.344	590.56
331.572	541.56
331.801	541.56
332.03	567.56
332.258	526.56
332.486	482.56
332.715	473.56
332.943	471.56
333.172	485.56
333.4	468.56
333.629	485.56
333.857	511.56
334.085	524.56
334.314	538.56
334.542	591.56
334.771	592.56
334.999	529.56
335.227	521.56
335.455	491.56
335.684	474.56
335.912	478.56
336.14	456.56
336.369	469.56
336.597	477.56
336.825	469.56
337.053	471.56
337.281	430.56
337.51	476.56
337.738	456.56
337.966	460.56
338.194	470.56
338.422	457.56
338.65	444.56
338.878	445.56
339.106	469.56
339.334	440.56
339.562	427.56
339.79	439.56
340.018	471.56
340.246	448.56
340.474	430.56
340.702	452.56
340.93	421.56
341.158	451.56
341.386	452.56
341.614	436.56
341.842	442.56
342.07	424.56
342.298	428.56
342.526	431.56
342.754	413.56
342.981	440.56
343.209	407.56
343.437	433.56
343.665	444.56
343.893	433.56
344.12	430.56
344.348	437.56
344.576	455.56
344.804	457.56
345.031	455.56
345.259	466.56
345.487	463.56
345.714	474.56
345.942	450.56
346.17	444.56
346.397	451.56
346.625	459.56
346.853	444.56
347.08	440.56
347.308	454.56
347.535	458.56
347.763	439.56
347.99	455.56
348.218	449.56
348.445	473.56
348.673	461.56
348.9	422.56
349.128	446.56
349.355	426.56
349.583	428.56
349.81	412.56
350.037	432.56
350.265	437.56
350.492	430.56
350.72	428.56
350.947	441.56
351.174	441.56
351.402	476.56
351.629	444.56
351.856	437.56
352.083	478.56
352.311	478.56
352.538	456.56
352.765	465.56
352.992	458.56
353.22	461.56
353.447	431.56
353.674	444.56
353.901	420.56
354.128	406.56
354.355	418.56
354.583	423.56
354.81	429.56
355.037	429.56
355.264	414.56
355.491	407.56
355.718	404.56
355.945	404.56
356.172	402.56
356.399	421.56
356.626	410.56
356.853	411.56
357.08	407.56
357.307	409.56
357.534	400.56
357.761	410.56
357.988	423.56
358.215	428.56
358.441	402.56
358.668	413.56
358.895	414.56
359.122	423.56
359.349	422.56
359.576	446.56
359.802	468.56
360.029	509.56
360.256	541.56
360.483	493.56
360.709	460.56
360.936	473.56
361.163	453.56
361.39	453.56
361.616	446.56
361.843	459.56
362.07	469.56
362.296	446.56
362.523	453.56
362.749	403.56
362.976	439.56
363.203	435.56
363.429	416.56
363.656	406.56
363.882	442.56
364.109	452.56
364.335	424.56
364.562	436.56
364.788	429.56
365.015	441.56
365.241	437.56
365.468	416.56
365.694	437.56
365.92	454.56
366.147	450.56
366.373	436.56
366.599	445.56
366.826	421.56
367.052	423.56
367.278	423.56
367.505	427.56
367.731	407.56
367.957	421.56
368.184	408.56
368.41	439.56
368.636	447.56
368.862	446.56
369.089	440.56
369.315	421.56
369.541	442.56
369.767	429.56
369.993	419.56
370.219	429.56
370.445	430.56
370.672	425.56
370.898	421.56
371.124	422.56
371.35	426.56
371.576	430.56
371.802	432.56
372.028	422.56
372.254	414.56
372.48	408.56
372.706	433.56
372.932	429.56
373.158	415.56
373.384	419.56
373.61	411.56
373.835	412.56
374.061	423.56
374.287	410.56
374.513	423.56
374.739	428.56
374.965	460.56
375.191	427.56
375.416	412.56
375.642	419.56
375.868	431.56
376.094	414.56
376.319	440.56
376.545	430.56
376.771	407.56
376.997	409.56
377.222	427.56
377.448	399.56
377.674	424.56
377.899	406.56
378.125	439.56
378.35	405.56
378.576	424.56
378.802	414.56
379.027	427.56
379.253	395.56
379.478	419.56
379.704	420.56
379.929	438.56
380.155	425.56
380.38	427.56
380.606	425.56
380.831	410.56
381.057	413.56
381.282	436.56
381.507	422.56
381.733	421.56
381.958	430.56
382.184	441.56
382.409	419.56
382.634	417.56
382.86	431.56
383.085	406.56
383.31	424.56
383.535	449.56
383.761	441.56
383.986	440.56
384.211	413.56
384.436	439.56
384.662	443.56
384.887	463.56
385.112	441.56
385.337	443.56
385.562	457.56
385.787	463.56
386.013	465.56
386.238	466.56
386.463	466.56
386.688	465.56
386.913	457.56
387.138	452.56
387.363	472.56
387.588	441.56
387.813	448.56
388.038	469.56
388.263	477.56
388.488	464.56
388.713	459.56
388.938	453.56
389.163	462.56
389.387	469.56
389.612	469.56
389.837	476.56
390.062	446.56
390.287	480.56
390.512	454.56
390.736	465.56
390.961	444.56
391.186	451.56
391.411	430.56
391.636	462.56
391.86	477.56
392.085	464.56
392.31	447.56
392.534	453.56
392.759	454.56
392.984	433.56
393.208	456.56
393.433	480.56
393.658	462.56
393.882	447.56
394.107	449.56
394.331	455.56
394.556	462.56
394.78	480.56
395.005	460.56
395.229	438.56
395.454	465.56
395.678	471.56
395.903	464.56
396.127	513.56
396.352	500.56
396.576	480.56
396.801	475.56
397.025	472.56
397.249	477.56
397.474	477.56
397.698	466.56
397.922	484.56
398.147	514.56
398.371	549.56
398.595	525.56
398.82	520.56
399.044	516.56
399.268	524.56
399.492	541.56
399.717	553.56
399.941	607.56
400.165	627.56
400.389	648.56
400.613	603.56
400.837	544.56
401.062	523.56
401.286	537.56
401.51	547.56
401.734	502.56
401.958	531.56
402.182	499.56
402.406	533.56
402.63	519.56
402.854	552.56
403.078	536.56
403.302	528.56
403.526	535.56
403.75	523.56
403.974	546.56
404.198	551.56
404.422	554.56
404.645	556.56
404.869	564.56
405.093	599.56
405.317	639.56
405.541	669.56
405.765	614.56
405.988	583.56
406.212	582.56
406.436	608.56
406.66	629.56
406.883	593.56
407.107	629.56
407.331	661.56
407.555	732.56
407.778	715.56
408.002	643.56
408.226	622.56
408.449	607.56
408.673	590.56
408.896	612.56
409.12	668.56
409.344	633.56
409.567	589.56
409.791	585.56
410.014	539.56
410.238	543.56
410.461	543.56
410.685	564.56
410.908	589.56
411.132	619.56
411.355	651.56
411.578	608.56
411.802	587.56
412.025	575.56
412.249	586.56
412.472	597.56
412.695	647.56
412.919	619.56
413.142	608.56
413.365	542.56
413.589	536.56
413.812	528.56
414.035	519.56
414.258	519.56
414.482	520.56
414.705	528.56
414.928	523.56
415.151	518.56
415.374	517.56
415.597	533.56
415.821	515.56
416.044	528.56
416.267	533.56
416.49	525.56
416.713	521.56
416.936	509.56
417.159	517.56
417.382	529.56
417.605	537.56
417.828	534.56
418.051	549.56
418.274	539.56
418.497	521.56
418.72	539.56
418.943	533.56
419.166	547.56
419.389	566.56
419.611	555.56
419.834	555.56
420.057	575.56
420.28	569.56
420.503	560.56
420.726	571.56
420.948	591.56
421.171	601.56
421.394	641.56
421.617	581.56
421.839	543.56
422.062	578.56
422.285	586.56
422.507	625.56
422.73	718.56
422.953	678.56
423.175	624.56
423.398	582.56
423.621	587.56
423.843	605.56
424.066	613.56
424.288	627.56
424.511	630.56
424.733	694.56
424.956	766.56
425.178	752.56
425.401	750.56
425.623	774.56
425.846	657.56
426.068	629.56
426.291	650.56
426.513	641.56
426.735	636.56
426.958	688.56
427.18	762.56
427.402	885.56
427.625	998.56
427.847	908.56
428.069	777.56
428.292	710.56
428.514	642.56
428.736	607.56
428.958	596.56
429.181	563.56
429.403	583.56
429.625	587.56
429.847	619.56
430.069	704.56
430.292	717.56
430.514	615.56
430.736	582.56
430.958	570.56
431.18	551.56
431.402	558.56
431.624	549.56
431.846	542.56
432.068	520.56
432.29	518.56
432.512	526.56
432.734	553.56
432.956	541.56
433.178	570.56
433.4	575.56
433.622	558.56
433.844	545.56
434.066	535.56
434.287	526.56
434.509	533.56
434.731	539.56
434.953	563.56
435.175	567.56
435.397	587.56
435.618	619.56
435.84	672.56
436.062	769.56
436.284	841.56
436.505	749.56
436.727	627.56
436.949	605.56
437.17	596.56
437.392	581.56
437.614	584.56
437.835	666.56
438.057	761.56
438.278	850.56
438.5	843.56
438.721	920.56
438.943	863.56
439.165	723.56
439.386	659.56
439.608	637.56
439.829	627.56
440.05	697.56
440.272	725.56
440.493	692.56
440.715	616.56
440.936	604.56
441.158	595.56
441.379	587.56
441.6	603.56
441.822	627.56
442.043	669.56
442.264	771.56
442.486	811.56
442.707	718.56
442.928	624.56
443.149	667.56
443.371	688.56
443.592	703.56
443.813	815.56
444.034	865.56
444.255	737.56
444.476	672.56
444.698	640.56
444.919	624.56
445.14	746.56
445.361	683.56
445.582	680.56
445.803	761.56
446.024	854.56
446.245	875.56
446.466	789.56
446.687	713.56
446.908	647.56
447.129	617.56
447.35	604.56
447.571	591.56
447.792	571.56
448.013	596.56
448.234	617.56
448.455	675.56
448.675	803.56
448.896	935.56
449.117	772.56
449.338	747.56
449.559	851.56
449.779	934.56
450	799.56
450.221	657.56
450.442	589.56
450.662	586.56
450.883	590.56
451.104	609.56
451.324	598.56
451.545	552.56
451.766	563.56
451.986	548.56
452.207	505.56
452.428	512.56
452.648	538.56
452.869	524.56
453.089	541.56
453.31	592.56
453.53	545.56
453.751	524.56
453.971	544.56
454.192	558.56
454.412	547.56
454.633	548.56
454.853	525.56
455.073	513.56
455.294	559.56
455.514	617.56
455.734	633.56
455.955	543.56
456.175	502.56
456.395	498.56
456.616	482.56
456.836	481.56
457.056	478.56
457.276	485.56
457.497	470.56
457.717	484.56
457.937	498.56
458.157	511.56
458.377	507.56
458.598	532.56
458.818	619.56
459.038	720.56
459.258	736.56
459.478	602.56
459.698	561.56
459.918	541.56
460.138	554.56
460.358	530.56
460.578	539.56
460.798	570.56
461.018	534.56
461.238	540.56
461.458	557.56
461.678	522.56
461.898	529.56
462.118	547.56
462.338	543.56
462.558	541.56
462.777	541.56
462.997	558.56
463.217	559.56
463.437	553.56
463.657	550.56
463.876	549.56
464.096	570.56
464.316	571.56
464.536	568.56
464.755	583.56
464.975	571.56
465.195	623.56
465.414	731.56
465.634	663.56
465.854	601.56
466.073	556.56
466.293	534.56
466.512	527.56
466.732	528.56
466.951	522.56
467.171	508.56
467.391	526.56
467.61	536.56
467.829	560.56
468.049	550.56
468.268	560.56
468.488	556.56
468.707	516.56
468.927	508.56
469.146	516.56
469.365	516.56
469.585	532.56
469.804	545.56
470.023	548.56
470.243	544.56
470.462	560.56
470.681	587.56
470.901	551.56
471.12	555.56
471.339	551.56
471.558	550.56
471.777	584.56
471.997	526.56
472.216	537.56
472.435	623.56
472.654	595.56
472.873	540.56
473.092	539.56
473.311	546.56
473.53	525.56
473.749	544.56
473.968	608.56
474.187	746.56
474.406	760.56
474.625	613.56
474.844	555.56
475.063	549.56
475.282	543.56
475.501	552.56
475.72	569.56
475.939	579.56
476.158	577.56
476.377	574.56
476.596	555.56
476.814	577.56
477.033	569.56
477.252	574.56
477.471	575.56
477.69	580.56
477.908	599.56
478.127	594.56
478.346	595.56
478.564	585.56
478.783	563.56
479.002	616.56
479.22	620.56
479.439	612.56
479.658	636.56
479.876	654.56
480.095	639.56
480.313	701.56
480.532	669.56
480.751	688.56
480.969	685.56
481.188	759.56
481.406	816.56
481.624	718.56
481.843	686.56
482.061	665.56
482.28	664.56
482.498	642.56
482.717	634.56
482.935	637.56
483.153	651.56
483.372	661.56
483.59	646.56
483.808	636.56
484.027	643.56
484.245	672.56
484.463	644.56
484.681	663.56
484.9	669.56
485.118	676.56
485.336	670.56
485.554	688.56
485.772	658.56
485.99	671.56
486.209	667.56
486.427	671.56
486.645	686.56
486.863	742.56
487.081	688.56
487.299	724.56
487.517	676.56
487.735	711.56
487.953	717.56
488.171	722.56
488.389	716.56
488.607	733.56
488.825	708.56
489.043	738.56
489.261	694.56
489.479	701.56
489.696	735.56
489.914	739.56
490.132	746.56
490.35	744.56
490.568	745.56
490.786	772.56
491.003	781.56
491.221	809.56
491.439	815.56
491.657	808.56
491.874	810.56
492.092	823.56
492.31	827.56
492.527	843.56
492.745	827.56
492.963	828.56
493.18	860.56
493.398	871.56
493.615	845.56
493.833	840.56
494.05	856.56
494.268	847.56
494.485	832.56
494.703	843.56
494.92	865.56
495.138	864.56
495.355	862.56
495.573	873.56
495.79	856.56
496.008	826.56
496.225	827.56
496.442	856.56
496.66	859.56
496.877	877.56
497.094	841.56
497.312	840.56
497.529	859.56
497.746	878.56
497.963	877.56
498.181	897.56
498.398	899.56
498.615	916.56
498.832	893.56
499.049	912.56
499.267	916.56
499.484	931.56
499.701	966.56
499.918	924.56
500.135	991.56
500.352	1021.56
500.569	1028.56
500.786	1050.56
501.003	1033.56
501.22	1034.56
501.437	1013.56
501.654	994.56
501.871	999.56
