Data from 1970.PennyLincolnUp.Lamp.En5.5.200Scan.071719.P1._HRD10591_15-15-50-842.txt Node
Date: Thu Jul 18 15:15:50 EDT 2019
User: cochatt
Spectrometer: HR+D1059
Trigger mode: 1
Integration Time (sec): 1.000000E-1
Scans to average: 1
Electric dark correction enabled: true
Nonlinearity correction enabled: false
Boxcar width: 0
XAxis mode: Wavelengths
Number of Pixels in Spectrum: 2048
>>>>>Begin Spectral Data<<<<<
223.165	1.12
223.4	1.12
223.635	1.12
223.869	-17.88
224.104	-19.88
224.338	-12.88
224.573	-25.88
224.808	-18.88
225.042	-10.88
225.277	-4.88
225.511	-3.88
225.746	-7.88
225.98	13.12
226.215	8.12
226.449	29.12
226.683	21.12
226.918	15.12
227.152	35.12
227.387	27.12
227.621	44.12
227.856	34.12
228.09	56.12
228.324	47.12
228.559	57.12
228.793	68.12
229.027	113.12
229.262	115.12
229.496	127.12
229.73	155.12
229.964	176.12
230.199	154.12
230.433	112.12
230.667	113.12
230.901	139.12
231.136	128.12
231.37	122.12
231.604	109.12
231.838	127.12
232.072	116.12
232.306	139.12
232.541	127.12
232.775	118.12
233.009	127.12
233.243	123.12
233.477	107.12
233.711	119.12
233.945	123.12
234.179	124.12
234.413	124.12
234.647	133.12
234.881	127.12
235.115	128.12
235.349	131.12
235.583	130.12
235.817	127.12
236.051	130.12
236.285	127.12
236.519	128.12
236.753	137.12
236.987	163.12
237.221	201.12
237.455	273.12
237.689	224.12
237.922	164.12
238.156	150.12
238.39	152.12
238.624	124.12
238.858	143.12
239.091	145.12
239.325	145.12
239.559	143.12
239.793	140.12
240.027	151.12
240.26	164.12
240.494	177.12
240.728	149.12
240.961	175.12
241.195	166.12
241.429	149.12
241.662	155.12
241.896	143.12
242.13	131.12
242.363	145.12
242.597	146.12
242.83	146.12
243.064	162.12
243.298	143.12
243.531	151.12
243.765	145.12
243.998	156.12
244.232	138.12
244.465	158.12
244.699	140.12
244.932	151.12
245.166	151.12
245.399	148.12
245.633	154.12
245.866	165.12
246.099	163.12
246.333	148.12
246.566	161.12
246.8	170.12
247.033	168.12
247.266	173.12
247.5	175.12
247.733	193.12
247.966	187.12
248.2	198.12
248.433	178.12
248.666	209.12
248.899	221.12
249.133	218.12
249.366	255.12
249.599	233.12
249.832	207.12
250.066	205.12
250.299	217.12
250.532	209.12
250.765	240.12
250.998	269.12
251.231	276.12
251.465	229.12
251.698	218.12
251.931	228.12
252.164	220.12
252.397	231.12
252.63	220.12
252.863	230.12
253.096	232.12
253.329	258.12
253.562	231.12
253.795	241.12
254.028	221.12
254.261	260.12
254.494	247.12
254.727	304.12
254.96	324.12
255.193	317.12
255.426	287.12
255.659	280.12
255.892	265.12
256.124	262.12
256.357	266.12
256.59	253.12
256.823	245.12
257.056	251.12
257.289	233.12
257.521	241.12
257.754	247.12
257.987	227.12
258.22	245.12
258.452	238.12
258.685	221.12
258.918	227.12
259.151	251.12
259.383	235.12
259.616	238.12
259.849	262.12
260.081	245.12
260.314	301.12
260.547	291.12
260.779	269.12
261.012	274.12
261.244	255.12
261.477	238.12
261.71	259.12
261.942	261.12
262.175	269.12
262.407	265.12
262.64	249.12
262.872	235.12
263.105	232.12
263.337	211.12
263.57	243.12
263.802	217.12
264.035	233.12
264.267	218.12
264.499	225.12
264.732	211.12
264.964	233.12
265.197	232.12
265.429	230.12
265.661	205.12
265.894	233.12
266.126	223.12
266.358	235.12
266.591	233.12
266.823	235.12
267.055	237.12
267.287	250.12
267.52	244.12
267.752	258.12
267.984	234.12
268.216	252.12
268.448	253.12
268.681	239.12
268.913	257.12
269.145	291.12
269.377	305.12
269.609	300.12
269.841	292.12
270.073	308.12
270.306	322.12
270.538	357.12
270.77	364.12
271.002	345.12
271.234	336.12
271.466	324.12
271.698	338.12
271.93	344.12
272.162	326.12
272.394	358.12
272.626	318.12
272.858	323.12
273.09	311.12
273.322	298.12
273.553	289.12
273.785	298.12
274.017	284.12
274.249	283.12
274.481	287.12
274.713	286.12
274.945	283.12
275.176	287.12
275.408	264.12
275.64	287.12
275.872	258.12
276.104	287.12
276.335	275.12
276.567	292.12
276.799	321.12
277.031	334.12
277.262	338.12
277.494	335.12
277.726	313.12
277.957	323.12
278.189	313.12
278.421	289.12
278.652	284.12
278.884	301.12
279.115	293.12
279.347	280.12
279.579	282.12
279.81	294.12
280.042	272.12
280.273	272.12
280.505	279.12
280.736	275.12
280.968	270.12
281.199	269.12
281.431	276.12
281.662	262.12
281.894	264.12
282.125	298.12
282.356	306.12
282.588	312.12
282.819	319.12
283.051	296.12
283.282	273.12
283.513	285.12
283.745	283.12
283.976	289.12
284.207	276.12
284.439	264.12
284.67	282.12
284.901	271.12
285.132	274.12
285.364	286.12
285.595	276.12
285.826	273.12
286.057	271.12
286.288	280.12
286.52	291.12
286.751	263.12
286.982	280.12
287.213	273.12
287.444	285.12
287.675	306.12
287.906	310.12
288.138	315.12
288.369	343.12
288.6	317.12
288.831	301.12
289.062	307.12
289.293	311.12
289.524	289.12
289.755	284.12
289.986	303.12
290.217	302.12
290.448	276.12
290.679	293.12
290.91	294.12
291.141	269.12
291.371	289.12
291.602	285.12
291.833	277.12
292.064	280.12
292.295	300.12
292.526	324.12
292.757	289.12
292.987	291.12
293.218	300.12
293.449	297.12
293.68	289.12
293.91	285.12
294.141	298.12
294.372	281.12
294.603	293.12
294.833	273.12
295.064	285.12
295.295	297.12
295.525	289.12
295.756	315.12
295.987	320.12
296.217	357.12
296.448	343.12
296.679	318.12
296.909	308.12
297.14	300.12
297.37	313.12
297.601	308.12
297.831	298.12
298.062	304.12
298.292	309.12
298.523	311.12
298.753	321.12
298.984	307.12
299.214	311.12
299.445	310.12
299.675	325.12
299.905	314.12
300.136	315.12
300.366	318.12
300.597	318.12
300.827	326.12
301.057	332.12
301.288	350.12
301.518	320.12
301.748	321.12
301.979	312.12
302.209	333.12
302.439	328.12
302.669	331.12
302.9	330.12
303.13	325.12
303.36	319.12
303.59	337.12
303.82	339.12
304.051	347.12
304.281	324.12
304.511	334.12
304.741	324.12
304.971	312.12
305.201	321.12
305.431	335.12
305.661	340.12
305.891	337.12
306.121	339.12
306.352	336.12
306.582	343.12
306.812	331.12
307.042	317.12
307.272	329.12
307.502	334.12
307.731	332.12
307.961	345.12
308.191	325.12
308.421	319.12
308.651	348.12
308.881	345.12
309.111	362.12
309.341	373.12
309.571	363.12
309.8	383.12
310.03	397.12
310.26	399.12
310.49	412.12
310.72	413.12
310.949	440.12
311.179	410.12
311.409	402.12
311.639	374.12
311.868	395.12
312.098	390.12
312.328	399.12
312.557	409.12
312.787	434.12
313.017	430.12
313.246	419.12
313.476	383.12
313.706	401.12
313.935	397.12
314.165	432.12
314.394	424.12
314.624	428.12
314.853	417.12
315.083	402.12
315.312	407.12
315.542	381.12
315.771	390.12
316.001	389.12
316.23	381.12
316.46	374.12
316.689	405.12
316.919	406.12
317.148	407.12
317.377	405.12
317.607	419.12
317.836	400.12
318.065	403.12
318.295	379.12
318.524	407.12
318.753	409.12
318.983	384.12
319.212	381.12
319.441	400.12
319.67	415.12
319.9	413.12
320.129	376.12
320.358	413.12
320.587	408.12
320.816	415.12
321.046	434.12
321.275	422.12
321.504	435.12
321.733	421.12
321.962	448.12
322.191	456.12
322.42	473.12
322.649	488.12
322.878	513.12
323.108	522.12
323.337	535.12
323.566	587.12
323.795	606.12
324.024	680.12
324.253	845.12
324.482	1187.12
324.71	1836.12
324.939	2628.12
325.168	2247.12
325.397	1200.12
325.626	796.12
325.855	661.12
326.084	599.12
326.313	550.12
326.542	608.12
326.77	651.12
326.999	765.12
327.228	1057.12
327.457	1600.12
327.686	1982.12
327.914	1341.12
328.143	877.12
328.372	758.12
328.6	727.12
328.829	659.12
329.058	679.12
329.287	713.12
329.515	605.12
329.744	599.12
329.972	606.12
330.201	624.12
330.43	679.12
330.658	700.12
330.887	766.12
331.115	724.12
331.344	597.12
331.572	562.12
331.801	582.12
332.03	552.12
332.258	521.12
332.486	487.12
332.715	449.12
332.943	481.12
333.172	489.12
333.4	495.12
333.629	509.12
333.857	510.12
334.085	523.12
334.314	542.12
334.542	581.12
334.771	577.12
334.999	555.12
335.227	503.12
335.455	501.12
335.684	486.12
335.912	463.12
336.14	460.12
336.369	464.12
336.597	480.12
336.825	456.12
337.053	480.12
337.281	450.12
337.51	457.12
337.738	477.12
337.966	485.12
338.194	487.12
338.422	471.12
338.65	465.12
338.878	471.12
339.106	448.12
339.334	452.12
339.562	449.12
339.79	453.12
340.018	452.12
340.246	450.12
340.474	465.12
340.702	447.12
340.93	446.12
341.158	437.12
341.386	456.12
341.614	455.12
341.842	457.12
342.07	452.12
342.298	465.12
342.526	432.12
342.754	431.12
342.981	423.12
343.209	419.12
343.437	438.12
343.665	449.12
343.893	438.12
344.12	444.12
344.348	459.12
344.576	459.12
344.804	459.12
345.031	466.12
345.259	487.12
345.487	483.12
345.714	494.12
345.942	439.12
346.17	428.12
346.397	447.12
346.625	452.12
346.853	461.12
347.08	438.12
347.308	431.12
347.535	463.12
347.763	465.12
347.99	456.12
348.218	466.12
348.445	487.12
348.673	481.12
348.9	454.12
349.128	458.12
349.355	451.12
349.583	417.12
349.81	439.12
350.037	454.12
350.265	414.12
350.492	427.12
350.72	420.12
350.947	440.12
351.174	447.12
351.402	458.12
351.629	452.12
351.856	466.12
352.083	463.12
352.311	487.12
352.538	483.12
352.765	486.12
352.992	453.12
353.22	460.12
353.447	457.12
353.674	451.12
353.901	426.12
354.128	431.12
354.355	417.12
354.583	424.12
354.81	422.12
355.037	393.12
355.264	397.12
355.491	410.12
355.718	423.12
355.945	409.12
356.172	390.12
356.399	427.12
356.626	426.12
356.853	408.12
357.08	405.12
357.307	433.12
357.534	403.12
357.761	406.12
357.988	415.12
358.215	408.12
358.441	408.12
358.668	411.12
358.895	430.12
359.122	419.12
359.349	451.12
359.576	475.12
359.802	480.12
360.029	526.12
360.256	551.12
360.483	525.12
360.709	472.12
360.936	462.12
361.163	456.12
361.39	481.12
361.616	476.12
361.843	453.12
362.07	440.12
362.296	450.12
362.523	470.12
362.749	482.12
362.976	445.12
363.203	429.12
363.429	405.12
363.656	441.12
363.882	408.12
364.109	420.12
364.335	447.12
364.562	423.12
364.788	433.12
365.015	441.12
365.241	435.12
365.468	441.12
365.694	444.12
365.92	440.12
366.147	437.12
366.373	436.12
366.599	449.12
366.826	412.12
367.052	417.12
367.278	409.12
367.505	411.12
367.731	436.12
367.957	440.12
368.184	424.12
368.41	454.12
368.636	439.12
368.862	440.12
369.089	430.12
369.315	432.12
369.541	426.12
369.767	430.12
369.993	419.12
370.219	437.12
370.445	416.12
370.672	431.12
370.898	423.12
371.124	427.12
371.35	430.12
371.576	430.12
371.802	428.12
372.028	402.12
372.254	411.12
372.48	415.12
372.706	429.12
372.932	430.12
373.158	407.12
373.384	424.12
373.61	435.12
373.835	440.12
374.061	446.12
374.287	419.12
374.513	452.12
374.739	448.12
374.965	443.12
375.191	430.12
375.416	457.12
375.642	423.12
375.868	448.12
376.094	425.12
376.319	434.12
376.545	422.12
376.771	412.12
376.997	415.12
377.222	434.12
377.448	443.12
377.674	447.12
377.899	417.12
378.125	418.12
378.35	446.12
378.576	416.12
378.802	421.12
379.027	432.12
379.253	439.12
379.478	411.12
379.704	403.12
379.929	424.12
380.155	425.12
380.38	427.12
380.606	440.12
380.831	424.12
381.057	448.12
381.282	424.12
381.507	436.12
381.733	439.12
381.958	414.12
382.184	412.12
382.409	439.12
382.634	427.12
382.86	421.12
383.085	436.12
383.31	453.12
383.535	435.12
383.761	426.12
383.986	452.12
384.211	430.12
384.436	463.12
384.662	443.12
384.887	463.12
385.112	448.12
385.337	454.12
385.562	425.12
385.787	453.12
386.013	454.12
386.238	472.12
386.463	468.12
386.688	460.12
386.913	461.12
387.138	440.12
387.363	456.12
387.588	476.12
387.813	467.12
388.038	453.12
388.263	476.12
388.488	462.12
388.713	445.12
388.938	461.12
389.163	458.12
389.387	488.12
389.612	444.12
389.837	472.12
390.062	446.12
390.287	456.12
390.512	455.12
390.736	440.12
390.961	443.12
391.186	439.12
391.411	457.12
391.636	471.12
391.86	458.12
392.085	483.12
392.31	464.12
392.534	481.12
392.759	473.12
392.984	471.12
393.208	471.12
393.433	460.12
393.658	455.12
393.882	464.12
394.107	447.12
394.331	468.12
394.556	456.12
394.78	465.12
395.005	472.12
395.229	466.12
395.454	462.12
395.678	483.12
395.903	481.12
396.127	509.12
396.352	522.12
396.576	491.12
396.801	489.12
397.025	482.12
397.249	500.12
397.474	481.12
397.698	500.12
397.922	530.12
398.147	506.12
398.371	511.12
398.595	519.12
398.82	507.12
399.044	519.12
399.268	533.12
399.492	570.12
399.717	582.12
399.941	598.12
400.165	631.12
400.389	663.12
400.613	591.12
400.837	565.12
401.062	540.12
401.286	536.12
401.51	516.12
401.734	511.12
401.958	535.12
402.182	517.12
402.406	541.12
402.63	542.12
402.854	553.12
403.078	559.12
403.302	544.12
403.526	529.12
403.75	558.12
403.974	554.12
404.198	565.12
404.422	539.12
404.645	548.12
404.869	578.12
405.093	606.12
405.317	671.12
405.541	695.12
405.765	646.12
405.988	597.12
406.212	595.12
406.436	663.12
406.66	653.12
406.883	623.12
407.107	635.12
407.331	665.12
407.555	727.12
407.778	745.12
408.002	677.12
408.226	632.12
408.449	620.12
408.673	618.12
408.896	659.12
409.12	699.12
409.344	679.12
409.567	582.12
409.791	577.12
410.014	570.12
410.238	553.12
410.461	571.12
410.685	592.12
410.908	573.12
411.132	608.12
411.355	651.12
411.578	633.12
411.802	593.12
412.025	547.12
412.249	579.12
412.472	595.12
412.695	655.12
412.919	649.12
413.142	572.12
413.365	560.12
413.589	567.12
413.812	551.12
414.035	552.12
414.258	547.12
414.482	536.12
414.705	562.12
414.928	519.12
415.151	516.12
415.374	506.12
415.597	524.12
415.821	522.12
416.044	500.12
416.267	542.12
416.49	531.12
416.713	535.12
416.936	534.12
417.159	518.12
417.382	512.12
417.605	546.12
417.828	556.12
418.051	568.12
418.274	549.12
418.497	549.12
418.72	525.12
418.943	527.12
419.166	543.12
419.389	576.12
419.611	557.12
419.834	581.12
420.057	589.12
420.28	578.12
420.503	551.12
420.726	576.12
420.948	571.12
421.171	617.12
421.394	669.12
421.617	592.12
421.839	575.12
422.062	554.12
422.285	587.12
422.507	641.12
422.73	734.12
422.953	710.12
423.175	643.12
423.398	617.12
423.621	596.12
423.843	628.12
424.066	596.12
424.288	619.12
424.511	620.12
424.733	693.12
424.956	793.12
425.178	777.12
425.401	760.12
425.623	783.12
425.846	663.12
426.068	636.12
426.291	622.12
426.513	611.12
426.735	651.12
426.958	691.12
427.18	744.12
427.402	925.12
427.625	1021.12
427.847	951.12
428.069	807.12
428.292	727.12
428.514	649.12
428.736	604.12
428.958	601.12
429.181	590.12
429.403	565.12
429.625	593.12
429.847	637.12
430.069	721.12
430.292	708.12
430.514	613.12
430.736	591.12
430.958	563.12
431.18	544.12
431.402	573.12
431.624	557.12
431.846	549.12
432.068	529.12
432.29	553.12
432.512	557.12
432.734	556.12
432.956	531.12
433.178	559.12
433.4	565.12
433.622	550.12
433.844	566.12
434.066	543.12
434.287	523.12
434.509	557.12
434.731	553.12
434.953	537.12
435.175	582.12
435.397	634.12
435.618	629.12
435.84	656.12
436.062	751.12
436.284	845.12
436.505	712.12
436.727	652.12
436.949	601.12
437.17	589.12
437.392	590.12
437.614	598.12
437.835	662.12
438.057	762.12
438.278	884.12
438.5	865.12
438.721	926.12
438.943	905.12
439.165	744.12
439.386	661.12
439.608	670.12
439.829	639.12
440.05	708.12
440.272	744.12
440.493	705.12
440.715	632.12
440.936	622.12
441.158	609.12
441.379	584.12
441.6	614.12
441.822	638.12
442.043	681.12
442.264	753.12
442.486	789.12
442.707	720.12
442.928	647.12
443.149	672.12
443.371	686.12
443.592	724.12
443.813	832.12
444.034	888.12
444.255	727.12
444.476	653.12
444.698	659.12
444.919	629.12
445.14	765.12
445.361	714.12
445.582	694.12
445.803	761.12
446.024	899.12
446.245	892.12
446.466	804.12
446.687	696.12
446.908	632.12
447.129	612.12
447.35	600.12
447.571	602.12
447.792	590.12
448.013	610.12
448.234	582.12
448.455	669.12
448.675	773.12
448.896	897.12
449.117	799.12
449.338	774.12
449.559	859.12
449.779	931.12
450	803.12
450.221	663.12
450.442	613.12
450.662	573.12
450.883	601.12
451.104	634.12
451.324	617.12
451.545	592.12
451.766	544.12
451.986	538.12
452.207	522.12
452.428	527.12
452.648	519.12
452.869	523.12
453.089	557.12
453.31	546.12
453.53	527.12
453.751	508.12
453.971	544.12
454.192	583.12
454.412	547.12
454.633	537.12
454.853	540.12
455.073	536.12
455.294	574.12
455.514	648.12
455.734	631.12
455.955	533.12
456.175	511.12
456.395	505.12
456.616	488.12
456.836	491.12
457.056	463.12
457.276	462.12
457.497	489.12
457.717	488.12
457.937	500.12
458.157	491.12
458.377	505.12
458.598	553.12
458.818	615.12
459.038	733.12
459.258	740.12
459.478	635.12
459.698	563.12
459.918	535.12
460.138	530.12
460.358	543.12
460.578	516.12
460.798	526.12
461.018	533.12
461.238	545.12
461.458	544.12
461.678	523.12
461.898	546.12
462.118	531.12
462.338	517.12
462.558	550.12
462.777	541.12
462.997	543.12
463.217	542.12
463.437	572.12
463.657	552.12
463.876	573.12
464.096	576.12
464.316	565.12
464.536	573.12
464.755	573.12
464.975	608.12
465.195	643.12
465.414	739.12
465.634	673.12
465.854	611.12
466.073	574.12
466.293	547.12
466.512	551.12
466.732	544.12
466.951	522.12
467.171	537.12
467.391	534.12
467.61	554.12
467.829	573.12
468.049	545.12
468.268	583.12
468.488	549.12
468.707	526.12
468.927	535.12
469.146	501.12
469.365	526.12
469.585	513.12
469.804	533.12
470.023	552.12
470.243	545.12
470.462	541.12
470.681	574.12
470.901	561.12
471.12	547.12
471.339	553.12
471.558	582.12
471.777	544.12
471.997	528.12
472.216	555.12
472.435	614.12
472.654	583.12
472.873	560.12
473.092	546.12
473.311	551.12
473.53	550.12
473.749	553.12
473.968	605.12
474.187	732.12
474.406	745.12
474.625	629.12
474.844	566.12
475.063	563.12
475.282	529.12
475.501	551.12
475.72	559.12
475.939	554.12
476.158	574.12
476.377	537.12
476.596	557.12
476.814	572.12
477.033	588.12
477.252	589.12
477.471	598.12
477.69	583.12
477.908	571.12
478.127	606.12
478.346	593.12
478.564	599.12
478.783	597.12
479.002	616.12
479.22	619.12
479.439	651.12
479.658	650.12
479.876	661.12
480.095	647.12
480.313	717.12
480.532	696.12
480.751	659.12
480.969	684.12
481.188	795.12
481.406	853.12
481.624	733.12
481.843	662.12
482.061	677.12
482.28	656.12
482.498	638.12
482.717	658.12
482.935	651.12
483.153	642.12
483.372	656.12
483.59	658.12
483.808	654.12
484.027	651.12
484.245	649.12
484.463	647.12
484.681	660.12
484.9	674.12
485.118	679.12
485.336	664.12
485.554	657.12
485.772	682.12
485.99	680.12
486.209	673.12
486.427	695.12
486.645	697.12
486.863	713.12
487.081	711.12
487.299	709.12
487.517	701.12
487.735	691.12
487.953	718.12
488.171	711.12
488.389	703.12
488.607	712.12
488.825	723.12
489.043	724.12
489.261	729.12
489.479	726.12
489.696	709.12
489.914	724.12
490.132	715.12
490.35	760.12
490.568	744.12
490.786	750.12
491.003	752.12
491.221	796.12
491.439	810.12
491.657	815.12
491.874	822.12
492.092	829.12
492.31	821.12
492.527	848.12
492.745	850.12
492.963	837.12
493.18	856.12
493.398	857.12
493.615	856.12
493.833	856.12
494.05	864.12
494.268	859.12
494.485	865.12
494.703	862.12
494.92	841.12
495.138	873.12
495.355	885.12
495.573	851.12
495.79	844.12
496.008	872.12
496.225	885.12
496.442	851.12
496.66	884.12
496.877	898.12
497.094	852.12
497.312	859.12
497.529	870.12
497.746	871.12
497.963	890.12
498.181	903.12
498.398	894.12
498.615	902.12
498.832	922.12
499.049	900.12
499.267	953.12
499.484	960.12
499.701	983.12
499.918	982.12
500.135	1003.12
500.352	1025.12
500.569	1023.12
500.786	1062.12
501.003	1064.12
501.22	1072.12
501.437	1041.12
501.654	1004.12
501.871	1007.12
