Data from 1970.PennyLincolnUp.Lamp.En5.5.200Scan.071719.P1._HRD10591_15-15-29-841.txt Node
Date: Thu Jul 18 15:15:29 EDT 2019
User: cochatt
Spectrometer: HR+D1059
Trigger mode: 1
Integration Time (sec): 1.000000E-1
Scans to average: 1
Electric dark correction enabled: true
Nonlinearity correction enabled: false
Boxcar width: 0
XAxis mode: Wavelengths
Number of Pixels in Spectrum: 2048
>>>>>Begin Spectral Data<<<<<
223.165	-13.06
223.4	-13.06
223.635	-13.06
223.869	-22.06
224.104	-14.06
224.338	-18.06
224.573	-13.06
224.808	-8.06
225.042	-3.06
225.277	0.94
225.511	3.94
225.746	4.94
225.98	5.94
226.215	10.94
226.449	5.94
226.683	18.94
226.918	12.94
227.152	26.94
227.387	47.94
227.621	35.94
227.856	33.94
228.09	47.94
228.324	53.94
228.559	53.94
228.793	78.94
229.027	98.94
229.262	117.94
229.496	132.94
229.73	155.94
229.964	173.94
230.199	164.94
230.433	131.94
230.667	126.94
230.901	124.94
231.136	107.94
231.37	128.94
231.604	114.94
231.838	101.94
232.072	123.94
232.306	107.94
232.541	123.94
232.775	123.94
233.009	134.94
233.243	122.94
233.477	117.94
233.711	121.94
233.945	121.94
234.179	117.94
234.413	107.94
234.647	112.94
234.881	121.94
235.115	118.94
235.349	121.94
235.583	114.94
235.817	129.94
236.051	128.94
236.285	137.94
236.519	141.94
236.753	144.94
236.987	151.94
237.221	212.94
237.455	264.94
237.689	206.94
237.922	153.94
238.156	136.94
238.39	138.94
238.624	134.94
238.858	138.94
239.091	150.94
239.325	125.94
239.559	141.94
239.793	132.94
240.027	137.94
240.26	152.94
240.494	162.94
240.728	166.94
240.961	165.94
241.195	155.94
241.429	158.94
241.662	139.94
241.896	164.94
242.13	146.94
242.363	144.94
242.597	152.94
242.83	148.94
243.064	150.94
243.298	140.94
243.531	154.94
243.765	149.94
243.998	141.94
244.232	154.94
244.465	150.94
244.699	166.94
244.932	146.94
245.166	161.94
245.399	149.94
245.633	137.94
245.866	151.94
246.099	148.94
246.333	154.94
246.566	156.94
246.8	168.94
247.033	167.94
247.266	153.94
247.5	171.94
247.733	184.94
247.966	178.94
248.2	175.94
248.433	189.94
248.666	169.94
248.899	208.94
249.133	224.94
249.366	222.94
249.599	221.94
249.832	188.94
250.066	190.94
250.299	198.94
250.532	209.94
250.765	216.94
250.998	244.94
251.231	253.94
251.465	257.94
251.698	214.94
251.931	224.94
252.164	212.94
252.397	218.94
252.63	227.94
252.863	224.94
253.096	238.94
253.329	232.94
253.562	261.94
253.795	248.94
254.028	242.94
254.261	256.94
254.494	251.94
254.727	289.94
254.96	310.94
255.193	309.94
255.426	269.94
255.659	282.94
255.892	265.94
256.124	276.94
256.357	256.94
256.59	262.94
256.823	250.94
257.056	234.94
257.289	244.94
257.521	221.94
257.754	219.94
257.987	229.94
258.22	219.94
258.452	241.94
258.685	224.94
258.918	235.94
259.151	221.94
259.383	221.94
259.616	241.94
259.849	231.94
260.081	248.94
260.314	286.94
260.547	270.94
260.779	276.94
261.012	258.94
261.244	253.94
261.477	218.94
261.71	228.94
261.942	235.94
262.175	252.94
262.407	258.94
262.64	224.94
262.872	218.94
263.105	225.94
263.337	228.94
263.57	230.94
263.802	221.94
264.035	195.94
264.267	213.94
264.499	210.94
264.732	222.94
264.964	225.94
265.197	221.94
265.429	230.94
265.661	230.94
265.894	217.94
266.126	216.94
266.358	221.94
266.591	214.94
266.823	209.94
267.055	232.94
267.287	240.94
267.52	231.94
267.752	227.94
267.984	228.94
268.216	231.94
268.448	240.94
268.681	248.94
268.913	244.94
269.145	267.94
269.377	277.94
269.609	289.94
269.841	291.94
270.073	294.94
270.306	297.94
270.538	342.94
270.77	341.94
271.002	326.94
271.234	301.94
271.466	332.94
271.698	312.94
271.93	337.94
272.162	332.94
272.394	336.94
272.626	318.94
272.858	315.94
273.09	306.94
273.322	278.94
273.553	281.94
273.785	286.94
274.017	266.94
274.249	273.94
274.481	264.94
274.713	270.94
274.945	285.94
275.176	266.94
275.408	278.94
275.64	257.94
275.872	271.94
276.104	272.94
276.335	266.94
276.567	284.94
276.799	320.94
277.031	313.94
277.262	331.94
277.494	313.94
277.726	320.94
277.957	282.94
278.189	281.94
278.421	280.94
278.652	262.94
278.884	284.94
279.115	282.94
279.347	278.94
279.579	258.94
279.81	264.94
280.042	262.94
280.273	285.94
280.505	268.94
280.736	256.94
280.968	261.94
281.199	268.94
281.431	278.94
281.662	269.94
281.894	275.94
282.125	266.94
282.356	280.94
282.588	323.94
282.819	329.94
283.051	283.94
283.282	264.94
283.513	271.94
283.745	268.94
283.976	262.94
284.207	291.94
284.439	284.94
284.67	282.94
284.901	289.94
285.132	268.94
285.364	262.94
285.595	286.94
285.826	250.94
286.057	284.94
286.288	274.94
286.52	278.94
286.751	268.94
286.982	288.94
287.213	280.94
287.444	280.94
287.675	268.94
287.906	290.94
288.138	324.94
288.369	292.94
288.6	291.94
288.831	292.94
289.062	300.94
289.293	290.94
289.524	293.94
289.755	283.94
289.986	268.94
290.217	287.94
290.448	284.94
290.679	301.94
290.91	276.94
291.141	283.94
291.371	276.94
291.602	294.94
291.833	273.94
292.064	273.94
292.295	283.94
292.526	279.94
292.757	302.94
292.987	286.94
293.218	284.94
293.449	286.94
293.68	286.94
293.91	264.94
294.141	268.94
294.372	294.94
294.603	268.94
294.833	279.94
295.064	268.94
295.295	284.94
295.525	289.94
295.756	297.94
295.987	307.94
296.217	331.94
296.448	322.94
296.679	287.94
296.909	294.94
297.14	300.94
297.37	296.94
297.601	309.94
297.831	288.94
298.062	296.94
298.292	276.94
298.523	318.94
298.753	300.94
298.984	315.94
299.214	289.94
299.445	293.94
299.675	306.94
299.905	296.94
300.136	274.94
300.366	293.94
300.597	304.94
300.827	311.94
301.057	312.94
301.288	301.94
301.518	332.94
301.748	331.94
301.979	309.94
302.209	325.94
302.439	333.94
302.669	319.94
302.9	312.94
303.13	330.94
303.36	331.94
303.59	332.94
303.82	324.94
304.051	332.94
304.281	327.94
304.511	313.94
304.741	321.94
304.971	305.94
305.201	318.94
305.431	310.94
305.661	308.94
305.891	303.94
306.121	313.94
306.352	317.94
306.582	341.94
306.812	329.94
307.042	314.94
307.272	328.94
307.502	316.94
307.731	339.94
307.961	322.94
308.191	328.94
308.421	320.94
308.651	322.94
308.881	326.94
309.111	346.94
309.341	334.94
309.571	352.94
309.8	370.94
310.03	344.94
310.26	388.94
310.49	364.94
310.72	386.94
310.949	394.94
311.179	410.94
311.409	381.94
311.639	381.94
311.868	380.94
312.098	387.94
312.328	392.94
312.557	399.94
312.787	412.94
313.017	415.94
313.246	389.94
313.476	396.94
313.706	374.94
313.935	406.94
314.165	399.94
314.394	408.94
314.624	415.94
314.853	417.94
315.083	383.94
315.312	380.94
315.542	374.94
315.771	400.94
316.001	388.94
316.23	372.94
316.46	380.94
316.689	407.94
316.919	392.94
317.148	390.94
317.377	386.94
317.607	407.94
317.836	377.94
318.065	396.94
318.295	392.94
318.524	364.94
318.753	395.94
318.983	387.94
319.212	382.94
319.441	414.94
319.67	392.94
319.9	384.94
320.129	388.94
320.358	386.94
320.587	380.94
320.816	406.94
321.046	399.94
321.275	424.94
321.504	390.94
321.733	406.94
321.962	429.94
322.191	433.94
322.42	435.94
322.649	466.94
322.878	484.94
323.108	475.94
323.337	512.94
323.566	551.94
323.795	597.94
324.024	640.94
324.253	763.94
324.482	1107.94
324.71	1716.94
324.939	2466.94
325.168	2116.94
325.397	1124.94
325.626	753.94
325.855	618.94
326.084	569.94
326.313	546.94
326.542	553.94
326.77	613.94
326.999	697.94
327.228	989.94
327.457	1513.94
327.686	1817.94
327.914	1245.94
328.143	818.94
328.372	714.94
328.6	676.94
328.829	628.94
329.058	634.94
329.287	636.94
329.515	630.94
329.744	561.94
329.972	568.94
330.201	597.94
330.43	620.94
330.658	665.94
330.887	690.94
331.115	658.94
331.344	566.94
331.572	538.94
331.801	518.94
332.03	510.94
332.258	490.94
332.486	460.94
332.715	472.94
332.943	483.94
333.172	462.94
333.4	465.94
333.629	459.94
333.857	494.94
334.085	487.94
334.314	510.94
334.542	564.94
334.771	584.94
334.999	520.94
335.227	489.94
335.455	452.94
335.684	459.94
335.912	459.94
336.14	446.94
336.369	462.94
336.597	489.94
336.825	454.94
337.053	456.94
337.281	445.94
337.51	432.94
337.738	452.94
337.966	449.94
338.194	453.94
338.422	436.94
338.65	446.94
338.878	440.94
339.106	458.94
339.334	441.94
339.562	429.94
339.79	441.94
340.018	441.94
340.246	446.94
340.474	441.94
340.702	454.94
340.93	433.94
341.158	435.94
341.386	442.94
341.614	429.94
341.842	419.94
342.07	429.94
342.298	434.94
342.526	427.94
342.754	418.94
342.981	419.94
343.209	411.94
343.437	398.94
343.665	424.94
343.893	449.94
344.12	416.94
344.348	445.94
344.576	445.94
344.804	441.94
345.031	449.94
345.259	460.94
345.487	452.94
345.714	467.94
345.942	434.94
346.17	429.94
346.397	449.94
346.625	432.94
346.853	435.94
347.08	410.94
347.308	426.94
347.535	429.94
347.763	444.94
347.99	439.94
348.218	464.94
348.445	453.94
348.673	449.94
348.9	440.94
349.128	421.94
349.355	416.94
349.583	398.94
349.81	412.94
350.037	434.94
350.265	429.94
350.492	434.94
350.72	434.94
350.947	430.94
351.174	440.94
351.402	446.94
351.629	450.94
351.856	435.94
352.083	436.94
352.311	463.94
352.538	470.94
352.765	443.94
352.992	423.94
353.22	439.94
353.447	449.94
353.674	417.94
353.901	402.94
354.128	410.94
354.355	386.94
354.583	401.94
354.81	402.94
355.037	392.94
355.264	392.94
355.491	379.94
355.718	397.94
355.945	386.94
356.172	380.94
356.399	413.94
356.626	395.94
356.853	394.94
357.08	408.94
357.307	404.94
357.534	408.94
357.761	406.94
357.988	409.94
358.215	394.94
358.441	422.94
358.668	428.94
358.895	407.94
359.122	393.94
359.349	424.94
359.576	435.94
359.802	479.94
360.029	481.94
360.256	494.94
360.483	470.94
360.709	446.94
360.936	438.94
361.163	447.94
361.39	445.94
361.616	453.94
361.843	435.94
362.07	438.94
362.296	443.94
362.523	424.94
362.749	425.94
362.976	436.94
363.203	429.94
363.429	422.94
363.656	412.94
363.882	405.94
364.109	412.94
364.335	429.94
364.562	419.94
364.788	412.94
365.015	421.94
365.241	398.94
365.468	411.94
365.694	430.94
365.92	413.94
366.147	419.94
366.373	432.94
366.599	417.94
366.826	425.94
367.052	401.94
367.278	409.94
367.505	425.94
367.731	410.94
367.957	442.94
368.184	413.94
368.41	417.94
368.636	436.94
368.862	424.94
369.089	429.94
369.315	410.94
369.541	418.94
369.767	424.94
369.993	418.94
370.219	401.94
370.445	391.94
370.672	399.94
370.898	424.94
371.124	413.94
371.35	425.94
371.576	423.94
371.802	417.94
372.028	405.94
372.254	399.94
372.48	412.94
372.706	412.94
372.932	420.94
373.158	404.94
373.384	400.94
373.61	398.94
373.835	422.94
374.061	415.94
374.287	400.94
374.513	413.94
374.739	425.94
374.965	419.94
375.191	417.94
375.416	436.94
375.642	417.94
375.868	417.94
376.094	417.94
376.319	422.94
376.545	405.94
376.771	406.94
376.997	394.94
377.222	425.94
377.448	394.94
377.674	398.94
377.899	416.94
378.125	418.94
378.35	404.94
378.576	415.94
378.802	410.94
379.027	398.94
379.253	404.94
379.478	408.94
379.704	425.94
379.929	423.94
380.155	424.94
380.38	414.94
380.606	418.94
380.831	412.94
381.057	420.94
381.282	425.94
381.507	438.94
381.733	457.94
381.958	418.94
382.184	416.94
382.409	423.94
382.634	440.94
382.86	448.94
383.085	423.94
383.31	444.94
383.535	426.94
383.761	429.94
383.986	420.94
384.211	427.94
384.436	443.94
384.662	434.94
384.887	439.94
385.112	425.94
385.337	429.94
385.562	436.94
385.787	449.94
386.013	455.94
386.238	452.94
386.463	463.94
386.688	452.94
386.913	423.94
387.138	446.94
387.363	483.94
387.588	449.94
387.813	451.94
388.038	446.94
388.263	427.94
388.488	458.94
388.713	442.94
388.938	448.94
389.163	452.94
389.387	457.94
389.612	451.94
389.837	449.94
390.062	459.94
390.287	453.94
390.512	454.94
390.736	428.94
390.961	422.94
391.186	429.94
391.411	443.94
391.636	454.94
391.86	448.94
392.085	471.94
392.31	453.94
392.534	451.94
392.759	444.94
392.984	448.94
393.208	468.94
393.433	459.94
393.658	468.94
393.882	454.94
394.107	453.94
394.331	445.94
394.556	460.94
394.78	447.94
395.005	473.94
395.229	464.94
395.454	463.94
395.678	450.94
395.903	469.94
396.127	524.94
396.352	488.94
396.576	465.94
396.801	478.94
397.025	492.94
397.249	482.94
397.474	474.94
397.698	468.94
397.922	492.94
398.147	501.94
398.371	506.94
398.595	514.94
398.82	494.94
399.044	510.94
399.268	524.94
399.492	510.94
399.717	576.94
399.941	602.94
400.165	604.94
400.389	604.94
400.613	564.94
400.837	544.94
401.062	524.94
401.286	508.94
401.51	530.94
401.734	498.94
401.958	496.94
402.182	520.94
402.406	540.94
402.63	551.94
402.854	536.94
403.078	524.94
403.302	530.94
403.526	550.94
403.75	519.94
403.974	525.94
404.198	517.94
404.422	526.94
404.645	551.94
404.869	540.94
405.093	572.94
405.317	604.94
405.541	646.94
405.765	586.94
405.988	568.94
406.212	572.94
406.436	600.94
406.66	639.94
406.883	605.94
407.107	613.94
407.331	649.94
407.555	702.94
407.778	741.94
408.002	654.94
408.226	608.94
408.449	592.94
408.673	593.94
408.896	644.94
409.12	668.94
409.344	624.94
409.567	580.94
409.791	539.94
410.014	555.94
410.238	537.94
410.461	556.94
410.685	552.94
410.908	578.94
411.132	637.94
411.355	631.94
411.578	607.94
411.802	587.94
412.025	556.94
412.249	549.94
412.472	599.94
412.695	614.94
412.919	615.94
413.142	572.94
413.365	566.94
413.589	535.94
413.812	522.94
414.035	524.94
414.258	506.94
414.482	524.94
414.705	512.94
414.928	512.94
415.151	506.94
415.374	514.94
415.597	516.94
415.821	492.94
416.044	537.94
416.267	521.94
416.49	503.94
416.713	515.94
416.936	514.94
417.159	525.94
417.382	538.94
417.605	536.94
417.828	553.94
418.051	556.94
418.274	544.94
418.497	523.94
418.72	543.94
418.943	500.94
419.166	548.94
419.389	557.94
419.611	564.94
419.834	556.94
420.057	558.94
420.28	571.94
420.503	560.94
420.726	558.94
420.948	591.94
421.171	609.94
421.394	636.94
421.617	581.94
421.839	553.94
422.062	532.94
422.285	583.94
422.507	611.94
422.73	715.94
422.953	688.94
423.175	614.94
423.398	597.94
423.621	570.94
423.843	606.94
424.066	607.94
424.288	594.94
424.511	609.94
424.733	701.94
424.956	758.94
425.178	748.94
425.401	744.94
425.623	780.94
425.846	662.94
426.068	609.94
426.291	616.94
426.513	625.94
426.735	619.94
426.958	676.94
427.18	757.94
427.402	885.94
427.625	994.94
427.847	898.94
428.069	747.94
428.292	672.94
428.514	624.94
428.736	584.94
428.958	589.94
429.181	573.94
429.403	556.94
429.625	594.94
429.847	616.94
430.069	641.94
430.292	674.94
430.514	612.94
430.736	572.94
430.958	545.94
431.18	553.94
431.402	540.94
431.624	518.94
431.846	525.94
432.068	510.94
432.29	508.94
432.512	530.94
432.734	550.94
432.956	555.94
433.178	544.94
433.4	556.94
433.622	525.94
433.844	552.94
434.066	521.94
434.287	534.94
434.509	534.94
434.731	538.94
434.953	529.94
435.175	556.94
435.397	605.94
435.618	598.94
435.84	660.94
436.062	730.94
436.284	829.94
436.505	680.94
436.727	624.94
436.949	590.94
437.17	577.94
437.392	577.94
437.614	583.94
437.835	620.94
438.057	735.94
438.278	833.94
438.5	827.94
438.721	906.94
438.943	840.94
439.165	681.94
439.386	636.94
439.608	620.94
439.829	638.94
440.05	655.94
440.272	720.94
440.493	683.94
440.715	623.94
440.936	590.94
441.158	570.94
441.379	569.94
441.6	600.94
441.822	620.94
442.043	663.94
442.264	731.94
442.486	793.94
442.707	698.94
442.928	645.94
443.149	648.94
443.371	660.94
443.592	684.94
443.813	820.94
444.034	813.94
444.255	716.94
444.476	636.94
444.698	595.94
444.919	596.94
445.14	713.94
445.361	688.94
445.582	694.94
445.803	737.94
446.024	843.94
446.245	859.94
446.466	768.94
446.687	672.94
446.908	620.94
447.129	607.94
447.35	571.94
447.571	572.94
447.792	590.94
448.013	601.94
448.234	613.94
448.455	657.94
448.675	786.94
448.896	860.94
449.117	769.94
449.338	724.94
449.559	851.94
449.779	921.94
450	735.94
450.221	621.94
450.442	620.94
450.662	564.94
450.883	585.94
451.104	586.94
451.324	586.94
451.545	537.94
451.766	531.94
451.986	523.94
452.207	521.94
452.428	514.94
452.648	502.94
452.869	537.94
453.089	530.94
453.31	551.94
453.53	493.94
453.751	522.94
453.971	522.94
454.192	542.94
454.412	526.94
454.633	526.94
454.853	517.94
455.073	521.94
455.294	532.94
455.514	628.94
455.734	605.94
455.955	546.94
456.175	494.94
456.395	487.94
456.616	468.94
456.836	481.94
457.056	474.94
457.276	456.94
457.497	474.94
457.717	478.94
457.937	476.94
458.157	504.94
458.377	493.94
458.598	556.94
458.818	601.94
459.038	685.94
459.258	709.94
459.478	605.94
459.698	566.94
459.918	535.94
460.138	552.94
460.358	493.94
460.578	546.94
460.798	532.94
461.018	526.94
461.238	535.94
461.458	522.94
461.678	548.94
461.898	515.94
462.118	530.94
462.338	525.94
462.558	544.94
462.777	536.94
462.997	555.94
463.217	556.94
463.437	535.94
463.657	562.94
463.876	560.94
464.096	550.94
464.316	572.94
464.536	566.94
464.755	584.94
464.975	580.94
465.195	644.94
465.414	722.94
465.634	619.94
465.854	570.94
466.073	556.94
466.293	544.94
466.512	524.94
466.732	522.94
466.951	533.94
467.171	524.94
467.391	522.94
467.61	533.94
467.829	557.94
468.049	527.94
468.268	521.94
468.488	528.94
468.707	509.94
468.927	507.94
469.146	498.94
469.365	512.94
469.585	505.94
469.804	522.94
470.023	532.94
470.243	532.94
470.462	527.94
470.681	553.94
470.901	564.94
471.12	555.94
471.339	538.94
471.558	523.94
471.777	546.94
471.997	527.94
472.216	527.94
472.435	578.94
472.654	565.94
472.873	546.94
473.092	544.94
473.311	529.94
473.53	528.94
473.749	555.94
473.968	589.94
474.187	678.94
474.406	734.94
474.625	605.94
474.844	564.94
475.063	552.94
475.282	530.94
475.501	529.94
475.72	545.94
475.939	563.94
476.158	537.94
476.377	546.94
476.596	525.94
476.814	555.94
477.033	573.94
477.252	544.94
477.471	576.94
477.69	593.94
477.908	573.94
478.127	586.94
478.346	585.94
478.564	588.94
478.783	590.94
479.002	590.94
479.22	598.94
479.439	628.94
479.658	638.94
479.876	670.94
480.095	637.94
480.313	674.94
480.532	675.94
480.751	646.94
480.969	681.94
481.188	727.94
481.406	840.94
481.624	694.94
481.843	687.94
482.061	658.94
482.28	644.94
482.498	631.94
482.717	647.94
482.935	634.94
483.153	664.94
483.372	656.94
483.59	633.94
483.808	618.94
484.027	640.94
484.245	627.94
484.463	625.94
484.681	667.94
484.9	637.94
485.118	634.94
485.336	636.94
485.554	642.94
485.772	673.94
485.99	653.94
486.209	660.94
486.427	667.94
486.645	663.94
486.863	689.94
487.081	699.94
487.299	697.94
487.517	700.94
487.735	656.94
487.953	688.94
488.171	686.94
488.389	712.94
488.607	702.94
488.825	699.94
489.043	700.94
489.261	708.94
489.479	690.94
489.696	711.94
489.914	688.94
490.132	722.94
490.35	711.94
490.568	731.94
490.786	733.94
491.003	736.94
491.221	762.94
491.439	776.94
491.657	759.94
491.874	771.94
492.092	820.94
492.31	821.94
492.527	804.94
492.745	790.94
492.963	805.94
493.18	812.94
493.398	811.94
493.615	827.94
493.833	831.94
494.05	859.94
494.268	824.94
494.485	826.94
494.703	824.94
494.92	820.94
495.138	826.94
495.355	835.94
495.573	823.94
495.79	830.94
496.008	833.94
496.225	828.94
496.442	806.94
496.66	811.94
496.877	824.94
497.094	817.94
497.312	822.94
497.529	836.94
497.746	843.94
497.963	857.94
498.181	892.94
498.398	888.94
498.615	891.94
498.832	894.94
499.049	912.94
499.267	930.94
499.484	930.94
499.701	976.94
499.918	950.94
500.135	994.94
500.352	1001.94
500.569	1050.94
500.786	1056.94
501.003	1021.94
501.22	1024.94
501.437	978.94
501.654	995.94
501.871	974.94
