Data from 1970.PennyLincolnUp.Lamp.En5.5.200Scan.071719.P1._HRD10591_15-13-38-843.txt Node
Date: Thu Jul 18 15:13:38 EDT 2019
User: cochatt
Spectrometer: HR+D1059
Trigger mode: 1
Integration Time (sec): 1.000000E-1
Scans to average: 1
Electric dark correction enabled: true
Nonlinearity correction enabled: false
Boxcar width: 0
XAxis mode: Wavelengths
Number of Pixels in Spectrum: 2048
>>>>>Begin Spectral Data<<<<<
223.165	-20.5
223.4	-20.5
223.635	-20.5
223.869	2.5
224.104	-34.5
224.338	-21.5
224.573	-13.5
224.808	-21.5
225.042	-7.5
225.277	-2.5
225.511	-3.5
225.746	18.5
225.98	8.5
226.215	18.5
226.449	7.5
226.683	10.5
226.918	22.5
227.152	36.5
227.387	39.5
227.621	42.5
227.856	41.5
228.09	28.5
228.324	44.5
228.559	67.5
228.793	70.5
229.027	104.5
229.262	100.5
229.496	120.5
229.73	131.5
229.964	164.5
230.199	132.5
230.433	103.5
230.667	110.5
230.901	115.5
231.136	118.5
231.37	92.5
231.604	122.5
231.838	103.5
232.072	115.5
232.306	120.5
232.541	115.5
232.775	116.5
233.009	125.5
233.243	116.5
233.477	116.5
233.711	106.5
233.945	114.5
234.179	119.5
234.413	122.5
234.647	114.5
234.881	121.5
235.115	123.5
235.349	110.5
235.583	122.5
235.817	128.5
236.051	135.5
236.285	121.5
236.519	116.5
236.753	130.5
236.987	147.5
237.221	192.5
237.455	258.5
237.689	195.5
237.922	157.5
238.156	122.5
238.39	134.5
238.624	125.5
238.858	143.5
239.091	134.5
239.325	121.5
239.559	120.5
239.793	128.5
240.027	128.5
240.26	140.5
240.494	167.5
240.728	162.5
240.961	134.5
241.195	144.5
241.429	151.5
241.662	134.5
241.896	150.5
242.13	139.5
242.363	136.5
242.597	144.5
242.83	144.5
243.064	151.5
243.298	127.5
243.531	142.5
243.765	139.5
243.998	126.5
244.232	139.5
244.465	150.5
244.699	155.5
244.932	155.5
245.166	141.5
245.399	147.5
245.633	150.5
245.866	148.5
246.099	151.5
246.333	168.5
246.566	145.5
246.8	152.5
247.033	162.5
247.266	160.5
247.5	181.5
247.733	166.5
247.966	166.5
248.2	185.5
248.433	175.5
248.666	185.5
248.899	181.5
249.133	199.5
249.366	223.5
249.599	206.5
249.832	204.5
250.066	203.5
250.299	199.5
250.532	208.5
250.765	204.5
250.998	236.5
251.231	245.5
251.465	212.5
251.698	250.5
251.931	208.5
252.164	221.5
252.397	210.5
252.63	211.5
252.863	205.5
253.096	225.5
253.329	223.5
253.562	234.5
253.795	220.5
254.028	233.5
254.261	241.5
254.494	235.5
254.727	272.5
254.96	295.5
255.193	291.5
255.426	255.5
255.659	252.5
255.892	237.5
256.124	231.5
256.357	232.5
256.59	240.5
256.823	208.5
257.056	211.5
257.289	219.5
257.521	236.5
257.754	213.5
257.987	210.5
258.22	222.5
258.452	224.5
258.685	205.5
258.918	222.5
259.151	219.5
259.383	235.5
259.616	217.5
259.849	222.5
260.081	231.5
260.314	244.5
260.547	270.5
260.779	258.5
261.012	239.5
261.244	231.5
261.477	224.5
261.71	233.5
261.942	241.5
262.175	249.5
262.407	215.5
262.64	211.5
262.872	208.5
263.105	196.5
263.337	215.5
263.57	214.5
263.802	205.5
264.035	212.5
264.267	212.5
264.499	205.5
264.732	192.5
264.964	207.5
265.197	186.5
265.429	219.5
265.661	217.5
265.894	219.5
266.126	200.5
266.358	186.5
266.591	207.5
266.823	219.5
267.055	225.5
267.287	228.5
267.52	231.5
267.752	227.5
267.984	228.5
268.216	226.5
268.448	243.5
268.681	232.5
268.913	240.5
269.145	243.5
269.377	274.5
269.609	254.5
269.841	262.5
270.073	264.5
270.306	276.5
270.538	305.5
270.77	310.5
271.002	301.5
271.234	304.5
271.466	290.5
271.698	300.5
271.93	331.5
272.162	306.5
272.394	310.5
272.626	281.5
272.858	278.5
273.09	286.5
273.322	271.5
273.553	270.5
273.785	265.5
274.017	261.5
274.249	261.5
274.481	255.5
274.713	262.5
274.945	271.5
275.176	266.5
275.408	269.5
275.64	255.5
275.872	240.5
276.104	252.5
276.335	246.5
276.567	265.5
276.799	274.5
277.031	299.5
277.262	311.5
277.494	335.5
277.726	264.5
277.957	262.5
278.189	270.5
278.421	282.5
278.652	253.5
278.884	280.5
279.115	256.5
279.347	252.5
279.579	263.5
279.81	245.5
280.042	263.5
280.273	263.5
280.505	246.5
280.736	258.5
280.968	259.5
281.199	251.5
281.431	258.5
281.662	243.5
281.894	239.5
282.125	258.5
282.356	261.5
282.588	277.5
282.819	306.5
283.051	268.5
283.282	249.5
283.513	255.5
283.745	252.5
283.976	267.5
284.207	274.5
284.439	280.5
284.67	266.5
284.901	265.5
285.132	281.5
285.364	258.5
285.595	229.5
285.826	270.5
286.057	267.5
286.288	251.5
286.52	258.5
286.751	268.5
286.982	258.5
287.213	253.5
287.444	264.5
287.675	272.5
287.906	275.5
288.138	279.5
288.369	271.5
288.6	294.5
288.831	271.5
289.062	279.5
289.293	280.5
289.524	273.5
289.755	261.5
289.986	266.5
290.217	282.5
290.448	246.5
290.679	280.5
290.91	269.5
291.141	272.5
291.371	266.5
291.602	268.5
291.833	261.5
292.064	266.5
292.295	266.5
292.526	265.5
292.757	259.5
292.987	284.5
293.218	270.5
293.449	281.5
293.68	278.5
293.91	263.5
294.141	263.5
294.372	283.5
294.603	260.5
294.833	268.5
295.064	288.5
295.295	285.5
295.525	264.5
295.756	280.5
295.987	290.5
296.217	309.5
296.448	308.5
296.679	290.5
296.909	278.5
297.14	279.5
297.37	270.5
297.601	281.5
297.831	279.5
298.062	274.5
298.292	275.5
298.523	290.5
298.753	277.5
298.984	297.5
299.214	279.5
299.445	270.5
299.675	282.5
299.905	286.5
300.136	286.5
300.366	285.5
300.597	284.5
300.827	297.5
301.057	315.5
301.288	303.5
301.518	299.5
301.748	298.5
301.979	290.5
302.209	302.5
302.439	303.5
302.669	307.5
302.9	302.5
303.13	303.5
303.36	299.5
303.59	303.5
303.82	313.5
304.051	306.5
304.281	316.5
304.511	276.5
304.741	287.5
304.971	304.5
305.201	302.5
305.431	324.5
305.661	316.5
305.891	314.5
306.121	315.5
306.352	312.5
306.582	301.5
306.812	308.5
307.042	316.5
307.272	306.5
307.502	307.5
307.731	325.5
307.961	306.5
308.191	312.5
308.421	319.5
308.651	296.5
308.881	314.5
309.111	309.5
309.341	312.5
309.571	329.5
309.8	354.5
310.03	357.5
310.26	351.5
310.49	349.5
310.72	362.5
310.949	365.5
311.179	382.5
311.409	377.5
311.639	371.5
311.868	349.5
312.098	344.5
312.328	387.5
312.557	375.5
312.787	381.5
313.017	382.5
313.246	388.5
313.476	353.5
313.706	360.5
313.935	374.5
314.165	383.5
314.394	371.5
314.624	391.5
314.853	384.5
315.083	374.5
315.312	349.5
315.542	326.5
315.771	345.5
316.001	347.5
316.23	319.5
316.46	335.5
316.689	346.5
316.919	340.5
317.148	351.5
317.377	383.5
317.607	367.5
317.836	362.5
318.065	351.5
318.295	364.5
318.524	352.5
318.753	332.5
318.983	359.5
319.212	369.5
319.441	356.5
319.67	380.5
319.9	378.5
320.129	365.5
320.358	350.5
320.587	351.5
320.816	366.5
321.046	370.5
321.275	373.5
321.504	376.5
321.733	388.5
321.962	389.5
322.191	399.5
322.42	416.5
322.649	431.5
322.878	426.5
323.108	459.5
323.337	445.5
323.566	489.5
323.795	536.5
324.024	559.5
324.253	675.5
324.482	972.5
324.71	1475.5
324.939	2078.5
325.168	1795.5
325.397	959.5
325.626	641.5
325.855	564.5
326.084	503.5
326.313	480.5
326.542	490.5
326.77	526.5
326.999	654.5
327.228	850.5
327.457	1292.5
327.686	1556.5
327.914	1074.5
328.143	714.5
328.372	642.5
328.6	591.5
328.829	545.5
329.058	569.5
329.287	568.5
329.515	547.5
329.744	512.5
329.972	474.5
330.201	518.5
330.43	563.5
330.658	576.5
330.887	605.5
331.115	571.5
331.344	512.5
331.572	469.5
331.801	483.5
332.03	488.5
332.258	447.5
332.486	424.5
332.715	425.5
332.943	410.5
333.172	416.5
333.4	432.5
333.629	428.5
333.857	454.5
334.085	457.5
334.314	452.5
334.542	486.5
334.771	525.5
334.999	478.5
335.227	440.5
335.455	429.5
335.684	440.5
335.912	396.5
336.14	425.5
336.369	429.5
336.597	436.5
336.825	439.5
337.053	445.5
337.281	408.5
337.51	424.5
337.738	424.5
337.966	423.5
338.194	430.5
338.422	422.5
338.65	426.5
338.878	413.5
339.106	421.5
339.334	407.5
339.562	390.5
339.79	403.5
340.018	391.5
340.246	404.5
340.474	403.5
340.702	417.5
340.93	435.5
341.158	424.5
341.386	414.5
341.614	412.5
341.842	398.5
342.07	381.5
342.298	399.5
342.526	388.5
342.754	385.5
342.981	400.5
343.209	391.5
343.437	410.5
343.665	404.5
343.893	416.5
344.12	396.5
344.348	411.5
344.576	413.5
344.804	448.5
345.031	412.5
345.259	439.5
345.487	427.5
345.714	390.5
345.942	396.5
346.17	415.5
346.397	394.5
346.625	424.5
346.853	409.5
347.08	384.5
347.308	414.5
347.535	427.5
347.763	410.5
347.99	413.5
348.218	427.5
348.445	415.5
348.673	405.5
348.9	398.5
349.128	401.5
349.355	384.5
349.583	391.5
349.81	412.5
350.037	393.5
350.265	419.5
350.492	414.5
350.72	404.5
350.947	400.5
351.174	412.5
351.402	418.5
351.629	424.5
351.856	397.5
352.083	413.5
352.311	439.5
352.538	444.5
352.765	425.5
352.992	406.5
353.22	421.5
353.447	412.5
353.674	406.5
353.901	390.5
354.128	390.5
354.355	401.5
354.583	392.5
354.81	366.5
355.037	382.5
355.264	396.5
355.491	384.5
355.718	354.5
355.945	362.5
356.172	384.5
356.399	402.5
356.626	388.5
356.853	402.5
357.08	386.5
357.307	372.5
357.534	379.5
357.761	377.5
357.988	390.5
358.215	383.5
358.441	381.5
358.668	375.5
358.895	381.5
359.122	392.5
359.349	407.5
359.576	406.5
359.802	436.5
360.029	471.5
360.256	454.5
360.483	466.5
360.709	409.5
360.936	436.5
361.163	423.5
361.39	422.5
361.616	438.5
361.843	400.5
362.07	441.5
362.296	422.5
362.523	419.5
362.749	414.5
362.976	428.5
363.203	415.5
363.429	403.5
363.656	392.5
363.882	399.5
364.109	389.5
364.335	400.5
364.562	398.5
364.788	397.5
365.015	396.5
365.241	404.5
365.468	406.5
365.694	412.5
365.92	413.5
366.147	404.5
366.373	405.5
366.599	389.5
366.826	394.5
367.052	382.5
367.278	393.5
367.505	422.5
367.731	390.5
367.957	399.5
368.184	400.5
368.41	401.5
368.636	420.5
368.862	411.5
369.089	399.5
369.315	395.5
369.541	400.5
369.767	411.5
369.993	404.5
370.219	414.5
370.445	378.5
370.672	392.5
370.898	394.5
371.124	389.5
371.35	396.5
371.576	405.5
371.802	406.5
372.028	388.5
372.254	389.5
372.48	413.5
372.706	389.5
372.932	404.5
373.158	404.5
373.384	407.5
373.61	412.5
373.835	395.5
374.061	404.5
374.287	416.5
374.513	391.5
374.739	406.5
374.965	391.5
375.191	418.5
375.416	421.5
375.642	400.5
375.868	414.5
376.094	408.5
376.319	389.5
376.545	396.5
376.771	394.5
376.997	390.5
377.222	396.5
377.448	408.5
377.674	401.5
377.899	385.5
378.125	404.5
378.35	399.5
378.576	398.5
378.802	402.5
379.027	390.5
379.253	380.5
379.478	416.5
379.704	384.5
379.929	408.5
380.155	399.5
380.38	414.5
380.606	416.5
380.831	413.5
381.057	415.5
381.282	410.5
381.507	404.5
381.733	411.5
381.958	418.5
382.184	405.5
382.409	404.5
382.634	394.5
382.86	396.5
383.085	421.5
383.31	406.5
383.535	416.5
383.761	409.5
383.986	412.5
384.211	416.5
384.436	425.5
384.662	438.5
384.887	424.5
385.112	410.5
385.337	422.5
385.562	431.5
385.787	434.5
386.013	438.5
386.238	439.5
386.463	454.5
386.688	418.5
386.913	439.5
387.138	453.5
387.363	437.5
387.588	433.5
387.813	430.5
388.038	461.5
388.263	430.5
388.488	446.5
388.713	434.5
388.938	430.5
389.163	441.5
389.387	440.5
389.612	426.5
389.837	430.5
390.062	423.5
390.287	420.5
390.512	416.5
390.736	452.5
390.961	438.5
391.186	442.5
391.411	434.5
391.636	446.5
391.86	462.5
392.085	442.5
392.31	465.5
392.534	442.5
392.759	457.5
392.984	439.5
393.208	454.5
393.433	476.5
393.658	467.5
393.882	437.5
394.107	430.5
394.331	428.5
394.556	467.5
394.78	414.5
395.005	430.5
395.229	448.5
395.454	467.5
395.678	447.5
395.903	458.5
396.127	491.5
396.352	483.5
396.576	477.5
396.801	448.5
397.025	487.5
397.249	460.5
397.474	450.5
397.698	460.5
397.922	473.5
398.147	478.5
398.371	486.5
398.595	492.5
398.82	489.5
399.044	486.5
399.268	494.5
399.492	519.5
399.717	537.5
399.941	584.5
400.165	596.5
400.389	613.5
400.613	566.5
400.837	541.5
401.062	512.5
401.286	509.5
401.51	511.5
401.734	509.5
401.958	518.5
402.182	513.5
402.406	518.5
402.63	533.5
402.854	504.5
403.078	542.5
403.302	510.5
403.526	521.5
403.75	513.5
403.974	515.5
404.198	538.5
404.422	521.5
404.645	539.5
404.869	526.5
405.093	573.5
405.317	604.5
405.541	645.5
405.765	588.5
405.988	568.5
406.212	553.5
406.436	601.5
406.66	589.5
406.883	555.5
407.107	586.5
407.331	634.5
407.555	680.5
407.778	703.5
408.002	641.5
408.226	604.5
408.449	590.5
408.673	591.5
408.896	590.5
409.12	639.5
409.344	611.5
409.567	556.5
409.791	564.5
410.014	550.5
410.238	534.5
410.461	524.5
410.685	545.5
410.908	535.5
411.132	582.5
411.355	613.5
411.578	590.5
411.802	551.5
412.025	528.5
412.249	549.5
412.472	576.5
412.695	602.5
412.919	568.5
413.142	530.5
413.365	527.5
413.589	541.5
413.812	505.5
414.035	510.5
414.258	507.5
414.482	490.5
414.705	516.5
414.928	530.5
415.151	523.5
415.374	508.5
415.597	489.5
415.821	503.5
416.044	479.5
416.267	516.5
416.49	510.5
416.713	494.5
416.936	500.5
417.159	485.5
417.382	494.5
417.605	496.5
417.828	536.5
418.051	539.5
418.274	526.5
418.497	479.5
418.72	481.5
418.943	473.5
419.166	526.5
419.389	535.5
419.611	554.5
419.834	542.5
420.057	538.5
420.28	525.5
420.503	538.5
420.726	518.5
420.948	533.5
421.171	584.5
421.394	610.5
421.617	550.5
421.839	539.5
422.062	532.5
422.285	546.5
422.507	595.5
422.73	676.5
422.953	662.5
423.175	591.5
423.398	559.5
423.621	554.5
423.843	608.5
424.066	588.5
424.288	596.5
424.511	589.5
424.733	667.5
424.956	739.5
425.178	720.5
425.401	692.5
425.623	709.5
425.846	650.5
426.068	588.5
426.291	587.5
426.513	566.5
426.735	583.5
426.958	622.5
427.18	716.5
427.402	836.5
427.625	924.5
427.847	847.5
428.069	728.5
428.292	644.5
428.514	576.5
428.736	565.5
428.958	572.5
429.181	545.5
429.403	557.5
429.625	531.5
429.847	596.5
430.069	647.5
430.292	644.5
430.514	555.5
430.736	552.5
430.958	504.5
431.18	495.5
431.402	521.5
431.624	502.5
431.846	510.5
432.068	502.5
432.29	523.5
432.512	504.5
432.734	534.5
432.956	499.5
433.178	528.5
433.4	538.5
433.622	524.5
433.844	524.5
434.066	509.5
434.287	483.5
434.509	501.5
434.731	518.5
434.953	552.5
435.175	536.5
435.397	593.5
435.618	588.5
435.84	622.5
436.062	717.5
436.284	770.5
436.505	657.5
436.727	596.5
436.949	560.5
437.17	558.5
437.392	550.5
437.614	547.5
437.835	588.5
438.057	670.5
438.278	788.5
438.5	793.5
438.721	844.5
438.943	818.5
439.165	673.5
439.386	606.5
439.608	582.5
439.829	626.5
440.05	595.5
440.272	657.5
440.493	620.5
440.715	586.5
440.936	566.5
441.158	550.5
441.379	548.5
441.6	550.5
441.822	596.5
442.043	639.5
442.264	715.5
442.486	737.5
442.707	655.5
442.928	610.5
443.149	614.5
443.371	640.5
443.592	680.5
443.813	750.5
444.034	783.5
444.255	668.5
444.476	609.5
444.698	604.5
444.919	596.5
445.14	706.5
445.361	662.5
445.582	632.5
445.803	691.5
446.024	771.5
446.245	794.5
446.466	732.5
446.687	667.5
446.908	600.5
447.129	574.5
447.35	542.5
447.571	542.5
447.792	542.5
448.013	546.5
448.234	572.5
448.455	612.5
448.675	740.5
448.896	861.5
449.117	721.5
449.338	668.5
449.559	807.5
449.779	870.5
450	738.5
450.221	607.5
450.442	557.5
450.662	532.5
450.883	553.5
451.104	562.5
451.324	531.5
451.545	502.5
451.766	492.5
451.986	500.5
452.207	500.5
452.428	479.5
452.648	491.5
452.869	502.5
453.089	498.5
453.31	525.5
453.53	514.5
453.751	478.5
453.971	464.5
454.192	546.5
454.412	487.5
454.633	504.5
454.853	475.5
455.073	490.5
455.294	519.5
455.514	602.5
455.734	562.5
455.955	471.5
456.175	463.5
456.395	439.5
456.616	464.5
456.836	450.5
457.056	447.5
457.276	437.5
457.497	444.5
457.717	464.5
457.937	478.5
458.157	472.5
458.377	479.5
458.598	508.5
458.818	556.5
459.038	646.5
459.258	644.5
459.478	565.5
459.698	520.5
459.918	524.5
460.138	502.5
460.358	488.5
460.578	512.5
460.798	490.5
461.018	510.5
461.238	514.5
461.458	504.5
461.678	511.5
461.898	520.5
462.118	508.5
462.338	491.5
462.558	514.5
462.777	519.5
462.997	550.5
463.217	527.5
463.437	546.5
463.657	524.5
463.876	541.5
464.096	538.5
464.316	567.5
464.536	543.5
464.755	530.5
464.975	538.5
465.195	617.5
465.414	668.5
465.634	591.5
465.854	546.5
466.073	544.5
466.293	516.5
466.512	498.5
466.732	494.5
466.951	504.5
467.171	482.5
467.391	502.5
467.61	516.5
467.829	516.5
468.049	517.5
468.268	498.5
468.488	491.5
468.707	512.5
468.927	480.5
469.146	475.5
469.365	470.5
469.585	488.5
469.804	486.5
470.023	510.5
470.243	493.5
470.462	510.5
470.681	542.5
470.901	520.5
471.12	497.5
471.339	517.5
471.558	503.5
471.777	518.5
471.997	495.5
472.216	534.5
472.435	548.5
472.654	539.5
472.873	506.5
473.092	492.5
473.311	493.5
473.53	525.5
473.749	523.5
473.968	557.5
474.187	663.5
474.406	670.5
474.625	573.5
474.844	524.5
475.063	508.5
475.282	528.5
475.501	509.5
475.72	521.5
475.939	525.5
476.158	528.5
476.377	525.5
476.596	524.5
476.814	544.5
477.033	526.5
477.252	555.5
477.471	578.5
477.69	557.5
477.908	550.5
478.127	575.5
478.346	562.5
478.564	570.5
478.783	554.5
479.002	570.5
479.22	597.5
479.439	616.5
479.658	606.5
479.876	602.5
480.095	601.5
480.313	634.5
480.532	600.5
480.751	630.5
480.969	618.5
481.188	714.5
481.406	719.5
481.624	644.5
481.843	631.5
482.061	606.5
482.28	613.5
482.498	617.5
482.717	623.5
482.935	628.5
483.153	622.5
483.372	611.5
483.59	600.5
483.808	616.5
484.027	576.5
484.245	589.5
484.463	630.5
484.681	623.5
484.9	612.5
485.118	602.5
485.336	596.5
485.554	632.5
485.772	622.5
485.99	628.5
486.209	637.5
486.427	624.5
486.645	637.5
486.863	670.5
487.081	678.5
487.299	661.5
487.517	667.5
487.735	647.5
487.953	637.5
488.171	666.5
488.389	649.5
488.607	637.5
488.825	649.5
489.043	639.5
489.261	664.5
489.479	679.5
489.696	668.5
489.914	687.5
490.132	685.5
490.35	681.5
490.568	692.5
490.786	708.5
491.003	711.5
491.221	723.5
491.439	725.5
491.657	763.5
491.874	780.5
492.092	773.5
492.31	770.5
492.527	762.5
492.745	744.5
492.963	784.5
493.18	794.5
493.398	779.5
493.615	764.5
493.833	798.5
494.05	788.5
494.268	784.5
494.485	792.5
494.703	778.5
494.92	768.5
495.138	792.5
495.355	799.5
495.573	754.5
495.79	788.5
496.008	780.5
496.225	797.5
496.442	770.5
496.66	808.5
496.877	805.5
497.094	801.5
497.312	797.5
497.529	814.5
497.746	807.5
497.963	795.5
498.181	842.5
498.398	836.5
498.615	839.5
498.832	843.5
499.049	854.5
499.267	867.5
499.484	903.5
499.701	939.5
499.918	972.5
500.135	960.5
500.352	995.5
500.569	1013.5
500.786	999.5
501.003	1002.5
501.22	1007.5
501.437	981.5
501.654	962.5
501.871	985.5
502.088	919.5
502.305	918.5
502.522	874.5
502.739	869.5
502.956	829.5
503.172	832.5
503.389	847.5
503.606	826.5
503.823	817.5
504.04	810.5
504.256	790.5
504.473	757.5
504.69	788.5
504.907	783.5
505.123	783.5
505.34	743.5
505.557	776.5
505.773	779.5
505.99	768.5
506.207	738.5
506.423	766.5
506.64	783.5
506.856	740.5
507.073	752.5
507.289	748.5
507.506	780.5
507.722	758.5
507.939	784.5
508.155	766.5
508.372	730.5
508.588	724.5
508.805	700.5
509.021	755.5
509.238	711.5
509.454	743.5
509.67	742.5
509.887	724.5
510.103	715.5
510.319	746.5
510.536	828.5
510.752	1328.5
510.968	1110.5
511.184	738.5
511.401	676.5
511.617	670.5
511.833	682.5
512.049	687.5
512.265	705.5
512.481	676.5
512.698	700.5
512.914	706.5
513.13	700.5
513.346	674.5
513.562	672.5
513.778	670.5
513.994	701.5
514.21	692.5
514.426	728.5
514.642	790.5
514.858	819.5
515.074	830.5
515.29	1010.5
515.506	1490.5
515.721	1202.5
515.937	827.5
516.153	768.5
516.369	718.5
516.585	697.5
516.801	709.5
517.016	692.5
517.232	697.5
517.448	693.5
517.664	708.5
517.879	694.5
518.095	684.5
518.311	695.5
518.527	716.5
518.742	691.5
518.958	694.5
519.173	660.5
519.389	678.5
519.605	674.5
519.82	676.5
