Data from 1970.PennyLincolnUp.Lamp.En5.5.200Scan.071719.P1._HRD10591_15-14-09-845.txt Node
Date: Thu Jul 18 15:14:09 EDT 2019
User: cochatt
Spectrometer: HR+D1059
Trigger mode: 1
Integration Time (sec): 1.000000E-1
Scans to average: 1
Electric dark correction enabled: true
Nonlinearity correction enabled: false
Boxcar width: 0
XAxis mode: Wavelengths
Number of Pixels in Spectrum: 2048
>>>>>Begin Spectral Data<<<<<
223.165	-15.69
223.4	-15.69
223.635	-15.69
223.869	-28.69
224.104	-9.69
224.338	-9.69
224.573	-39.69
224.808	-16.69
225.042	-9.69
225.277	-8.69
225.511	-0.69
225.746	5.31
225.98	7.31
226.215	22.31
226.449	24.31
226.683	21.31
226.918	24.31
227.152	34.31
227.387	30.31
227.621	43.31
227.856	46.31
228.09	47.31
228.324	72.31
228.559	55.31
228.793	68.31
229.027	99.31
229.262	125.31
229.496	121.31
229.73	148.31
229.964	173.31
230.199	136.31
230.433	121.31
230.667	116.31
230.901	117.31
231.136	116.31
231.37	121.31
231.604	104.31
231.838	124.31
232.072	104.31
232.306	123.31
232.541	132.31
232.775	117.31
233.009	121.31
233.243	128.31
233.477	106.31
233.711	103.31
233.945	101.31
234.179	127.31
234.413	126.31
234.647	112.31
234.881	111.31
235.115	110.31
235.349	128.31
235.583	119.31
235.817	122.31
236.051	126.31
236.285	127.31
236.519	103.31
236.753	147.31
236.987	168.31
237.221	194.31
237.455	260.31
237.689	203.31
237.922	142.31
238.156	130.31
238.39	150.31
238.624	142.31
238.858	118.31
239.091	126.31
239.325	135.31
239.559	132.31
239.793	152.31
240.027	148.31
240.26	144.31
240.494	167.31
240.728	165.31
240.961	166.31
241.195	162.31
241.429	141.31
241.662	142.31
241.896	138.31
242.13	134.31
242.363	147.31
242.597	140.31
242.83	154.31
243.064	144.31
243.298	142.31
243.531	140.31
243.765	133.31
243.998	143.31
244.232	156.31
244.465	154.31
244.699	159.31
244.932	145.31
245.166	150.31
245.399	155.31
245.633	164.31
245.866	153.31
246.099	156.31
246.333	151.31
246.566	148.31
246.8	158.31
247.033	178.31
247.266	166.31
247.5	182.31
247.733	179.31
247.966	178.31
248.2	201.31
248.433	182.31
248.666	205.31
248.899	203.31
249.133	218.31
249.366	226.31
249.599	213.31
249.832	198.31
250.066	203.31
250.299	199.31
250.532	196.31
250.765	237.31
250.998	267.31
251.231	262.31
251.465	242.31
251.698	220.31
251.931	226.31
252.164	208.31
252.397	197.31
252.63	202.31
252.863	231.31
253.096	237.31
253.329	238.31
253.562	235.31
253.795	240.31
254.028	258.31
254.261	243.31
254.494	233.31
254.727	272.31
254.96	308.31
255.193	299.31
255.426	270.31
255.659	242.31
255.892	267.31
256.124	258.31
256.357	268.31
256.59	244.31
256.823	253.31
257.056	231.31
257.289	239.31
257.521	229.31
257.754	218.31
257.987	224.31
258.22	219.31
258.452	222.31
258.685	213.31
258.918	216.31
259.151	221.31
259.383	230.31
259.616	238.31
259.849	245.31
260.081	243.31
260.314	275.31
260.547	276.31
260.779	251.31
261.012	267.31
261.244	247.31
261.477	232.31
261.71	226.31
261.942	241.31
262.175	262.31
262.407	250.31
262.64	242.31
262.872	219.31
263.105	235.31
263.337	213.31
263.57	215.31
263.802	224.31
264.035	207.31
264.267	223.31
264.499	215.31
264.732	206.31
264.964	212.31
265.197	218.31
265.429	210.31
265.661	221.31
265.894	222.31
266.126	229.31
266.358	230.31
266.591	213.31
266.823	223.31
267.055	239.31
267.287	226.31
267.52	231.31
267.752	255.31
267.984	230.31
268.216	238.31
268.448	250.31
268.681	218.31
268.913	254.31
269.145	270.31
269.377	284.31
269.609	287.31
269.841	276.31
270.073	271.31
270.306	295.31
270.538	342.31
270.77	335.31
271.002	329.31
271.234	295.31
271.466	310.31
271.698	334.31
271.93	343.31
272.162	329.31
272.394	330.31
272.626	339.31
272.858	299.31
273.09	291.31
273.322	289.31
273.553	268.31
273.785	258.31
274.017	256.31
274.249	263.31
274.481	264.31
274.713	261.31
274.945	278.31
275.176	275.31
275.408	248.31
275.64	243.31
275.872	269.31
276.104	261.31
276.335	267.31
276.567	271.31
276.799	315.31
277.031	323.31
277.262	315.31
277.494	312.31
277.726	304.31
277.957	303.31
278.189	301.31
278.421	278.31
278.652	283.31
278.884	264.31
279.115	264.31
279.347	282.31
279.579	273.31
279.81	267.31
280.042	257.31
280.273	265.31
280.505	260.31
280.736	257.31
280.968	255.31
281.199	252.31
281.431	265.31
281.662	264.31
281.894	273.31
282.125	274.31
282.356	285.31
282.588	292.31
282.819	313.31
283.051	266.31
283.282	255.31
283.513	252.31
283.745	278.31
283.976	282.31
284.207	277.31
284.439	254.31
284.67	290.31
284.901	264.31
285.132	276.31
285.364	265.31
285.595	274.31
285.826	270.31
286.057	288.31
286.288	261.31
286.52	261.31
286.751	261.31
286.982	278.31
287.213	261.31
287.444	249.31
287.675	287.31
287.906	287.31
288.138	298.31
288.369	308.31
288.6	291.31
288.831	294.31
289.062	306.31
289.293	284.31
289.524	290.31
289.755	271.31
289.986	285.31
290.217	283.31
290.448	283.31
290.679	286.31
290.91	287.31
291.141	262.31
291.371	270.31
291.602	267.31
291.833	276.31
292.064	288.31
292.295	275.31
292.526	286.31
292.757	268.31
292.987	285.31
293.218	268.31
293.449	298.31
293.68	280.31
293.91	300.31
294.141	281.31
294.372	284.31
294.603	271.31
294.833	269.31
295.064	266.31
295.295	261.31
295.525	284.31
295.756	288.31
295.987	307.31
296.217	311.31
296.448	324.31
296.679	303.31
296.909	278.31
297.14	290.31
297.37	277.31
297.601	280.31
297.831	277.31
298.062	276.31
298.292	292.31
298.523	299.31
298.753	278.31
298.984	296.31
299.214	315.31
299.445	294.31
299.675	287.31
299.905	317.31
300.136	312.31
300.366	303.31
300.597	289.31
300.827	291.31
301.057	300.31
301.288	310.31
301.518	326.31
301.748	316.31
301.979	316.31
302.209	326.31
302.439	296.31
302.669	315.31
302.9	306.31
303.13	308.31
303.36	320.31
303.59	311.31
303.82	323.31
304.051	306.31
304.281	332.31
304.511	311.31
304.741	317.31
304.971	314.31
305.201	311.31
305.431	322.31
305.661	309.31
305.891	312.31
306.121	328.31
306.352	327.31
306.582	336.31
306.812	320.31
307.042	316.31
307.272	319.31
307.502	302.31
307.731	327.31
307.961	332.31
308.191	313.31
308.421	322.31
308.651	328.31
308.881	339.31
309.111	324.31
309.341	340.31
309.571	352.31
309.8	346.31
310.03	359.31
310.26	358.31
310.49	390.31
310.72	402.31
310.949	411.31
311.179	403.31
311.409	376.31
311.639	378.31
311.868	378.31
312.098	387.31
312.328	373.31
312.557	406.31
312.787	416.31
313.017	422.31
313.246	390.31
313.476	376.31
313.706	360.31
313.935	364.31
314.165	390.31
314.394	374.31
314.624	406.31
314.853	389.31
315.083	371.31
315.312	372.31
315.542	357.31
315.771	354.31
316.001	361.31
316.23	367.31
316.46	382.31
316.689	382.31
316.919	371.31
317.148	375.31
317.377	392.31
317.607	365.31
317.836	372.31
318.065	388.31
318.295	375.31
318.524	358.31
318.753	379.31
318.983	379.31
319.212	378.31
319.441	379.31
319.67	393.31
319.9	382.31
320.129	391.31
320.358	377.31
320.587	382.31
320.816	394.31
321.046	402.31
321.275	401.31
321.504	407.31
321.733	395.31
321.962	398.31
322.191	437.31
322.42	460.31
322.649	450.31
322.878	446.31
323.108	481.31
323.337	515.31
323.566	511.31
323.795	568.31
324.024	622.31
324.253	743.31
324.482	1076.31
324.71	1612.31
324.939	2268.31
325.168	1974.31
325.397	1044.31
325.626	709.31
325.855	578.31
326.084	563.31
326.313	529.31
326.542	536.31
326.77	575.31
326.999	709.31
327.228	946.31
327.457	1452.31
327.686	1733.31
327.914	1195.31
328.143	804.31
328.372	704.31
328.6	650.31
328.829	628.31
329.058	635.31
329.287	655.31
329.515	577.31
329.744	538.31
329.972	533.31
330.201	550.31
330.43	602.31
330.658	620.31
330.887	652.31
331.115	627.31
331.344	549.31
331.572	516.31
331.801	502.31
332.03	519.31
332.258	480.31
332.486	445.31
332.715	446.31
332.943	426.31
333.172	439.31
333.4	447.31
333.629	453.31
333.857	484.31
334.085	486.31
334.314	495.31
334.542	560.31
334.771	554.31
334.999	527.31
335.227	472.31
335.455	469.31
335.684	454.31
335.912	436.31
336.14	422.31
336.369	424.31
336.597	431.31
336.825	430.31
337.053	461.31
337.281	419.31
337.51	432.31
337.738	446.31
337.966	459.31
338.194	437.31
338.422	431.31
338.65	436.31
338.878	432.31
339.106	421.31
339.334	408.31
339.562	425.31
339.79	445.31
340.018	433.31
340.246	417.31
340.474	417.31
340.702	411.31
340.93	406.31
341.158	410.31
341.386	399.31
341.614	435.31
341.842	444.31
342.07	431.31
342.298	426.31
342.526	420.31
342.754	406.31
342.981	389.31
343.209	408.31
343.437	413.31
343.665	409.31
343.893	400.31
344.12	422.31
344.348	428.31
344.576	437.31
344.804	456.31
345.031	464.31
345.259	447.31
345.487	446.31
345.714	443.31
345.942	410.31
346.17	440.31
346.397	406.31
346.625	435.31
346.853	406.31
347.08	416.31
347.308	408.31
347.535	434.31
347.763	434.31
347.99	443.31
348.218	429.31
348.445	456.31
348.673	459.31
348.9	438.31
349.128	418.31
349.355	399.31
349.583	404.31
349.81	396.31
350.037	400.31
350.265	416.31
350.492	409.31
350.72	393.31
350.947	400.31
351.174	430.31
351.402	445.31
351.629	417.31
351.856	427.31
352.083	419.31
352.311	445.31
352.538	446.31
352.765	432.31
352.992	433.31
353.22	453.31
353.447	436.31
353.674	423.31
353.901	416.31
354.128	410.31
354.355	396.31
354.583	406.31
354.81	396.31
355.037	400.31
355.264	387.31
355.491	376.31
355.718	378.31
355.945	395.31
356.172	381.31
356.399	390.31
356.626	389.31
356.853	382.31
357.08	383.31
357.307	395.31
357.534	392.31
357.761	383.31
357.988	378.31
358.215	393.31
358.441	393.31
358.668	405.31
358.895	405.31
359.122	399.31
359.349	398.31
359.576	441.31
359.802	465.31
360.029	479.31
360.256	517.31
360.483	493.31
360.709	446.31
360.936	426.31
361.163	420.31
361.39	412.31
361.616	441.31
361.843	418.31
362.07	447.31
362.296	427.31
362.523	438.31
362.749	419.31
362.976	438.31
363.203	430.31
363.429	400.31
363.656	398.31
363.882	413.31
364.109	407.31
364.335	407.31
364.562	408.31
364.788	405.31
365.015	412.31
365.241	420.31
365.468	427.31
365.694	431.31
365.92	454.31
366.147	405.31
366.373	402.31
366.599	405.31
366.826	413.31
367.052	400.31
367.278	398.31
367.505	392.31
367.731	412.31
367.957	400.31
368.184	397.31
368.41	427.31
368.636	427.31
368.862	423.31
369.089	426.31
369.315	398.31
369.541	399.31
369.767	436.31
369.993	410.31
370.219	418.31
370.445	414.31
370.672	390.31
370.898	406.31
371.124	397.31
371.35	406.31
371.576	408.31
371.802	399.31
372.028	412.31
372.254	401.31
372.48	399.31
372.706	399.31
372.932	405.31
373.158	396.31
373.384	422.31
373.61	412.31
373.835	411.31
374.061	411.31
374.287	411.31
374.513	418.31
374.739	410.31
374.965	413.31
375.191	411.31
375.416	415.31
375.642	401.31
375.868	426.31
376.094	419.31
376.319	422.31
376.545	403.31
376.771	403.31
376.997	405.31
377.222	400.31
377.448	408.31
377.674	400.31
377.899	391.31
378.125	397.31
378.35	422.31
378.576	405.31
378.802	424.31
379.027	406.31
379.253	418.31
379.478	412.31
379.704	377.31
379.929	404.31
380.155	411.31
380.38	414.31
380.606	404.31
380.831	420.31
381.057	423.31
381.282	412.31
381.507	407.31
381.733	417.31
381.958	430.31
382.184	404.31
382.409	425.31
382.634	421.31
382.86	444.31
383.085	438.31
383.31	418.31
383.535	424.31
383.761	401.31
383.986	436.31
384.211	431.31
384.436	399.31
384.662	417.31
384.887	436.31
385.112	424.31
385.337	430.31
385.562	427.31
385.787	434.31
386.013	452.31
386.238	470.31
386.463	440.31
386.688	472.31
386.913	427.31
387.138	425.31
387.363	444.31
387.588	425.31
387.813	454.31
388.038	447.31
388.263	430.31
388.488	447.31
388.713	427.31
388.938	429.31
389.163	460.31
389.387	440.31
389.612	423.31
389.837	450.31
390.062	448.31
390.287	442.31
390.512	454.31
390.736	428.31
390.961	436.31
391.186	429.31
391.411	446.31
391.636	434.31
391.86	431.31
392.085	443.31
392.31	436.31
392.534	448.31
392.759	444.31
392.984	454.31
393.208	443.31
393.433	466.31
393.658	474.31
393.882	460.31
394.107	457.31
394.331	455.31
394.556	437.31
394.78	430.31
395.005	481.31
395.229	445.31
395.454	453.31
395.678	457.31
395.903	473.31
396.127	496.31
396.352	492.31
396.576	459.31
396.801	469.31
397.025	473.31
397.249	476.31
397.474	476.31
397.698	464.31
397.922	474.31
398.147	485.31
398.371	505.31
398.595	476.31
398.82	495.31
399.044	484.31
399.268	507.31
399.492	527.31
399.717	537.31
399.941	574.31
400.165	597.31
400.389	623.31
400.613	574.31
400.837	528.31
401.062	528.31
401.286	513.31
401.51	484.31
401.734	499.31
401.958	509.31
402.182	532.31
402.406	524.31
402.63	527.31
402.854	504.31
403.078	520.31
403.302	515.31
403.526	496.31
403.75	541.31
403.974	534.31
404.198	549.31
404.422	537.31
404.645	547.31
404.869	536.31
405.093	572.31
405.317	607.31
405.541	639.31
405.765	586.31
405.988	554.31
406.212	537.31
406.436	591.31
406.66	633.31
406.883	566.31
407.107	615.31
407.331	656.31
407.555	690.31
407.778	696.31
408.002	642.31
408.226	612.31
408.449	597.31
408.673	587.31
408.896	621.31
409.12	639.31
409.344	607.31
409.567	551.31
409.791	568.31
410.014	526.31
410.238	524.31
410.461	540.31
410.685	532.31
410.908	559.31
411.132	608.31
411.355	637.31
411.578	581.31
411.802	575.31
412.025	551.31
412.249	569.31
412.472	566.31
412.695	595.31
412.919	588.31
413.142	548.31
413.365	518.31
413.589	533.31
413.812	517.31
414.035	490.31
414.258	516.31
414.482	512.31
414.705	493.31
414.928	498.31
415.151	500.31
415.374	492.31
415.597	512.31
415.821	499.31
416.044	535.31
416.267	511.31
416.49	496.31
416.713	495.31
416.936	495.31
417.159	501.31
417.382	501.31
417.605	532.31
417.828	528.31
418.051	532.31
418.274	521.31
418.497	502.31
418.72	514.31
418.943	487.31
419.166	523.31
419.389	525.31
419.611	537.31
419.834	538.31
420.057	565.31
420.28	540.31
420.503	531.31
420.726	542.31
420.948	558.31
421.171	595.31
421.394	637.31
421.617	570.31
421.839	555.31
422.062	552.31
422.285	555.31
422.507	635.31
422.73	703.31
422.953	666.31
423.175	597.31
423.398	574.31
423.621	575.31
423.843	597.31
424.066	589.31
424.288	598.31
424.511	607.31
424.733	673.31
424.956	749.31
425.178	723.31
425.401	716.31
425.623	744.31
425.846	635.31
426.068	613.31
426.291	587.31
426.513	610.31
426.735	608.31
426.958	673.31
427.18	727.31
427.402	842.31
427.625	954.31
427.847	837.31
428.069	759.31
428.292	666.31
428.514	601.31
428.736	575.31
428.958	554.31
429.181	558.31
429.403	563.31
429.625	568.31
429.847	605.31
430.069	657.31
430.292	662.31
430.514	549.31
430.736	542.31
430.958	534.31
431.18	519.31
431.402	514.31
431.624	527.31
431.846	519.31
432.068	533.31
432.29	512.31
432.512	493.31
432.734	530.31
432.956	508.31
433.178	556.31
433.4	528.31
433.622	539.31
433.844	518.31
434.066	516.31
434.287	510.31
434.509	519.31
434.731	552.31
434.953	554.31
435.175	557.31
435.397	606.31
435.618	595.31
435.84	619.31
436.062	739.31
436.284	806.31
436.505	703.31
436.727	623.31
436.949	600.31
437.17	558.31
437.392	544.31
437.614	576.31
437.835	614.31
438.057	723.31
438.278	847.31
438.5	830.31
438.721	854.31
438.943	819.31
439.165	702.31
439.386	631.31
439.608	627.31
439.829	631.31
440.05	639.31
440.272	688.31
440.493	666.31
440.715	600.31
440.936	607.31
441.158	575.31
441.379	571.31
441.6	583.31
441.822	599.31
442.043	610.31
442.264	746.31
442.486	783.31
442.707	668.31
442.928	596.31
443.149	615.31
443.371	643.31
443.592	674.31
443.813	793.31
444.034	856.31
444.255	728.31
444.476	638.31
444.698	606.31
444.919	603.31
445.14	710.31
445.361	657.31
445.582	640.31
445.803	687.31
446.024	803.31
446.245	825.31
446.466	746.31
446.687	655.31
446.908	624.31
447.129	588.31
447.35	579.31
447.571	558.31
447.792	551.31
448.013	573.31
448.234	605.31
448.455	648.31
448.675	765.31
448.896	839.31
449.117	755.31
449.338	720.31
449.559	782.31
449.779	862.31
450	736.31
450.221	639.31
450.442	586.31
450.662	575.31
450.883	587.31
451.104	577.31
451.324	568.31
451.545	540.31
451.766	529.31
451.986	505.31
452.207	493.31
452.428	487.31
452.648	487.31
452.869	504.31
453.089	516.31
453.31	524.31
453.53	501.31
453.751	510.31
453.971	510.31
454.192	523.31
454.412	512.31
454.633	503.31
454.853	495.31
455.073	510.31
455.294	534.31
455.514	591.31
455.734	575.31
455.955	497.31
456.175	482.31
456.395	452.31
456.616	456.31
456.836	469.31
457.056	457.31
457.276	464.31
457.497	452.31
457.717	474.31
457.937	459.31
458.157	466.31
458.377	483.31
458.598	491.31
458.818	574.31
459.038	662.31
459.258	696.31
459.478	572.31
459.698	521.31
459.918	500.31
460.138	523.31
460.358	480.31
460.578	492.31
460.798	499.31
461.018	501.31
461.238	512.31
461.458	529.31
461.678	491.31
461.898	514.31
462.118	510.31
462.338	535.31
462.558	532.31
462.777	529.31
462.997	542.31
463.217	553.31
463.437	531.31
463.657	540.31
463.876	543.31
464.096	526.31
464.316	548.31
464.536	560.31
464.755	534.31
464.975	578.31
465.195	603.31
465.414	705.31
465.634	626.31
465.854	590.31
466.073	542.31
466.293	541.31
466.512	503.31
466.732	493.31
466.951	518.31
467.171	518.31
467.391	511.31
467.61	537.31
467.829	527.31
468.049	534.31
468.268	526.31
468.488	505.31
468.707	489.31
468.927	514.31
469.146	487.31
469.365	492.31
469.585	482.31
469.804	502.31
470.023	526.31
470.243	504.31
470.462	503.31
470.681	531.31
470.901	535.31
471.12	531.31
471.339	500.31
471.558	528.31
471.777	491.31
471.997	504.31
472.216	510.31
472.435	574.31
472.654	560.31
472.873	516.31
473.092	514.31
473.311	504.31
473.53	520.31
473.749	539.31
473.968	579.31
474.187	676.31
474.406	702.31
474.625	585.31
474.844	551.31
475.063	523.31
475.282	528.31
475.501	514.31
475.72	528.31
475.939	534.31
476.158	535.31
476.377	531.31
476.596	543.31
476.814	531.31
477.033	556.31
477.252	568.31
477.471	555.31
477.69	566.31
477.908	557.31
478.127	575.31
478.346	566.31
478.564	568.31
478.783	566.31
479.002	586.31
479.22	612.31
479.439	603.31
479.658	640.31
479.876	628.31
480.095	623.31
480.313	664.31
480.532	659.31
480.751	631.31
480.969	663.31
481.188	715.31
481.406	750.31
481.624	693.31
481.843	654.31
482.061	617.31
482.28	635.31
482.498	635.31
482.717	633.31
482.935	612.31
483.153	638.31
483.372	620.31
483.59	642.31
483.808	616.31
484.027	634.31
484.245	610.31
484.463	631.31
484.681	654.31
484.9	604.31
485.118	623.31
485.336	622.31
485.554	647.31
485.772	634.31
485.99	621.31
486.209	636.31
486.427	624.31
486.645	679.31
486.863	676.31
487.081	677.31
487.299	678.31
487.517	673.31
487.735	680.31
487.953	671.31
488.171	670.31
488.389	656.31
488.607	654.31
488.825	705.31
489.043	664.31
489.261	666.31
489.479	708.31
489.696	666.31
489.914	692.31
490.132	728.31
490.35	723.31
490.568	731.31
490.786	725.31
491.003	735.31
491.221	747.31
491.439	748.31
491.657	800.31
491.874	779.31
492.092	802.31
492.31	788.31
492.527	774.31
492.745	803.31
492.963	786.31
493.18	799.31
493.398	815.31
493.615	821.31
493.833	829.31
494.05	799.31
494.268	811.31
494.485	839.31
494.703	799.31
494.92	800.31
495.138	815.31
495.355	845.31
495.573	828.31
495.79	828.31
496.008	802.31
496.225	806.31
496.442	792.31
496.66	823.31
496.877	825.31
497.094	822.31
497.312	822.31
497.529	828.31
497.746	830.31
497.963	808.31
498.181	851.31
498.398	860.31
498.615	872.31
498.832	872.31
499.049	873.31
499.267	890.31
499.484	893.31
499.701	932.31
499.918	944.31
500.135	975.31
500.352	987.31
500.569	1014.31
500.786	970.31
501.003	1010.31
501.22	968.31
501.437	982.31
501.654	978.31
501.871	982.31
