Data from 1970.PennyLincolnUp.Lamp.En5.5.200Scan.071719.P1._HRD10591_15-15-31-842.txt Node
Date: Thu Jul 18 15:15:31 EDT 2019
User: cochatt
Spectrometer: HR+D1059
Trigger mode: 1
Integration Time (sec): 1.000000E-1
Scans to average: 1
Electric dark correction enabled: true
Nonlinearity correction enabled: false
Boxcar width: 0
XAxis mode: Wavelengths
Number of Pixels in Spectrum: 2048
>>>>>Begin Spectral Data<<<<<
223.165	-17.12
223.4	-17.12
223.635	-17.12
223.869	-19.12
224.104	-24.12
224.338	-10.12
224.573	3.88
224.808	-13.12
225.042	-14.12
225.277	-13.12
225.511	6.88
225.746	7.88
225.98	-1.12
226.215	7.88
226.449	20.88
226.683	10.88
226.918	21.88
227.152	31.88
227.387	31.88
227.621	34.88
227.856	40.88
228.09	55.88
228.324	55.88
228.559	48.88
228.793	59.88
229.027	109.88
229.262	98.88
229.496	134.88
229.73	145.88
229.964	170.88
230.199	151.88
230.433	113.88
230.667	116.88
230.901	120.88
231.136	117.88
231.37	114.88
231.604	113.88
231.838	108.88
232.072	126.88
232.306	132.88
232.541	123.88
232.775	118.88
233.009	119.88
233.243	127.88
233.477	111.88
233.711	124.88
233.945	119.88
234.179	124.88
234.413	113.88
234.647	123.88
234.881	114.88
235.115	132.88
235.349	126.88
235.583	130.88
235.817	119.88
236.051	132.88
236.285	138.88
236.519	125.88
236.753	141.88
236.987	159.88
237.221	203.88
237.455	274.88
237.689	216.88
237.922	148.88
238.156	144.88
238.39	147.88
238.624	141.88
238.858	137.88
239.091	138.88
239.325	131.88
239.559	121.88
239.793	137.88
240.027	151.88
240.26	155.88
240.494	187.88
240.728	181.88
240.961	168.88
241.195	147.88
241.429	165.88
241.662	157.88
241.896	147.88
242.13	151.88
242.363	140.88
242.597	133.88
242.83	139.88
243.064	138.88
243.298	154.88
243.531	158.88
243.765	141.88
243.998	153.88
244.232	171.88
244.465	174.88
244.699	174.88
244.932	163.88
245.166	157.88
245.399	158.88
245.633	149.88
245.866	150.88
246.099	154.88
246.333	169.88
246.566	164.88
246.8	172.88
247.033	166.88
247.266	169.88
247.5	181.88
247.733	191.88
247.966	184.88
248.2	181.88
248.433	183.88
248.666	204.88
248.899	209.88
249.133	209.88
249.366	257.88
249.599	231.88
249.832	195.88
250.066	206.88
250.299	194.88
250.532	204.88
250.765	213.88
250.998	238.88
251.231	261.88
251.465	242.88
251.698	243.88
251.931	230.88
252.164	211.88
252.397	241.88
252.63	221.88
252.863	235.88
253.096	221.88
253.329	249.88
253.562	249.88
253.795	247.88
254.028	237.88
254.261	249.88
254.494	246.88
254.727	287.88
254.96	325.88
255.193	322.88
255.426	279.88
255.659	265.88
255.892	258.88
256.124	277.88
256.357	262.88
256.59	253.88
256.823	238.88
257.056	243.88
257.289	228.88
257.521	222.88
257.754	236.88
257.987	219.88
258.22	218.88
258.452	221.88
258.685	234.88
258.918	230.88
259.151	237.88
259.383	234.88
259.616	236.88
259.849	245.88
260.081	250.88
260.314	285.88
260.547	277.88
260.779	270.88
261.012	257.88
261.244	239.88
261.477	252.88
261.71	244.88
261.942	262.88
262.175	270.88
262.407	265.88
262.64	243.88
262.872	208.88
263.105	228.88
263.337	230.88
263.57	226.88
263.802	217.88
264.035	220.88
264.267	216.88
264.499	239.88
264.732	225.88
264.964	227.88
265.197	211.88
265.429	218.88
265.661	213.88
265.894	220.88
266.126	231.88
266.358	223.88
266.591	232.88
266.823	233.88
267.055	231.88
267.287	229.88
267.52	228.88
267.752	239.88
267.984	226.88
268.216	235.88
268.448	228.88
268.681	250.88
268.913	264.88
269.145	293.88
269.377	318.88
269.609	280.88
269.841	294.88
270.073	306.88
270.306	317.88
270.538	335.88
270.77	343.88
271.002	326.88
271.234	307.88
271.466	326.88
271.698	351.88
271.93	336.88
272.162	340.88
272.394	330.88
272.626	339.88
272.858	292.88
273.09	305.88
273.322	279.88
273.553	279.88
273.785	286.88
274.017	273.88
274.249	290.88
274.481	283.88
274.713	283.88
274.945	278.88
275.176	294.88
275.408	265.88
275.64	272.88
275.872	274.88
276.104	265.88
276.335	283.88
276.567	278.88
276.799	294.88
277.031	319.88
277.262	338.88
277.494	355.88
277.726	326.88
277.957	315.88
278.189	302.88
278.421	269.88
278.652	282.88
278.884	277.88
279.115	297.88
279.347	277.88
279.579	269.88
279.81	269.88
280.042	277.88
280.273	264.88
280.505	280.88
280.736	258.88
280.968	245.88
281.199	279.88
281.431	265.88
281.662	259.88
281.894	263.88
282.125	265.88
282.356	290.88
282.588	315.88
282.819	322.88
283.051	286.88
283.282	274.88
283.513	273.88
283.745	279.88
283.976	275.88
284.207	280.88
284.439	283.88
284.67	280.88
284.901	274.88
285.132	281.88
285.364	282.88
285.595	262.88
285.826	267.88
286.057	258.88
286.288	268.88
286.52	261.88
286.751	283.88
286.982	284.88
287.213	270.88
287.444	279.88
287.675	291.88
287.906	299.88
288.138	306.88
288.369	316.88
288.6	296.88
288.831	297.88
289.062	299.88
289.293	311.88
289.524	287.88
289.755	282.88
289.986	291.88
290.217	283.88
290.448	287.88
290.679	295.88
290.91	306.88
291.141	270.88
291.371	295.88
291.602	289.88
291.833	284.88
292.064	269.88
292.295	275.88
292.526	271.88
292.757	283.88
292.987	299.88
293.218	280.88
293.449	282.88
293.68	290.88
293.91	281.88
294.141	277.88
294.372	290.88
294.603	302.88
294.833	297.88
295.064	299.88
295.295	288.88
295.525	294.88
295.756	304.88
295.987	306.88
296.217	316.88
296.448	346.88
296.679	311.88
296.909	288.88
297.14	294.88
297.37	277.88
297.601	301.88
297.831	295.88
298.062	294.88
298.292	305.88
298.523	311.88
298.753	277.88
298.984	281.88
299.214	316.88
299.445	300.88
299.675	301.88
299.905	298.88
300.136	296.88
300.366	298.88
300.597	305.88
300.827	321.88
301.057	321.88
301.288	323.88
301.518	318.88
301.748	301.88
301.979	316.88
302.209	326.88
302.439	322.88
302.669	334.88
302.9	313.88
303.13	318.88
303.36	318.88
303.59	317.88
303.82	312.88
304.051	317.88
304.281	335.88
304.511	314.88
304.741	319.88
304.971	325.88
305.201	321.88
305.431	317.88
305.661	325.88
305.891	330.88
306.121	317.88
306.352	329.88
306.582	365.88
306.812	309.88
307.042	326.88
307.272	339.88
307.502	335.88
307.731	339.88
307.961	325.88
308.191	328.88
308.421	322.88
308.651	348.88
308.881	338.88
309.111	323.88
309.341	355.88
309.571	369.88
309.8	377.88
310.03	349.88
310.26	385.88
310.49	387.88
310.72	391.88
310.949	407.88
311.179	394.88
311.409	404.88
311.639	390.88
311.868	394.88
312.098	390.88
312.328	386.88
312.557	410.88
312.787	423.88
313.017	446.88
313.246	418.88
313.476	380.88
313.706	389.88
313.935	379.88
314.165	388.88
314.394	407.88
314.624	415.88
314.853	382.88
315.083	396.88
315.312	373.88
315.542	366.88
315.771	387.88
316.001	381.88
316.23	356.88
316.46	356.88
316.689	384.88
316.919	388.88
317.148	420.88
317.377	390.88
317.607	390.88
317.836	380.88
318.065	379.88
318.295	415.88
318.524	375.88
318.753	359.88
318.983	385.88
319.212	384.88
319.441	407.88
319.67	393.88
319.9	385.88
320.129	387.88
320.358	395.88
320.587	397.88
320.816	401.88
321.046	421.88
321.275	427.88
321.504	413.88
321.733	411.88
321.962	427.88
322.191	439.88
322.42	451.88
322.649	483.88
322.878	492.88
323.108	513.88
323.337	521.88
323.566	543.88
323.795	584.88
324.024	645.88
324.253	797.88
324.482	1130.88
324.71	1756.88
324.939	2505.88
325.168	2177.88
325.397	1172.88
325.626	763.88
325.855	605.88
326.084	553.88
326.313	547.88
326.542	554.88
326.77	619.88
326.999	732.88
327.228	1015.88
327.457	1587.88
327.686	1918.88
327.914	1292.88
328.143	847.88
328.372	728.88
328.6	699.88
328.829	650.88
329.058	672.88
329.287	680.88
329.515	616.88
329.744	569.88
329.972	572.88
330.201	592.88
330.43	651.88
330.658	689.88
330.887	702.88
331.115	661.88
331.344	589.88
331.572	548.88
331.801	541.88
332.03	536.88
332.258	503.88
332.486	462.88
332.715	489.88
332.943	489.88
333.172	467.88
333.4	474.88
333.629	481.88
333.857	489.88
334.085	518.88
334.314	513.88
334.542	587.88
334.771	606.88
334.999	537.88
335.227	489.88
335.455	477.88
335.684	475.88
335.912	456.88
336.14	469.88
336.369	447.88
336.597	465.88
336.825	469.88
337.053	462.88
337.281	445.88
337.51	446.88
337.738	451.88
337.966	449.88
338.194	429.88
338.422	439.88
338.65	454.88
338.878	443.88
339.106	425.88
339.334	439.88
339.562	429.88
339.79	428.88
340.018	453.88
340.246	445.88
340.474	459.88
340.702	443.88
340.93	435.88
341.158	452.88
341.386	452.88
341.614	461.88
341.842	452.88
342.07	412.88
342.298	434.88
342.526	437.88
342.754	420.88
342.981	430.88
343.209	417.88
343.437	430.88
343.665	431.88
343.893	418.88
344.12	437.88
344.348	438.88
344.576	434.88
344.804	445.88
345.031	453.88
345.259	460.88
345.487	465.88
345.714	449.88
345.942	427.88
346.17	439.88
346.397	427.88
346.625	431.88
346.853	442.88
347.08	417.88
347.308	426.88
347.535	444.88
347.763	457.88
347.99	464.88
348.218	449.88
348.445	469.88
348.673	451.88
348.9	429.88
349.128	454.88
349.355	403.88
349.583	403.88
349.81	431.88
350.037	424.88
350.265	397.88
350.492	429.88
350.72	415.88
350.947	417.88
351.174	470.88
351.402	450.88
351.629	456.88
351.856	419.88
352.083	461.88
352.311	463.88
352.538	477.88
352.765	463.88
352.992	447.88
353.22	444.88
353.447	441.88
353.674	426.88
353.901	435.88
354.128	420.88
354.355	379.88
354.583	397.88
354.81	389.88
355.037	397.88
355.264	402.88
355.491	403.88
355.718	417.88
355.945	403.88
356.172	382.88
356.399	405.88
356.626	407.88
356.853	397.88
357.08	400.88
357.307	417.88
357.534	393.88
357.761	413.88
357.988	413.88
358.215	411.88
358.441	429.88
358.668	398.88
358.895	403.88
359.122	426.88
359.349	435.88
359.576	437.88
359.802	482.88
360.029	526.88
360.256	529.88
360.483	518.88
360.709	467.88
360.936	439.88
361.163	436.88
361.39	455.88
361.616	440.88
361.843	435.88
362.07	426.88
362.296	436.88
362.523	447.88
362.749	459.88
362.976	434.88
363.203	437.88
363.429	433.88
363.656	401.88
363.882	413.88
364.109	434.88
364.335	393.88
364.562	411.88
364.788	411.88
365.015	425.88
365.241	420.88
365.468	428.88
365.694	443.88
365.92	446.88
366.147	428.88
366.373	421.88
366.599	428.88
366.826	426.88
367.052	414.88
367.278	407.88
367.505	413.88
367.731	422.88
367.957	410.88
368.184	426.88
368.41	416.88
368.636	430.88
368.862	435.88
369.089	421.88
369.315	418.88
369.541	428.88
369.767	415.88
369.993	424.88
370.219	418.88
370.445	409.88
370.672	410.88
370.898	403.88
371.124	392.88
371.35	427.88
371.576	440.88
371.802	407.88
372.028	410.88
372.254	411.88
372.48	407.88
372.706	411.88
372.932	412.88
373.158	407.88
373.384	418.88
373.61	426.88
373.835	406.88
374.061	399.88
374.287	419.88
374.513	431.88
374.739	411.88
374.965	440.88
375.191	427.88
375.416	407.88
375.642	426.88
375.868	430.88
376.094	424.88
376.319	419.88
376.545	426.88
376.771	417.88
376.997	417.88
377.222	414.88
377.448	433.88
377.674	406.88
377.899	393.88
378.125	407.88
378.35	431.88
378.576	420.88
378.802	413.88
379.027	418.88
379.253	397.88
379.478	409.88
379.704	425.88
379.929	424.88
380.155	424.88
380.38	408.88
380.606	397.88
380.831	423.88
381.057	411.88
381.282	402.88
381.507	415.88
381.733	409.88
381.958	392.88
382.184	424.88
382.409	431.88
382.634	441.88
382.86	437.88
383.085	440.88
383.31	434.88
383.535	457.88
383.761	437.88
383.986	446.88
384.211	449.88
384.436	415.88
384.662	414.88
384.887	443.88
385.112	437.88
385.337	441.88
385.562	421.88
385.787	458.88
386.013	469.88
386.238	466.88
386.463	454.88
386.688	465.88
386.913	446.88
387.138	454.88
387.363	429.88
387.588	463.88
387.813	445.88
388.038	422.88
388.263	458.88
388.488	441.88
388.713	437.88
388.938	453.88
389.163	461.88
389.387	472.88
389.612	433.88
389.837	431.88
390.062	442.88
390.287	457.88
390.512	440.88
390.736	442.88
390.961	431.88
391.186	432.88
391.411	459.88
391.636	452.88
391.86	439.88
392.085	459.88
392.31	456.88
392.534	469.88
392.759	447.88
392.984	452.88
393.208	439.88
393.433	445.88
393.658	475.88
393.882	433.88
394.107	451.88
394.331	463.88
394.556	459.88
394.78	460.88
395.005	468.88
395.229	475.88
395.454	458.88
395.678	486.88
395.903	491.88
396.127	502.88
396.352	523.88
396.576	467.88
396.801	463.88
397.025	478.88
397.249	461.88
397.474	489.88
397.698	484.88
397.922	490.88
398.147	507.88
398.371	517.88
398.595	502.88
398.82	512.88
399.044	517.88
399.268	511.88
399.492	557.88
399.717	554.88
399.941	585.88
400.165	634.88
400.389	633.88
400.613	583.88
400.837	540.88
401.062	523.88
401.286	505.88
401.51	517.88
401.734	541.88
401.958	517.88
402.182	525.88
402.406	538.88
402.63	527.88
402.854	539.88
403.078	510.88
403.302	535.88
403.526	551.88
403.75	549.88
403.974	544.88
404.198	526.88
404.422	562.88
404.645	531.88
404.869	568.88
405.093	603.88
405.317	636.88
405.541	647.88
405.765	584.88
405.988	593.88
406.212	561.88
406.436	604.88
406.66	628.88
406.883	612.88
407.107	634.88
407.331	665.88
407.555	709.88
407.778	727.88
408.002	649.88
408.226	614.88
408.449	591.88
408.673	619.88
408.896	645.88
409.12	655.88
409.344	639.88
409.567	579.88
409.791	554.88
410.014	561.88
410.238	545.88
410.461	549.88
410.685	552.88
410.908	545.88
411.132	587.88
411.355	647.88
411.578	619.88
411.802	557.88
412.025	555.88
412.249	556.88
412.472	590.88
412.695	641.88
412.919	620.88
413.142	545.88
413.365	531.88
413.589	525.88
413.812	521.88
414.035	506.88
414.258	523.88
414.482	513.88
414.705	510.88
414.928	534.88
415.151	511.88
415.374	500.88
415.597	523.88
415.821	525.88
416.044	521.88
416.267	534.88
416.49	505.88
416.713	507.88
416.936	540.88
417.159	489.88
417.382	535.88
417.605	526.88
417.828	537.88
418.051	550.88
418.274	540.88
418.497	543.88
418.72	527.88
418.943	522.88
419.166	516.88
419.389	564.88
419.611	556.88
419.834	558.88
420.057	558.88
420.28	572.88
420.503	550.88
420.726	564.88
420.948	564.88
421.171	605.88
421.394	643.88
421.617	587.88
421.839	537.88
422.062	562.88
422.285	597.88
422.507	642.88
422.73	701.88
422.953	701.88
423.175	620.88
423.398	591.88
423.621	585.88
423.843	586.88
424.066	597.88
424.288	614.88
424.511	612.88
424.733	685.88
424.956	765.88
425.178	751.88
425.401	724.88
425.623	764.88
425.846	656.88
426.068	622.88
426.291	600.88
426.513	607.88
426.735	639.88
426.958	663.88
427.18	749.88
427.402	894.88
427.625	989.88
427.847	918.88
428.069	792.88
428.292	671.88
428.514	627.88
428.736	603.88
428.958	589.88
429.181	584.88
429.403	566.88
429.625	572.88
429.847	614.88
430.069	683.88
430.292	681.88
430.514	595.88
430.736	561.88
430.958	578.88
431.18	534.88
431.402	534.88
431.624	532.88
431.846	508.88
432.068	508.88
432.29	526.88
432.512	524.88
432.734	553.88
432.956	528.88
433.178	570.88
433.4	569.88
433.622	570.88
433.844	537.88
434.066	518.88
434.287	508.88
434.509	514.88
434.731	532.88
434.953	558.88
435.175	571.88
435.397	579.88
435.618	605.88
435.84	673.88
436.062	787.88
436.284	817.88
436.505	695.88
436.727	650.88
436.949	589.88
437.17	580.88
437.392	573.88
437.614	595.88
437.835	631.88
438.057	750.88
438.278	840.88
438.5	877.88
438.721	907.88
438.943	883.88
439.165	708.88
439.386	664.88
439.608	602.88
439.829	634.88
440.05	682.88
440.272	726.88
440.493	681.88
440.715	621.88
440.936	603.88
441.158	582.88
441.379	569.88
441.6	597.88
441.822	625.88
442.043	672.88
442.264	754.88
442.486	769.88
442.707	670.88
442.928	627.88
443.149	643.88
443.371	655.88
443.592	694.88
443.813	787.88
444.034	843.88
444.255	728.88
444.476	641.88
444.698	625.88
444.919	614.88
445.14	751.88
445.361	678.88
445.582	661.88
445.803	749.88
446.024	867.88
446.245	862.88
446.466	762.88
446.687	678.88
446.908	629.88
447.129	598.88
447.35	574.88
447.571	584.88
447.792	574.88
448.013	577.88
448.234	641.88
448.455	662.88
448.675	789.88
448.896	917.88
449.117	762.88
449.338	734.88
449.559	833.88
449.779	926.88
450	747.88
450.221	627.88
450.442	601.88
450.662	604.88
450.883	603.88
451.104	613.88
451.324	584.88
451.545	566.88
451.766	529.88
451.986	555.88
452.207	516.88
452.428	510.88
452.648	502.88
452.869	512.88
453.089	528.88
453.31	548.88
453.53	540.88
453.751	510.88
453.971	534.88
454.192	545.88
454.412	550.88
454.633	523.88
454.853	518.88
455.073	488.88
455.294	550.88
455.514	647.88
455.734	637.88
455.955	516.88
456.175	508.88
456.395	485.88
456.616	482.88
456.836	474.88
457.056	478.88
457.276	459.88
457.497	485.88
457.717	487.88
457.937	483.88
458.157	491.88
458.377	497.88
458.598	525.88
458.818	598.88
459.038	693.88
459.258	724.88
459.478	598.88
459.698	553.88
459.918	537.88
460.138	509.88
460.358	516.88
460.578	502.88
460.798	531.88
461.018	510.88
461.238	522.88
461.458	529.88
461.678	519.88
461.898	509.88
462.118	549.88
462.338	545.88
462.558	524.88
462.777	535.88
462.997	550.88
463.217	526.88
463.437	558.88
463.657	534.88
463.876	558.88
464.096	568.88
464.316	543.88
464.536	552.88
464.755	538.88
464.975	549.88
465.195	647.88
465.414	745.88
465.634	632.88
465.854	593.88
466.073	565.88
466.293	554.88
466.512	506.88
466.732	507.88
466.951	527.88
467.171	513.88
467.391	510.88
467.61	535.88
467.829	547.88
468.049	555.88
468.268	536.88
468.488	544.88
468.707	530.88
468.927	526.88
469.146	499.88
469.365	498.88
469.585	503.88
469.804	503.88
470.023	524.88
470.243	553.88
470.462	541.88
470.681	563.88
470.901	551.88
471.12	532.88
471.339	534.88
471.558	521.88
471.777	549.88
471.997	518.88
472.216	539.88
472.435	611.88
472.654	571.88
472.873	540.88
473.092	528.88
473.311	545.88
473.53	539.88
473.749	545.88
473.968	599.88
474.187	687.88
474.406	705.88
474.625	614.88
474.844	572.88
475.063	538.88
475.282	526.88
475.501	537.88
475.72	568.88
475.939	553.88
476.158	578.88
476.377	561.88
476.596	549.88
476.814	551.88
477.033	569.88
477.252	588.88
477.471	582.88
477.69	570.88
477.908	546.88
478.127	579.88
478.346	555.88
478.564	586.88
478.783	570.88
479.002	586.88
479.22	614.88
479.439	637.88
479.658	629.88
479.876	655.88
480.095	661.88
480.313	679.88
480.532	677.88
480.751	641.88
480.969	648.88
481.188	723.88
481.406	799.88
481.624	705.88
481.843	676.88
482.061	653.88
482.28	638.88
482.498	627.88
482.717	627.88
482.935	653.88
483.153	634.88
483.372	645.88
483.59	651.88
483.808	627.88
484.027	643.88
484.245	631.88
484.463	645.88
484.681	642.88
484.9	627.88
485.118	646.88
485.336	650.88
485.554	653.88
485.772	643.88
485.99	625.88
486.209	664.88
486.427	666.88
486.645	666.88
486.863	713.88
487.081	695.88
487.299	671.88
487.517	700.88
487.735	678.88
487.953	705.88
488.171	711.88
488.389	717.88
488.607	693.88
488.825	694.88
489.043	719.88
489.261	695.88
489.479	722.88
489.696	716.88
489.914	703.88
490.132	750.88
490.35	753.88
490.568	739.88
490.786	750.88
491.003	783.88
491.221	772.88
491.439	801.88
491.657	814.88
491.874	811.88
492.092	839.88
492.31	821.88
492.527	793.88
492.745	828.88
492.963	800.88
493.18	826.88
493.398	840.88
493.615	828.88
493.833	840.88
494.05	857.88
494.268	859.88
494.485	836.88
494.703	815.88
494.92	854.88
495.138	851.88
495.355	840.88
495.573	846.88
495.79	857.88
496.008	814.88
496.225	850.88
496.442	830.88
496.66	837.88
496.877	841.88
497.094	858.88
497.312	865.88
497.529	857.88
497.746	885.88
497.963	894.88
498.181	907.88
498.398	849.88
498.615	869.88
498.832	888.88
499.049	891.88
499.267	912.88
499.484	917.88
499.701	957.88
499.918	986.88
500.135	983.88
500.352	1002.88
500.569	1020.88
500.786	1033.88
501.003	1005.88
501.22	992.88
501.437	994.88
501.654	992.88
501.871	1020.88
