Data from 1970.PennyLincolnUp.Lamp.En5.5.200Scan.071719.P1._HRD10591_15-13-44-843.txt Node
Date: Thu Jul 18 15:13:44 EDT 2019
User: cochatt
Spectrometer: HR+D1059
Trigger mode: 1
Integration Time (sec): 1.000000E-1
Scans to average: 1
Electric dark correction enabled: true
Nonlinearity correction enabled: false
Boxcar width: 0
XAxis mode: Wavelengths
Number of Pixels in Spectrum: 2048
>>>>>Begin Spectral Data<<<<<
223.165	-7.19
223.4	-7.19
223.635	-7.19
223.869	-9.19
224.104	-20.19
224.338	-1.19
224.573	-25.19
224.808	-5.19
225.042	0.81
225.277	-13.19
225.511	-10.19
225.746	10.81
225.98	12.81
226.215	6.81
226.449	10.81
226.683	16.81
226.918	11.81
227.152	20.81
227.387	30.81
227.621	23.81
227.856	27.81
228.09	34.81
228.324	54.81
228.559	44.81
228.793	69.81
229.027	104.81
229.262	84.81
229.496	122.81
229.73	130.81
229.964	162.81
230.199	146.81
230.433	127.81
230.667	100.81
230.901	106.81
231.136	102.81
231.37	99.81
231.604	114.81
231.838	120.81
232.072	112.81
232.306	124.81
232.541	116.81
232.775	122.81
233.009	127.81
233.243	107.81
233.477	107.81
233.711	110.81
233.945	118.81
234.179	111.81
234.413	118.81
234.647	108.81
234.881	117.81
235.115	122.81
235.349	121.81
235.583	117.81
235.817	130.81
236.051	129.81
236.285	134.81
236.519	133.81
236.753	124.81
236.987	151.81
237.221	186.81
237.455	230.81
237.689	188.81
237.922	132.81
238.156	124.81
238.39	126.81
238.624	136.81
238.858	132.81
239.091	124.81
239.325	111.81
239.559	134.81
239.793	117.81
240.027	136.81
240.26	155.81
240.494	155.81
240.728	145.81
240.961	139.81
241.195	145.81
241.429	137.81
241.662	152.81
241.896	135.81
242.13	135.81
242.363	126.81
242.597	134.81
242.83	148.81
243.064	153.81
243.298	147.81
243.531	152.81
243.765	136.81
243.998	133.81
244.232	133.81
244.465	147.81
244.699	130.81
244.932	153.81
245.166	164.81
245.399	135.81
245.633	155.81
245.866	148.81
246.099	154.81
246.333	160.81
246.566	163.81
246.8	154.81
247.033	142.81
247.266	170.81
247.5	177.81
247.733	172.81
247.966	153.81
248.2	178.81
248.433	186.81
248.666	204.81
248.899	179.81
249.133	202.81
249.366	209.81
249.599	206.81
249.832	186.81
250.066	181.81
250.299	175.81
250.532	208.81
250.765	207.81
250.998	231.81
251.231	216.81
251.465	216.81
251.698	222.81
251.931	200.81
252.164	202.81
252.397	224.81
252.63	214.81
252.863	195.81
253.096	222.81
253.329	230.81
253.562	231.81
253.795	228.81
254.028	222.81
254.261	227.81
254.494	244.81
254.727	269.81
254.96	310.81
255.193	273.81
255.426	262.81
255.659	243.81
255.892	250.81
256.124	243.81
256.357	238.81
256.59	230.81
256.823	238.81
257.056	206.81
257.289	218.81
257.521	211.81
257.754	214.81
257.987	197.81
258.22	209.81
258.452	214.81
258.685	185.81
258.918	211.81
259.151	203.81
259.383	209.81
259.616	219.81
259.849	219.81
260.081	234.81
260.314	256.81
260.547	256.81
260.779	251.81
261.012	244.81
261.244	222.81
261.477	214.81
261.71	225.81
261.942	232.81
262.175	229.81
262.407	243.81
262.64	200.81
262.872	206.81
263.105	212.81
263.337	197.81
263.57	202.81
263.802	190.81
264.035	210.81
264.267	210.81
264.499	220.81
264.732	206.81
264.964	201.81
265.197	224.81
265.429	210.81
265.661	202.81
265.894	210.81
266.126	199.81
266.358	213.81
266.591	208.81
266.823	211.81
267.055	190.81
267.287	211.81
267.52	207.81
267.752	225.81
267.984	220.81
268.216	218.81
268.448	225.81
268.681	213.81
268.913	232.81
269.145	247.81
269.377	265.81
269.609	267.81
269.841	263.81
270.073	269.81
270.306	292.81
270.538	306.81
270.77	308.81
271.002	291.81
271.234	299.81
271.466	289.81
271.698	277.81
271.93	294.81
272.162	309.81
272.394	314.81
272.626	299.81
272.858	281.81
273.09	269.81
273.322	273.81
273.553	248.81
273.785	235.81
274.017	256.81
274.249	255.81
274.481	252.81
274.713	258.81
274.945	266.81
275.176	251.81
275.408	235.81
275.64	242.81
275.872	245.81
276.104	241.81
276.335	257.81
276.567	277.81
276.799	283.81
277.031	297.81
277.262	306.81
277.494	318.81
277.726	286.81
277.957	275.81
278.189	283.81
278.421	259.81
278.652	254.81
278.884	257.81
279.115	255.81
279.347	255.81
279.579	240.81
279.81	228.81
280.042	242.81
280.273	248.81
280.505	263.81
280.736	259.81
280.968	246.81
281.199	251.81
281.431	264.81
281.662	243.81
281.894	261.81
282.125	242.81
282.356	274.81
282.588	286.81
282.819	278.81
283.051	250.81
283.282	249.81
283.513	240.81
283.745	262.81
283.976	253.81
284.207	248.81
284.439	254.81
284.67	252.81
284.901	258.81
285.132	250.81
285.364	249.81
285.595	266.81
285.826	244.81
286.057	239.81
286.288	259.81
286.52	254.81
286.751	254.81
286.982	265.81
287.213	245.81
287.444	249.81
287.675	272.81
287.906	282.81
288.138	281.81
288.369	283.81
288.6	283.81
288.831	260.81
289.062	277.81
289.293	273.81
289.524	266.81
289.755	254.81
289.986	269.81
290.217	252.81
290.448	254.81
290.679	246.81
290.91	274.81
291.141	257.81
291.371	263.81
291.602	249.81
291.833	245.81
292.064	255.81
292.295	254.81
292.526	261.81
292.757	234.81
292.987	247.81
293.218	262.81
293.449	250.81
293.68	263.81
293.91	260.81
294.141	266.81
294.372	273.81
294.603	239.81
294.833	245.81
295.064	267.81
295.295	255.81
295.525	257.81
295.756	263.81
295.987	259.81
296.217	284.81
296.448	295.81
296.679	271.81
296.909	274.81
297.14	255.81
297.37	269.81
297.601	264.81
297.831	268.81
298.062	262.81
298.292	264.81
298.523	271.81
298.753	287.81
298.984	293.81
299.214	288.81
299.445	288.81
299.675	278.81
299.905	269.81
300.136	273.81
300.366	260.81
300.597	270.81
300.827	282.81
301.057	276.81
301.288	298.81
301.518	280.81
301.748	284.81
301.979	287.81
302.209	284.81
302.439	296.81
302.669	282.81
302.9	288.81
303.13	304.81
303.36	285.81
303.59	303.81
303.82	324.81
304.051	296.81
304.281	286.81
304.511	291.81
304.741	304.81
304.971	293.81
305.201	296.81
305.431	306.81
305.661	287.81
305.891	276.81
306.121	291.81
306.352	297.81
306.582	311.81
306.812	306.81
307.042	287.81
307.272	302.81
307.502	310.81
307.731	297.81
307.961	294.81
308.191	304.81
308.421	295.81
308.651	313.81
308.881	302.81
309.111	298.81
309.341	298.81
309.571	327.81
309.8	319.81
310.03	340.81
310.26	351.81
310.49	338.81
310.72	370.81
310.949	361.81
311.179	384.81
311.409	356.81
311.639	354.81
311.868	341.81
312.098	362.81
312.328	356.81
312.557	372.81
312.787	384.81
313.017	380.81
313.246	359.81
313.476	343.81
313.706	343.81
313.935	344.81
314.165	373.81
314.394	372.81
314.624	362.81
314.853	360.81
315.083	348.81
315.312	350.81
315.542	331.81
315.771	319.81
316.001	335.81
316.23	336.81
316.46	352.81
316.689	341.81
316.919	366.81
317.148	356.81
317.377	368.81
317.607	352.81
317.836	352.81
318.065	343.81
318.295	352.81
318.524	347.81
318.753	337.81
318.983	341.81
319.212	338.81
319.441	375.81
319.67	360.81
319.9	346.81
320.129	348.81
320.358	348.81
320.587	364.81
320.816	371.81
321.046	370.81
321.275	359.81
321.504	370.81
321.733	375.81
321.962	390.81
322.191	382.81
322.42	402.81
322.649	407.81
322.878	418.81
323.108	446.81
323.337	441.81
323.566	476.81
323.795	494.81
324.024	528.81
324.253	684.81
324.482	932.81
324.71	1439.81
324.939	1983.81
325.168	1765.81
325.397	960.81
325.626	634.81
325.855	559.81
326.084	474.81
326.313	474.81
326.542	476.81
326.77	526.81
326.999	596.81
327.228	842.81
327.457	1251.81
327.686	1497.81
327.914	1066.81
328.143	704.81
328.372	606.81
328.6	574.81
328.829	537.81
329.058	553.81
329.287	565.81
329.515	517.81
329.744	476.81
329.972	473.81
330.201	491.81
330.43	545.81
330.658	565.81
330.887	606.81
331.115	588.81
331.344	501.81
331.572	488.81
331.801	470.81
332.03	460.81
332.258	448.81
332.486	436.81
332.715	397.81
332.943	407.81
333.172	414.81
333.4	426.81
333.629	437.81
333.857	426.81
334.085	440.81
334.314	447.81
334.542	485.81
334.771	497.81
334.999	460.81
335.227	432.81
335.455	436.81
335.684	403.81
335.912	405.81
336.14	396.81
336.369	385.81
336.597	433.81
336.825	419.81
337.053	404.81
337.281	398.81
337.51	398.81
337.738	409.81
337.966	422.81
338.194	417.81
338.422	412.81
338.65	396.81
338.878	398.81
339.106	400.81
339.334	392.81
339.562	399.81
339.79	378.81
340.018	390.81
340.246	386.81
340.474	400.81
340.702	403.81
340.93	387.81
341.158	382.81
341.386	373.81
341.614	377.81
341.842	401.81
342.07	402.81
342.298	374.81
342.526	404.81
342.754	404.81
342.981	383.81
343.209	372.81
343.437	378.81
343.665	372.81
343.893	382.81
344.12	393.81
344.348	379.81
344.576	395.81
344.804	401.81
345.031	418.81
345.259	424.81
345.487	399.81
345.714	415.81
345.942	401.81
346.17	401.81
346.397	407.81
346.625	379.81
346.853	382.81
347.08	378.81
347.308	404.81
347.535	403.81
347.763	405.81
347.99	400.81
348.218	410.81
348.445	405.81
348.673	408.81
348.9	394.81
349.128	372.81
349.355	385.81
349.583	383.81
349.81	378.81
350.037	382.81
350.265	385.81
350.492	369.81
350.72	401.81
350.947	388.81
351.174	401.81
351.402	387.81
351.629	416.81
351.856	391.81
352.083	386.81
352.311	419.81
352.538	430.81
352.765	401.81
352.992	391.81
353.22	385.81
353.447	393.81
353.674	403.81
353.901	384.81
354.128	366.81
354.355	367.81
354.583	386.81
354.81	395.81
355.037	373.81
355.264	369.81
355.491	357.81
355.718	378.81
355.945	363.81
356.172	345.81
356.399	360.81
356.626	362.81
356.853	354.81
357.08	379.81
357.307	358.81
357.534	370.81
357.761	361.81
357.988	376.81
358.215	370.81
358.441	375.81
358.668	386.81
358.895	370.81
359.122	369.81
359.349	384.81
359.576	396.81
359.802	424.81
360.029	460.81
360.256	453.81
360.483	443.81
360.709	409.81
360.936	404.81
361.163	386.81
361.39	400.81
361.616	412.81
361.843	394.81
362.07	392.81
362.296	414.81
362.523	403.81
362.749	394.81
362.976	387.81
363.203	388.81
363.429	384.81
363.656	405.81
363.882	396.81
364.109	393.81
364.335	384.81
364.562	390.81
364.788	361.81
365.015	386.81
365.241	389.81
365.468	395.81
365.694	387.81
365.92	395.81
366.147	390.81
366.373	389.81
366.599	363.81
366.826	383.81
367.052	386.81
367.278	379.81
367.505	382.81
367.731	371.81
367.957	368.81
368.184	381.81
368.41	386.81
368.636	400.81
368.862	405.81
369.089	396.81
369.315	386.81
369.541	380.81
369.767	375.81
369.993	383.81
370.219	392.81
370.445	383.81
370.672	375.81
370.898	378.81
371.124	372.81
371.35	378.81
371.576	368.81
371.802	374.81
372.028	377.81
372.254	377.81
372.48	370.81
372.706	380.81
372.932	376.81
373.158	390.81
373.384	401.81
373.61	401.81
373.835	403.81
374.061	377.81
374.287	387.81
374.513	380.81
374.739	384.81
374.965	408.81
375.191	382.81
375.416	394.81
375.642	385.81
375.868	401.81
376.094	384.81
376.319	394.81
376.545	394.81
376.771	377.81
376.997	393.81
377.222	380.81
377.448	384.81
377.674	387.81
377.899	390.81
378.125	378.81
378.35	383.81
378.576	398.81
378.802	388.81
379.027	391.81
379.253	398.81
379.478	382.81
379.704	378.81
379.929	383.81
380.155	390.81
380.38	396.81
380.606	388.81
380.831	388.81
381.057	410.81
381.282	396.81
381.507	384.81
381.733	381.81
381.958	393.81
382.184	401.81
382.409	394.81
382.634	388.81
382.86	394.81
383.085	397.81
383.31	413.81
383.535	391.81
383.761	391.81
383.986	408.81
384.211	406.81
384.436	399.81
384.662	414.81
384.887	402.81
385.112	402.81
385.337	393.81
385.562	424.81
385.787	391.81
386.013	433.81
386.238	440.81
386.463	447.81
386.688	414.81
386.913	414.81
387.138	400.81
387.363	422.81
387.588	416.81
387.813	397.81
388.038	414.81
388.263	413.81
388.488	414.81
388.713	402.81
388.938	430.81
389.163	418.81
389.387	414.81
389.612	411.81
389.837	424.81
390.062	416.81
390.287	409.81
390.512	403.81
390.736	408.81
390.961	411.81
391.186	386.81
391.411	427.81
391.636	415.81
391.86	415.81
392.085	427.81
392.31	414.81
392.534	406.81
392.759	440.81
392.984	442.81
393.208	424.81
393.433	441.81
393.658	435.81
393.882	415.81
394.107	434.81
394.331	425.81
394.556	418.81
394.78	426.81
395.005	429.81
395.229	429.81
395.454	434.81
395.678	434.81
395.903	455.81
396.127	489.81
396.352	467.81
396.576	428.81
396.801	432.81
397.025	453.81
397.249	443.81
397.474	429.81
397.698	476.81
397.922	457.81
398.147	454.81
398.371	488.81
398.595	470.81
398.82	477.81
399.044	469.81
399.268	484.81
399.492	485.81
399.717	514.81
399.941	526.81
400.165	562.81
400.389	584.81
400.613	522.81
400.837	502.81
401.062	475.81
401.286	490.81
401.51	465.81
401.734	468.81
401.958	483.81
402.182	476.81
402.406	496.81
402.63	487.81
402.854	474.81
403.078	491.81
403.302	496.81
403.526	494.81
403.75	498.81
403.974	502.81
404.198	499.81
404.422	480.81
404.645	501.81
404.869	512.81
405.093	531.81
405.317	554.81
405.541	597.81
405.765	545.81
405.988	538.81
406.212	545.81
406.436	563.81
406.66	559.81
406.883	563.81
407.107	577.81
407.331	600.81
407.555	640.81
407.778	656.81
408.002	609.81
408.226	576.81
408.449	567.81
408.673	532.81
408.896	574.81
409.12	632.81
409.344	583.81
409.567	526.81
409.791	524.81
410.014	507.81
410.238	524.81
410.461	512.81
410.685	495.81
410.908	531.81
411.132	552.81
411.355	599.81
411.578	572.81
411.802	511.81
412.025	494.81
412.249	501.81
412.472	539.81
412.695	546.81
412.919	552.81
413.142	515.81
413.365	522.81
413.589	498.81
413.812	483.81
414.035	481.81
414.258	484.81
414.482	485.81
414.705	483.81
414.928	456.81
415.151	479.81
415.374	486.81
415.597	466.81
415.821	479.81
416.044	483.81
416.267	469.81
416.49	470.81
416.713	467.81
416.936	474.81
417.159	474.81
417.382	467.81
417.605	499.81
417.828	521.81
418.051	524.81
418.274	507.81
418.497	486.81
418.72	488.81
418.943	490.81
419.166	499.81
419.389	502.81
419.611	518.81
419.834	500.81
420.057	516.81
420.28	511.81
420.503	519.81
420.726	530.81
420.948	539.81
421.171	587.81
421.394	580.81
421.617	545.81
421.839	498.81
422.062	515.81
422.285	530.81
422.507	588.81
422.73	635.81
422.953	626.81
423.175	561.81
423.398	546.81
423.621	540.81
423.843	548.81
424.066	566.81
424.288	548.81
424.511	604.81
424.733	624.81
424.956	688.81
425.178	679.81
425.401	662.81
425.623	715.81
425.846	620.81
426.068	565.81
426.291	569.81
426.513	550.81
426.735	571.81
426.958	595.81
427.18	692.81
427.402	803.81
427.625	904.81
427.847	796.81
428.069	694.81
428.292	622.81
428.514	566.81
428.736	550.81
428.958	537.81
429.181	526.81
429.403	523.81
429.625	543.81
429.847	570.81
430.069	624.81
430.292	626.81
430.514	541.81
430.736	517.81
430.958	521.81
431.18	493.81
431.402	487.81
431.624	498.81
431.846	452.81
432.068	465.81
432.29	496.81
432.512	494.81
432.734	497.81
432.956	496.81
433.178	518.81
433.4	510.81
433.622	519.81
433.844	490.81
434.066	467.81
434.287	455.81
434.509	502.81
434.731	479.81
434.953	517.81
435.175	537.81
435.397	570.81
435.618	571.81
435.84	607.81
436.062	672.81
436.284	748.81
436.505	626.81
436.727	566.81
436.949	553.81
437.17	536.81
437.392	525.81
437.614	558.81
437.835	579.81
438.057	649.81
438.278	772.81
438.5	784.81
438.721	827.81
438.943	787.81
439.165	666.81
439.386	592.81
439.608	587.81
439.829	579.81
440.05	608.81
440.272	634.81
440.493	590.81
440.715	568.81
440.936	548.81
441.158	538.81
441.379	521.81
441.6	547.81
441.822	562.81
442.043	600.81
442.264	699.81
442.486	728.81
442.707	632.81
442.928	595.81
443.149	594.81
443.371	619.81
443.592	632.81
443.813	731.81
444.034	760.81
444.255	667.81
444.476	575.81
444.698	578.81
444.919	567.81
445.14	688.81
445.361	613.81
445.582	623.81
445.803	689.81
446.024	769.81
446.245	768.81
446.466	712.81
446.687	601.81
446.908	567.81
447.129	554.81
447.35	544.81
447.571	554.81
447.792	543.81
448.013	538.81
448.234	560.81
448.455	606.81
448.675	693.81
448.896	818.81
449.117	695.81
449.338	658.81
449.559	766.81
449.779	842.81
450	694.81
450.221	598.81
450.442	548.81
450.662	523.81
450.883	519.81
451.104	521.81
451.324	534.81
451.545	508.81
451.766	472.81
451.986	473.81
452.207	464.81
452.428	449.81
452.648	495.81
452.869	471.81
453.089	483.81
453.31	486.81
453.53	478.81
453.751	471.81
453.971	450.81
454.192	496.81
454.412	480.81
454.633	496.81
454.853	474.81
455.073	452.81
455.294	494.81
455.514	556.81
455.734	548.81
455.955	483.81
456.175	459.81
456.395	450.81
456.616	438.81
456.836	446.81
457.056	420.81
457.276	423.81
457.497	446.81
457.717	434.81
457.937	438.81
458.157	458.81
458.377	464.81
458.598	464.81
458.818	531.81
459.038	612.81
459.258	631.81
459.478	550.81
459.698	489.81
459.918	505.81
460.138	499.81
460.358	502.81
460.578	494.81
460.798	488.81
461.018	496.81
461.238	486.81
461.458	471.81
461.678	484.81
461.898	498.81
462.118	510.81
462.338	483.81
462.558	498.81
462.777	499.81
462.997	518.81
463.217	498.81
463.437	495.81
463.657	502.81
463.876	510.81
464.096	511.81
464.316	507.81
464.536	527.81
464.755	522.81
464.975	538.81
465.195	580.81
465.414	639.81
465.634	572.81
465.854	549.81
466.073	512.81
466.293	489.81
466.512	481.81
466.732	472.81
466.951	468.81
467.171	454.81
467.391	488.81
467.61	473.81
467.829	504.81
468.049	501.81
468.268	495.81
468.488	507.81
468.707	468.81
468.927	477.81
469.146	466.81
469.365	462.81
469.585	446.81
469.804	465.81
470.023	489.81
470.243	477.81
470.462	499.81
470.681	528.81
470.901	519.81
471.12	494.81
471.339	492.81
471.558	506.81
471.777	496.81
471.997	489.81
472.216	475.81
472.435	521.81
472.654	509.81
472.873	503.81
473.092	498.81
473.311	494.81
473.53	482.81
473.749	510.81
473.968	547.81
474.187	641.81
474.406	671.81
474.625	553.81
474.844	508.81
475.063	492.81
475.282	506.81
475.501	516.81
475.72	483.81
475.939	518.81
476.158	522.81
476.377	513.81
476.596	512.81
476.814	494.81
477.033	528.81
477.252	514.81
477.471	522.81
477.69	513.81
477.908	518.81
478.127	539.81
478.346	529.81
478.564	539.81
478.783	543.81
479.002	542.81
479.22	551.81
479.439	569.81
479.658	571.81
479.876	587.81
480.095	581.81
480.313	625.81
480.532	602.81
480.751	592.81
480.969	597.81
481.188	639.81
481.406	730.81
481.624	636.81
481.843	594.81
482.061	607.81
482.28	607.81
482.498	600.81
482.717	595.81
482.935	593.81
483.153	591.81
483.372	566.81
483.59	571.81
483.808	599.81
484.027	597.81
484.245	595.81
484.463	592.81
484.681	600.81
484.9	589.81
485.118	602.81
485.336	611.81
485.554	591.81
485.772	603.81
485.99	602.81
486.209	618.81
486.427	612.81
486.645	633.81
486.863	638.81
487.081	623.81
487.299	632.81
487.517	628.81
487.735	627.81
487.953	650.81
488.171	640.81
488.389	635.81
488.607	642.81
488.825	639.81
489.043	662.81
489.261	667.81
489.479	662.81
489.696	660.81
489.914	656.81
490.132	687.81
490.35	677.81
490.568	696.81
490.786	682.81
491.003	696.81
491.221	716.81
491.439	727.81
491.657	718.81
491.874	716.81
492.092	756.81
492.31	754.81
492.527	774.81
492.745	782.81
492.963	747.81
493.18	746.81
493.398	747.81
493.615	758.81
493.833	790.81
494.05	761.81
494.268	784.81
494.485	780.81
494.703	745.81
494.92	772.81
495.138	766.81
495.355	780.81
495.573	791.81
495.79	784.81
496.008	791.81
496.225	761.81
496.442	774.81
496.66	780.81
496.877	743.81
497.094	763.81
497.312	774.81
497.529	808.81
497.746	786.81
497.963	791.81
498.181	794.81
498.398	809.81
498.615	846.81
498.832	842.81
499.049	858.81
499.267	840.81
499.484	855.81
499.701	890.81
499.918	866.81
500.135	951.81
500.352	942.81
500.569	939.81
500.786	969.81
501.003	947.81
501.22	965.81
501.437	922.81
501.654	910.81
501.871	900.81
502.088	903.81
