Data from 1970.PennyLincolnUp.Lamp.En5.5.200Scan.071719.P1._HRD10591_15-15-41-841.txt Node
Date: Thu Jul 18 15:15:41 EDT 2019
User: cochatt
Spectrometer: HR+D1059
Trigger mode: 1
Integration Time (sec): 1.000000E-1
Scans to average: 1
Electric dark correction enabled: true
Nonlinearity correction enabled: false
Boxcar width: 0
XAxis mode: Wavelengths
Number of Pixels in Spectrum: 2048
>>>>>Begin Spectral Data<<<<<
223.165	-12.19
223.4	-12.19
223.635	-12.19
223.869	-30.19
224.104	-16.19
224.338	-14.19
224.573	-19.19
224.808	-8.19
225.042	-1.19
225.277	-14.19
225.511	2.81
225.746	2.81
225.98	6.81
226.215	12.81
226.449	23.81
226.683	17.81
226.918	26.81
227.152	21.81
227.387	34.81
227.621	40.81
227.856	36.81
228.09	50.81
228.324	51.81
228.559	54.81
228.793	57.81
229.027	84.81
229.262	117.81
229.496	135.81
229.73	145.81
229.964	183.81
230.199	150.81
230.433	123.81
230.667	121.81
230.901	107.81
231.136	123.81
231.37	121.81
231.604	116.81
231.838	117.81
232.072	117.81
232.306	116.81
232.541	124.81
232.775	117.81
233.009	119.81
233.243	113.81
233.477	119.81
233.711	103.81
233.945	124.81
234.179	109.81
234.413	101.81
234.647	107.81
234.881	128.81
235.115	111.81
235.349	108.81
235.583	121.81
235.817	127.81
236.051	131.81
236.285	134.81
236.519	117.81
236.753	114.81
236.987	145.81
237.221	197.81
237.455	261.81
237.689	205.81
237.922	147.81
238.156	135.81
238.39	122.81
238.624	134.81
238.858	125.81
239.091	120.81
239.325	135.81
239.559	129.81
239.793	151.81
240.027	151.81
240.26	170.81
240.494	174.81
240.728	164.81
240.961	156.81
241.195	163.81
241.429	151.81
241.662	154.81
241.896	135.81
242.13	133.81
242.363	121.81
242.597	135.81
242.83	135.81
243.064	149.81
243.298	131.81
243.531	134.81
243.765	136.81
243.998	146.81
244.232	132.81
244.465	159.81
244.699	145.81
244.932	149.81
245.166	148.81
245.399	158.81
245.633	153.81
245.866	147.81
246.099	151.81
246.333	151.81
246.566	157.81
246.8	159.81
247.033	158.81
247.266	160.81
247.5	149.81
247.733	177.81
247.966	171.81
248.2	175.81
248.433	177.81
248.666	186.81
248.899	214.81
249.133	202.81
249.366	216.81
249.599	206.81
249.832	201.81
250.066	202.81
250.299	190.81
250.532	200.81
250.765	215.81
250.998	243.81
251.231	259.81
251.465	231.81
251.698	229.81
251.931	223.81
252.164	210.81
252.397	220.81
252.63	214.81
252.863	225.81
253.096	244.81
253.329	239.81
253.562	240.81
253.795	234.81
254.028	222.81
254.261	225.81
254.494	257.81
254.727	275.81
254.96	320.81
255.193	301.81
255.426	269.81
255.659	291.81
255.892	264.81
256.124	255.81
256.357	282.81
256.59	245.81
256.823	226.81
257.056	241.81
257.289	237.81
257.521	214.81
257.754	228.81
257.987	231.81
258.22	230.81
258.452	234.81
258.685	217.81
258.918	218.81
259.151	226.81
259.383	248.81
259.616	247.81
259.849	233.81
260.081	256.81
260.314	289.81
260.547	284.81
260.779	260.81
261.012	264.81
261.244	268.81
261.477	241.81
261.71	240.81
261.942	249.81
262.175	255.81
262.407	229.81
262.64	225.81
262.872	217.81
263.105	230.81
263.337	227.81
263.57	226.81
263.802	227.81
264.035	205.81
264.267	211.81
264.499	226.81
264.732	226.81
264.964	222.81
265.197	227.81
265.429	215.81
265.661	227.81
265.894	225.81
266.126	222.81
266.358	219.81
266.591	213.81
266.823	227.81
267.055	229.81
267.287	230.81
267.52	248.81
267.752	243.81
267.984	225.81
268.216	240.81
268.448	228.81
268.681	230.81
268.913	240.81
269.145	270.81
269.377	293.81
269.609	291.81
269.841	270.81
270.073	277.81
270.306	322.81
270.538	328.81
270.77	342.81
271.002	345.81
271.234	321.81
271.466	313.81
271.698	347.81
271.93	335.81
272.162	335.81
272.394	346.81
272.626	350.81
272.858	297.81
273.09	292.81
273.322	299.81
273.553	270.81
273.785	294.81
274.017	277.81
274.249	261.81
274.481	265.81
274.713	275.81
274.945	287.81
275.176	279.81
275.408	267.81
275.64	275.81
275.872	261.81
276.104	276.81
276.335	273.81
276.567	265.81
276.799	313.81
277.031	326.81
277.262	346.81
277.494	350.81
277.726	288.81
277.957	290.81
278.189	292.81
278.421	285.81
278.652	268.81
278.884	287.81
279.115	279.81
279.347	270.81
279.579	264.81
279.81	257.81
280.042	288.81
280.273	261.81
280.505	265.81
280.736	253.81
280.968	269.81
281.199	262.81
281.431	267.81
281.662	284.81
281.894	266.81
282.125	259.81
282.356	282.81
282.588	336.81
282.819	305.81
283.051	279.81
283.282	261.81
283.513	277.81
283.745	266.81
283.976	273.81
284.207	293.81
284.439	285.81
284.67	286.81
284.901	271.81
285.132	265.81
285.364	257.81
285.595	285.81
285.826	277.81
286.057	287.81
286.288	267.81
286.52	265.81
286.751	271.81
286.982	279.81
287.213	274.81
287.444	295.81
287.675	289.81
287.906	306.81
288.138	305.81
288.369	320.81
288.6	291.81
288.831	324.81
289.062	287.81
289.293	284.81
289.524	279.81
289.755	281.81
289.986	276.81
290.217	282.81
290.448	290.81
290.679	284.81
290.91	298.81
291.141	280.81
291.371	274.81
291.602	278.81
291.833	283.81
292.064	275.81
292.295	288.81
292.526	278.81
292.757	298.81
292.987	283.81
293.218	279.81
293.449	282.81
293.68	296.81
293.91	282.81
294.141	291.81
294.372	285.81
294.603	285.81
294.833	286.81
295.064	277.81
295.295	286.81
295.525	304.81
295.756	288.81
295.987	306.81
296.217	321.81
296.448	324.81
296.679	306.81
296.909	309.81
297.14	264.81
297.37	292.81
297.601	295.81
297.831	289.81
298.062	277.81
298.292	279.81
298.523	312.81
298.753	291.81
298.984	305.81
299.214	295.81
299.445	301.81
299.675	306.81
299.905	317.81
300.136	314.81
300.366	299.81
300.597	296.81
300.827	302.81
301.057	311.81
301.288	322.81
301.518	321.81
301.748	303.81
301.979	298.81
302.209	314.81
302.439	329.81
302.669	312.81
302.9	301.81
303.13	313.81
303.36	325.81
303.59	325.81
303.82	330.81
304.051	347.81
304.281	329.81
304.511	301.81
304.741	317.81
304.971	325.81
305.201	326.81
305.431	311.81
305.661	312.81
305.891	305.81
306.121	319.81
306.352	332.81
306.582	342.81
306.812	325.81
307.042	317.81
307.272	316.81
307.502	322.81
307.731	309.81
307.961	343.81
308.191	327.81
308.421	325.81
308.651	341.81
308.881	338.81
309.111	337.81
309.341	330.81
309.571	351.81
309.8	361.81
310.03	373.81
310.26	372.81
310.49	378.81
310.72	400.81
310.949	409.81
311.179	426.81
311.409	395.81
311.639	390.81
311.868	393.81
312.098	381.81
312.328	406.81
312.557	410.81
312.787	415.81
313.017	402.81
313.246	434.81
313.476	395.81
313.706	395.81
313.935	389.81
314.165	406.81
314.394	419.81
314.624	420.81
314.853	395.81
315.083	388.81
315.312	382.81
315.542	365.81
315.771	367.81
316.001	370.81
316.23	377.81
316.46	377.81
316.689	392.81
316.919	371.81
317.148	399.81
317.377	404.81
317.607	383.81
317.836	385.81
318.065	384.81
318.295	404.81
318.524	394.81
318.753	371.81
318.983	371.81
319.212	391.81
319.441	402.81
319.67	392.81
319.9	392.81
320.129	373.81
320.358	388.81
320.587	382.81
320.816	404.81
321.046	421.81
321.275	437.81
321.504	411.81
321.733	424.81
321.962	421.81
322.191	460.81
322.42	445.81
322.649	497.81
322.878	495.81
323.108	503.81
323.337	528.81
323.566	577.81
323.795	593.81
324.024	642.81
324.253	792.81
324.482	1177.81
324.71	1809.81
324.939	2547.81
325.168	2235.81
325.397	1199.81
325.626	770.81
325.855	663.81
326.084	581.81
326.313	569.81
326.542	567.81
326.77	618.81
326.999	737.81
327.228	1035.81
327.457	1586.81
327.686	1909.81
327.914	1317.81
328.143	866.81
328.372	715.81
328.6	679.81
328.829	651.81
329.058	660.81
329.287	685.81
329.515	636.81
329.744	593.81
329.972	577.81
330.201	599.81
330.43	634.81
330.658	669.81
330.887	709.81
331.115	703.81
331.344	577.81
331.572	522.81
331.801	536.81
332.03	517.81
332.258	494.81
332.486	478.81
332.715	471.81
332.943	453.81
333.172	480.81
333.4	461.81
333.629	469.81
333.857	493.81
334.085	516.81
334.314	537.81
334.542	569.81
334.771	586.81
334.999	530.81
335.227	490.81
335.455	457.81
335.684	459.81
335.912	474.81
336.14	446.81
336.369	443.81
336.597	454.81
336.825	467.81
337.053	433.81
337.281	443.81
337.51	439.81
337.738	457.81
337.966	458.81
338.194	454.81
338.422	469.81
338.65	463.81
338.878	453.81
339.106	435.81
339.334	421.81
339.562	438.81
339.79	421.81
340.018	456.81
340.246	435.81
340.474	470.81
340.702	423.81
340.93	437.81
341.158	436.81
341.386	436.81
341.614	459.81
341.842	458.81
342.07	431.81
342.298	439.81
342.526	441.81
342.754	427.81
342.981	411.81
343.209	404.81
343.437	433.81
343.665	435.81
343.893	435.81
344.12	449.81
344.348	415.81
344.576	435.81
344.804	434.81
345.031	465.81
345.259	487.81
345.487	450.81
345.714	450.81
345.942	440.81
346.17	443.81
346.397	433.81
346.625	415.81
346.853	432.81
347.08	425.81
347.308	468.81
347.535	446.81
347.763	446.81
347.99	454.81
348.218	440.81
348.445	449.81
348.673	432.81
348.9	453.81
349.128	422.81
349.355	439.81
349.583	425.81
349.81	403.81
350.037	413.81
350.265	413.81
350.492	409.81
350.72	431.81
350.947	417.81
351.174	430.81
351.402	448.81
351.629	447.81
351.856	442.81
352.083	438.81
352.311	473.81
352.538	474.81
352.765	468.81
352.992	450.81
353.22	443.81
353.447	449.81
353.674	454.81
353.901	419.81
354.128	405.81
354.355	395.81
354.583	385.81
354.81	389.81
355.037	413.81
355.264	407.81
355.491	395.81
355.718	377.81
355.945	399.81
356.172	405.81
356.399	408.81
356.626	404.81
356.853	419.81
357.08	411.81
357.307	389.81
357.534	396.81
357.761	401.81
357.988	414.81
358.215	384.81
358.441	416.81
358.668	436.81
358.895	411.81
359.122	418.81
359.349	419.81
359.576	434.81
359.802	461.81
360.029	512.81
360.256	531.81
360.483	504.81
360.709	475.81
360.936	433.81
361.163	466.81
361.39	451.81
361.616	437.81
361.843	427.81
362.07	450.81
362.296	448.81
362.523	443.81
362.749	433.81
362.976	437.81
363.203	406.81
363.429	416.81
363.656	431.81
363.882	424.81
364.109	421.81
364.335	435.81
364.562	427.81
364.788	420.81
365.015	417.81
365.241	423.81
365.468	422.81
365.694	438.81
365.92	444.81
366.147	422.81
366.373	420.81
366.599	408.81
366.826	408.81
367.052	423.81
367.278	424.81
367.505	400.81
367.731	434.81
367.957	423.81
368.184	419.81
368.41	432.81
368.636	440.81
368.862	453.81
369.089	412.81
369.315	417.81
369.541	416.81
369.767	418.81
369.993	422.81
370.219	420.81
370.445	433.81
370.672	414.81
370.898	401.81
371.124	405.81
371.35	403.81
371.576	413.81
371.802	402.81
372.028	406.81
372.254	409.81
372.48	417.81
372.706	415.81
372.932	407.81
373.158	406.81
373.384	415.81
373.61	407.81
373.835	412.81
374.061	414.81
374.287	435.81
374.513	414.81
374.739	422.81
374.965	429.81
375.191	414.81
375.416	399.81
375.642	412.81
375.868	421.81
376.094	431.81
376.319	401.81
376.545	423.81
376.771	429.81
376.997	419.81
377.222	410.81
377.448	411.81
377.674	405.81
377.899	402.81
378.125	397.81
378.35	402.81
378.576	398.81
378.802	408.81
379.027	407.81
379.253	414.81
379.478	413.81
379.704	408.81
379.929	408.81
380.155	422.81
380.38	424.81
380.606	415.81
380.831	410.81
381.057	421.81
381.282	417.81
381.507	394.81
381.733	408.81
381.958	434.81
382.184	408.81
382.409	409.81
382.634	430.81
382.86	427.81
383.085	431.81
383.31	440.81
383.535	438.81
383.761	425.81
383.986	423.81
384.211	413.81
384.436	434.81
384.662	424.81
384.887	418.81
385.112	447.81
385.337	454.81
385.562	426.81
385.787	440.81
386.013	447.81
386.238	457.81
386.463	474.81
386.688	440.81
386.913	436.81
387.138	458.81
387.363	435.81
387.588	447.81
387.813	439.81
388.038	447.81
388.263	425.81
388.488	441.81
388.713	463.81
388.938	457.81
389.163	450.81
389.387	455.81
389.612	415.81
389.837	451.81
390.062	429.81
390.287	451.81
390.512	438.81
390.736	441.81
390.961	460.81
391.186	436.81
391.411	459.81
391.636	467.81
391.86	446.81
392.085	438.81
392.31	448.81
392.534	452.81
392.759	453.81
392.984	454.81
393.208	446.81
393.433	437.81
393.658	445.81
393.882	456.81
394.107	449.81
394.331	443.81
394.556	429.81
394.78	446.81
395.005	438.81
395.229	449.81
395.454	457.81
395.678	469.81
395.903	474.81
396.127	506.81
396.352	496.81
396.576	486.81
396.801	472.81
397.025	445.81
397.249	470.81
397.474	472.81
397.698	496.81
397.922	502.81
398.147	502.81
398.371	502.81
398.595	482.81
398.82	494.81
399.044	484.81
399.268	525.81
399.492	533.81
399.717	572.81
399.941	595.81
400.165	616.81
400.389	607.81
400.613	599.81
400.837	557.81
401.062	526.81
401.286	527.81
401.51	507.81
401.734	523.81
401.958	529.81
402.182	523.81
402.406	548.81
402.63	533.81
402.854	508.81
403.078	526.81
403.302	533.81
403.526	520.81
403.75	532.81
403.974	529.81
404.198	537.81
404.422	561.81
404.645	552.81
404.869	545.81
405.093	582.81
405.317	616.81
405.541	640.81
405.765	607.81
405.988	566.81
406.212	602.81
406.436	625.81
406.66	634.81
406.883	595.81
407.107	616.81
407.331	661.81
407.555	732.81
407.778	718.81
408.002	683.81
408.226	635.81
408.449	604.81
408.673	603.81
408.896	639.81
409.12	685.81
409.344	646.81
409.567	585.81
409.791	564.81
410.014	536.81
410.238	542.81
410.461	532.81
410.685	557.81
410.908	543.81
411.132	589.81
411.355	641.81
411.578	599.81
411.802	583.81
412.025	552.81
412.249	570.81
412.472	591.81
412.695	616.81
412.919	607.81
413.142	593.81
413.365	546.81
413.589	536.81
413.812	530.81
414.035	548.81
414.258	511.81
414.482	497.81
414.705	513.81
414.928	536.81
415.151	497.81
415.374	511.81
415.597	523.81
415.821	501.81
416.044	515.81
416.267	527.81
416.49	518.81
416.713	529.81
416.936	511.81
417.159	521.81
417.382	522.81
417.605	533.81
417.828	539.81
418.051	552.81
418.274	561.81
418.497	531.81
418.72	529.81
418.943	513.81
419.166	546.81
419.389	553.81
419.611	529.81
419.834	549.81
420.057	558.81
420.28	551.81
420.503	544.81
420.726	541.81
420.948	584.81
421.171	618.81
421.394	661.81
421.617	585.81
421.839	570.81
422.062	572.81
422.285	572.81
422.507	632.81
422.73	725.81
422.953	687.81
423.175	625.81
423.398	581.81
423.621	578.81
423.843	609.81
424.066	612.81
424.288	592.81
424.511	615.81
424.733	665.81
424.956	753.81
425.178	734.81
425.401	767.81
425.623	783.81
425.846	677.81
426.068	613.81
426.291	618.81
426.513	609.81
426.735	627.81
426.958	670.81
427.18	757.81
427.402	890.81
427.625	952.81
427.847	881.81
428.069	781.81
428.292	698.81
428.514	635.81
428.736	598.81
428.958	585.81
429.181	563.81
429.403	561.81
429.625	570.81
429.847	627.81
430.069	701.81
430.292	676.81
430.514	599.81
430.736	579.81
430.958	543.81
431.18	545.81
431.402	547.81
431.624	512.81
431.846	526.81
432.068	521.81
432.29	527.81
432.512	529.81
432.734	542.81
432.956	530.81
433.178	559.81
433.4	541.81
433.622	535.81
433.844	544.81
434.066	537.81
434.287	528.81
434.509	541.81
434.731	539.81
434.953	531.81
435.175	589.81
435.397	600.81
435.618	613.81
435.84	657.81
436.062	785.81
436.284	823.81
436.505	713.81
436.727	639.81
436.949	583.81
437.17	570.81
437.392	584.81
437.614	588.81
437.835	642.81
438.057	746.81
438.278	854.81
438.5	857.81
438.721	915.81
438.943	870.81
439.165	707.81
439.386	639.81
439.608	631.81
439.829	638.81
440.05	665.81
440.272	702.81
440.493	681.81
440.715	618.81
440.936	589.81
441.158	589.81
441.379	582.81
441.6	596.81
441.822	624.81
442.043	667.81
442.264	738.81
442.486	799.81
442.707	685.81
442.928	633.81
443.149	641.81
443.371	657.81
443.592	731.81
443.813	785.81
444.034	863.81
444.255	730.81
444.476	639.81
444.698	603.81
444.919	596.81
445.14	751.81
445.361	696.81
445.582	674.81
445.803	725.81
446.024	849.81
446.245	871.81
446.466	801.81
446.687	673.81
446.908	629.81
447.129	607.81
447.35	577.81
447.571	582.81
447.792	566.81
448.013	572.81
448.234	638.81
448.455	697.81
448.675	761.81
448.896	879.81
449.117	778.81
449.338	706.81
449.559	850.81
449.779	930.81
450	754.81
450.221	663.81
450.442	595.81
450.662	565.81
450.883	595.81
451.104	600.81
451.324	606.81
451.545	581.81
451.766	561.81
451.986	520.81
452.207	536.81
452.428	517.81
452.648	509.81
452.869	512.81
453.089	524.81
453.31	543.81
453.53	519.81
453.751	507.81
453.971	525.81
454.192	521.81
454.412	516.81
454.633	511.81
454.853	497.81
455.073	506.81
455.294	547.81
455.514	610.81
455.734	612.81
455.955	499.81
456.175	489.81
456.395	495.81
456.616	464.81
456.836	469.81
457.056	479.81
457.276	484.81
457.497	469.81
457.717	494.81
457.937	496.81
458.157	488.81
458.377	495.81
458.598	519.81
458.818	622.81
459.038	709.81
459.258	700.81
459.478	596.81
459.698	540.81
459.918	530.81
460.138	514.81
460.358	527.81
460.578	524.81
460.798	498.81
461.018	520.81
461.238	523.81
461.458	523.81
461.678	517.81
461.898	537.81
462.118	514.81
462.338	533.81
462.558	504.81
462.777	536.81
462.997	548.81
463.217	542.81
463.437	550.81
463.657	557.81
463.876	559.81
464.096	584.81
464.316	545.81
464.536	567.81
464.755	565.81
464.975	566.81
465.195	641.81
465.414	753.81
465.634	645.81
465.854	605.81
466.073	550.81
466.293	549.81
466.512	538.81
466.732	523.81
466.951	542.81
467.171	505.81
467.391	524.81
467.61	535.81
467.829	553.81
468.049	545.81
468.268	560.81
468.488	535.81
468.707	502.81
468.927	514.81
469.146	503.81
469.365	500.81
469.585	494.81
469.804	507.81
470.023	527.81
470.243	521.81
470.462	530.81
470.681	565.81
470.901	554.81
471.12	554.81
471.339	549.81
471.558	540.81
471.777	530.81
471.997	518.81
472.216	538.81
472.435	594.81
472.654	569.81
472.873	567.81
473.092	535.81
473.311	519.81
473.53	530.81
473.749	558.81
473.968	589.81
474.187	718.81
474.406	760.81
474.625	612.81
474.844	549.81
475.063	549.81
475.282	516.81
475.501	553.81
475.72	550.81
475.939	552.81
476.158	541.81
476.377	566.81
476.596	543.81
476.814	559.81
477.033	546.81
477.252	563.81
477.471	568.81
477.69	554.81
477.908	561.81
478.127	582.81
478.346	578.81
478.564	589.81
478.783	586.81
479.002	587.81
479.22	598.81
479.439	625.81
479.658	644.81
479.876	655.81
480.095	635.81
480.313	691.81
480.532	670.81
480.751	677.81
480.969	683.81
481.188	737.81
481.406	804.81
481.624	726.81
481.843	688.81
482.061	667.81
482.28	666.81
482.498	642.81
482.717	643.81
482.935	641.81
483.153	646.81
483.372	613.81
483.59	648.81
483.808	659.81
484.027	649.81
484.245	662.81
484.463	630.81
484.681	641.81
484.9	650.81
485.118	659.81
485.336	652.81
485.554	666.81
485.772	674.81
485.99	657.81
486.209	679.81
486.427	669.81
486.645	663.81
486.863	703.81
487.081	714.81
487.299	711.81
487.517	700.81
487.735	701.81
487.953	694.81
488.171	695.81
488.389	714.81
488.607	693.81
488.825	698.81
489.043	708.81
489.261	703.81
489.479	703.81
489.696	711.81
489.914	699.81
490.132	710.81
490.35	721.81
490.568	720.81
490.786	743.81
491.003	774.81
491.221	791.81
491.439	815.81
491.657	806.81
491.874	816.81
492.092	793.81
492.31	797.81
492.527	831.81
492.745	822.81
492.963	822.81
493.18	821.81
493.398	823.81
493.615	839.81
493.833	842.81
494.05	836.81
494.268	826.81
494.485	835.81
494.703	804.81
494.92	868.81
495.138	847.81
495.355	854.81
495.573	875.81
495.79	846.81
496.008	843.81
496.225	847.81
496.442	833.81
496.66	824.81
496.877	824.81
497.094	826.81
497.312	832.81
497.529	859.81
497.746	871.81
497.963	853.81
498.181	902.81
498.398	895.81
498.615	884.81
498.832	897.81
499.049	911.81
499.267	908.81
499.484	942.81
499.701	950.81
499.918	949.81
500.135	997.81
500.352	1010.81
500.569	1037.81
500.786	1031.81
501.003	1017.81
501.22	995.81
501.437	1012.81
501.654	999.81
501.871	1006.81
