Data from 1970.PennyLincolnUp.Lamp.En5.5.200Scan.071719.P1._HRD10591_15-13-46-843.txt Node
Date: Thu Jul 18 15:13:46 EDT 2019
User: cochatt
Spectrometer: HR+D1059
Trigger mode: 1
Integration Time (sec): 1.000000E-1
Scans to average: 1
Electric dark correction enabled: true
Nonlinearity correction enabled: false
Boxcar width: 0
XAxis mode: Wavelengths
Number of Pixels in Spectrum: 2048
>>>>>Begin Spectral Data<<<<<
223.165	-10.19
223.4	-10.19
223.635	-10.19
223.869	-12.19
224.104	-10.19
224.338	-13.19
224.573	-11.19
224.808	-26.19
225.042	-14.19
225.277	-8.19
225.511	-0.19
225.746	3.81
225.98	5.81
226.215	11.81
226.449	12.81
226.683	22.81
226.918	19.81
227.152	28.81
227.387	28.81
227.621	44.81
227.856	44.81
228.09	52.81
228.324	43.81
228.559	49.81
228.793	52.81
229.027	97.81
229.262	108.81
229.496	130.81
229.73	134.81
229.964	165.81
230.199	142.81
230.433	120.81
230.667	115.81
230.901	122.81
231.136	115.81
231.37	104.81
231.604	121.81
231.838	115.81
232.072	106.81
232.306	120.81
232.541	122.81
232.775	108.81
233.009	116.81
233.243	100.81
233.477	120.81
233.711	111.81
233.945	121.81
234.179	112.81
234.413	112.81
234.647	122.81
234.881	123.81
235.115	119.81
235.349	134.81
235.583	135.81
235.817	129.81
236.051	113.81
236.285	118.81
236.519	117.81
236.753	143.81
236.987	145.81
237.221	170.81
237.455	245.81
237.689	203.81
237.922	146.81
238.156	139.81
238.39	134.81
238.624	128.81
238.858	133.81
239.091	131.81
239.325	123.81
239.559	131.81
239.793	133.81
240.027	133.81
240.26	156.81
240.494	164.81
240.728	144.81
240.961	153.81
241.195	146.81
241.429	131.81
241.662	123.81
241.896	133.81
242.13	141.81
242.363	137.81
242.597	125.81
242.83	143.81
243.064	142.81
243.298	142.81
243.531	138.81
243.765	158.81
243.998	143.81
244.232	148.81
244.465	153.81
244.699	154.81
244.932	151.81
245.166	145.81
245.399	151.81
245.633	143.81
245.866	146.81
246.099	149.81
246.333	156.81
246.566	173.81
246.8	154.81
247.033	163.81
247.266	169.81
247.5	179.81
247.733	165.81
247.966	171.81
248.2	178.81
248.433	183.81
248.666	183.81
248.899	184.81
249.133	206.81
249.366	227.81
249.599	205.81
249.832	201.81
250.066	206.81
250.299	204.81
250.532	180.81
250.765	204.81
250.998	234.81
251.231	248.81
251.465	205.81
251.698	209.81
251.931	207.81
252.164	217.81
252.397	204.81
252.63	194.81
252.863	207.81
253.096	225.81
253.329	243.81
253.562	234.81
253.795	230.81
254.028	233.81
254.261	234.81
254.494	251.81
254.727	287.81
254.96	309.81
255.193	281.81
255.426	281.81
255.659	239.81
255.892	231.81
256.124	250.81
256.357	259.81
256.59	237.81
256.823	229.81
257.056	231.81
257.289	221.81
257.521	217.81
257.754	210.81
257.987	213.81
258.22	217.81
258.452	225.81
258.685	219.81
258.918	232.81
259.151	225.81
259.383	232.81
259.616	228.81
259.849	232.81
260.081	229.81
260.314	263.81
260.547	261.81
260.779	253.81
261.012	256.81
261.244	236.81
261.477	225.81
261.71	229.81
261.942	217.81
262.175	234.81
262.407	251.81
262.64	244.81
262.872	226.81
263.105	220.81
263.337	215.81
263.57	229.81
263.802	220.81
264.035	200.81
264.267	220.81
264.499	221.81
264.732	220.81
264.964	226.81
265.197	211.81
265.429	207.81
265.661	204.81
265.894	202.81
266.126	219.81
266.358	209.81
266.591	195.81
266.823	215.81
267.055	211.81
267.287	238.81
267.52	221.81
267.752	210.81
267.984	217.81
268.216	231.81
268.448	217.81
268.681	217.81
268.913	235.81
269.145	253.81
269.377	276.81
269.609	255.81
269.841	251.81
270.073	267.81
270.306	287.81
270.538	298.81
270.77	308.81
271.002	294.81
271.234	289.81
271.466	288.81
271.698	292.81
271.93	320.81
272.162	312.81
272.394	308.81
272.626	311.81
272.858	281.81
273.09	270.81
273.322	272.81
273.553	270.81
273.785	251.81
274.017	247.81
274.249	268.81
274.481	247.81
274.713	257.81
274.945	266.81
275.176	269.81
275.408	263.81
275.64	250.81
275.872	241.81
276.104	266.81
276.335	262.81
276.567	264.81
276.799	287.81
277.031	295.81
277.262	330.81
277.494	316.81
277.726	292.81
277.957	274.81
278.189	284.81
278.421	286.81
278.652	253.81
278.884	275.81
279.115	257.81
279.347	259.81
279.579	245.81
279.81	271.81
280.042	254.81
280.273	253.81
280.505	277.81
280.736	269.81
280.968	262.81
281.199	259.81
281.431	247.81
281.662	262.81
281.894	272.81
282.125	264.81
282.356	275.81
282.588	283.81
282.819	294.81
283.051	272.81
283.282	263.81
283.513	273.81
283.745	274.81
283.976	259.81
284.207	266.81
284.439	262.81
284.67	253.81
284.901	284.81
285.132	268.81
285.364	247.81
285.595	248.81
285.826	246.81
286.057	266.81
286.288	269.81
286.52	270.81
286.751	254.81
286.982	279.81
287.213	241.81
287.444	268.81
287.675	280.81
287.906	281.81
288.138	287.81
288.369	273.81
288.6	276.81
288.831	291.81
289.062	264.81
289.293	271.81
289.524	280.81
289.755	273.81
289.986	273.81
290.217	278.81
290.448	283.81
290.679	270.81
290.91	277.81
291.141	259.81
291.371	261.81
291.602	265.81
291.833	276.81
292.064	300.81
292.295	283.81
292.526	261.81
292.757	269.81
292.987	267.81
293.218	277.81
293.449	268.81
293.68	279.81
293.91	269.81
294.141	277.81
294.372	274.81
294.603	285.81
294.833	260.81
295.064	270.81
295.295	267.81
295.525	261.81
295.756	273.81
295.987	299.81
296.217	298.81
296.448	313.81
296.679	289.81
296.909	277.81
297.14	268.81
297.37	279.81
297.601	299.81
297.831	273.81
298.062	285.81
298.292	289.81
298.523	276.81
298.753	290.81
298.984	297.81
299.214	290.81
299.445	293.81
299.675	298.81
299.905	300.81
300.136	289.81
300.366	279.81
300.597	289.81
300.827	295.81
301.057	310.81
301.288	297.81
301.518	289.81
301.748	306.81
301.979	316.81
302.209	309.81
302.439	306.81
302.669	308.81
302.9	314.81
303.13	314.81
303.36	314.81
303.59	335.81
303.82	308.81
304.051	310.81
304.281	306.81
304.511	316.81
304.741	297.81
304.971	312.81
305.201	299.81
305.431	293.81
305.661	288.81
305.891	305.81
306.121	309.81
306.352	312.81
306.582	316.81
306.812	314.81
307.042	296.81
307.272	306.81
307.502	300.81
307.731	305.81
307.961	291.81
308.191	305.81
308.421	322.81
308.651	312.81
308.881	301.81
309.111	310.81
309.341	316.81
309.571	334.81
309.8	355.81
310.03	360.81
310.26	353.81
310.49	375.81
310.72	373.81
310.949	406.81
311.179	385.81
311.409	362.81
311.639	350.81
311.868	374.81
312.098	349.81
312.328	357.81
312.557	356.81
312.787	399.81
313.017	401.81
313.246	354.81
313.476	358.81
313.706	367.81
313.935	356.81
314.165	364.81
314.394	383.81
314.624	390.81
314.853	373.81
315.083	377.81
315.312	364.81
315.542	345.81
315.771	319.81
316.001	333.81
316.23	360.81
316.46	351.81
316.689	337.81
316.919	362.81
317.148	358.81
317.377	361.81
317.607	374.81
317.836	341.81
318.065	341.81
318.295	353.81
318.524	350.81
318.753	346.81
318.983	361.81
319.212	379.81
319.441	366.81
319.67	381.81
319.9	372.81
320.129	365.81
320.358	364.81
320.587	377.81
320.816	374.81
321.046	373.81
321.275	400.81
321.504	373.81
321.733	380.81
321.962	404.81
322.191	420.81
322.42	406.81
322.649	412.81
322.878	437.81
323.108	451.81
323.337	486.81
323.566	494.81
323.795	527.81
324.024	578.81
324.253	673.81
324.482	1005.81
324.71	1507.81
324.939	2110.81
325.168	1903.81
325.397	1002.81
325.626	682.81
325.855	583.81
326.084	518.81
326.313	517.81
326.542	503.81
326.77	558.81
326.999	654.81
327.228	887.81
327.457	1335.81
327.686	1573.81
327.914	1077.81
328.143	769.81
328.372	655.81
328.6	582.81
328.829	569.81
329.058	583.81
329.287	569.81
329.515	573.81
329.744	521.81
329.972	492.81
330.201	530.81
330.43	567.81
330.658	585.81
330.887	621.81
331.115	613.81
331.344	509.81
331.572	497.81
331.801	483.81
332.03	497.81
332.258	466.81
332.486	429.81
332.715	399.81
332.943	429.81
333.172	430.81
333.4	438.81
333.629	445.81
333.857	459.81
334.085	443.81
334.314	468.81
334.542	515.81
334.771	529.81
334.999	497.81
335.227	465.81
335.455	423.81
335.684	418.81
335.912	438.81
336.14	420.81
336.369	431.81
336.597	418.81
336.825	433.81
337.053	421.81
337.281	420.81
337.51	412.81
337.738	421.81
337.966	422.81
338.194	442.81
338.422	417.81
338.65	432.81
338.878	394.81
339.106	400.81
339.334	391.81
339.562	412.81
339.79	407.81
340.018	427.81
340.246	413.81
340.474	432.81
340.702	406.81
340.93	411.81
341.158	408.81
341.386	402.81
341.614	419.81
341.842	422.81
342.07	406.81
342.298	401.81
342.526	415.81
342.754	404.81
342.981	422.81
343.209	392.81
343.437	394.81
343.665	402.81
343.893	401.81
344.12	429.81
344.348	423.81
344.576	409.81
344.804	439.81
345.031	430.81
345.259	442.81
345.487	437.81
345.714	399.81
345.942	412.81
346.17	395.81
346.397	417.81
346.625	424.81
346.853	423.81
347.08	387.81
347.308	412.81
347.535	427.81
347.763	390.81
347.99	443.81
348.218	421.81
348.445	422.81
348.673	426.81
348.9	393.81
349.128	436.81
349.355	435.81
349.583	389.81
349.81	392.81
350.037	384.81
350.265	403.81
350.492	405.81
350.72	388.81
350.947	378.81
351.174	408.81
351.402	441.81
351.629	417.81
351.856	421.81
352.083	422.81
352.311	441.81
352.538	433.81
352.765	444.81
352.992	416.81
353.22	412.81
353.447	419.81
353.674	398.81
353.901	410.81
354.128	389.81
354.355	395.81
354.583	415.81
354.81	363.81
355.037	395.81
355.264	369.81
355.491	392.81
355.718	361.81
355.945	367.81
356.172	375.81
356.399	366.81
356.626	385.81
356.853	397.81
357.08	359.81
357.307	387.81
357.534	358.81
357.761	370.81
357.988	381.81
358.215	374.81
358.441	389.81
358.668	376.81
358.895	379.81
359.122	381.81
359.349	393.81
359.576	414.81
359.802	430.81
360.029	464.81
360.256	480.81
360.483	469.81
360.709	449.81
360.936	436.81
361.163	416.81
361.39	422.81
361.616	410.81
361.843	422.81
362.07	416.81
362.296	405.81
362.523	426.81
362.749	414.81
362.976	410.81
363.203	409.81
363.429	398.81
363.656	401.81
363.882	411.81
364.109	417.81
364.335	396.81
364.562	388.81
364.788	403.81
365.015	415.81
365.241	391.81
365.468	421.81
365.694	399.81
365.92	389.81
366.147	395.81
366.373	381.81
366.599	397.81
366.826	391.81
367.052	396.81
367.278	391.81
367.505	387.81
367.731	411.81
367.957	400.81
368.184	410.81
368.41	403.81
368.636	428.81
368.862	420.81
369.089	414.81
369.315	383.81
369.541	413.81
369.767	411.81
369.993	399.81
370.219	401.81
370.445	395.81
370.672	398.81
370.898	397.81
371.124	401.81
371.35	395.81
371.576	390.81
371.802	393.81
372.028	397.81
372.254	398.81
372.48	404.81
372.706	406.81
372.932	397.81
373.158	392.81
373.384	408.81
373.61	414.81
373.835	395.81
374.061	411.81
374.287	409.81
374.513	420.81
374.739	397.81
374.965	405.81
375.191	409.81
375.416	394.81
375.642	400.81
375.868	413.81
376.094	414.81
376.319	400.81
376.545	425.81
376.771	401.81
376.997	416.81
377.222	376.81
377.448	412.81
377.674	389.81
377.899	401.81
378.125	403.81
378.35	407.81
378.576	397.81
378.802	398.81
379.027	403.81
379.253	395.81
379.478	410.81
379.704	392.81
379.929	393.81
380.155	401.81
380.38	401.81
380.606	416.81
380.831	393.81
381.057	419.81
381.282	424.81
381.507	410.81
381.733	417.81
381.958	407.81
382.184	405.81
382.409	418.81
382.634	414.81
382.86	409.81
383.085	417.81
383.31	422.81
383.535	411.81
383.761	407.81
383.986	399.81
384.211	431.81
384.436	409.81
384.662	419.81
384.887	441.81
385.112	442.81
385.337	416.81
385.562	443.81
385.787	421.81
386.013	450.81
386.238	447.81
386.463	429.81
386.688	427.81
386.913	435.81
387.138	438.81
387.363	433.81
387.588	421.81
387.813	423.81
388.038	435.81
388.263	448.81
388.488	433.81
388.713	449.81
388.938	418.81
389.163	443.81
389.387	424.81
389.612	438.81
389.837	445.81
390.062	445.81
390.287	434.81
390.512	460.81
390.736	435.81
390.961	434.81
391.186	440.81
391.411	436.81
391.636	444.81
391.86	456.81
392.085	458.81
392.31	434.81
392.534	439.81
392.759	459.81
392.984	439.81
393.208	426.81
393.433	423.81
393.658	428.81
393.882	444.81
394.107	439.81
394.331	461.81
394.556	414.81
394.78	430.81
395.005	443.81
395.229	419.81
395.454	454.81
395.678	449.81
395.903	446.81
396.127	494.81
396.352	490.81
396.576	454.81
396.801	467.81
397.025	468.81
397.249	476.81
397.474	476.81
397.698	462.81
397.922	460.81
398.147	490.81
398.371	485.81
398.595	484.81
398.82	493.81
399.044	506.81
399.268	501.81
399.492	507.81
399.717	541.81
399.941	562.81
400.165	576.81
400.389	610.81
400.613	548.81
400.837	524.81
401.062	506.81
401.286	489.81
401.51	501.81
401.734	507.81
401.958	514.81
402.182	499.81
402.406	499.81
402.63	506.81
402.854	514.81
403.078	492.81
403.302	509.81
403.526	501.81
403.75	511.81
403.974	523.81
404.198	509.81
404.422	526.81
404.645	529.81
404.869	552.81
405.093	568.81
405.317	605.81
405.541	592.81
405.765	588.81
405.988	554.81
406.212	574.81
406.436	572.81
406.66	619.81
406.883	556.81
407.107	579.81
407.331	630.81
407.555	686.81
407.778	677.81
408.002	633.81
408.226	556.81
408.449	574.81
408.673	562.81
408.896	623.81
409.12	630.81
409.344	589.81
409.567	549.81
409.791	549.81
410.014	523.81
410.238	531.81
410.461	517.81
410.685	517.81
410.908	562.81
411.132	586.81
411.355	619.81
411.578	587.81
411.802	536.81
412.025	523.81
412.249	525.81
412.472	556.81
412.695	572.81
412.919	582.81
413.142	537.81
413.365	544.81
413.589	522.81
413.812	503.81
414.035	503.81
414.258	498.81
414.482	508.81
414.705	491.81
414.928	489.81
415.151	490.81
415.374	480.81
415.597	484.81
415.821	483.81
416.044	507.81
416.267	502.81
416.49	494.81
416.713	503.81
416.936	501.81
417.159	490.81
417.382	523.81
417.605	526.81
417.828	515.81
418.051	527.81
418.274	526.81
418.497	498.81
418.72	524.81
418.943	506.81
419.166	527.81
419.389	520.81
419.611	527.81
419.834	527.81
420.057	543.81
420.28	533.81
420.503	523.81
420.726	550.81
420.948	538.81
421.171	585.81
421.394	593.81
421.617	565.81
421.839	566.81
422.062	515.81
422.285	535.81
422.507	606.81
422.73	680.81
422.953	683.81
423.175	600.81
423.398	581.81
423.621	552.81
423.843	545.81
424.066	576.81
424.288	583.81
424.511	596.81
424.733	639.81
424.956	735.81
425.178	698.81
425.401	687.81
425.623	718.81
425.846	639.81
426.068	576.81
426.291	588.81
426.513	578.81
426.735	612.81
426.958	643.81
427.18	713.81
427.402	836.81
427.625	915.81
427.847	833.81
428.069	711.81
428.292	651.81
428.514	587.81
428.736	572.81
428.958	581.81
429.181	545.81
429.403	558.81
429.625	565.81
429.847	577.81
430.069	661.81
430.292	662.81
430.514	571.81
430.736	556.81
430.958	541.81
431.18	536.81
431.402	524.81
431.624	505.81
431.846	474.81
432.068	496.81
432.29	517.81
432.512	495.81
432.734	511.81
432.956	521.81
433.178	515.81
433.4	534.81
433.622	517.81
433.844	497.81
434.066	516.81
434.287	500.81
434.509	491.81
434.731	511.81
434.953	522.81
435.175	546.81
435.397	576.81
435.618	577.81
435.84	643.81
436.062	712.81
436.284	785.81
436.505	677.81
436.727	625.81
436.949	549.81
437.17	517.81
437.392	548.81
437.614	559.81
437.835	580.81
438.057	681.81
438.278	768.81
438.5	817.81
438.721	856.81
438.943	813.81
439.165	685.81
439.386	631.81
439.608	607.81
439.829	609.81
440.05	653.81
440.272	670.81
440.493	636.81
440.715	569.81
440.936	559.81
441.158	550.81
441.379	563.81
441.6	571.81
441.822	572.81
442.043	637.81
442.264	683.81
442.486	762.81
442.707	659.81
442.928	598.81
443.149	620.81
443.371	622.81
443.592	670.81
443.813	755.81
444.034	813.81
444.255	700.81
444.476	608.81
444.698	585.81
444.919	570.81
445.14	709.81
445.361	647.81
445.582	629.81
445.803	681.81
446.024	766.81
446.245	782.81
446.466	727.81
446.687	649.81
446.908	617.81
447.129	583.81
447.35	547.81
447.571	556.81
447.792	552.81
448.013	534.81
448.234	565.81
448.455	621.81
448.675	745.81
448.896	844.81
449.117	728.81
449.338	709.81
449.559	799.81
449.779	905.81
450	705.81
450.221	602.81
450.442	573.81
450.662	559.81
450.883	551.81
451.104	563.81
451.324	557.81
451.545	521.81
451.766	495.81
451.986	497.81
452.207	476.81
452.428	484.81
452.648	484.81
452.869	489.81
453.089	508.81
453.31	492.81
453.53	499.81
453.751	511.81
453.971	488.81
454.192	519.81
454.412	508.81
454.633	504.81
454.853	487.81
455.073	479.81
455.294	500.81
455.514	587.81
455.734	571.81
455.955	492.81
456.175	465.81
456.395	461.81
456.616	445.81
456.836	446.81
457.056	447.81
457.276	436.81
457.497	460.81
457.717	454.81
457.937	439.81
458.157	476.81
458.377	481.81
458.598	509.81
458.818	573.81
459.038	655.81
459.258	659.81
459.478	583.81
459.698	501.81
459.918	511.81
460.138	496.81
460.358	517.81
460.578	490.81
460.798	517.81
461.018	491.81
461.238	499.81
461.458	517.81
461.678	489.81
461.898	497.81
462.118	487.81
462.338	493.81
462.558	516.81
462.777	517.81
462.997	517.81
463.217	534.81
463.437	532.81
463.657	535.81
463.876	538.81
464.096	536.81
464.316	529.81
464.536	543.81
464.755	564.81
464.975	533.81
465.195	591.81
465.414	689.81
465.634	607.81
465.854	556.81
466.073	512.81
466.293	507.81
466.512	501.81
466.732	496.81
466.951	497.81
467.171	512.81
467.391	489.81
467.61	517.81
467.829	533.81
468.049	501.81
468.268	514.81
468.488	510.81
468.707	501.81
468.927	503.81
469.146	485.81
469.365	480.81
469.585	489.81
469.804	498.81
470.023	512.81
470.243	491.81
470.462	511.81
470.681	532.81
470.901	516.81
471.12	525.81
471.339	503.81
471.558	513.81
471.777	520.81
471.997	506.81
472.216	515.81
472.435	527.81
472.654	513.81
472.873	499.81
473.092	501.81
473.311	527.81
473.53	514.81
473.749	506.81
473.968	558.81
474.187	652.81
474.406	689.81
474.625	585.81
474.844	545.81
475.063	534.81
475.282	526.81
475.501	529.81
475.72	528.81
475.939	542.81
476.158	555.81
476.377	537.81
476.596	534.81
476.814	545.81
477.033	543.81
477.252	538.81
477.471	528.81
477.69	562.81
477.908	546.81
478.127	573.81
478.346	558.81
478.564	555.81
478.783	559.81
479.002	571.81
479.22	566.81
479.439	581.81
479.658	629.81
479.876	614.81
480.095	618.81
480.313	644.81
480.532	636.81
480.751	623.81
480.969	669.81
481.188	714.81
481.406	759.81
481.624	671.81
481.843	637.81
482.061	640.81
482.28	621.81
482.498	595.81
482.717	608.81
482.935	612.81
483.153	582.81
483.372	605.81
483.59	591.81
483.808	588.81
484.027	597.81
484.245	590.81
484.463	606.81
484.681	621.81
484.9	630.81
485.118	629.81
485.336	604.81
485.554	602.81
485.772	626.81
485.99	643.81
486.209	615.81
486.427	625.81
486.645	633.81
486.863	681.81
487.081	664.81
487.299	657.81
487.517	651.81
487.735	671.81
487.953	681.81
488.171	651.81
488.389	672.81
488.607	670.81
488.825	693.81
489.043	649.81
489.261	657.81
489.479	663.81
489.696	675.81
489.914	684.81
490.132	694.81
490.35	698.81
490.568	692.81
490.786	692.81
491.003	739.81
491.221	741.81
491.439	743.81
491.657	733.81
491.874	738.81
492.092	761.81
492.31	775.81
492.527	772.81
492.745	774.81
492.963	773.81
493.18	810.81
493.398	806.81
493.615	789.81
493.833	797.81
494.05	778.81
494.268	798.81
494.485	805.81
494.703	778.81
494.92	798.81
495.138	786.81
495.355	804.81
495.573	792.81
495.79	794.81
496.008	792.81
496.225	817.81
496.442	791.81
496.66	817.81
496.877	797.81
497.094	784.81
497.312	799.81
497.529	833.81
497.746	799.81
497.963	805.81
498.181	819.81
498.398	821.81
498.615	852.81
498.832	848.81
499.049	869.81
499.267	863.81
499.484	913.81
499.701	921.81
499.918	970.81
500.135	961.81
500.352	1004.81
500.569	961.81
500.786	998.81
501.003	990.81
501.22	996.81
501.437	974.81
501.654	938.81
501.871	966.81
