Data from 1970.PennyLincolnUp.Lamp.En5.5.200Scan.071719.P1._HRD10591_15-14-41-842.txt Node
Date: Thu Jul 18 15:14:41 EDT 2019
User: cochatt
Spectrometer: HR+D1059
Trigger mode: 1
Integration Time (sec): 1.000000E-1
Scans to average: 1
Electric dark correction enabled: true
Nonlinearity correction enabled: false
Boxcar width: 0
XAxis mode: Wavelengths
Number of Pixels in Spectrum: 2048
>>>>>Begin Spectral Data<<<<<
223.165	-3.31
223.4	-3.31
223.635	-3.31
223.869	-17.31
224.104	-15.31
224.338	-16.31
224.573	-24.31
224.808	-5.31
225.042	-0.31
225.277	-15.31
225.511	-9.31
225.746	-1.31
225.98	12.69
226.215	5.69
226.449	19.69
226.683	18.69
226.918	21.69
227.152	29.69
227.387	42.69
227.621	52.69
227.856	40.69
228.09	35.69
228.324	58.69
228.559	50.69
228.793	67.69
229.027	103.69
229.262	126.69
229.496	132.69
229.73	149.69
229.964	183.69
230.199	140.69
230.433	106.69
230.667	121.69
230.901	127.69
231.136	124.69
231.37	126.69
231.604	111.69
231.838	117.69
232.072	110.69
232.306	115.69
232.541	117.69
232.775	133.69
233.009	122.69
233.243	111.69
233.477	119.69
233.711	129.69
233.945	116.69
234.179	116.69
234.413	111.69
234.647	115.69
234.881	120.69
235.115	115.69
235.349	144.69
235.583	134.69
235.817	127.69
236.051	142.69
236.285	135.69
236.519	132.69
236.753	156.69
236.987	157.69
237.221	198.69
237.455	254.69
237.689	201.69
237.922	155.69
238.156	142.69
238.39	145.69
238.624	150.69
238.858	127.69
239.091	140.69
239.325	122.69
239.559	141.69
239.793	137.69
240.027	139.69
240.26	147.69
240.494	178.69
240.728	166.69
240.961	162.69
241.195	174.69
241.429	149.69
241.662	136.69
241.896	150.69
242.13	138.69
242.363	139.69
242.597	141.69
242.83	140.69
243.064	160.69
243.298	139.69
243.531	156.69
243.765	153.69
243.998	166.69
244.232	155.69
244.465	150.69
244.699	158.69
244.932	164.69
245.166	147.69
245.399	152.69
245.633	173.69
245.866	152.69
246.099	168.69
246.333	160.69
246.566	155.69
246.8	161.69
247.033	156.69
247.266	170.69
247.5	178.69
247.733	178.69
247.966	196.69
248.2	195.69
248.433	192.69
248.666	195.69
248.899	191.69
249.133	204.69
249.366	250.69
249.599	224.69
249.832	210.69
250.066	190.69
250.299	198.69
250.532	210.69
250.765	231.69
250.998	245.69
251.231	253.69
251.465	254.69
251.698	235.69
251.931	246.69
252.164	207.69
252.397	218.69
252.63	210.69
252.863	226.69
253.096	226.69
253.329	245.69
253.562	242.69
253.795	235.69
254.028	226.69
254.261	242.69
254.494	244.69
254.727	290.69
254.96	307.69
255.193	306.69
255.426	259.69
255.659	259.69
255.892	245.69
256.124	267.69
256.357	260.69
256.59	259.69
256.823	239.69
257.056	238.69
257.289	228.69
257.521	229.69
257.754	227.69
257.987	198.69
258.22	220.69
258.452	219.69
258.685	215.69
258.918	226.69
259.151	236.69
259.383	247.69
259.616	214.69
259.849	239.69
260.081	266.69
260.314	287.69
260.547	286.69
260.779	270.69
261.012	252.69
261.244	268.69
261.477	271.69
261.71	262.69
261.942	245.69
262.175	260.69
262.407	248.69
262.64	229.69
262.872	222.69
263.105	214.69
263.337	222.69
263.57	239.69
263.802	230.69
264.035	222.69
264.267	222.69
264.499	222.69
264.732	230.69
264.964	231.69
265.197	205.69
265.429	219.69
265.661	226.69
265.894	225.69
266.126	215.69
266.358	206.69
266.591	212.69
266.823	238.69
267.055	237.69
267.287	223.69
267.52	242.69
267.752	245.69
267.984	233.69
268.216	245.69
268.448	250.69
268.681	245.69
268.913	253.69
269.145	263.69
269.377	294.69
269.609	286.69
269.841	291.69
270.073	299.69
270.306	308.69
270.538	339.69
270.77	343.69
271.002	344.69
271.234	314.69
271.466	310.69
271.698	333.69
271.93	347.69
272.162	346.69
272.394	324.69
272.626	298.69
272.858	313.69
273.09	308.69
273.322	294.69
273.553	290.69
273.785	282.69
274.017	268.69
274.249	285.69
274.481	271.69
274.713	285.69
274.945	279.69
275.176	271.69
275.408	277.69
275.64	266.69
275.872	277.69
276.104	277.69
276.335	271.69
276.567	277.69
276.799	286.69
277.031	325.69
277.262	334.69
277.494	334.69
277.726	318.69
277.957	308.69
278.189	288.69
278.421	288.69
278.652	293.69
278.884	288.69
279.115	270.69
279.347	269.69
279.579	280.69
279.81	295.69
280.042	286.69
280.273	266.69
280.505	250.69
280.736	265.69
280.968	273.69
281.199	256.69
281.431	272.69
281.662	284.69
281.894	288.69
282.125	259.69
282.356	295.69
282.588	316.69
282.819	326.69
283.051	286.69
283.282	272.69
283.513	270.69
283.745	248.69
283.976	290.69
284.207	292.69
284.439	279.69
284.67	285.69
284.901	272.69
285.132	270.69
285.364	272.69
285.595	263.69
285.826	283.69
286.057	274.69
286.288	290.69
286.52	291.69
286.751	282.69
286.982	273.69
287.213	270.69
287.444	289.69
287.675	276.69
287.906	289.69
288.138	301.69
288.369	318.69
288.6	293.69
288.831	286.69
289.062	303.69
289.293	288.69
289.524	286.69
289.755	295.69
289.986	295.69
290.217	283.69
290.448	287.69
290.679	278.69
290.91	276.69
291.141	283.69
291.371	293.69
291.602	319.69
291.833	283.69
292.064	290.69
292.295	284.69
292.526	287.69
292.757	287.69
292.987	279.69
293.218	286.69
293.449	293.69
293.68	290.69
293.91	286.69
294.141	301.69
294.372	282.69
294.603	282.69
294.833	293.69
295.064	294.69
295.295	278.69
295.525	290.69
295.756	292.69
295.987	298.69
296.217	340.69
296.448	342.69
296.679	295.69
296.909	299.69
297.14	312.69
297.37	288.69
297.601	306.69
297.831	284.69
298.062	295.69
298.292	314.69
298.523	290.69
298.753	316.69
298.984	294.69
299.214	289.69
299.445	303.69
299.675	316.69
299.905	320.69
300.136	335.69
300.366	314.69
300.597	314.69
300.827	312.69
301.057	307.69
301.288	306.69
301.518	306.69
301.748	315.69
301.979	313.69
302.209	334.69
302.439	323.69
302.669	318.69
302.9	325.69
303.13	338.69
303.36	335.69
303.59	315.69
303.82	334.69
304.051	342.69
304.281	327.69
304.511	327.69
304.741	331.69
304.971	320.69
305.201	323.69
305.431	296.69
305.661	331.69
305.891	328.69
306.121	307.69
306.352	348.69
306.582	335.69
306.812	331.69
307.042	323.69
307.272	333.69
307.502	357.69
307.731	334.69
307.961	333.69
308.191	333.69
308.421	314.69
308.651	333.69
308.881	332.69
309.111	344.69
309.341	338.69
309.571	349.69
309.8	376.69
310.03	378.69
310.26	386.69
310.49	370.69
310.72	382.69
310.949	414.69
311.179	424.69
311.409	388.69
311.639	379.69
311.868	370.69
312.098	379.69
312.328	414.69
312.557	408.69
312.787	437.69
313.017	431.69
313.246	397.69
313.476	403.69
313.706	388.69
313.935	398.69
314.165	412.69
314.394	423.69
314.624	427.69
314.853	422.69
315.083	389.69
315.312	388.69
315.542	383.69
315.771	379.69
316.001	390.69
316.23	394.69
316.46	378.69
316.689	398.69
316.919	397.69
317.148	401.69
317.377	388.69
317.607	392.69
317.836	404.69
318.065	388.69
318.295	381.69
318.524	403.69
318.753	370.69
318.983	378.69
319.212	387.69
319.441	392.69
319.67	399.69
319.9	402.69
320.129	388.69
320.358	388.69
320.587	398.69
320.816	404.69
321.046	417.69
321.275	424.69
321.504	418.69
321.733	413.69
321.962	442.69
322.191	438.69
322.42	444.69
322.649	470.69
322.878	474.69
323.108	495.69
323.337	539.69
323.566	546.69
323.795	589.69
324.024	655.69
324.253	811.69
324.482	1131.69
324.71	1755.69
324.939	2464.69
325.168	2144.69
325.397	1140.69
325.626	746.69
325.855	634.69
326.084	591.69
326.313	560.69
326.542	553.69
326.77	630.69
326.999	751.69
327.228	992.69
327.457	1522.69
327.686	1832.69
327.914	1261.69
328.143	873.69
328.372	722.69
328.6	675.69
328.829	644.69
329.058	651.69
329.287	655.69
329.515	607.69
329.744	561.69
329.972	567.69
330.201	595.69
330.43	645.69
330.658	649.69
330.887	678.69
331.115	666.69
331.344	582.69
331.572	530.69
331.801	547.69
332.03	541.69
332.258	516.69
332.486	506.69
332.715	475.69
332.943	464.69
333.172	445.69
333.4	461.69
333.629	463.69
333.857	492.69
334.085	532.69
334.314	550.69
334.542	571.69
334.771	602.69
334.999	528.69
335.227	505.69
335.455	463.69
335.684	473.69
335.912	449.69
336.14	464.69
336.369	442.69
336.597	482.69
336.825	477.69
337.053	455.69
337.281	462.69
337.51	463.69
337.738	449.69
337.966	422.69
338.194	458.69
338.422	460.69
338.65	444.69
338.878	455.69
339.106	436.69
339.334	447.69
339.562	452.69
339.79	430.69
340.018	425.69
340.246	438.69
340.474	449.69
340.702	447.69
340.93	435.69
341.158	430.69
341.386	439.69
341.614	461.69
341.842	446.69
342.07	469.69
342.298	431.69
342.526	424.69
342.754	416.69
342.981	416.69
343.209	424.69
343.437	424.69
343.665	420.69
343.893	418.69
344.12	451.69
344.348	446.69
344.576	445.69
344.804	445.69
345.031	471.69
345.259	472.69
345.487	464.69
345.714	462.69
345.942	427.69
346.17	444.69
346.397	408.69
346.625	450.69
346.853	443.69
347.08	418.69
347.308	460.69
347.535	461.69
347.763	454.69
347.99	458.69
348.218	476.69
348.445	474.69
348.673	450.69
348.9	429.69
349.128	409.69
349.355	394.69
349.583	418.69
349.81	408.69
350.037	422.69
350.265	417.69
350.492	442.69
350.72	416.69
350.947	421.69
351.174	427.69
351.402	438.69
351.629	448.69
351.856	430.69
352.083	441.69
352.311	466.69
352.538	455.69
352.765	475.69
352.992	464.69
353.22	447.69
353.447	447.69
353.674	421.69
353.901	416.69
354.128	422.69
354.355	407.69
354.583	398.69
354.81	410.69
355.037	413.69
355.264	414.69
355.491	407.69
355.718	410.69
355.945	410.69
356.172	404.69
356.399	419.69
356.626	405.69
356.853	392.69
357.08	398.69
357.307	407.69
357.534	396.69
357.761	395.69
357.988	409.69
358.215	411.69
358.441	405.69
358.668	389.69
358.895	415.69
359.122	428.69
359.349	441.69
359.576	455.69
359.802	476.69
360.029	491.69
360.256	516.69
360.483	505.69
360.709	448.69
360.936	451.69
361.163	431.69
361.39	442.69
361.616	442.69
361.843	432.69
362.07	424.69
362.296	442.69
362.523	450.69
362.749	420.69
362.976	428.69
363.203	445.69
363.429	436.69
363.656	434.69
363.882	430.69
364.109	448.69
364.335	415.69
364.562	436.69
364.788	422.69
365.015	434.69
365.241	411.69
365.468	436.69
365.694	450.69
365.92	440.69
366.147	429.69
366.373	429.69
366.599	419.69
366.826	405.69
367.052	400.69
367.278	415.69
367.505	417.69
367.731	412.69
367.957	424.69
368.184	414.69
368.41	425.69
368.636	439.69
368.862	438.69
369.089	448.69
369.315	426.69
369.541	416.69
369.767	424.69
369.993	428.69
370.219	436.69
370.445	417.69
370.672	421.69
370.898	404.69
371.124	433.69
371.35	422.69
371.576	420.69
371.802	415.69
372.028	431.69
372.254	428.69
372.48	421.69
372.706	403.69
372.932	429.69
373.158	406.69
373.384	415.69
373.61	410.69
373.835	426.69
374.061	438.69
374.287	422.69
374.513	430.69
374.739	434.69
374.965	418.69
375.191	414.69
375.416	426.69
375.642	420.69
375.868	420.69
376.094	426.69
376.319	404.69
376.545	406.69
376.771	409.69
376.997	404.69
377.222	412.69
377.448	426.69
377.674	411.69
377.899	411.69
378.125	395.69
378.35	401.69
378.576	423.69
378.802	437.69
379.027	406.69
379.253	422.69
379.478	429.69
379.704	435.69
379.929	426.69
380.155	425.69
380.38	444.69
380.606	432.69
380.831	424.69
381.057	427.69
381.282	427.69
381.507	413.69
381.733	422.69
381.958	444.69
382.184	422.69
382.409	438.69
382.634	430.69
382.86	426.69
383.085	425.69
383.31	403.69
383.535	421.69
383.761	419.69
383.986	427.69
384.211	452.69
384.436	443.69
384.662	445.69
384.887	433.69
385.112	446.69
385.337	449.69
385.562	450.69
385.787	451.69
386.013	482.69
386.238	472.69
386.463	470.69
386.688	452.69
386.913	431.69
387.138	439.69
387.363	452.69
387.588	460.69
387.813	452.69
388.038	437.69
388.263	456.69
388.488	475.69
388.713	476.69
388.938	470.69
389.163	429.69
389.387	443.69
389.612	456.69
389.837	449.69
390.062	451.69
390.287	459.69
390.512	445.69
390.736	449.69
390.961	455.69
391.186	459.69
391.411	450.69
391.636	484.69
391.86	461.69
392.085	443.69
392.31	470.69
392.534	451.69
392.759	458.69
392.984	446.69
393.208	455.69
393.433	469.69
393.658	485.69
393.882	478.69
394.107	458.69
394.331	459.69
394.556	460.69
394.78	468.69
395.005	452.69
395.229	476.69
395.454	456.69
395.678	464.69
395.903	474.69
396.127	504.69
396.352	505.69
396.576	499.69
396.801	474.69
397.025	484.69
397.249	475.69
397.474	462.69
397.698	484.69
397.922	514.69
398.147	512.69
398.371	512.69
398.595	513.69
398.82	514.69
399.044	514.69
399.268	523.69
399.492	573.69
399.717	542.69
399.941	594.69
400.165	636.69
400.389	642.69
400.613	607.69
400.837	544.69
401.062	560.69
401.286	541.69
401.51	520.69
401.734	519.69
401.958	503.69
402.182	529.69
402.406	536.69
402.63	548.69
402.854	547.69
403.078	539.69
403.302	541.69
403.526	540.69
403.75	557.69
403.974	546.69
404.198	550.69
404.422	538.69
404.645	572.69
404.869	590.69
405.093	583.69
405.317	641.69
405.541	678.69
405.765	592.69
405.988	573.69
406.212	594.69
406.436	610.69
406.66	641.69
406.883	608.69
407.107	652.69
407.331	652.69
407.555	720.69
407.778	720.69
408.002	669.69
408.226	603.69
408.449	603.69
408.673	611.69
408.896	650.69
409.12	676.69
409.344	646.69
409.567	591.69
409.791	589.69
410.014	550.69
410.238	547.69
410.461	559.69
410.685	572.69
410.908	574.69
411.132	640.69
411.355	648.69
411.578	611.69
411.802	591.69
412.025	554.69
412.249	551.69
412.472	570.69
412.695	616.69
412.919	603.69
413.142	564.69
413.365	558.69
413.589	547.69
413.812	508.69
414.035	527.69
414.258	521.69
414.482	506.69
414.705	534.69
414.928	496.69
415.151	520.69
415.374	495.69
415.597	504.69
415.821	517.69
416.044	531.69
416.267	521.69
416.49	527.69
416.713	524.69
416.936	512.69
417.159	522.69
417.382	523.69
417.605	526.69
417.828	529.69
418.051	540.69
418.274	559.69
418.497	564.69
418.72	542.69
418.943	532.69
419.166	556.69
419.389	554.69
419.611	571.69
419.834	553.69
420.057	580.69
420.28	574.69
420.503	555.69
420.726	546.69
420.948	569.69
421.171	615.69
421.394	649.69
421.617	588.69
421.839	557.69
422.062	567.69
422.285	580.69
422.507	614.69
422.73	705.69
422.953	663.69
423.175	610.69
423.398	613.69
423.621	595.69
423.843	614.69
424.066	597.69
424.288	633.69
424.511	634.69
424.733	699.69
424.956	772.69
425.178	760.69
425.401	743.69
425.623	764.69
425.846	660.69
426.068	626.69
426.291	626.69
426.513	615.69
426.735	626.69
426.958	650.69
427.18	752.69
427.402	898.69
427.625	985.69
427.847	886.69
428.069	786.69
428.292	711.69
428.514	627.69
428.736	607.69
428.958	604.69
429.181	606.69
429.403	582.69
429.625	583.69
429.847	630.69
430.069	730.69
430.292	688.69
430.514	601.69
430.736	556.69
430.958	540.69
431.18	561.69
431.402	562.69
431.624	531.69
431.846	526.69
432.068	528.69
432.29	540.69
432.512	536.69
432.734	535.69
432.956	555.69
433.178	557.69
433.4	565.69
433.622	538.69
433.844	538.69
434.066	551.69
434.287	521.69
434.509	528.69
434.731	538.69
434.953	564.69
435.175	578.69
435.397	603.69
435.618	604.69
435.84	678.69
436.062	754.69
436.284	830.69
436.505	699.69
436.727	624.69
436.949	600.69
437.17	588.69
437.392	580.69
437.614	586.69
437.835	638.69
438.057	751.69
438.278	842.69
438.5	866.69
438.721	900.69
438.943	874.69
439.165	713.69
439.386	636.69
439.608	642.69
439.829	647.69
440.05	684.69
440.272	715.69
440.493	692.69
440.715	612.69
440.936	587.69
441.158	573.69
441.379	579.69
441.6	598.69
441.822	618.69
442.043	682.69
442.264	754.69
442.486	765.69
442.707	685.69
442.928	669.69
443.149	652.69
443.371	667.69
443.592	698.69
443.813	819.69
444.034	869.69
444.255	749.69
444.476	645.69
444.698	626.69
444.919	620.69
445.14	745.69
445.361	678.69
445.582	662.69
445.803	738.69
446.024	854.69
446.245	843.69
446.466	772.69
446.687	680.69
446.908	620.69
447.129	615.69
447.35	614.69
447.571	600.69
447.792	569.69
448.013	575.69
448.234	617.69
448.455	637.69
448.675	774.69
448.896	854.69
449.117	778.69
449.338	735.69
449.559	827.69
449.779	895.69
450	779.69
450.221	659.69
450.442	615.69
450.662	600.69
450.883	573.69
451.104	598.69
451.324	580.69
451.545	558.69
451.766	546.69
451.986	528.69
452.207	512.69
452.428	528.69
452.648	534.69
452.869	527.69
453.089	517.69
453.31	554.69
453.53	533.69
453.751	512.69
453.971	516.69
454.192	545.69
454.412	524.69
454.633	514.69
454.853	520.69
455.073	521.69
455.294	557.69
455.514	615.69
455.734	616.69
455.955	510.69
456.175	482.69
456.395	479.69
456.616	470.69
456.836	483.69
457.056	470.69
457.276	486.69
457.497	497.69
457.717	453.69
457.937	473.69
458.157	493.69
458.377	499.69
458.598	537.69
458.818	596.69
459.038	718.69
459.258	686.69
459.478	590.69
459.698	542.69
459.918	535.69
460.138	531.69
460.358	522.69
460.578	522.69
460.798	536.69
461.018	538.69
461.238	530.69
461.458	519.69
461.678	515.69
461.898	534.69
462.118	506.69
462.338	553.69
462.558	539.69
462.777	557.69
462.997	542.69
463.217	576.69
463.437	579.69
463.657	538.69
463.876	551.69
464.096	547.69
464.316	565.69
464.536	564.69
464.755	556.69
464.975	578.69
465.195	631.69
465.414	733.69
465.634	620.69
465.854	595.69
466.073	587.69
466.293	566.69
466.512	536.69
466.732	528.69
466.951	528.69
467.171	527.69
467.391	522.69
467.61	551.69
467.829	551.69
468.049	547.69
468.268	550.69
468.488	524.69
468.707	508.69
468.927	518.69
469.146	511.69
469.365	522.69
469.585	514.69
469.804	515.69
470.023	545.69
470.243	536.69
470.462	543.69
470.681	552.69
470.901	554.69
471.12	525.69
471.339	565.69
471.558	514.69
471.777	533.69
471.997	517.69
472.216	553.69
472.435	600.69
472.654	573.69
472.873	538.69
473.092	533.69
473.311	552.69
473.53	544.69
473.749	552.69
473.968	584.69
474.187	711.69
474.406	733.69
474.625	603.69
474.844	544.69
475.063	546.69
475.282	541.69
475.501	547.69
475.72	547.69
475.939	571.69
476.158	570.69
476.377	552.69
476.596	558.69
476.814	559.69
477.033	571.69
477.252	573.69
477.471	573.69
477.69	556.69
477.908	590.69
478.127	596.69
478.346	598.69
478.564	596.69
478.783	617.69
479.002	614.69
479.22	599.69
479.439	646.69
479.658	630.69
479.876	666.69
480.095	667.69
480.313	690.69
480.532	672.69
480.751	668.69
480.969	675.69
481.188	738.69
481.406	807.69
481.624	722.69
481.843	693.69
482.061	627.69
482.28	651.69
482.498	668.69
482.717	641.69
482.935	632.69
483.153	664.69
483.372	640.69
483.59	673.69
483.808	620.69
484.027	622.69
484.245	643.69
484.463	628.69
484.681	648.69
484.9	655.69
485.118	657.69
485.336	644.69
485.554	682.69
485.772	649.69
485.99	635.69
486.209	644.69
486.427	663.69
486.645	689.69
486.863	707.69
487.081	701.69
487.299	692.69
487.517	696.69
487.735	692.69
487.953	712.69
488.171	709.69
488.389	667.69
488.607	709.69
488.825	702.69
489.043	690.69
489.261	708.69
489.479	699.69
489.696	711.69
489.914	710.69
490.132	728.69
490.35	726.69
490.568	739.69
490.786	727.69
491.003	772.69
491.221	766.69
491.439	780.69
491.657	792.69
491.874	796.69
492.092	805.69
492.31	838.69
492.527	839.69
492.745	822.69
492.963	845.69
493.18	816.69
493.398	811.69
493.615	862.69
493.833	846.69
494.05	858.69
494.268	844.69
494.485	807.69
494.703	822.69
494.92	869.69
495.138	830.69
495.355	837.69
495.573	868.69
495.79	841.69
496.008	840.69
496.225	817.69
496.442	844.69
496.66	832.69
496.877	846.69
497.094	830.69
497.312	847.69
497.529	844.69
497.746	870.69
497.963	867.69
498.181	883.69
498.398	893.69
498.615	918.69
498.832	916.69
499.049	915.69
499.267	926.69
499.484	926.69
499.701	986.69
499.918	962.69
500.135	1039.69
500.352	1056.69
500.569	1032.69
500.786	1044.69
501.003	1045.69
501.22	1016.69
501.437	1001.69
501.654	986.69
501.871	1006.69
