Data from 1970.PennyLincolnUp.Lamp.En5.5.200Scan.071719.P1._HRD10591_15-15-51-842.txt Node
Date: Thu Jul 18 15:15:51 EDT 2019
User: cochatt
Spectrometer: HR+D1059
Trigger mode: 1
Integration Time (sec): 1.000000E-1
Scans to average: 1
Electric dark correction enabled: true
Nonlinearity correction enabled: false
Boxcar width: 0
XAxis mode: Wavelengths
Number of Pixels in Spectrum: 2048
>>>>>Begin Spectral Data<<<<<
223.165	-10.44
223.4	-10.44
223.635	-10.44
223.869	-24.44
224.104	-13.44
224.338	-24.44
224.573	-11.44
224.808	-17.44
225.042	-0.44
225.277	-5.44
225.511	-6.44
225.746	6.56
225.98	5.56
226.215	1.56
226.449	20.56
226.683	18.56
226.918	23.56
227.152	37.56
227.387	25.56
227.621	44.56
227.856	35.56
228.09	45.56
228.324	48.56
228.559	66.56
228.793	68.56
229.027	117.56
229.262	116.56
229.496	124.56
229.73	148.56
229.964	178.56
230.199	154.56
230.433	135.56
230.667	132.56
230.901	126.56
231.136	125.56
231.37	125.56
231.604	117.56
231.838	120.56
232.072	113.56
232.306	122.56
232.541	123.56
232.775	107.56
233.009	125.56
233.243	118.56
233.477	127.56
233.711	126.56
233.945	132.56
234.179	116.56
234.413	121.56
234.647	128.56
234.881	121.56
235.115	123.56
235.349	133.56
235.583	134.56
235.817	121.56
236.051	116.56
236.285	128.56
236.519	129.56
236.753	160.56
236.987	152.56
237.221	213.56
237.455	261.56
237.689	215.56
237.922	164.56
238.156	145.56
238.39	156.56
238.624	154.56
238.858	149.56
239.091	142.56
239.325	128.56
239.559	141.56
239.793	152.56
240.027	157.56
240.26	165.56
240.494	172.56
240.728	186.56
240.961	165.56
241.195	155.56
241.429	162.56
241.662	145.56
241.896	160.56
242.13	151.56
242.363	134.56
242.597	140.56
242.83	155.56
243.064	153.56
243.298	144.56
243.531	152.56
243.765	145.56
243.998	166.56
244.232	160.56
244.465	161.56
244.699	162.56
244.932	145.56
245.166	153.56
245.399	162.56
245.633	162.56
245.866	168.56
246.099	152.56
246.333	171.56
246.566	179.56
246.8	169.56
247.033	186.56
247.266	188.56
247.5	175.56
247.733	184.56
247.966	184.56
248.2	198.56
248.433	200.56
248.666	200.56
248.899	197.56
249.133	220.56
249.366	244.56
249.599	244.56
249.832	219.56
250.066	207.56
250.299	211.56
250.532	192.56
250.765	207.56
250.998	248.56
251.231	268.56
251.465	250.56
251.698	232.56
251.931	234.56
252.164	227.56
252.397	226.56
252.63	221.56
252.863	234.56
253.096	248.56
253.329	275.56
253.562	248.56
253.795	251.56
254.028	261.56
254.261	252.56
254.494	254.56
254.727	300.56
254.96	325.56
255.193	316.56
255.426	302.56
255.659	268.56
255.892	258.56
256.124	274.56
256.357	269.56
256.59	260.56
256.823	244.56
257.056	236.56
257.289	238.56
257.521	217.56
257.754	230.56
257.987	224.56
258.22	231.56
258.452	225.56
258.685	226.56
258.918	224.56
259.151	247.56
259.383	249.56
259.616	239.56
259.849	262.56
260.081	277.56
260.314	286.56
260.547	278.56
260.779	289.56
261.012	277.56
261.244	249.56
261.477	244.56
261.71	228.56
261.942	246.56
262.175	262.56
262.407	266.56
262.64	248.56
262.872	224.56
263.105	250.56
263.337	232.56
263.57	234.56
263.802	227.56
264.035	229.56
264.267	212.56
264.499	238.56
264.732	221.56
264.964	227.56
265.197	226.56
265.429	232.56
265.661	220.56
265.894	216.56
266.126	237.56
266.358	245.56
266.591	237.56
266.823	216.56
267.055	256.56
267.287	242.56
267.52	236.56
267.752	246.56
267.984	232.56
268.216	235.56
268.448	268.56
268.681	239.56
268.913	260.56
269.145	269.56
269.377	308.56
269.609	314.56
269.841	280.56
270.073	300.56
270.306	326.56
270.538	354.56
270.77	354.56
271.002	334.56
271.234	336.56
271.466	329.56
271.698	334.56
271.93	366.56
272.162	360.56
272.394	351.56
272.626	338.56
272.858	311.56
273.09	328.56
273.322	301.56
273.553	274.56
273.785	280.56
274.017	294.56
274.249	280.56
274.481	284.56
274.713	280.56
274.945	292.56
275.176	301.56
275.408	284.56
275.64	281.56
275.872	268.56
276.104	282.56
276.335	280.56
276.567	294.56
276.799	310.56
277.031	354.56
277.262	338.56
277.494	327.56
277.726	333.56
277.957	297.56
278.189	299.56
278.421	301.56
278.652	290.56
278.884	280.56
279.115	279.56
279.347	269.56
279.579	275.56
279.81	288.56
280.042	279.56
280.273	274.56
280.505	269.56
280.736	262.56
280.968	265.56
281.199	284.56
281.431	274.56
281.662	281.56
281.894	296.56
282.125	272.56
282.356	281.56
282.588	298.56
282.819	329.56
283.051	278.56
283.282	268.56
283.513	274.56
283.745	295.56
283.976	299.56
284.207	294.56
284.439	270.56
284.67	287.56
284.901	274.56
285.132	278.56
285.364	276.56
285.595	292.56
285.826	272.56
286.057	296.56
286.288	291.56
286.52	281.56
286.751	280.56
286.982	275.56
287.213	301.56
287.444	309.56
287.675	298.56
287.906	297.56
288.138	309.56
288.369	308.56
288.6	309.56
288.831	310.56
289.062	320.56
289.293	299.56
289.524	282.56
289.755	295.56
289.986	271.56
290.217	303.56
290.448	280.56
290.679	294.56
290.91	285.56
291.141	298.56
291.371	284.56
291.602	280.56
291.833	302.56
292.064	272.56
292.295	294.56
292.526	286.56
292.757	285.56
292.987	297.56
293.218	283.56
293.449	274.56
293.68	284.56
293.91	286.56
294.141	293.56
294.372	290.56
294.603	299.56
294.833	315.56
295.064	306.56
295.295	295.56
295.525	300.56
295.756	299.56
295.987	310.56
296.217	313.56
296.448	338.56
296.679	307.56
296.909	293.56
297.14	273.56
297.37	312.56
297.601	300.56
297.831	312.56
298.062	296.56
298.292	285.56
298.523	305.56
298.753	293.56
298.984	302.56
299.214	304.56
299.445	310.56
299.675	314.56
299.905	336.56
300.136	319.56
300.366	311.56
300.597	319.56
300.827	338.56
301.057	298.56
301.288	329.56
301.518	350.56
301.748	325.56
301.979	328.56
302.209	348.56
302.439	351.56
302.669	332.56
302.9	321.56
303.13	325.56
303.36	324.56
303.59	347.56
303.82	335.56
304.051	357.56
304.281	328.56
304.511	342.56
304.741	331.56
304.971	328.56
305.201	315.56
305.431	299.56
305.661	335.56
305.891	326.56
306.121	328.56
306.352	339.56
306.582	340.56
306.812	345.56
307.042	330.56
307.272	324.56
307.502	343.56
307.731	366.56
307.961	330.56
308.191	331.56
308.421	334.56
308.651	348.56
308.881	362.56
309.111	342.56
309.341	341.56
309.571	369.56
309.8	377.56
310.03	375.56
310.26	399.56
310.49	401.56
310.72	412.56
310.949	408.56
311.179	426.56
311.409	410.56
311.639	388.56
311.868	383.56
312.098	392.56
312.328	406.56
312.557	416.56
312.787	433.56
313.017	424.56
313.246	414.56
313.476	391.56
313.706	414.56
313.935	400.56
314.165	423.56
314.394	433.56
314.624	424.56
314.853	398.56
315.083	402.56
315.312	386.56
315.542	390.56
315.771	368.56
316.001	367.56
316.23	401.56
316.46	382.56
316.689	397.56
316.919	410.56
317.148	416.56
317.377	411.56
317.607	401.56
317.836	393.56
318.065	407.56
318.295	404.56
318.524	397.56
318.753	385.56
318.983	390.56
319.212	405.56
319.441	401.56
319.67	411.56
319.9	397.56
320.129	409.56
320.358	406.56
320.587	401.56
320.816	426.56
321.046	431.56
321.275	431.56
321.504	418.56
321.733	430.56
321.962	450.56
322.191	445.56
322.42	463.56
322.649	491.56
322.878	494.56
323.108	484.56
323.337	533.56
323.566	567.56
323.795	592.56
324.024	678.56
324.253	834.56
324.482	1150.56
324.71	1816.56
324.939	2527.56
325.168	2196.56
325.397	1201.56
325.626	774.56
325.855	631.56
326.084	594.56
326.313	583.56
326.542	590.56
326.77	622.56
326.999	751.56
327.228	1036.56
327.457	1593.56
327.686	1954.56
327.914	1302.56
328.143	871.56
328.372	756.56
328.6	712.56
328.829	665.56
329.058	693.56
329.287	660.56
329.515	632.56
329.744	583.56
329.972	590.56
330.201	604.56
330.43	668.56
330.658	709.56
330.887	714.56
331.115	688.56
331.344	596.56
331.572	554.56
331.801	541.56
332.03	540.56
332.258	506.56
332.486	487.56
332.715	473.56
332.943	476.56
333.172	486.56
333.4	481.56
333.629	484.56
333.857	518.56
334.085	529.56
334.314	535.56
334.542	586.56
334.771	613.56
334.999	541.56
335.227	510.56
335.455	491.56
335.684	466.56
335.912	463.56
336.14	466.56
336.369	468.56
336.597	484.56
336.825	485.56
337.053	464.56
337.281	457.56
337.51	456.56
337.738	450.56
337.966	465.56
338.194	465.56
338.422	460.56
338.65	447.56
338.878	460.56
339.106	464.56
339.334	458.56
339.562	449.56
339.79	456.56
340.018	428.56
340.246	439.56
340.474	452.56
340.702	453.56
340.93	443.56
341.158	439.56
341.386	441.56
341.614	444.56
341.842	460.56
342.07	463.56
342.298	443.56
342.526	452.56
342.754	422.56
342.981	412.56
343.209	427.56
343.437	440.56
343.665	425.56
343.893	466.56
344.12	448.56
344.348	440.56
344.576	469.56
344.804	473.56
345.031	481.56
345.259	491.56
345.487	456.56
345.714	478.56
345.942	440.56
346.17	441.56
346.397	434.56
346.625	454.56
346.853	454.56
347.08	436.56
347.308	446.56
347.535	478.56
347.763	461.56
347.99	430.56
348.218	464.56
348.445	473.56
348.673	472.56
348.9	444.56
349.128	420.56
349.355	421.56
349.583	433.56
349.81	424.56
350.037	426.56
350.265	415.56
350.492	446.56
350.72	430.56
350.947	462.56
351.174	449.56
351.402	461.56
351.629	449.56
351.856	448.56
352.083	462.56
352.311	463.56
352.538	478.56
352.765	449.56
352.992	456.56
353.22	469.56
353.447	470.56
353.674	452.56
353.901	434.56
354.128	410.56
354.355	410.56
354.583	405.56
354.81	415.56
355.037	402.56
355.264	398.56
355.491	424.56
355.718	411.56
355.945	394.56
356.172	396.56
356.399	405.56
356.626	395.56
356.853	408.56
357.08	386.56
357.307	406.56
357.534	414.56
357.761	406.56
357.988	420.56
358.215	412.56
358.441	403.56
358.668	402.56
358.895	418.56
359.122	428.56
359.349	431.56
359.576	447.56
359.802	470.56
360.029	518.56
360.256	535.56
360.483	480.56
360.709	461.56
360.936	453.56
361.163	437.56
361.39	452.56
361.616	448.56
361.843	459.56
362.07	434.56
362.296	460.56
362.523	473.56
362.749	442.56
362.976	449.56
363.203	431.56
363.429	431.56
363.656	437.56
363.882	422.56
364.109	461.56
364.335	432.56
364.562	417.56
364.788	435.56
365.015	430.56
365.241	436.56
365.468	436.56
365.694	441.56
365.92	447.56
366.147	449.56
366.373	419.56
366.599	442.56
366.826	428.56
367.052	418.56
367.278	431.56
367.505	430.56
367.731	416.56
367.957	432.56
368.184	425.56
368.41	436.56
368.636	462.56
368.862	451.56
369.089	437.56
369.315	413.56
369.541	406.56
369.767	422.56
369.993	438.56
370.219	439.56
370.445	416.56
370.672	399.56
370.898	405.56
371.124	429.56
371.35	409.56
371.576	420.56
371.802	428.56
372.028	405.56
372.254	409.56
372.48	424.56
372.706	418.56
372.932	432.56
373.158	432.56
373.384	429.56
373.61	426.56
373.835	430.56
374.061	431.56
374.287	420.56
374.513	431.56
374.739	424.56
374.965	448.56
375.191	432.56
375.416	426.56
375.642	445.56
375.868	426.56
376.094	415.56
376.319	425.56
376.545	421.56
376.771	441.56
376.997	428.56
377.222	423.56
377.448	422.56
377.674	433.56
377.899	432.56
378.125	406.56
378.35	409.56
378.576	411.56
378.802	433.56
379.027	410.56
379.253	425.56
379.478	399.56
379.704	417.56
379.929	430.56
380.155	423.56
380.38	421.56
380.606	413.56
380.831	422.56
381.057	438.56
381.282	439.56
381.507	430.56
381.733	435.56
381.958	437.56
382.184	420.56
382.409	427.56
382.634	436.56
382.86	425.56
383.085	448.56
383.31	446.56
383.535	428.56
383.761	450.56
383.986	435.56
384.211	441.56
384.436	442.56
384.662	446.56
384.887	432.56
385.112	429.56
385.337	448.56
385.562	446.56
385.787	459.56
386.013	465.56
386.238	472.56
386.463	465.56
386.688	456.56
386.913	462.56
387.138	482.56
387.363	458.56
387.588	438.56
387.813	446.56
388.038	449.56
388.263	465.56
388.488	441.56
388.713	460.56
388.938	446.56
389.163	444.56
389.387	459.56
389.612	465.56
389.837	444.56
390.062	454.56
390.287	462.56
390.512	429.56
390.736	436.56
390.961	462.56
391.186	460.56
391.411	459.56
391.636	449.56
391.86	454.56
392.085	458.56
392.31	445.56
392.534	440.56
392.759	460.56
392.984	445.56
393.208	453.56
393.433	453.56
393.658	477.56
393.882	451.56
394.107	457.56
394.331	470.56
394.556	459.56
394.78	446.56
395.005	462.56
395.229	461.56
395.454	479.56
395.678	462.56
395.903	474.56
396.127	507.56
396.352	525.56
396.576	484.56
396.801	481.56
397.025	489.56
397.249	476.56
397.474	476.56
397.698	457.56
397.922	502.56
398.147	518.56
398.371	521.56
398.595	520.56
398.82	502.56
399.044	516.56
399.268	502.56
399.492	559.56
399.717	571.56
399.941	603.56
400.165	636.56
400.389	629.56
400.613	582.56
400.837	561.56
401.062	551.56
401.286	548.56
401.51	541.56
401.734	530.56
401.958	544.56
402.182	537.56
402.406	553.56
402.63	542.56
402.854	531.56
403.078	551.56
403.302	536.56
403.526	545.56
403.75	548.56
403.974	561.56
404.198	550.56
404.422	565.56
404.645	555.56
404.869	557.56
405.093	584.56
405.317	648.56
405.541	682.56
405.765	644.56
405.988	592.56
406.212	594.56
406.436	646.56
406.66	628.56
406.883	592.56
407.107	626.56
407.331	700.56
407.555	733.56
407.778	728.56
408.002	682.56
408.226	616.56
408.449	645.56
408.673	605.56
408.896	656.56
409.12	690.56
409.344	638.56
409.567	598.56
409.791	561.56
410.014	559.56
410.238	545.56
410.461	557.56
410.685	580.56
410.908	560.56
411.132	648.56
411.355	651.56
411.578	628.56
411.802	564.56
412.025	564.56
412.249	557.56
412.472	582.56
412.695	626.56
412.919	626.56
413.142	598.56
413.365	537.56
413.589	550.56
413.812	519.56
414.035	531.56
414.258	529.56
414.482	497.56
414.705	536.56
414.928	512.56
415.151	529.56
415.374	504.56
415.597	508.56
415.821	500.56
416.044	522.56
416.267	503.56
416.49	529.56
416.713	516.56
416.936	527.56
417.159	539.56
417.382	555.56
417.605	533.56
417.828	545.56
418.051	557.56
418.274	551.56
418.497	496.56
418.72	552.56
418.943	511.56
419.166	533.56
419.389	577.56
419.611	580.56
419.834	574.56
420.057	576.56
420.28	557.56
420.503	567.56
420.726	567.56
420.948	572.56
421.171	637.56
421.394	654.56
421.617	585.56
421.839	587.56
422.062	566.56
422.285	588.56
422.507	646.56
422.73	724.56
422.953	699.56
423.175	616.56
423.398	585.56
423.621	605.56
423.843	602.56
424.066	616.56
424.288	607.56
424.511	632.56
424.733	679.56
424.956	779.56
425.178	760.56
425.401	759.56
425.623	771.56
425.846	669.56
426.068	639.56
426.291	632.56
426.513	638.56
426.735	647.56
426.958	680.56
427.18	771.56
427.402	900.56
427.625	975.56
427.847	897.56
428.069	794.56
428.292	719.56
428.514	625.56
428.736	605.56
428.958	591.56
429.181	577.56
429.403	564.56
429.625	598.56
429.847	630.56
430.069	716.56
430.292	688.56
430.514	612.56
430.736	583.56
430.958	578.56
431.18	567.56
431.402	541.56
431.624	545.56
431.846	534.56
432.068	529.56
432.29	554.56
432.512	549.56
432.734	538.56
432.956	554.56
433.178	536.56
433.4	564.56
433.622	577.56
433.844	549.56
434.066	529.56
434.287	549.56
434.509	542.56
434.731	555.56
434.953	571.56
435.175	578.56
435.397	617.56
435.618	616.56
435.84	652.56
436.062	773.56
436.284	840.56
436.505	734.56
436.727	650.56
436.949	596.56
437.17	607.56
437.392	578.56
437.614	599.56
437.835	652.56
438.057	790.56
438.278	871.56
438.5	873.56
438.721	929.56
438.943	897.56
439.165	731.56
439.386	673.56
439.608	654.56
439.829	654.56
440.05	679.56
440.272	756.56
440.493	686.56
440.715	647.56
440.936	601.56
441.158	593.56
441.379	572.56
441.6	622.56
441.822	639.56
442.043	678.56
442.264	753.56
442.486	815.56
442.707	696.56
442.928	652.56
443.149	646.56
443.371	680.56
443.592	732.56
443.813	843.56
444.034	871.56
444.255	718.56
444.476	664.56
444.698	630.56
444.919	633.56
445.14	718.56
445.361	687.56
445.582	668.56
445.803	754.56
446.024	856.56
446.245	866.56
446.466	772.56
446.687	669.56
446.908	659.56
447.129	607.56
447.35	591.56
447.571	580.56
447.792	567.56
448.013	574.56
448.234	615.56
448.455	689.56
448.675	800.56
448.896	926.56
449.117	787.56
449.338	748.56
449.559	865.56
449.779	949.56
450	787.56
450.221	662.56
450.442	610.56
450.662	581.56
450.883	621.56
451.104	599.56
451.324	599.56
451.545	581.56
451.766	536.56
451.986	550.56
452.207	534.56
452.428	509.56
452.648	523.56
452.869	528.56
453.089	528.56
453.31	529.56
453.53	545.56
453.751	536.56
453.971	530.56
454.192	568.56
454.412	524.56
454.633	534.56
454.853	524.56
455.073	510.56
455.294	555.56
455.514	639.56
455.734	604.56
455.955	539.56
456.175	510.56
456.395	511.56
456.616	489.56
456.836	506.56
457.056	496.56
457.276	484.56
457.497	482.56
457.717	487.56
457.937	485.56
458.157	508.56
458.377	518.56
458.598	536.56
458.818	613.56
459.038	725.56
459.258	700.56
459.478	595.56
459.698	562.56
459.918	553.56
460.138	518.56
460.358	540.56
460.578	529.56
460.798	540.56
461.018	537.56
461.238	545.56
461.458	546.56
461.678	506.56
461.898	521.56
462.118	522.56
462.338	529.56
462.558	541.56
462.777	544.56
462.997	543.56
463.217	545.56
463.437	547.56
463.657	572.56
463.876	552.56
464.096	548.56
464.316	571.56
464.536	572.56
464.755	569.56
464.975	582.56
465.195	621.56
465.414	751.56
465.634	667.56
465.854	618.56
466.073	560.56
466.293	559.56
466.512	538.56
466.732	516.56
466.951	538.56
467.171	511.56
467.391	542.56
467.61	552.56
467.829	548.56
468.049	553.56
468.268	556.56
468.488	536.56
468.707	516.56
468.927	518.56
469.146	525.56
469.365	526.56
469.585	509.56
469.804	537.56
470.023	543.56
470.243	519.56
470.462	558.56
470.681	590.56
470.901	569.56
471.12	567.56
471.339	552.56
471.558	561.56
471.777	557.56
471.997	521.56
472.216	543.56
472.435	604.56
472.654	584.56
472.873	570.56
473.092	551.56
473.311	552.56
473.53	570.56
473.749	573.56
473.968	597.56
474.187	714.56
474.406	744.56
474.625	615.56
474.844	576.56
475.063	560.56
475.282	558.56
475.501	564.56
475.72	556.56
475.939	550.56
476.158	540.56
476.377	567.56
476.596	544.56
476.814	572.56
477.033	545.56
477.252	564.56
477.471	584.56
477.69	568.56
477.908	594.56
478.127	588.56
478.346	588.56
478.564	576.56
478.783	604.56
479.002	603.56
479.22	585.56
479.439	605.56
479.658	646.56
479.876	687.56
480.095	690.56
480.313	718.56
480.532	685.56
480.751	646.56
480.969	686.56
481.188	746.56
481.406	816.56
481.624	763.56
481.843	702.56
482.061	667.56
482.28	661.56
482.498	629.56
482.717	649.56
482.935	648.56
483.153	642.56
483.372	637.56
483.59	630.56
483.808	641.56
484.027	655.56
484.245	669.56
484.463	677.56
484.681	647.56
484.9	656.56
485.118	631.56
485.336	665.56
485.554	670.56
485.772	668.56
485.99	664.56
486.209	662.56
486.427	675.56
486.645	702.56
486.863	722.56
487.081	711.56
487.299	708.56
487.517	704.56
487.735	709.56
487.953	704.56
488.171	705.56
488.389	706.56
488.607	731.56
488.825	704.56
489.043	718.56
489.261	701.56
489.479	733.56
489.696	723.56
489.914	742.56
490.132	732.56
490.35	758.56
490.568	746.56
490.786	766.56
491.003	746.56
491.221	797.56
491.439	792.56
491.657	784.56
491.874	805.56
492.092	836.56
492.31	833.56
492.527	857.56
492.745	813.56
492.963	842.56
493.18	843.56
493.398	837.56
493.615	864.56
493.833	835.56
494.05	836.56
494.268	865.56
494.485	860.56
494.703	836.56
494.92	834.56
495.138	860.56
495.355	874.56
495.573	872.56
495.79	838.56
496.008	856.56
496.225	834.56
496.442	829.56
496.66	865.56
496.877	852.56
497.094	836.56
497.312	851.56
497.529	853.56
497.746	869.56
497.963	856.56
498.181	882.56
498.398	914.56
498.615	924.56
498.832	933.56
499.049	894.56
499.267	923.56
499.484	952.56
499.701	962.56
499.918	966.56
500.135	1003.56
500.352	1026.56
500.569	1028.56
500.786	1054.56
501.003	1052.56
501.22	1026.56
501.437	1009.56
501.654	982.56
501.871	984.56
