Data from 1970.PennyLincolnUp.Lamp.En5.5.200Scan.071719.P1._HRD10591_15-12-53-844.txt Node
Date: Thu Jul 18 15:12:53 EDT 2019
User: cochatt
Spectrometer: HR+D1059
Trigger mode: 1
Integration Time (sec): 1.000000E-1
Scans to average: 1
Electric dark correction enabled: true
Nonlinearity correction enabled: false
Boxcar width: 0
XAxis mode: Wavelengths
Number of Pixels in Spectrum: 2048
>>>>>Begin Spectral Data<<<<<
223.165	-3.81
223.4	-3.81
223.635	-3.81
223.869	-19.81
224.104	-13.81
224.338	-19.81
224.573	-10.81
224.808	-3.81
225.042	-3.81
225.277	-18.81
225.511	-18.81
225.746	15.19
225.98	9.19
226.215	17.19
226.449	19.19
226.683	14.19
226.918	15.19
227.152	23.19
227.387	30.19
227.621	34.19
227.856	39.19
228.09	41.19
228.324	49.19
228.559	51.19
228.793	53.19
229.027	71.19
229.262	85.19
229.496	77.19
229.73	74.19
229.964	82.19
230.199	83.19
230.433	84.19
230.667	73.19
230.901	87.19
231.136	89.19
231.37	83.19
231.604	94.19
231.838	102.19
232.072	85.19
232.306	88.19
232.541	77.19
232.775	84.19
233.009	90.19
233.243	80.19
233.477	86.19
233.711	102.19
233.945	85.19
234.179	83.19
234.413	92.19
234.647	103.19
234.881	92.19
235.115	81.19
235.349	78.19
235.583	81.19
235.817	97.19
236.051	89.19
236.285	92.19
236.519	78.19
236.753	94.19
236.987	83.19
237.221	100.19
237.455	109.19
237.689	100.19
237.922	91.19
238.156	85.19
238.39	87.19
238.624	63.19
238.858	79.19
239.091	93.19
239.325	105.19
239.559	94.19
239.793	95.19
240.027	91.19
240.26	95.19
240.494	115.19
240.728	76.19
240.961	91.19
241.195	94.19
241.429	93.19
241.662	86.19
241.896	93.19
242.13	83.19
242.363	99.19
242.597	77.19
242.83	95.19
243.064	91.19
243.298	92.19
243.531	83.19
243.765	105.19
243.998	90.19
244.232	94.19
244.465	91.19
244.699	87.19
244.932	93.19
245.166	87.19
245.399	97.19
245.633	96.19
245.866	86.19
246.099	73.19
246.333	96.19
246.566	94.19
246.8	101.19
247.033	96.19
247.266	92.19
247.5	88.19
247.733	97.19
247.966	102.19
248.2	106.19
248.433	113.19
248.666	108.19
248.899	109.19
249.133	100.19
249.366	121.19
249.599	102.19
249.832	111.19
250.066	98.19
250.299	98.19
250.532	99.19
250.765	105.19
250.998	133.19
251.231	99.19
251.465	97.19
251.698	114.19
251.931	108.19
252.164	97.19
252.397	102.19
252.63	110.19
252.863	103.19
253.096	112.19
253.329	104.19
253.562	125.19
253.795	118.19
254.028	101.19
254.261	110.19
254.494	100.19
254.727	126.19
254.96	114.19
255.193	110.19
255.426	98.19
255.659	109.19
255.892	103.19
256.124	106.19
256.357	117.19
256.59	115.19
256.823	92.19
257.056	105.19
257.289	110.19
257.521	99.19
257.754	104.19
257.987	108.19
258.22	98.19
258.452	116.19
258.685	123.19
258.918	115.19
259.151	105.19
259.383	119.19
259.616	119.19
259.849	118.19
260.081	104.19
260.314	123.19
260.547	121.19
260.779	121.19
261.012	119.19
261.244	125.19
261.477	123.19
261.71	115.19
261.942	105.19
262.175	119.19
262.407	113.19
262.64	114.19
262.872	122.19
263.105	111.19
263.337	109.19
263.57	114.19
263.802	110.19
264.035	111.19
264.267	118.19
264.499	119.19
264.732	115.19
264.964	101.19
265.197	106.19
265.429	114.19
265.661	111.19
265.894	115.19
266.126	110.19
266.358	109.19
266.591	115.19
266.823	107.19
267.055	115.19
267.287	115.19
267.52	108.19
267.752	104.19
267.984	106.19
268.216	117.19
268.448	111.19
268.681	112.19
268.913	136.19
269.145	129.19
269.377	122.19
269.609	127.19
269.841	120.19
270.073	131.19
270.306	137.19
270.538	135.19
270.77	125.19
271.002	130.19
271.234	140.19
271.466	124.19
271.698	128.19
271.93	132.19
272.162	143.19
272.394	124.19
272.626	140.19
272.858	125.19
273.09	137.19
273.322	122.19
273.553	116.19
273.785	125.19
274.017	123.19
274.249	136.19
274.481	122.19
274.713	126.19
274.945	121.19
275.176	123.19
275.408	126.19
275.64	114.19
275.872	115.19
276.104	128.19
276.335	129.19
276.567	140.19
276.799	137.19
277.031	131.19
277.262	145.19
277.494	143.19
277.726	131.19
277.957	122.19
278.189	114.19
278.421	126.19
278.652	128.19
278.884	143.19
279.115	136.19
279.347	136.19
279.579	151.19
279.81	165.19
280.042	144.19
280.273	150.19
280.505	143.19
280.736	151.19
280.968	125.19
281.199	121.19
281.431	128.19
281.662	120.19
281.894	125.19
282.125	122.19
282.356	148.19
282.588	135.19
282.819	140.19
283.051	129.19
283.282	141.19
283.513	132.19
283.745	138.19
283.976	121.19
284.207	134.19
284.439	126.19
284.67	140.19
284.901	124.19
285.132	113.19
285.364	137.19
285.595	130.19
285.826	133.19
286.057	139.19
286.288	130.19
286.52	136.19
286.751	115.19
286.982	131.19
287.213	122.19
287.444	138.19
287.675	123.19
287.906	133.19
288.138	133.19
288.369	147.19
288.6	147.19
288.831	146.19
289.062	143.19
289.293	129.19
289.524	142.19
289.755	135.19
289.986	118.19
290.217	132.19
290.448	131.19
290.679	129.19
290.91	142.19
291.141	140.19
291.371	132.19
291.602	133.19
291.833	129.19
292.064	129.19
292.295	121.19
292.526	119.19
292.757	123.19
292.987	130.19
293.218	130.19
293.449	140.19
293.68	136.19
293.91	123.19
294.141	135.19
294.372	145.19
294.603	122.19
294.833	122.19
295.064	137.19
295.295	130.19
295.525	141.19
295.756	134.19
295.987	148.19
296.217	147.19
296.448	141.19
296.679	143.19
296.909	137.19
297.14	138.19
297.37	135.19
297.601	129.19
297.831	125.19
298.062	142.19
298.292	135.19
298.523	138.19
298.753	145.19
298.984	138.19
299.214	135.19
299.445	140.19
299.675	135.19
299.905	151.19
300.136	123.19
300.366	141.19
300.597	123.19
300.827	127.19
301.057	135.19
301.288	142.19
301.518	144.19
301.748	143.19
301.979	140.19
302.209	126.19
302.439	144.19
302.669	149.19
302.9	147.19
303.13	147.19
303.36	129.19
303.59	147.19
303.82	134.19
304.051	142.19
304.281	132.19
304.511	138.19
304.741	147.19
304.971	146.19
305.201	134.19
305.431	125.19
305.661	133.19
305.891	130.19
306.121	159.19
306.352	147.19
306.582	154.19
306.812	141.19
307.042	139.19
307.272	132.19
307.502	151.19
307.731	159.19
307.961	154.19
308.191	148.19
308.421	143.19
308.651	157.19
308.881	155.19
309.111	163.19
309.341	150.19
309.571	154.19
309.8	162.19
310.03	151.19
310.26	162.19
310.49	155.19
310.72	149.19
310.949	137.19
311.179	163.19
311.409	151.19
311.639	175.19
311.868	177.19
312.098	161.19
312.328	153.19
312.557	149.19
312.787	144.19
313.017	166.19
313.246	170.19
313.476	152.19
313.706	147.19
313.935	157.19
314.165	158.19
314.394	156.19
314.624	151.19
314.853	168.19
315.083	179.19
315.312	149.19
315.542	156.19
315.771	166.19
316.001	158.19
316.23	155.19
316.46	167.19
316.689	151.19
316.919	155.19
317.148	144.19
317.377	164.19
317.607	154.19
317.836	163.19
318.065	162.19
318.295	169.19
318.524	157.19
318.753	154.19
318.983	154.19
319.212	154.19
319.441	168.19
319.67	157.19
319.9	157.19
320.129	141.19
320.358	164.19
320.587	170.19
320.816	163.19
321.046	159.19
321.275	165.19
321.504	164.19
321.733	159.19
321.962	163.19
322.191	170.19
322.42	177.19
322.649	155.19
322.878	165.19
323.108	173.19
323.337	185.19
323.566	172.19
323.795	204.19
324.024	218.19
324.253	267.19
324.482	374.19
324.71	468.19
324.939	570.19
325.168	488.19
325.397	298.19
325.626	213.19
325.855	181.19
326.084	189.19
326.313	178.19
326.542	195.19
326.77	198.19
326.999	231.19
327.228	313.19
327.457	418.19
327.686	437.19
327.914	305.19
328.143	237.19
328.372	206.19
328.6	207.19
328.829	192.19
329.058	196.19
329.287	191.19
329.515	182.19
329.744	180.19
329.972	172.19
330.201	183.19
330.43	190.19
330.658	196.19
330.887	209.19
331.115	193.19
331.344	182.19
331.572	197.19
331.801	174.19
332.03	171.19
332.258	174.19
332.486	177.19
332.715	162.19
332.943	167.19
333.172	177.19
333.4	164.19
333.629	168.19
333.857	180.19
334.085	175.19
334.314	170.19
334.542	208.19
334.771	185.19
334.999	198.19
335.227	186.19
335.455	182.19
335.684	189.19
335.912	159.19
336.14	162.19
336.369	166.19
336.597	171.19
336.825	180.19
337.053	164.19
337.281	160.19
337.51	177.19
337.738	169.19
337.966	173.19
338.194	171.19
338.422	184.19
338.65	187.19
338.878	173.19
339.106	193.19
339.334	166.19
339.562	172.19
339.79	166.19
340.018	156.19
340.246	153.19
340.474	153.19
340.702	174.19
340.93	167.19
341.158	161.19
341.386	162.19
341.614	165.19
341.842	168.19
342.07	171.19
342.298	159.19
342.526	168.19
342.754	151.19
342.981	150.19
343.209	170.19
343.437	160.19
343.665	169.19
343.893	179.19
344.12	159.19
344.348	178.19
344.576	159.19
344.804	174.19
345.031	189.19
345.259	165.19
345.487	158.19
345.714	166.19
345.942	166.19
346.17	156.19
346.397	156.19
346.625	150.19
346.853	167.19
347.08	168.19
347.308	182.19
347.535	163.19
347.763	173.19
347.99	161.19
348.218	175.19
348.445	161.19
348.673	169.19
348.9	173.19
349.128	164.19
349.355	158.19
349.583	166.19
349.81	177.19
350.037	164.19
350.265	151.19
350.492	148.19
350.72	158.19
350.947	166.19
351.174	174.19
351.402	172.19
351.629	168.19
351.856	161.19
352.083	185.19
352.311	188.19
352.538	171.19
352.765	178.19
352.992	171.19
353.22	157.19
353.447	161.19
353.674	163.19
353.901	172.19
354.128	170.19
354.355	159.19
354.583	152.19
354.81	161.19
355.037	165.19
355.264	157.19
355.491	141.19
355.718	157.19
355.945	154.19
356.172	166.19
356.399	154.19
356.626	145.19
356.853	144.19
357.08	160.19
357.307	163.19
357.534	165.19
357.761	169.19
357.988	150.19
358.215	170.19
358.441	163.19
358.668	161.19
358.895	179.19
359.122	170.19
359.349	170.19
359.576	168.19
359.802	168.19
360.029	179.19
360.256	165.19
360.483	183.19
360.709	170.19
360.936	166.19
361.163	154.19
361.39	165.19
361.616	172.19
361.843	174.19
362.07	165.19
362.296	167.19
362.523	152.19
362.749	171.19
362.976	164.19
363.203	173.19
363.429	153.19
363.656	159.19
363.882	145.19
364.109	165.19
364.335	155.19
364.562	149.19
364.788	135.19
365.015	166.19
365.241	160.19
365.468	154.19
365.694	161.19
365.92	167.19
366.147	154.19
366.373	150.19
366.599	150.19
366.826	162.19
367.052	157.19
367.278	161.19
367.505	154.19
367.731	163.19
367.957	154.19
368.184	158.19
368.41	164.19
368.636	151.19
368.862	165.19
369.089	158.19
369.315	169.19
369.541	157.19
369.767	145.19
369.993	156.19
370.219	165.19
370.445	172.19
370.672	166.19
370.898	153.19
371.124	153.19
371.35	161.19
371.576	155.19
371.802	158.19
372.028	157.19
372.254	167.19
372.48	148.19
372.706	143.19
372.932	185.19
373.158	169.19
373.384	182.19
373.61	161.19
373.835	151.19
374.061	161.19
374.287	169.19
374.513	155.19
374.739	153.19
374.965	158.19
375.191	151.19
375.416	165.19
375.642	156.19
375.868	155.19
376.094	167.19
376.319	165.19
376.545	163.19
376.771	155.19
376.997	143.19
377.222	157.19
377.448	151.19
377.674	150.19
377.899	159.19
378.125	171.19
378.35	158.19
378.576	164.19
378.802	154.19
379.027	170.19
379.253	169.19
379.478	175.19
379.704	157.19
379.929	164.19
380.155	169.19
380.38	185.19
380.606	160.19
380.831	165.19
381.057	156.19
381.282	163.19
381.507	158.19
381.733	154.19
381.958	172.19
382.184	178.19
382.409	163.19
382.634	175.19
382.86	167.19
383.085	168.19
383.31	166.19
383.535	162.19
383.761	170.19
383.986	154.19
384.211	152.19
384.436	165.19
384.662	165.19
384.887	175.19
385.112	166.19
385.337	165.19
385.562	158.19
385.787	174.19
386.013	191.19
386.238	169.19
386.463	178.19
386.688	188.19
386.913	169.19
387.138	170.19
387.363	178.19
387.588	179.19
387.813	166.19
388.038	171.19
388.263	174.19
388.488	166.19
388.713	183.19
388.938	161.19
389.163	172.19
389.387	168.19
389.612	173.19
389.837	183.19
390.062	186.19
390.287	182.19
390.512	165.19
390.736	177.19
390.961	168.19
391.186	164.19
391.411	177.19
391.636	178.19
391.86	183.19
392.085	184.19
392.31	179.19
392.534	189.19
392.759	193.19
392.984	202.19
393.208	239.19
393.433	299.19
393.658	285.19
393.882	208.19
394.107	190.19
394.331	188.19
394.556	187.19
394.78	186.19
395.005	175.19
395.229	188.19
395.454	189.19
395.678	183.19
395.903	158.19
396.127	191.19
396.352	198.19
396.576	196.19
396.801	246.19
397.025	267.19
397.249	236.19
397.474	190.19
397.698	190.19
397.922	189.19
398.147	199.19
398.371	170.19
398.595	189.19
398.82	194.19
399.044	203.19
399.268	212.19
399.492	199.19
399.717	214.19
399.941	220.19
400.165	230.19
400.389	215.19
400.613	207.19
400.837	201.19
401.062	203.19
401.286	185.19
401.51	182.19
401.734	179.19
401.958	208.19
402.182	201.19
402.406	202.19
402.63	177.19
402.854	193.19
403.078	198.19
403.302	184.19
403.526	192.19
403.75	195.19
403.974	212.19
404.198	181.19
404.422	183.19
404.645	205.19
404.869	212.19
405.093	198.19
405.317	213.19
405.541	213.19
405.765	210.19
405.988	201.19
406.212	209.19
406.436	216.19
406.66	223.19
406.883	209.19
407.107	215.19
407.331	213.19
407.555	238.19
407.778	242.19
408.002	236.19
408.226	227.19
408.449	217.19
408.673	210.19
408.896	211.19
409.12	224.19
409.344	213.19
409.567	202.19
409.791	211.19
410.014	204.19
410.238	189.19
410.461	205.19
410.685	205.19
410.908	216.19
411.132	213.19
411.355	216.19
411.578	212.19
411.802	201.19
412.025	202.19
412.249	195.19
412.472	209.19
412.695	203.19
412.919	206.19
413.142	206.19
413.365	206.19
413.589	200.19
413.812	204.19
414.035	198.19
414.258	203.19
414.482	203.19
414.705	188.19
414.928	189.19
415.151	190.19
415.374	195.19
415.597	185.19
415.821	174.19
416.044	184.19
416.267	187.19
416.49	186.19
416.713	197.19
416.936	198.19
417.159	207.19
417.382	185.19
417.605	198.19
417.828	197.19
418.051	204.19
418.274	191.19
418.497	186.19
418.72	203.19
418.943	193.19
419.166	189.19
419.389	209.19
419.611	199.19
419.834	196.19
420.057	193.19
420.28	189.19
420.503	200.19
420.726	181.19
420.948	213.19
421.171	224.19
421.394	212.19
421.617	207.19
421.839	203.19
422.062	179.19
422.285	217.19
422.507	209.19
422.73	251.19
422.953	245.19
423.175	206.19
423.398	217.19
423.621	203.19
423.843	204.19
424.066	211.19
424.288	209.19
424.511	215.19
424.733	224.19
424.956	248.19
425.178	234.19
425.401	230.19
425.623	238.19
425.846	233.19
426.068	207.19
426.291	207.19
426.513	215.19
426.735	198.19
426.958	223.19
427.18	231.19
427.402	255.19
427.625	274.19
427.847	248.19
428.069	238.19
428.292	206.19
428.514	197.19
428.736	196.19
428.958	193.19
429.181	197.19
429.403	196.19
429.625	183.19
429.847	215.19
430.069	227.19
430.292	217.19
430.514	206.19
430.736	223.19
430.958	204.19
431.18	192.19
431.402	194.19
431.624	203.19
431.846	181.19
432.068	193.19
432.29	188.19
432.512	189.19
432.734	184.19
432.956	185.19
433.178	193.19
433.4	202.19
433.622	188.19
433.844	204.19
434.066	198.19
434.287	192.19
434.509	185.19
434.731	183.19
434.953	197.19
435.175	206.19
435.397	217.19
435.618	207.19
435.84	214.19
436.062	237.19
436.284	253.19
436.505	227.19
436.727	206.19
436.949	177.19
437.17	202.19
437.392	214.19
437.614	204.19
437.835	202.19
438.057	221.19
438.278	247.19
438.5	257.19
438.721	284.19
438.943	248.19
439.165	214.19
439.386	204.19
439.608	206.19
439.829	207.19
440.05	235.19
440.272	225.19
440.493	222.19
440.715	201.19
440.936	207.19
441.158	218.19
441.379	209.19
441.6	202.19
441.822	228.19
442.043	205.19
442.264	227.19
442.486	234.19
442.707	210.19
442.928	215.19
443.149	225.19
443.371	229.19
443.592	230.19
443.813	228.19
444.034	269.19
444.255	241.19
444.476	217.19
444.698	223.19
444.919	220.19
445.14	344.19
445.361	281.19
445.582	239.19
445.803	255.19
446.024	273.19
446.245	267.19
446.466	222.19
446.687	214.19
446.908	197.19
447.129	203.19
447.35	208.19
447.571	179.19
447.792	200.19
448.013	196.19
448.234	199.19
448.455	215.19
448.675	242.19
448.896	278.19
449.117	241.19
449.338	227.19
449.559	251.19
449.779	269.19
450	230.19
450.221	208.19
450.442	218.19
450.662	189.19
450.883	189.19
451.104	190.19
451.324	196.19
451.545	196.19
451.766	189.19
451.986	177.19
452.207	178.19
452.428	194.19
452.648	195.19
452.869	172.19
453.089	181.19
453.31	178.19
453.53	174.19
453.751	188.19
453.971	188.19
454.192	177.19
454.412	179.19
454.633	169.19
454.853	179.19
455.073	186.19
455.294	182.19
455.514	217.19
455.734	198.19
455.955	186.19
456.175	173.19
456.395	185.19
456.616	172.19
456.836	172.19
457.056	165.19
457.276	167.19
457.497	175.19
457.717	174.19
457.937	188.19
458.157	185.19
458.377	171.19
458.598	198.19
458.818	191.19
459.038	230.19
459.258	223.19
459.478	198.19
459.698	203.19
459.918	192.19
460.138	183.19
460.358	189.19
460.578	198.19
460.798	189.19
461.018	198.19
461.238	199.19
461.458	203.19
461.678	189.19
461.898	190.19
462.118	213.19
462.338	199.19
462.558	196.19
462.777	187.19
462.997	191.19
463.217	205.19
463.437	192.19
463.657	207.19
463.876	188.19
464.096	203.19
464.316	209.19
464.536	210.19
464.755	190.19
464.975	222.19
465.195	226.19
465.414	244.19
465.634	223.19
465.854	195.19
466.073	199.19
466.293	201.19
466.512	177.19
466.732	196.19
466.951	189.19
467.171	204.19
467.391	194.19
467.61	197.19
467.829	203.19
468.049	171.19
468.268	181.19
468.488	200.19
468.707	196.19
468.927	206.19
469.146	188.19
469.365	199.19
469.585	199.19
469.804	192.19
470.023	187.19
470.243	202.19
470.462	193.19
470.681	204.19
470.901	202.19
471.12	193.19
471.339	204.19
471.558	189.19
471.777	188.19
471.997	187.19
472.216	184.19
472.435	188.19
472.654	193.19
472.873	180.19
473.092	163.19
473.311	181.19
473.53	186.19
473.749	214.19
473.968	200.19
474.187	213.19
474.406	233.19
474.625	198.19
474.844	187.19
475.063	188.19
475.282	186.19
475.501	185.19
475.72	189.19
475.939	168.19
476.158	216.19
476.377	210.19
476.596	189.19
476.814	194.19
477.033	191.19
477.252	203.19
477.471	188.19
477.69	192.19
477.908	209.19
478.127	214.19
478.346	206.19
478.564	214.19
478.783	219.19
479.002	199.19
479.22	195.19
479.439	202.19
479.658	222.19
479.876	205.19
480.095	225.19
480.313	220.19
480.532	218.19
480.751	222.19
480.969	190.19
481.188	219.19
481.406	216.19
481.624	203.19
481.843	203.19
482.061	207.19
482.28	188.19
482.498	207.19
482.717	204.19
482.935	194.19
483.153	215.19
483.372	229.19
483.59	214.19
483.808	209.19
484.027	205.19
484.245	216.19
484.463	222.19
484.681	215.19
484.9	215.19
485.118	217.19
485.336	214.19
485.554	205.19
485.772	211.19
485.99	212.19
486.209	226.19
486.427	230.19
486.645	231.19
486.863	213.19
487.081	238.19
487.299	225.19
487.517	238.19
487.735	226.19
487.953	228.19
488.171	235.19
488.389	238.19
488.607	222.19
488.825	238.19
489.043	228.19
489.261	234.19
489.479	241.19
489.696	225.19
489.914	212.19
490.132	232.19
490.35	233.19
490.568	225.19
490.786	234.19
491.003	236.19
491.221	246.19
491.439	244.19
491.657	258.19
491.874	268.19
492.092	275.19
492.31	254.19
492.527	280.19
492.745	244.19
492.963	262.19
493.18	259.19
493.398	261.19
493.615	273.19
493.833	268.19
494.05	235.19
494.268	263.19
494.485	271.19
494.703	259.19
494.92	268.19
495.138	254.19
495.355	241.19
495.573	275.19
495.79	272.19
496.008	285.19
496.225	265.19
496.442	276.19
496.66	277.19
496.877	252.19
497.094	275.19
497.312	253.19
497.529	258.19
497.746	251.19
497.963	247.19
498.181	276.19
498.398	261.19
498.615	272.19
498.832	258.19
499.049	275.19
499.267	285.19
499.484	293.19
499.701	299.19
499.918	324.19
500.135	318.19
500.352	351.19
500.569	339.19
500.786	347.19
501.003	341.19
501.22	351.19
501.437	326.19
501.654	321.19
501.871	321.19
502.088	311.19
502.305	305.19
502.522	290.19
502.739	292.19
502.956	250.19
503.172	271.19
