Data from 1970.PennyLincolnUp.Lamp.En5.5.200Scan.071719.P1._HRD10591_15-15-30-841.txt Node
Date: Thu Jul 18 15:15:30 EDT 2019
User: cochatt
Spectrometer: HR+D1059
Trigger mode: 1
Integration Time (sec): 1.000000E-1
Scans to average: 1
Electric dark correction enabled: true
Nonlinearity correction enabled: false
Boxcar width: 0
XAxis mode: Wavelengths
Number of Pixels in Spectrum: 2048
>>>>>Begin Spectral Data<<<<<
223.165	-11.94
223.4	-11.94
223.635	-11.94
223.869	-10.94
224.104	-6.94
224.338	-21.94
224.573	-7.94
224.808	-14.94
225.042	-10.94
225.277	-2.94
225.511	-6.94
225.746	0.06
225.98	-9.94
226.215	10.06
226.449	19.06
226.683	18.06
226.918	25.06
227.152	33.06
227.387	30.06
227.621	33.06
227.856	46.06
228.09	38.06
228.324	54.06
228.559	45.06
228.793	74.06
229.027	112.06
229.262	108.06
229.496	129.06
229.73	147.06
229.964	190.06
230.199	139.06
230.433	128.06
230.667	128.06
230.901	113.06
231.136	117.06
231.37	130.06
231.604	126.06
231.838	133.06
232.072	119.06
232.306	126.06
232.541	125.06
232.775	125.06
233.009	121.06
233.243	109.06
233.477	113.06
233.711	123.06
233.945	129.06
234.179	132.06
234.413	113.06
234.647	136.06
234.881	114.06
235.115	113.06
235.349	128.06
235.583	120.06
235.817	137.06
236.051	134.06
236.285	152.06
236.519	129.06
236.753	145.06
236.987	157.06
237.221	205.06
237.455	269.06
237.689	228.06
237.922	166.06
238.156	154.06
238.39	147.06
238.624	144.06
238.858	135.06
239.091	134.06
239.325	142.06
239.559	134.06
239.793	145.06
240.027	150.06
240.26	152.06
240.494	182.06
240.728	167.06
240.961	164.06
241.195	167.06
241.429	158.06
241.662	135.06
241.896	167.06
242.13	164.06
242.363	146.06
242.597	153.06
242.83	143.06
243.064	157.06
243.298	157.06
243.531	140.06
243.765	155.06
243.998	166.06
244.232	150.06
244.465	160.06
244.699	153.06
244.932	162.06
245.166	158.06
245.399	145.06
245.633	172.06
245.866	169.06
246.099	150.06
246.333	172.06
246.566	184.06
246.8	172.06
247.033	166.06
247.266	175.06
247.5	164.06
247.733	188.06
247.966	199.06
248.2	194.06
248.433	210.06
248.666	200.06
248.899	208.06
249.133	214.06
249.366	228.06
249.599	243.06
249.832	211.06
250.066	222.06
250.299	201.06
250.532	224.06
250.765	232.06
250.998	259.06
251.231	282.06
251.465	262.06
251.698	229.06
251.931	227.06
252.164	231.06
252.397	224.06
252.63	227.06
252.863	244.06
253.096	242.06
253.329	252.06
253.562	277.06
253.795	267.06
254.028	238.06
254.261	244.06
254.494	267.06
254.727	275.06
254.96	307.06
255.193	319.06
255.426	287.06
255.659	257.06
255.892	293.06
256.124	277.06
256.357	264.06
256.59	278.06
256.823	252.06
257.056	241.06
257.289	239.06
257.521	228.06
257.754	237.06
257.987	240.06
258.22	248.06
258.452	221.06
258.685	233.06
258.918	230.06
259.151	244.06
259.383	246.06
259.616	229.06
259.849	258.06
260.081	281.06
260.314	278.06
260.547	282.06
260.779	270.06
261.012	260.06
261.244	264.06
261.477	245.06
261.71	246.06
261.942	258.06
262.175	253.06
262.407	255.06
262.64	231.06
262.872	234.06
263.105	209.06
263.337	239.06
263.57	238.06
263.802	225.06
264.035	244.06
264.267	235.06
264.499	220.06
264.732	235.06
264.964	244.06
265.197	213.06
265.429	236.06
265.661	237.06
265.894	230.06
266.126	238.06
266.358	223.06
266.591	226.06
266.823	234.06
267.055	235.06
267.287	250.06
267.52	256.06
267.752	240.06
267.984	237.06
268.216	254.06
268.448	248.06
268.681	256.06
268.913	262.06
269.145	306.06
269.377	291.06
269.609	288.06
269.841	315.06
270.073	301.06
270.306	324.06
270.538	351.06
270.77	332.06
271.002	328.06
271.234	308.06
271.466	339.06
271.698	330.06
271.93	352.06
272.162	366.06
272.394	350.06
272.626	329.06
272.858	312.06
273.09	302.06
273.322	294.06
273.553	289.06
273.785	278.06
274.017	288.06
274.249	285.06
274.481	287.06
274.713	289.06
274.945	276.06
275.176	292.06
275.408	290.06
275.64	272.06
275.872	270.06
276.104	267.06
276.335	285.06
276.567	308.06
276.799	297.06
277.031	320.06
277.262	347.06
277.494	330.06
277.726	335.06
277.957	300.06
278.189	289.06
278.421	280.06
278.652	288.06
278.884	283.06
279.115	269.06
279.347	280.06
279.579	285.06
279.81	281.06
280.042	273.06
280.273	276.06
280.505	266.06
280.736	273.06
280.968	273.06
281.199	268.06
281.431	256.06
281.662	269.06
281.894	268.06
282.125	298.06
282.356	302.06
282.588	312.06
282.819	322.06
283.051	279.06
283.282	271.06
283.513	292.06
283.745	292.06
283.976	294.06
284.207	277.06
284.439	283.06
284.67	298.06
284.901	285.06
285.132	272.06
285.364	279.06
285.595	271.06
285.826	278.06
286.057	280.06
286.288	265.06
286.52	281.06
286.751	296.06
286.982	286.06
287.213	285.06
287.444	299.06
287.675	284.06
287.906	297.06
288.138	305.06
288.369	304.06
288.6	311.06
288.831	287.06
289.062	300.06
289.293	288.06
289.524	294.06
289.755	296.06
289.986	299.06
290.217	290.06
290.448	280.06
290.679	292.06
290.91	276.06
291.141	279.06
291.371	284.06
291.602	271.06
291.833	280.06
292.064	299.06
292.295	282.06
292.526	292.06
292.757	291.06
292.987	299.06
293.218	302.06
293.449	299.06
293.68	310.06
293.91	308.06
294.141	273.06
294.372	310.06
294.603	292.06
294.833	281.06
295.064	292.06
295.295	295.06
295.525	300.06
295.756	310.06
295.987	293.06
296.217	322.06
296.448	337.06
296.679	306.06
296.909	289.06
297.14	300.06
297.37	310.06
297.601	297.06
297.831	296.06
298.062	295.06
298.292	301.06
298.523	306.06
298.753	293.06
298.984	296.06
299.214	292.06
299.445	304.06
299.675	317.06
299.905	308.06
300.136	302.06
300.366	313.06
300.597	321.06
300.827	315.06
301.057	341.06
301.288	335.06
301.518	316.06
301.748	332.06
301.979	348.06
302.209	322.06
302.439	319.06
302.669	317.06
302.9	319.06
303.13	318.06
303.36	322.06
303.59	337.06
303.82	361.06
304.051	338.06
304.281	338.06
304.511	329.06
304.741	326.06
304.971	332.06
305.201	328.06
305.431	323.06
305.661	333.06
305.891	320.06
306.121	328.06
306.352	337.06
306.582	349.06
306.812	345.06
307.042	332.06
307.272	343.06
307.502	334.06
307.731	333.06
307.961	345.06
308.191	339.06
308.421	342.06
308.651	348.06
308.881	344.06
309.111	347.06
309.341	385.06
309.571	361.06
309.8	367.06
310.03	381.06
310.26	394.06
310.49	392.06
310.72	377.06
310.949	395.06
311.179	417.06
311.409	395.06
311.639	394.06
311.868	385.06
312.098	385.06
312.328	384.06
312.557	407.06
312.787	437.06
313.017	417.06
313.246	400.06
313.476	395.06
313.706	380.06
313.935	410.06
314.165	414.06
314.394	415.06
314.624	390.06
314.853	401.06
315.083	390.06
315.312	394.06
315.542	389.06
315.771	380.06
316.001	388.06
316.23	379.06
316.46	401.06
316.689	374.06
316.919	386.06
317.148	399.06
317.377	421.06
317.607	408.06
317.836	380.06
318.065	381.06
318.295	397.06
318.524	374.06
318.753	384.06
318.983	376.06
319.212	418.06
319.441	422.06
319.67	415.06
319.9	403.06
320.129	404.06
320.358	397.06
320.587	408.06
320.816	406.06
321.046	416.06
321.275	406.06
321.504	415.06
321.733	434.06
321.962	443.06
322.191	427.06
322.42	459.06
322.649	476.06
322.878	494.06
323.108	507.06
323.337	540.06
323.566	560.06
323.795	592.06
324.024	645.06
324.253	790.06
324.482	1134.06
324.71	1766.06
324.939	2491.06
325.168	2136.06
325.397	1174.06
325.626	768.06
325.855	640.06
326.084	560.06
326.313	559.06
326.542	569.06
326.77	628.06
326.999	743.06
327.228	1003.06
327.457	1572.06
327.686	1893.06
327.914	1288.06
328.143	841.06
328.372	722.06
328.6	696.06
328.829	662.06
329.058	658.06
329.287	668.06
329.515	619.06
329.744	584.06
329.972	557.06
330.201	600.06
330.43	646.06
330.658	682.06
330.887	672.06
331.115	654.06
331.344	562.06
331.572	548.06
331.801	519.06
332.03	534.06
332.258	483.06
332.486	486.06
332.715	498.06
332.943	468.06
333.172	466.06
333.4	471.06
333.629	491.06
333.857	495.06
334.085	500.06
334.314	540.06
334.542	587.06
334.771	586.06
334.999	542.06
335.227	503.06
335.455	480.06
335.684	436.06
335.912	450.06
336.14	442.06
336.369	469.06
336.597	468.06
336.825	457.06
337.053	446.06
337.281	463.06
337.51	460.06
337.738	439.06
337.966	448.06
338.194	447.06
338.422	460.06
338.65	458.06
338.878	433.06
339.106	430.06
339.334	427.06
339.562	439.06
339.79	442.06
340.018	441.06
340.246	433.06
340.474	472.06
340.702	440.06
340.93	447.06
341.158	446.06
341.386	440.06
341.614	450.06
341.842	430.06
342.07	441.06
342.298	438.06
342.526	418.06
342.754	414.06
342.981	409.06
343.209	429.06
343.437	424.06
343.665	435.06
343.893	449.06
344.12	442.06
344.348	431.06
344.576	433.06
344.804	466.06
345.031	463.06
345.259	463.06
345.487	471.06
345.714	462.06
345.942	440.06
346.17	447.06
346.397	430.06
346.625	438.06
346.853	436.06
347.08	441.06
347.308	430.06
347.535	453.06
347.763	461.06
347.99	461.06
348.218	430.06
348.445	456.06
348.673	474.06
348.9	464.06
349.128	426.06
349.355	396.06
349.583	428.06
349.81	420.06
350.037	421.06
350.265	442.06
350.492	436.06
350.72	417.06
350.947	425.06
351.174	466.06
351.402	457.06
351.629	445.06
351.856	454.06
352.083	427.06
352.311	464.06
352.538	464.06
352.765	461.06
352.992	469.06
353.22	428.06
353.447	456.06
353.674	429.06
353.901	412.06
354.128	425.06
354.355	420.06
354.583	422.06
354.81	407.06
355.037	402.06
355.264	396.06
355.491	399.06
355.718	410.06
355.945	393.06
356.172	401.06
356.399	388.06
356.626	393.06
356.853	399.06
357.08	403.06
357.307	401.06
357.534	388.06
357.761	367.06
357.988	389.06
358.215	412.06
358.441	422.06
358.668	430.06
358.895	415.06
359.122	404.06
359.349	440.06
359.576	449.06
359.802	470.06
360.029	500.06
360.256	494.06
360.483	509.06
360.709	470.06
360.936	479.06
361.163	449.06
361.39	462.06
361.616	430.06
361.843	466.06
362.07	454.06
362.296	458.06
362.523	433.06
362.749	440.06
362.976	420.06
363.203	417.06
363.429	429.06
363.656	433.06
363.882	411.06
364.109	407.06
364.335	423.06
364.562	437.06
364.788	434.06
365.015	427.06
365.241	432.06
365.468	417.06
365.694	432.06
365.92	414.06
366.147	421.06
366.373	407.06
366.599	424.06
366.826	424.06
367.052	423.06
367.278	434.06
367.505	432.06
367.731	435.06
367.957	420.06
368.184	410.06
368.41	413.06
368.636	425.06
368.862	432.06
369.089	424.06
369.315	432.06
369.541	416.06
369.767	407.06
369.993	425.06
370.219	417.06
370.445	421.06
370.672	414.06
370.898	399.06
371.124	398.06
371.35	424.06
371.576	421.06
371.802	417.06
372.028	412.06
372.254	410.06
372.48	405.06
372.706	413.06
372.932	434.06
373.158	420.06
373.384	433.06
373.61	423.06
373.835	428.06
374.061	412.06
374.287	449.06
374.513	406.06
374.739	438.06
374.965	430.06
375.191	421.06
375.416	458.06
375.642	401.06
375.868	427.06
376.094	426.06
376.319	433.06
376.545	424.06
376.771	436.06
376.997	411.06
377.222	416.06
377.448	402.06
377.674	422.06
377.899	408.06
378.125	424.06
378.35	425.06
378.576	411.06
378.802	417.06
379.027	422.06
379.253	421.06
379.478	423.06
379.704	409.06
379.929	403.06
380.155	415.06
380.38	411.06
380.606	427.06
380.831	426.06
381.057	425.06
381.282	427.06
381.507	420.06
381.733	405.06
381.958	417.06
382.184	431.06
382.409	445.06
382.634	418.06
382.86	428.06
383.085	434.06
383.31	408.06
383.535	422.06
383.761	432.06
383.986	455.06
384.211	426.06
384.436	427.06
384.662	453.06
384.887	438.06
385.112	439.06
385.337	448.06
385.562	447.06
385.787	441.06
386.013	452.06
386.238	464.06
386.463	455.06
386.688	433.06
386.913	436.06
387.138	433.06
387.363	446.06
387.588	425.06
387.813	450.06
388.038	452.06
388.263	455.06
388.488	460.06
388.713	468.06
388.938	444.06
389.163	465.06
389.387	463.06
389.612	463.06
389.837	462.06
390.062	449.06
390.287	428.06
390.512	429.06
390.736	456.06
390.961	458.06
391.186	465.06
391.411	470.06
391.636	450.06
391.86	460.06
392.085	453.06
392.31	430.06
392.534	454.06
392.759	464.06
392.984	460.06
393.208	443.06
393.433	463.06
393.658	457.06
393.882	444.06
394.107	436.06
394.331	465.06
394.556	438.06
394.78	456.06
395.005	447.06
395.229	463.06
395.454	435.06
395.678	474.06
395.903	475.06
396.127	513.06
396.352	510.06
396.576	485.06
396.801	466.06
397.025	468.06
397.249	463.06
397.474	463.06
397.698	490.06
397.922	494.06
398.147	522.06
398.371	519.06
398.595	528.06
398.82	494.06
399.044	521.06
399.268	527.06
399.492	541.06
399.717	569.06
399.941	588.06
400.165	624.06
400.389	621.06
400.613	568.06
400.837	553.06
401.062	530.06
401.286	554.06
401.51	520.06
401.734	523.06
401.958	542.06
402.182	526.06
402.406	533.06
402.63	540.06
402.854	526.06
403.078	536.06
403.302	526.06
403.526	540.06
403.75	544.06
403.974	539.06
404.198	529.06
404.422	539.06
404.645	560.06
404.869	529.06
405.093	569.06
405.317	617.06
405.541	650.06
405.765	600.06
405.988	586.06
406.212	580.06
406.436	611.06
406.66	620.06
406.883	593.06
407.107	635.06
407.331	639.06
407.555	719.06
407.778	708.06
408.002	664.06
408.226	602.06
408.449	600.06
408.673	622.06
408.896	625.06
409.12	653.06
409.344	668.06
409.567	584.06
409.791	554.06
410.014	558.06
410.238	550.06
410.461	530.06
410.685	568.06
410.908	530.06
411.132	604.06
411.355	638.06
411.578	601.06
411.802	566.06
412.025	567.06
412.249	564.06
412.472	584.06
412.695	628.06
412.919	634.06
413.142	567.06
413.365	549.06
413.589	540.06
413.812	544.06
414.035	522.06
414.258	500.06
414.482	503.06
414.705	511.06
414.928	516.06
415.151	524.06
415.374	501.06
415.597	523.06
415.821	517.06
416.044	512.06
416.267	528.06
416.49	521.06
416.713	531.06
416.936	498.06
417.159	538.06
417.382	515.06
417.605	523.06
417.828	570.06
418.051	550.06
418.274	538.06
418.497	502.06
418.72	533.06
418.943	524.06
419.166	545.06
419.389	586.06
419.611	555.06
419.834	531.06
420.057	570.06
420.28	584.06
420.503	553.06
420.726	564.06
420.948	568.06
421.171	605.06
421.394	616.06
421.617	584.06
421.839	556.06
422.062	568.06
422.285	572.06
422.507	637.06
422.73	728.06
422.953	719.06
423.175	628.06
423.398	597.06
423.621	575.06
423.843	598.06
424.066	607.06
424.288	608.06
424.511	606.06
424.733	678.06
424.956	778.06
425.178	736.06
425.401	732.06
425.623	780.06
425.846	652.06
426.068	631.06
426.291	607.06
426.513	584.06
426.735	603.06
426.958	654.06
427.18	766.06
427.402	894.06
427.625	975.06
427.847	905.06
428.069	771.06
428.292	683.06
428.514	653.06
428.736	613.06
428.958	622.06
429.181	562.06
429.403	587.06
429.625	577.06
429.847	615.06
430.069	699.06
430.292	704.06
430.514	599.06
430.736	585.06
430.958	560.06
431.18	538.06
431.402	556.06
431.624	522.06
431.846	523.06
432.068	524.06
432.29	510.06
432.512	525.06
432.734	554.06
432.956	531.06
433.178	566.06
433.4	561.06
433.622	543.06
433.844	548.06
434.066	528.06
434.287	543.06
434.509	541.06
434.731	544.06
434.953	557.06
435.175	589.06
435.397	591.06
435.618	603.06
435.84	656.06
436.062	781.06
436.284	815.06
436.505	695.06
436.727	623.06
436.949	581.06
437.17	592.06
437.392	584.06
437.614	595.06
437.835	642.06
438.057	744.06
438.278	835.06
438.5	850.06
438.721	890.06
438.943	854.06
439.165	735.06
439.386	668.06
439.608	633.06
439.829	666.06
440.05	658.06
440.272	686.06
440.493	654.06
440.715	643.06
440.936	607.06
441.158	586.06
441.379	600.06
441.6	599.06
441.822	614.06
442.043	676.06
442.264	758.06
442.486	793.06
442.707	702.06
442.928	650.06
443.149	636.06
443.371	693.06
443.592	711.06
443.813	818.06
444.034	865.06
444.255	720.06
444.476	640.06
444.698	614.06
444.919	599.06
445.14	722.06
445.361	698.06
445.582	657.06
445.803	745.06
446.024	843.06
446.245	844.06
446.466	784.06
446.687	672.06
446.908	623.06
447.129	606.06
447.35	608.06
447.571	601.06
447.792	569.06
448.013	598.06
448.234	610.06
448.455	669.06
448.675	793.06
448.896	912.06
449.117	768.06
449.338	716.06
449.559	840.06
449.779	932.06
450	760.06
450.221	648.06
450.442	571.06
450.662	571.06
450.883	594.06
451.104	599.06
451.324	599.06
451.545	546.06
451.766	549.06
451.986	524.06
452.207	521.06
452.428	523.06
452.648	540.06
452.869	539.06
453.089	547.06
453.31	551.06
453.53	526.06
453.751	516.06
453.971	519.06
454.192	570.06
454.412	561.06
454.633	550.06
454.853	520.06
455.073	511.06
455.294	570.06
455.514	628.06
455.734	609.06
455.955	527.06
456.175	496.06
456.395	481.06
456.616	463.06
456.836	487.06
457.056	456.06
457.276	461.06
457.497	479.06
457.717	476.06
457.937	478.06
458.157	482.06
458.377	498.06
458.598	536.06
458.818	601.06
459.038	699.06
459.258	703.06
459.478	589.06
459.698	538.06
459.918	538.06
460.138	514.06
460.358	501.06
460.578	506.06
460.798	546.06
461.018	532.06
461.238	525.06
461.458	518.06
461.678	505.06
461.898	508.06
462.118	513.06
462.338	547.06
462.558	538.06
462.777	538.06
462.997	559.06
463.217	545.06
463.437	550.06
463.657	550.06
463.876	548.06
464.096	543.06
464.316	566.06
464.536	556.06
464.755	559.06
464.975	594.06
465.195	640.06
465.414	723.06
465.634	646.06
465.854	585.06
466.073	560.06
466.293	545.06
466.512	540.06
466.732	520.06
466.951	524.06
467.171	512.06
467.391	527.06
467.61	541.06
467.829	558.06
468.049	545.06
468.268	524.06
468.488	521.06
468.707	527.06
468.927	522.06
469.146	502.06
469.365	511.06
469.585	522.06
469.804	510.06
470.023	532.06
470.243	541.06
470.462	556.06
470.681	568.06
470.901	561.06
471.12	530.06
471.339	528.06
471.558	556.06
471.777	551.06
471.997	526.06
472.216	542.06
472.435	598.06
472.654	569.06
472.873	553.06
473.092	536.06
473.311	538.06
473.53	548.06
473.749	550.06
473.968	606.06
474.187	720.06
474.406	728.06
474.625	604.06
474.844	556.06
475.063	553.06
475.282	541.06
475.501	552.06
475.72	548.06
475.939	529.06
476.158	548.06
476.377	541.06
476.596	553.06
476.814	560.06
477.033	566.06
477.252	572.06
477.471	602.06
477.69	568.06
477.908	593.06
478.127	584.06
478.346	588.06
478.564	594.06
478.783	581.06
479.002	584.06
479.22	623.06
479.439	606.06
479.658	644.06
479.876	647.06
480.095	646.06
480.313	680.06
480.532	671.06
480.751	644.06
480.969	684.06
481.188	764.06
481.406	824.06
481.624	720.06
481.843	697.06
482.061	679.06
482.28	641.06
482.498	666.06
482.717	640.06
482.935	640.06
483.153	648.06
483.372	638.06
483.59	625.06
483.808	674.06
484.027	626.06
484.245	623.06
484.463	657.06
484.681	664.06
484.9	637.06
485.118	646.06
485.336	654.06
485.554	689.06
485.772	648.06
485.99	652.06
486.209	647.06
486.427	695.06
486.645	666.06
486.863	713.06
487.081	703.06
487.299	709.06
487.517	692.06
487.735	689.06
487.953	687.06
488.171	687.06
488.389	698.06
488.607	716.06
488.825	714.06
489.043	700.06
489.261	733.06
489.479	686.06
489.696	702.06
489.914	709.06
490.132	722.06
490.35	762.06
490.568	760.06
490.786	739.06
491.003	792.06
491.221	774.06
491.439	786.06
491.657	804.06
491.874	824.06
492.092	823.06
492.31	817.06
492.527	812.06
492.745	806.06
492.963	834.06
493.18	838.06
493.398	831.06
493.615	837.06
493.833	860.06
494.05	855.06
494.268	832.06
494.485	845.06
494.703	827.06
494.92	847.06
495.138	850.06
495.355	873.06
495.573	849.06
495.79	831.06
496.008	855.06
496.225	860.06
496.442	862.06
496.66	861.06
496.877	824.06
497.094	861.06
497.312	846.06
497.529	859.06
497.746	850.06
497.963	874.06
498.181	911.06
498.398	893.06
498.615	927.06
498.832	923.06
499.049	897.06
499.267	904.06
499.484	915.06
499.701	931.06
499.918	957.06
500.135	976.06
500.352	1035.06
500.569	1030.06
500.786	1002.06
501.003	1017.06
501.22	999.06
501.437	1007.06
501.654	988.06
501.871	1003.06
