Data from 1970.PennyLincolnUp.Lamp.En5.5.200Scan.071719.P1._HRD10591_15-14-08-842.txt Node
Date: Thu Jul 18 15:14:08 EDT 2019
User: cochatt
Spectrometer: HR+D1059
Trigger mode: 1
Integration Time (sec): 1.000000E-1
Scans to average: 1
Electric dark correction enabled: true
Nonlinearity correction enabled: false
Boxcar width: 0
XAxis mode: Wavelengths
Number of Pixels in Spectrum: 2048
>>>>>Begin Spectral Data<<<<<
223.165	-14.31
223.4	-14.31
223.635	-14.31
223.869	-19.31
224.104	-10.31
224.338	-19.31
224.573	-8.31
224.808	-13.31
225.042	-8.31
225.277	-9.31
225.511	-12.31
225.746	5.69
225.98	6.69
226.215	6.69
226.449	16.69
226.683	21.69
226.918	30.69
227.152	26.69
227.387	30.69
227.621	36.69
227.856	51.69
228.09	47.69
228.324	46.69
228.559	53.69
228.793	83.69
229.027	109.69
229.262	109.69
229.496	120.69
229.73	132.69
229.964	168.69
230.199	141.69
230.433	117.69
230.667	125.69
230.901	124.69
231.136	114.69
231.37	121.69
231.604	112.69
231.838	127.69
232.072	108.69
232.306	104.69
232.541	103.69
232.775	121.69
233.009	115.69
233.243	134.69
233.477	105.69
233.711	129.69
233.945	122.69
234.179	122.69
234.413	101.69
234.647	121.69
234.881	116.69
235.115	119.69
235.349	115.69
235.583	118.69
235.817	121.69
236.051	136.69
236.285	130.69
236.519	133.69
236.753	124.69
236.987	143.69
237.221	197.69
237.455	258.69
237.689	202.69
237.922	153.69
238.156	148.69
238.39	136.69
238.624	133.69
238.858	122.69
239.091	125.69
239.325	139.69
239.559	128.69
239.793	136.69
240.027	147.69
240.26	164.69
240.494	155.69
240.728	166.69
240.961	161.69
241.195	161.69
241.429	147.69
241.662	135.69
241.896	137.69
242.13	145.69
242.363	140.69
242.597	142.69
242.83	145.69
243.064	133.69
243.298	142.69
243.531	140.69
243.765	155.69
243.998	149.69
244.232	152.69
244.465	155.69
244.699	149.69
244.932	145.69
245.166	148.69
245.399	139.69
245.633	143.69
245.866	164.69
246.099	146.69
246.333	140.69
246.566	169.69
246.8	160.69
247.033	170.69
247.266	159.69
247.5	180.69
247.733	177.69
247.966	180.69
248.2	184.69
248.433	193.69
248.666	186.69
248.899	202.69
249.133	227.69
249.366	220.69
249.599	197.69
249.832	168.69
250.066	185.69
250.299	196.69
250.532	195.69
250.765	218.69
250.998	247.69
251.231	247.69
251.465	222.69
251.698	229.69
251.931	203.69
252.164	194.69
252.397	193.69
252.63	218.69
252.863	222.69
253.096	228.69
253.329	258.69
253.562	259.69
253.795	229.69
254.028	229.69
254.261	241.69
254.494	254.69
254.727	281.69
254.96	300.69
255.193	283.69
255.426	282.69
255.659	255.69
255.892	267.69
256.124	250.69
256.357	254.69
256.59	242.69
256.823	230.69
257.056	227.69
257.289	235.69
257.521	217.69
257.754	212.69
257.987	222.69
258.22	226.69
258.452	217.69
258.685	219.69
258.918	216.69
259.151	221.69
259.383	227.69
259.616	237.69
259.849	229.69
260.081	255.69
260.314	270.69
260.547	271.69
260.779	264.69
261.012	234.69
261.244	229.69
261.477	251.69
261.71	231.69
261.942	233.69
262.175	263.69
262.407	246.69
262.64	228.69
262.872	211.69
263.105	217.69
263.337	212.69
263.57	207.69
263.802	213.69
264.035	208.69
264.267	215.69
264.499	197.69
264.732	216.69
264.964	223.69
265.197	204.69
265.429	234.69
265.661	216.69
265.894	221.69
266.126	217.69
266.358	209.69
266.591	235.69
266.823	227.69
267.055	222.69
267.287	234.69
267.52	234.69
267.752	221.69
267.984	224.69
268.216	234.69
268.448	235.69
268.681	228.69
268.913	261.69
269.145	261.69
269.377	282.69
269.609	281.69
269.841	277.69
270.073	271.69
270.306	295.69
270.538	313.69
270.77	322.69
271.002	318.69
271.234	304.69
271.466	297.69
271.698	310.69
271.93	343.69
272.162	333.69
272.394	321.69
272.626	316.69
272.858	294.69
273.09	293.69
273.322	275.69
273.553	280.69
273.785	266.69
274.017	277.69
274.249	250.69
274.481	268.69
274.713	269.69
274.945	265.69
275.176	274.69
275.408	270.69
275.64	265.69
275.872	279.69
276.104	277.69
276.335	281.69
276.567	264.69
276.799	290.69
277.031	287.69
277.262	300.69
277.494	312.69
277.726	317.69
277.957	282.69
278.189	283.69
278.421	250.69
278.652	270.69
278.884	263.69
279.115	260.69
279.347	254.69
279.579	271.69
279.81	273.69
280.042	269.69
280.273	269.69
280.505	274.69
280.736	271.69
280.968	255.69
281.199	257.69
281.431	268.69
281.662	245.69
281.894	259.69
282.125	272.69
282.356	260.69
282.588	296.69
282.819	317.69
283.051	266.69
283.282	277.69
283.513	257.69
283.745	277.69
283.976	282.69
284.207	276.69
284.439	287.69
284.67	271.69
284.901	277.69
285.132	272.69
285.364	284.69
285.595	261.69
285.826	241.69
286.057	267.69
286.288	282.69
286.52	269.69
286.751	277.69
286.982	278.69
287.213	266.69
287.444	272.69
287.675	263.69
287.906	302.69
288.138	285.69
288.369	287.69
288.6	300.69
288.831	276.69
289.062	283.69
289.293	275.69
289.524	280.69
289.755	266.69
289.986	281.69
290.217	298.69
290.448	261.69
290.679	282.69
290.91	276.69
291.141	272.69
291.371	279.69
291.602	284.69
291.833	277.69
292.064	276.69
292.295	279.69
292.526	267.69
292.757	281.69
292.987	270.69
293.218	277.69
293.449	289.69
293.68	279.69
293.91	270.69
294.141	261.69
294.372	246.69
294.603	289.69
294.833	273.69
295.064	293.69
295.295	279.69
295.525	302.69
295.756	288.69
295.987	296.69
296.217	305.69
296.448	305.69
296.679	298.69
296.909	275.69
297.14	295.69
297.37	280.69
297.601	285.69
297.831	285.69
298.062	283.69
298.292	278.69
298.523	284.69
298.753	267.69
298.984	276.69
299.214	285.69
299.445	290.69
299.675	285.69
299.905	301.69
300.136	316.69
300.366	297.69
300.597	311.69
300.827	302.69
301.057	315.69
301.288	305.69
301.518	309.69
301.748	311.69
301.979	322.69
302.209	338.69
302.439	324.69
302.669	338.69
302.9	309.69
303.13	307.69
303.36	304.69
303.59	312.69
303.82	332.69
304.051	332.69
304.281	310.69
304.511	314.69
304.741	295.69
304.971	302.69
305.201	321.69
305.431	324.69
305.661	308.69
305.891	312.69
306.121	332.69
306.352	327.69
306.582	313.69
306.812	335.69
307.042	317.69
307.272	335.69
307.502	315.69
307.731	300.69
307.961	309.69
308.191	317.69
308.421	320.69
308.651	313.69
308.881	332.69
309.111	348.69
309.341	321.69
309.571	341.69
309.8	349.69
310.03	363.69
310.26	371.69
310.49	369.69
310.72	377.69
310.949	393.69
311.179	392.69
311.409	370.69
311.639	356.69
311.868	367.69
312.098	366.69
312.328	386.69
312.557	385.69
312.787	422.69
313.017	409.69
313.246	391.69
313.476	386.69
313.706	376.69
313.935	375.69
314.165	382.69
314.394	390.69
314.624	412.69
314.853	365.69
315.083	377.69
315.312	377.69
315.542	350.69
315.771	365.69
316.001	366.69
316.23	372.69
316.46	365.69
316.689	377.69
316.919	371.69
317.148	377.69
317.377	387.69
317.607	374.69
317.836	391.69
318.065	382.69
318.295	334.69
318.524	391.69
318.753	373.69
318.983	367.69
319.212	362.69
319.441	379.69
319.67	390.69
319.9	378.69
320.129	377.69
320.358	375.69
320.587	393.69
320.816	395.69
321.046	405.69
321.275	402.69
321.504	387.69
321.733	392.69
321.962	389.69
322.191	428.69
322.42	458.69
322.649	430.69
322.878	457.69
323.108	487.69
323.337	504.69
323.566	537.69
323.795	571.69
324.024	614.69
324.253	754.69
324.482	1085.69
324.71	1645.69
324.939	2284.69
325.168	2016.69
325.397	1062.69
325.626	702.69
325.855	608.69
326.084	519.69
326.313	514.69
326.542	536.69
326.77	579.69
326.999	701.69
327.228	942.69
327.457	1464.69
327.686	1751.69
327.914	1181.69
328.143	787.69
328.372	693.69
328.6	643.69
328.829	585.69
329.058	623.69
329.287	637.69
329.515	550.69
329.744	543.69
329.972	538.69
330.201	563.69
330.43	622.69
330.658	615.69
330.887	661.69
331.115	639.69
331.344	530.69
331.572	505.69
331.801	506.69
332.03	501.69
332.258	485.69
332.486	459.69
332.715	461.69
332.943	449.69
333.172	464.69
333.4	456.69
333.629	474.69
333.857	477.69
334.085	505.69
334.314	500.69
334.542	534.69
334.771	557.69
334.999	510.69
335.227	479.69
335.455	453.69
335.684	451.69
335.912	430.69
336.14	429.69
336.369	437.69
336.597	447.69
336.825	446.69
337.053	444.69
337.281	418.69
337.51	429.69
337.738	435.69
337.966	443.69
338.194	468.69
338.422	470.69
338.65	436.69
338.878	409.69
339.106	415.69
339.334	421.69
339.562	416.69
339.79	413.69
340.018	417.69
340.246	442.69
340.474	438.69
340.702	433.69
340.93	431.69
341.158	409.69
341.386	414.69
341.614	423.69
341.842	420.69
342.07	421.69
342.298	435.69
342.526	391.69
342.754	407.69
342.981	398.69
343.209	385.69
343.437	437.69
343.665	417.69
343.893	420.69
344.12	427.69
344.348	426.69
344.576	412.69
344.804	445.69
345.031	426.69
345.259	453.69
345.487	443.69
345.714	448.69
345.942	440.69
346.17	430.69
346.397	412.69
346.625	433.69
346.853	437.69
347.08	428.69
347.308	425.69
347.535	441.69
347.763	442.69
347.99	410.69
348.218	429.69
348.445	434.69
348.673	441.69
348.9	430.69
349.128	417.69
349.355	397.69
349.583	411.69
349.81	407.69
350.037	420.69
350.265	418.69
350.492	414.69
350.72	410.69
350.947	422.69
351.174	433.69
351.402	446.69
351.629	433.69
351.856	442.69
352.083	439.69
352.311	450.69
352.538	446.69
352.765	468.69
352.992	453.69
353.22	425.69
353.447	432.69
353.674	425.69
353.901	398.69
354.128	390.69
354.355	402.69
354.583	407.69
354.81	402.69
355.037	404.69
355.264	373.69
355.491	392.69
355.718	396.69
355.945	385.69
356.172	371.69
356.399	374.69
356.626	392.69
356.853	381.69
357.08	380.69
357.307	406.69
357.534	404.69
357.761	401.69
357.988	377.69
358.215	395.69
358.441	415.69
358.668	404.69
358.895	398.69
359.122	415.69
359.349	427.69
359.576	437.69
359.802	464.69
360.029	487.69
360.256	516.69
360.483	481.69
360.709	435.69
360.936	430.69
361.163	430.69
361.39	434.69
361.616	447.69
361.843	431.69
362.07	409.69
362.296	449.69
362.523	440.69
362.749	421.69
362.976	427.69
363.203	421.69
363.429	399.69
363.656	426.69
363.882	411.69
364.109	390.69
364.335	399.69
364.562	400.69
364.788	413.69
365.015	402.69
365.241	405.69
365.468	403.69
365.694	423.69
365.92	428.69
366.147	409.69
366.373	416.69
366.599	414.69
366.826	406.69
367.052	415.69
367.278	409.69
367.505	426.69
367.731	423.69
367.957	418.69
368.184	441.69
368.41	433.69
368.636	446.69
368.862	440.69
369.089	417.69
369.315	423.69
369.541	396.69
369.767	405.69
369.993	399.69
370.219	433.69
370.445	415.69
370.672	407.69
370.898	390.69
371.124	392.69
371.35	407.69
371.576	395.69
371.802	392.69
372.028	405.69
372.254	399.69
372.48	405.69
372.706	405.69
372.932	409.69
373.158	418.69
373.384	411.69
373.61	402.69
373.835	421.69
374.061	413.69
374.287	405.69
374.513	422.69
374.739	409.69
374.965	415.69
375.191	423.69
375.416	401.69
375.642	389.69
375.868	391.69
376.094	425.69
376.319	408.69
376.545	430.69
376.771	402.69
376.997	403.69
377.222	410.69
377.448	403.69
377.674	416.69
377.899	402.69
378.125	401.69
378.35	400.69
378.576	396.69
378.802	393.69
379.027	402.69
379.253	421.69
379.478	401.69
379.704	400.69
379.929	411.69
380.155	391.69
380.38	391.69
380.606	407.69
380.831	426.69
381.057	407.69
381.282	410.69
381.507	417.69
381.733	426.69
381.958	421.69
382.184	423.69
382.409	430.69
382.634	437.69
382.86	415.69
383.085	426.69
383.31	417.69
383.535	438.69
383.761	437.69
383.986	441.69
384.211	428.69
384.436	433.69
384.662	438.69
384.887	426.69
385.112	429.69
385.337	429.69
385.562	455.69
385.787	437.69
386.013	452.69
386.238	444.69
386.463	458.69
386.688	454.69
386.913	441.69
387.138	439.69
387.363	445.69
387.588	453.69
387.813	442.69
388.038	427.69
388.263	449.69
388.488	456.69
388.713	440.69
388.938	428.69
389.163	429.69
389.387	455.69
389.612	441.69
389.837	444.69
390.062	433.69
390.287	454.69
390.512	442.69
390.736	431.69
390.961	443.69
391.186	454.69
391.411	453.69
391.636	436.69
391.86	463.69
392.085	458.69
392.31	443.69
392.534	454.69
392.759	455.69
392.984	449.69
393.208	479.69
393.433	463.69
393.658	459.69
393.882	457.69
394.107	439.69
394.331	431.69
394.556	446.69
394.78	463.69
395.005	445.69
395.229	447.69
395.454	448.69
395.678	461.69
395.903	481.69
396.127	489.69
396.352	502.69
396.576	477.69
396.801	476.69
397.025	493.69
397.249	489.69
397.474	482.69
397.698	479.69
397.922	491.69
398.147	501.69
398.371	493.69
398.595	481.69
398.82	493.69
399.044	496.69
399.268	517.69
399.492	551.69
399.717	558.69
399.941	612.69
400.165	612.69
400.389	639.69
400.613	578.69
400.837	546.69
401.062	520.69
401.286	558.69
401.51	494.69
401.734	505.69
401.958	518.69
402.182	535.69
402.406	531.69
402.63	525.69
402.854	534.69
403.078	524.69
403.302	516.69
403.526	530.69
403.75	548.69
403.974	515.69
404.198	535.69
404.422	557.69
404.645	544.69
404.869	542.69
405.093	584.69
405.317	612.69
405.541	643.69
405.765	598.69
405.988	549.69
406.212	579.69
406.436	596.69
406.66	620.69
406.883	597.69
407.107	591.69
407.331	641.69
407.555	701.69
407.778	690.69
408.002	661.69
408.226	573.69
408.449	601.69
408.673	574.69
408.896	649.69
409.12	657.69
409.344	642.69
409.567	606.69
409.791	546.69
410.014	547.69
410.238	544.69
410.461	525.69
410.685	548.69
410.908	546.69
411.132	594.69
411.355	602.69
411.578	610.69
411.802	586.69
412.025	552.69
412.249	553.69
412.472	567.69
412.695	627.69
412.919	607.69
413.142	573.69
413.365	537.69
413.589	529.69
413.812	525.69
414.035	508.69
414.258	523.69
414.482	517.69
414.705	517.69
414.928	511.69
415.151	527.69
415.374	521.69
415.597	490.69
415.821	524.69
416.044	523.69
416.267	502.69
416.49	516.69
416.713	497.69
416.936	519.69
417.159	525.69
417.382	557.69
417.605	531.69
417.828	518.69
418.051	549.69
418.274	554.69
418.497	539.69
418.72	521.69
418.943	525.69
419.166	547.69
419.389	533.69
419.611	533.69
419.834	560.69
420.057	556.69
420.28	551.69
420.503	551.69
420.726	530.69
420.948	579.69
421.171	579.69
421.394	630.69
421.617	586.69
421.839	519.69
422.062	556.69
422.285	601.69
422.507	614.69
422.73	711.69
422.953	685.69
423.175	606.69
423.398	562.69
423.621	566.69
423.843	583.69
424.066	573.69
424.288	602.69
424.511	602.69
424.733	677.69
424.956	749.69
425.178	722.69
425.401	744.69
425.623	729.69
425.846	641.69
426.068	599.69
426.291	595.69
426.513	589.69
426.735	606.69
426.958	663.69
427.18	742.69
427.402	854.69
427.625	949.69
427.847	871.69
428.069	741.69
428.292	674.69
428.514	606.69
428.736	571.69
428.958	581.69
429.181	549.69
429.403	569.69
429.625	546.69
429.847	593.69
430.069	674.69
430.292	685.69
430.514	574.69
430.736	567.69
430.958	562.69
431.18	547.69
431.402	520.69
431.624	529.69
431.846	513.69
432.068	515.69
432.29	517.69
432.512	522.69
432.734	518.69
432.956	524.69
433.178	547.69
433.4	550.69
433.622	523.69
433.844	521.69
434.066	498.69
434.287	543.69
434.509	570.69
434.731	517.69
434.953	531.69
435.175	563.69
435.397	606.69
435.618	590.69
435.84	623.69
436.062	746.69
436.284	777.69
436.505	703.69
436.727	624.69
436.949	591.69
437.17	559.69
437.392	562.69
437.614	574.69
437.835	613.69
438.057	703.69
438.278	846.69
438.5	823.69
438.721	911.69
438.943	835.69
439.165	726.69
439.386	631.69
439.608	637.69
439.829	621.69
440.05	636.69
440.272	670.69
440.493	661.69
440.715	605.69
440.936	586.69
441.158	572.69
441.379	570.69
441.6	571.69
441.822	597.69
442.043	635.69
442.264	734.69
442.486	796.69
442.707	663.69
442.928	628.69
443.149	627.69
443.371	630.69
443.592	721.69
443.813	764.69
444.034	837.69
444.255	717.69
444.476	619.69
444.698	595.69
444.919	597.69
445.14	730.69
445.361	689.69
445.582	662.69
445.803	695.69
446.024	829.69
446.245	829.69
446.466	761.69
446.687	653.69
446.908	632.69
447.129	581.69
447.35	570.69
447.571	574.69
447.792	575.69
448.013	572.69
448.234	586.69
448.455	650.69
448.675	777.69
448.896	871.69
449.117	765.69
449.338	709.69
449.559	828.69
449.779	906.69
450	747.69
450.221	645.69
450.442	591.69
450.662	563.69
450.883	551.69
451.104	587.69
451.324	595.69
451.545	563.69
451.766	537.69
451.986	525.69
452.207	518.69
452.428	495.69
452.648	500.69
452.869	511.69
453.089	515.69
453.31	544.69
453.53	518.69
453.751	502.69
453.971	521.69
454.192	547.69
454.412	525.69
454.633	501.69
454.853	485.69
455.073	511.69
455.294	548.69
455.514	620.69
455.734	589.69
455.955	521.69
456.175	480.69
456.395	499.69
456.616	481.69
456.836	468.69
457.056	463.69
457.276	437.69
457.497	470.69
457.717	486.69
457.937	482.69
458.157	487.69
458.377	499.69
458.598	515.69
458.818	583.69
459.038	711.69
459.258	677.69
459.478	580.69
459.698	526.69
459.918	518.69
460.138	520.69
460.358	531.69
460.578	516.69
460.798	528.69
461.018	540.69
461.238	513.69
461.458	507.69
461.678	518.69
461.898	515.69
462.118	522.69
462.338	533.69
462.558	521.69
462.777	506.69
462.997	523.69
463.217	548.69
463.437	547.69
463.657	546.69
463.876	553.69
464.096	541.69
464.316	548.69
464.536	553.69
464.755	566.69
464.975	571.69
465.195	633.69
465.414	723.69
465.634	639.69
465.854	555.69
466.073	563.69
466.293	519.69
466.512	521.69
466.732	509.69
466.951	514.69
467.171	504.69
467.391	519.69
467.61	523.69
467.829	528.69
468.049	542.69
468.268	527.69
468.488	542.69
468.707	502.69
468.927	505.69
469.146	493.69
469.365	513.69
469.585	519.69
469.804	504.69
470.023	519.69
470.243	522.69
470.462	541.69
470.681	547.69
470.901	524.69
471.12	515.69
471.339	515.69
471.558	536.69
471.777	507.69
471.997	508.69
472.216	532.69
472.435	589.69
472.654	585.69
472.873	523.69
473.092	505.69
473.311	522.69
473.53	545.69
473.749	557.69
473.968	586.69
474.187	676.69
474.406	702.69
474.625	585.69
474.844	559.69
475.063	535.69
475.282	550.69
475.501	535.69
475.72	541.69
475.939	528.69
476.158	570.69
476.377	540.69
476.596	521.69
476.814	550.69
477.033	556.69
477.252	557.69
477.471	579.69
477.69	570.69
477.908	570.69
478.127	571.69
478.346	579.69
478.564	610.69
478.783	591.69
479.002	587.69
479.22	598.69
479.439	605.69
479.658	633.69
479.876	645.69
480.095	638.69
480.313	657.69
480.532	655.69
480.751	635.69
480.969	643.69
481.188	729.69
481.406	778.69
481.624	686.69
481.843	660.69
482.061	631.69
482.28	635.69
482.498	606.69
482.717	636.69
482.935	630.69
483.153	619.69
483.372	619.69
483.59	627.69
483.808	642.69
484.027	648.69
484.245	624.69
484.463	628.69
484.681	614.69
484.9	649.69
485.118	643.69
485.336	636.69
485.554	637.69
485.772	641.69
485.99	641.69
486.209	635.69
486.427	626.69
486.645	656.69
486.863	679.69
487.081	702.69
487.299	671.69
487.517	663.69
487.735	687.69
487.953	674.69
488.171	681.69
488.389	675.69
488.607	665.69
488.825	684.69
489.043	676.69
489.261	679.69
489.479	686.69
489.696	688.69
489.914	691.69
490.132	684.69
490.35	702.69
490.568	726.69
490.786	719.69
491.003	765.69
491.221	769.69
491.439	760.69
491.657	761.69
491.874	768.69
492.092	791.69
492.31	810.69
492.527	775.69
492.745	791.69
492.963	810.69
493.18	805.69
493.398	824.69
493.615	842.69
493.833	814.69
494.05	820.69
494.268	809.69
494.485	797.69
494.703	798.69
494.92	788.69
495.138	841.69
495.355	814.69
495.573	821.69
495.79	823.69
496.008	814.69
496.225	801.69
496.442	808.69
496.66	791.69
496.877	820.69
497.094	826.69
497.312	829.69
497.529	839.69
497.746	822.69
497.963	808.69
498.181	847.69
498.398	854.69
498.615	883.69
498.832	923.69
499.049	928.69
499.267	889.69
499.484	919.69
499.701	941.69
499.918	938.69
500.135	994.69
500.352	1004.69
500.569	1015.69
500.786	1013.69
501.003	1026.69
501.22	992.69
501.437	1019.69
501.654	953.69
501.871	1006.69
