Data from 1970.PennyLincolnUp.Lamp.En5.5.200Scan.071719.P1._HRD10591_15-15-09-841.txt Node
Date: Thu Jul 18 15:15:09 EDT 2019
User: cochatt
Spectrometer: HR+D1059
Trigger mode: 1
Integration Time (sec): 1.000000E-1
Scans to average: 1
Electric dark correction enabled: true
Nonlinearity correction enabled: false
Boxcar width: 0
XAxis mode: Wavelengths
Number of Pixels in Spectrum: 2048
>>>>>Begin Spectral Data<<<<<
223.165	-17.31
223.4	-17.31
223.635	-17.31
223.869	-3.31
224.104	-16.31
224.338	-9.31
224.573	-15.31
224.808	-7.31
225.042	-5.31
225.277	-27.31
225.511	-19.31
225.746	9.69
225.98	16.69
226.215	18.69
226.449	18.69
226.683	19.69
226.918	13.69
227.152	23.69
227.387	35.69
227.621	47.69
227.856	46.69
228.09	48.69
228.324	58.69
228.559	47.69
228.793	70.69
229.027	112.69
229.262	129.69
229.496	136.69
229.73	147.69
229.964	167.69
230.199	151.69
230.433	139.69
230.667	106.69
230.901	120.69
231.136	118.69
231.37	117.69
231.604	134.69
231.838	120.69
232.072	122.69
232.306	118.69
232.541	116.69
232.775	121.69
233.009	121.69
233.243	118.69
233.477	126.69
233.711	114.69
233.945	126.69
234.179	119.69
234.413	126.69
234.647	128.69
234.881	128.69
235.115	129.69
235.349	130.69
235.583	130.69
235.817	131.69
236.051	138.69
236.285	138.69
236.519	127.69
236.753	150.69
236.987	169.69
237.221	207.69
237.455	277.69
237.689	219.69
237.922	162.69
238.156	160.69
238.39	134.69
238.624	141.69
238.858	145.69
239.091	130.69
239.325	130.69
239.559	129.69
239.793	136.69
240.027	141.69
240.26	156.69
240.494	180.69
240.728	182.69
240.961	175.69
241.195	154.69
241.429	151.69
241.662	149.69
241.896	143.69
242.13	144.69
242.363	131.69
242.597	144.69
242.83	160.69
243.064	158.69
243.298	136.69
243.531	148.69
243.765	134.69
243.998	156.69
244.232	162.69
244.465	152.69
244.699	158.69
244.932	167.69
245.166	142.69
245.399	167.69
245.633	161.69
245.866	155.69
246.099	169.69
246.333	173.69
246.566	164.69
246.8	162.69
247.033	141.69
247.266	175.69
247.5	181.69
247.733	170.69
247.966	180.69
248.2	191.69
248.433	187.69
248.666	179.69
248.899	214.69
249.133	222.69
249.366	235.69
249.599	215.69
249.832	202.69
250.066	206.69
250.299	196.69
250.532	206.69
250.765	216.69
250.998	255.69
251.231	256.69
251.465	221.69
251.698	239.69
251.931	221.69
252.164	212.69
252.397	208.69
252.63	230.69
252.863	229.69
253.096	255.69
253.329	260.69
253.562	243.69
253.795	244.69
254.028	230.69
254.261	246.69
254.494	275.69
254.727	290.69
254.96	321.69
255.193	315.69
255.426	294.69
255.659	254.69
255.892	256.69
256.124	258.69
256.357	265.69
256.59	240.69
256.823	239.69
257.056	250.69
257.289	237.69
257.521	225.69
257.754	221.69
257.987	228.69
258.22	222.69
258.452	232.69
258.685	241.69
258.918	224.69
259.151	231.69
259.383	246.69
259.616	239.69
259.849	248.69
260.081	264.69
260.314	281.69
260.547	303.69
260.779	289.69
261.012	267.69
261.244	245.69
261.477	257.69
261.71	224.69
261.942	249.69
262.175	251.69
262.407	253.69
262.64	236.69
262.872	244.69
263.105	235.69
263.337	246.69
263.57	254.69
263.802	239.69
264.035	227.69
264.267	216.69
264.499	217.69
264.732	230.69
264.964	227.69
265.197	237.69
265.429	217.69
265.661	244.69
265.894	242.69
266.126	244.69
266.358	232.69
266.591	234.69
266.823	242.69
267.055	222.69
267.287	216.69
267.52	237.69
267.752	234.69
267.984	232.69
268.216	242.69
268.448	236.69
268.681	264.69
268.913	271.69
269.145	275.69
269.377	303.69
269.609	289.69
269.841	289.69
270.073	295.69
270.306	329.69
270.538	330.69
270.77	359.69
271.002	336.69
271.234	313.69
271.466	336.69
271.698	352.69
271.93	345.69
272.162	348.69
272.394	347.69
272.626	335.69
272.858	300.69
273.09	295.69
273.322	292.69
273.553	288.69
273.785	296.69
274.017	281.69
274.249	279.69
274.481	292.69
274.713	286.69
274.945	308.69
275.176	273.69
275.408	272.69
275.64	284.69
275.872	282.69
276.104	297.69
276.335	294.69
276.567	281.69
276.799	294.69
277.031	314.69
277.262	335.69
277.494	332.69
277.726	294.69
277.957	311.69
278.189	290.69
278.421	295.69
278.652	278.69
278.884	278.69
279.115	291.69
279.347	288.69
279.579	286.69
279.81	270.69
280.042	280.69
280.273	273.69
280.505	275.69
280.736	278.69
280.968	286.69
281.199	283.69
281.431	262.69
281.662	273.69
281.894	276.69
282.125	296.69
282.356	300.69
282.588	331.69
282.819	321.69
283.051	282.69
283.282	264.69
283.513	278.69
283.745	269.69
283.976	300.69
284.207	287.69
284.439	288.69
284.67	293.69
284.901	285.69
285.132	267.69
285.364	290.69
285.595	271.69
285.826	269.69
286.057	280.69
286.288	275.69
286.52	276.69
286.751	298.69
286.982	277.69
287.213	282.69
287.444	300.69
287.675	275.69
287.906	301.69
288.138	294.69
288.369	306.69
288.6	326.69
288.831	286.69
289.062	295.69
289.293	287.69
289.524	292.69
289.755	288.69
289.986	302.69
290.217	286.69
290.448	290.69
290.679	303.69
290.91	301.69
291.141	304.69
291.371	272.69
291.602	277.69
291.833	278.69
292.064	290.69
292.295	292.69
292.526	299.69
292.757	295.69
292.987	286.69
293.218	297.69
293.449	276.69
293.68	297.69
293.91	290.69
294.141	271.69
294.372	290.69
294.603	282.69
294.833	301.69
295.064	287.69
295.295	293.69
295.525	304.69
295.756	318.69
295.987	314.69
296.217	327.69
296.448	344.69
296.679	324.69
296.909	314.69
297.14	294.69
297.37	293.69
297.601	301.69
297.831	290.69
298.062	302.69
298.292	311.69
298.523	280.69
298.753	308.69
298.984	306.69
299.214	296.69
299.445	301.69
299.675	295.69
299.905	315.69
300.136	322.69
300.366	299.69
300.597	306.69
300.827	323.69
301.057	322.69
301.288	325.69
301.518	320.69
301.748	312.69
301.979	318.69
302.209	331.69
302.439	324.69
302.669	314.69
302.9	326.69
303.13	313.69
303.36	311.69
303.59	346.69
303.82	339.69
304.051	344.69
304.281	312.69
304.511	310.69
304.741	322.69
304.971	337.69
305.201	334.69
305.431	331.69
305.661	319.69
305.891	319.69
306.121	310.69
306.352	336.69
306.582	333.69
306.812	349.69
307.042	356.69
307.272	325.69
307.502	330.69
307.731	325.69
307.961	338.69
308.191	336.69
308.421	326.69
308.651	333.69
308.881	349.69
309.111	344.69
309.341	342.69
309.571	352.69
309.8	368.69
310.03	362.69
310.26	381.69
310.49	392.69
310.72	397.69
310.949	391.69
311.179	440.69
311.409	387.69
311.639	405.69
311.868	402.69
312.098	382.69
312.328	380.69
312.557	417.69
312.787	429.69
313.017	446.69
313.246	413.69
313.476	388.69
313.706	390.69
313.935	420.69
314.165	397.69
314.394	418.69
314.624	412.69
314.853	412.69
315.083	413.69
315.312	388.69
315.542	396.69
315.771	368.69
316.001	386.69
316.23	390.69
316.46	391.69
316.689	388.69
316.919	405.69
317.148	380.69
317.377	395.69
317.607	421.69
317.836	400.69
318.065	401.69
318.295	373.69
318.524	365.69
318.753	392.69
318.983	393.69
319.212	378.69
319.441	394.69
319.67	390.69
319.9	394.69
320.129	386.69
320.358	408.69
320.587	421.69
320.816	420.69
321.046	432.69
321.275	443.69
321.504	428.69
321.733	410.69
321.962	446.69
322.191	436.69
322.42	471.69
322.649	472.69
322.878	500.69
323.108	522.69
323.337	535.69
323.566	579.69
323.795	587.69
324.024	620.69
324.253	803.69
324.482	1144.69
324.71	1812.69
324.939	2558.69
325.168	2206.69
325.397	1186.69
325.626	814.69
325.855	634.69
326.084	569.69
326.313	564.69
326.542	570.69
326.77	628.69
326.999	770.69
327.228	1017.69
327.457	1589.69
327.686	1946.69
327.914	1355.69
328.143	887.69
328.372	733.69
328.6	687.69
328.829	674.69
329.058	656.69
329.287	674.69
329.515	621.69
329.744	566.69
329.972	571.69
330.201	606.69
330.43	660.69
330.658	690.69
330.887	719.69
331.115	730.69
331.344	578.69
331.572	528.69
331.801	567.69
332.03	552.69
332.258	521.69
332.486	468.69
332.715	462.69
332.943	461.69
333.172	480.69
333.4	486.69
333.629	461.69
333.857	490.69
334.085	498.69
334.314	532.69
334.542	578.69
334.771	597.69
334.999	538.69
335.227	498.69
335.455	485.69
335.684	486.69
335.912	450.69
336.14	464.69
336.369	451.69
336.597	468.69
336.825	468.69
337.053	470.69
337.281	453.69
337.51	444.69
337.738	453.69
337.966	449.69
338.194	472.69
338.422	470.69
338.65	468.69
338.878	456.69
339.106	437.69
339.334	451.69
339.562	444.69
339.79	443.69
340.018	446.69
340.246	459.69
340.474	455.69
340.702	463.69
340.93	452.69
341.158	440.69
341.386	471.69
341.614	461.69
341.842	451.69
342.07	446.69
342.298	420.69
342.526	436.69
342.754	431.69
342.981	411.69
343.209	435.69
343.437	434.69
343.665	430.69
343.893	450.69
344.12	450.69
344.348	437.69
344.576	442.69
344.804	465.69
345.031	452.69
345.259	489.69
345.487	455.69
345.714	455.69
345.942	432.69
346.17	439.69
346.397	417.69
346.625	449.69
346.853	444.69
347.08	432.69
347.308	450.69
347.535	466.69
347.763	437.69
347.99	466.69
348.218	462.69
348.445	459.69
348.673	460.69
348.9	451.69
349.128	426.69
349.355	425.69
349.583	416.69
349.81	423.69
350.037	438.69
350.265	426.69
350.492	404.69
350.72	422.69
350.947	432.69
351.174	429.69
351.402	461.69
351.629	428.69
351.856	461.69
352.083	469.69
352.311	494.69
352.538	458.69
352.765	476.69
352.992	475.69
353.22	444.69
353.447	431.69
353.674	421.69
353.901	418.69
354.128	424.69
354.355	423.69
354.583	421.69
354.81	426.69
355.037	429.69
355.264	398.69
355.491	389.69
355.718	391.69
355.945	409.69
356.172	405.69
356.399	406.69
356.626	415.69
356.853	404.69
357.08	424.69
357.307	403.69
357.534	408.69
357.761	399.69
357.988	409.69
358.215	406.69
358.441	416.69
358.668	419.69
358.895	403.69
359.122	410.69
359.349	433.69
359.576	443.69
359.802	510.69
360.029	525.69
360.256	542.69
360.483	494.69
360.709	468.69
360.936	443.69
361.163	470.69
361.39	445.69
361.616	477.69
361.843	450.69
362.07	442.69
362.296	456.69
362.523	456.69
362.749	446.69
362.976	423.69
363.203	438.69
363.429	429.69
363.656	432.69
363.882	453.69
364.109	435.69
364.335	439.69
364.562	426.69
364.788	429.69
365.015	422.69
365.241	415.69
365.468	424.69
365.694	453.69
365.92	418.69
366.147	426.69
366.373	431.69
366.599	472.69
366.826	426.69
367.052	408.69
367.278	428.69
367.505	427.69
367.731	438.69
367.957	428.69
368.184	417.69
368.41	426.69
368.636	443.69
368.862	463.69
369.089	440.69
369.315	429.69
369.541	409.69
369.767	430.69
369.993	421.69
370.219	442.69
370.445	411.69
370.672	416.69
370.898	394.69
371.124	413.69
371.35	425.69
371.576	420.69
371.802	405.69
372.028	434.69
372.254	412.69
372.48	414.69
372.706	427.69
372.932	425.69
373.158	406.69
373.384	418.69
373.61	417.69
373.835	415.69
374.061	396.69
374.287	426.69
374.513	431.69
374.739	442.69
374.965	400.69
375.191	441.69
375.416	424.69
375.642	430.69
375.868	412.69
376.094	428.69
376.319	442.69
376.545	424.69
376.771	433.69
376.997	431.69
377.222	418.69
377.448	422.69
377.674	419.69
377.899	420.69
378.125	399.69
378.35	413.69
378.576	405.69
378.802	425.69
379.027	413.69
379.253	418.69
379.478	419.69
379.704	424.69
379.929	419.69
380.155	399.69
380.38	453.69
380.606	438.69
380.831	427.69
381.057	438.69
381.282	438.69
381.507	420.69
381.733	453.69
381.958	430.69
382.184	425.69
382.409	457.69
382.634	449.69
382.86	425.69
383.085	442.69
383.31	430.69
383.535	440.69
383.761	445.69
383.986	449.69
384.211	439.69
384.436	458.69
384.662	449.69
384.887	432.69
385.112	416.69
385.337	455.69
385.562	463.69
385.787	460.69
386.013	460.69
386.238	462.69
386.463	468.69
386.688	439.69
386.913	443.69
387.138	437.69
387.363	446.69
387.588	443.69
387.813	437.69
388.038	455.69
388.263	458.69
388.488	463.69
388.713	454.69
388.938	455.69
389.163	454.69
389.387	450.69
389.612	455.69
389.837	458.69
390.062	455.69
390.287	474.69
390.512	448.69
390.736	461.69
390.961	465.69
391.186	458.69
391.411	463.69
391.636	454.69
391.86	439.69
392.085	462.69
392.31	467.69
392.534	463.69
392.759	458.69
392.984	461.69
393.208	464.69
393.433	459.69
393.658	474.69
393.882	438.69
394.107	450.69
394.331	475.69
394.556	452.69
394.78	464.69
395.005	457.69
395.229	470.69
395.454	481.69
395.678	473.69
395.903	473.69
396.127	502.69
396.352	488.69
396.576	481.69
396.801	475.69
397.025	467.69
397.249	480.69
397.474	491.69
397.698	498.69
397.922	512.69
398.147	499.69
398.371	513.69
398.595	535.69
398.82	516.69
399.044	511.69
399.268	548.69
399.492	552.69
399.717	560.69
399.941	613.69
400.165	614.69
400.389	646.69
400.613	621.69
400.837	566.69
401.062	559.69
401.286	536.69
401.51	529.69
401.734	525.69
401.958	547.69
402.182	524.69
402.406	544.69
402.63	531.69
402.854	524.69
403.078	551.69
403.302	530.69
403.526	560.69
403.75	556.69
403.974	558.69
404.198	546.69
404.422	556.69
404.645	553.69
404.869	548.69
405.093	598.69
405.317	632.69
405.541	654.69
405.765	623.69
405.988	577.69
406.212	600.69
406.436	626.69
406.66	623.69
406.883	613.69
407.107	633.69
407.331	669.69
407.555	732.69
407.778	712.69
408.002	655.69
408.226	619.69
408.449	610.69
408.673	628.69
408.896	640.69
409.12	691.69
409.344	678.69
409.567	580.69
409.791	578.69
410.014	532.69
410.238	548.69
410.461	554.69
410.685	565.69
410.908	574.69
411.132	639.69
411.355	645.69
411.578	635.69
411.802	586.69
412.025	575.69
412.249	554.69
412.472	574.69
412.695	644.69
412.919	630.69
413.142	597.69
413.365	564.69
413.589	548.69
413.812	547.69
414.035	540.69
414.258	520.69
414.482	519.69
414.705	513.69
414.928	538.69
415.151	525.69
415.374	532.69
415.597	517.69
415.821	528.69
416.044	541.69
416.267	522.69
416.49	528.69
416.713	517.69
416.936	524.69
417.159	541.69
417.382	559.69
417.605	540.69
417.828	562.69
418.051	563.69
418.274	563.69
418.497	548.69
418.72	533.69
418.943	524.69
419.166	564.69
419.389	574.69
419.611	563.69
419.834	578.69
420.057	557.69
420.28	578.69
420.503	564.69
420.726	568.69
420.948	576.69
421.171	615.69
421.394	646.69
421.617	584.69
421.839	551.69
422.062	559.69
422.285	577.69
422.507	632.69
422.73	706.69
422.953	698.69
423.175	640.69
423.398	603.69
423.621	579.69
423.843	603.69
424.066	636.69
424.288	619.69
424.511	621.69
424.733	680.69
424.956	770.69
425.178	749.69
425.401	749.69
425.623	796.69
425.846	651.69
426.068	629.69
426.291	620.69
426.513	632.69
426.735	628.69
426.958	675.69
427.18	772.69
427.402	891.69
427.625	1006.69
427.847	895.69
428.069	793.69
428.292	721.69
428.514	644.69
428.736	626.69
428.958	611.69
429.181	581.69
429.403	583.69
429.625	596.69
429.847	621.69
430.069	687.69
430.292	703.69
430.514	608.69
430.736	575.69
430.958	548.69
431.18	552.69
431.402	534.69
431.624	536.69
431.846	540.69
432.068	525.69
432.29	566.69
432.512	527.69
432.734	560.69
432.956	548.69
433.178	582.69
433.4	544.69
433.622	542.69
433.844	521.69
434.066	530.69
434.287	543.69
434.509	566.69
434.731	550.69
434.953	558.69
435.175	572.69
435.397	644.69
435.618	646.69
435.84	692.69
436.062	755.69
436.284	845.69
436.505	738.69
436.727	662.69
436.949	616.69
437.17	575.69
437.392	600.69
437.614	599.69
437.835	640.69
438.057	748.69
438.278	843.69
438.5	883.69
438.721	902.69
438.943	910.69
439.165	750.69
439.386	688.69
439.608	658.69
439.829	647.69
440.05	687.69
440.272	733.69
440.493	692.69
440.715	643.69
440.936	607.69
441.158	586.69
441.379	580.69
441.6	616.69
441.822	637.69
442.043	678.69
442.264	775.69
442.486	782.69
442.707	680.69
442.928	653.69
443.149	660.69
443.371	678.69
443.592	714.69
443.813	831.69
444.034	853.69
444.255	749.69
444.476	674.69
444.698	630.69
444.919	618.69
445.14	728.69
445.361	688.69
445.582	690.69
445.803	748.69
446.024	878.69
446.245	869.69
446.466	801.69
446.687	692.69
446.908	647.69
447.129	612.69
447.35	578.69
447.571	583.69
447.792	611.69
448.013	590.69
448.234	600.69
448.455	697.69
448.675	801.69
448.896	891.69
449.117	810.69
449.338	738.69
449.559	854.69
449.779	934.69
450	787.69
450.221	668.69
450.442	596.69
450.662	602.69
450.883	592.69
451.104	623.69
451.324	619.69
451.545	583.69
451.766	554.69
451.986	525.69
452.207	520.69
452.428	517.69
452.648	502.69
452.869	519.69
453.089	530.69
453.31	556.69
453.53	536.69
453.751	518.69
453.971	522.69
454.192	558.69
454.412	552.69
454.633	517.69
454.853	507.69
455.073	528.69
455.294	556.69
455.514	632.69
455.734	617.69
455.955	524.69
456.175	514.69
456.395	475.69
456.616	464.69
456.836	455.69
457.056	494.69
457.276	481.69
457.497	482.69
457.717	494.69
457.937	481.69
458.157	487.69
458.377	499.69
458.598	552.69
458.818	602.69
459.038	719.69
459.258	710.69
459.478	615.69
459.698	572.69
459.918	550.69
460.138	537.69
460.358	550.69
460.578	538.69
460.798	526.69
461.018	551.69
461.238	525.69
461.458	533.69
461.678	521.69
461.898	536.69
462.118	515.69
462.338	530.69
462.558	548.69
462.777	550.69
462.997	563.69
463.217	543.69
463.437	545.69
463.657	552.69
463.876	555.69
464.096	574.69
464.316	578.69
464.536	570.69
464.755	592.69
464.975	596.69
465.195	647.69
465.414	763.69
465.634	663.69
465.854	621.69
466.073	575.69
466.293	545.69
466.512	544.69
466.732	539.69
466.951	533.69
467.171	519.69
467.391	544.69
467.61	536.69
467.829	564.69
468.049	560.69
468.268	546.69
468.488	541.69
468.707	512.69
468.927	536.69
469.146	513.69
469.365	526.69
469.585	523.69
469.804	512.69
470.023	543.69
470.243	559.69
470.462	552.69
470.681	570.69
470.901	576.69
471.12	550.69
471.339	526.69
471.558	551.69
471.777	550.69
471.997	545.69
472.216	563.69
472.435	595.69
472.654	583.69
472.873	537.69
473.092	566.69
473.311	542.69
473.53	557.69
473.749	543.69
473.968	609.69
474.187	722.69
474.406	731.69
474.625	624.69
474.844	591.69
475.063	538.69
475.282	545.69
475.501	545.69
475.72	559.69
475.939	575.69
476.158	565.69
476.377	558.69
476.596	556.69
476.814	564.69
477.033	571.69
477.252	581.69
477.471	588.69
477.69	589.69
477.908	572.69
478.127	580.69
478.346	582.69
478.564	595.69
478.783	582.69
479.002	618.69
479.22	600.69
479.439	655.69
479.658	656.69
479.876	668.69
480.095	655.69
480.313	707.69
480.532	687.69
480.751	638.69
480.969	677.69
481.188	760.69
481.406	830.69
481.624	729.69
481.843	674.69
482.061	672.69
482.28	660.69
482.498	662.69
482.717	652.69
482.935	638.69
483.153	649.69
483.372	652.69
483.59	641.69
483.808	630.69
484.027	632.69
484.245	652.69
484.463	648.69
484.681	655.69
484.9	668.69
485.118	691.69
485.336	647.69
485.554	678.69
485.772	675.69
485.99	638.69
486.209	676.69
486.427	675.69
486.645	681.69
486.863	712.69
487.081	702.69
487.299	707.69
487.517	691.69
487.735	708.69
487.953	707.69
488.171	710.69
488.389	712.69
488.607	706.69
488.825	711.69
489.043	706.69
489.261	722.69
489.479	718.69
489.696	724.69
489.914	727.69
490.132	726.69
490.35	754.69
490.568	754.69
490.786	738.69
491.003	763.69
491.221	780.69
491.439	815.69
491.657	820.69
491.874	829.69
492.092	819.69
492.31	826.69
492.527	848.69
492.745	820.69
492.963	850.69
493.18	859.69
493.398	862.69
493.615	866.69
493.833	861.69
494.05	854.69
494.268	848.69
494.485	886.69
494.703	868.69
494.92	853.69
495.138	866.69
495.355	846.69
495.573	859.69
495.79	870.69
496.008	858.69
496.225	848.69
496.442	857.69
496.66	847.69
496.877	858.69
497.094	854.69
497.312	864.69
497.529	869.69
497.746	882.69
497.963	877.69
498.181	928.69
498.398	896.69
498.615	932.69
498.832	920.69
499.049	919.69
499.267	956.69
499.484	921.69
499.701	963.69
499.918	1002.69
500.135	1022.69
500.352	1030.69
500.569	1006.69
500.786	1058.69
501.003	1037.69
501.22	1038.69
501.437	1011.69
501.654	1006.69
