Data from 1970.PennyLincolnUp.Lamp.En5.5.200Scan.071719.P1._HRD10591_15-15-54-843.txt Node
Date: Thu Jul 18 15:15:54 EDT 2019
User: cochatt
Spectrometer: HR+D1059
Trigger mode: 1
Integration Time (sec): 1.000000E-1
Scans to average: 1
Electric dark correction enabled: true
Nonlinearity correction enabled: false
Boxcar width: 0
XAxis mode: Wavelengths
Number of Pixels in Spectrum: 2048
>>>>>Begin Spectral Data<<<<<
223.165	-10.44
223.4	-10.44
223.635	-10.44
223.869	-16.44
224.104	-22.44
224.338	-13.44
224.573	-15.44
224.808	-16.44
225.042	-3.44
225.277	-3.44
225.511	-0.44
225.746	11.56
225.98	2.56
226.215	14.56
226.449	11.56
226.683	6.56
226.918	24.56
227.152	30.56
227.387	49.56
227.621	40.56
227.856	43.56
228.09	51.56
228.324	52.56
228.559	55.56
228.793	76.56
229.027	98.56
229.262	113.56
229.496	146.56
229.73	143.56
229.964	181.56
230.199	163.56
230.433	117.56
230.667	139.56
230.901	131.56
231.136	115.56
231.37	123.56
231.604	130.56
231.838	129.56
232.072	115.56
232.306	128.56
232.541	120.56
232.775	120.56
233.009	112.56
233.243	117.56
233.477	122.56
233.711	125.56
233.945	126.56
234.179	114.56
234.413	124.56
234.647	136.56
234.881	123.56
235.115	122.56
235.349	113.56
235.583	124.56
235.817	135.56
236.051	143.56
236.285	139.56
236.519	140.56
236.753	147.56
236.987	170.56
237.221	196.56
237.455	265.56
237.689	209.56
237.922	145.56
238.156	141.56
238.39	155.56
238.624	159.56
238.858	145.56
239.091	135.56
239.325	141.56
239.559	146.56
239.793	141.56
240.027	144.56
240.26	152.56
240.494	187.56
240.728	175.56
240.961	181.56
241.195	157.56
241.429	159.56
241.662	150.56
241.896	141.56
242.13	143.56
242.363	129.56
242.597	145.56
242.83	165.56
243.064	173.56
243.298	140.56
243.531	153.56
243.765	152.56
243.998	154.56
244.232	164.56
244.465	162.56
244.699	142.56
244.932	155.56
245.166	156.56
245.399	166.56
245.633	157.56
245.866	154.56
246.099	172.56
246.333	185.56
246.566	167.56
246.8	154.56
247.033	149.56
247.266	163.56
247.5	175.56
247.733	186.56
247.966	199.56
248.2	203.56
248.433	183.56
248.666	187.56
248.899	206.56
249.133	226.56
249.366	224.56
249.599	227.56
249.832	207.56
250.066	197.56
250.299	196.56
250.532	240.56
250.765	239.56
250.998	258.56
251.231	258.56
251.465	240.56
251.698	247.56
251.931	224.56
252.164	221.56
252.397	238.56
252.63	224.56
252.863	219.56
253.096	250.56
253.329	263.56
253.562	260.56
253.795	223.56
254.028	250.56
254.261	258.56
254.494	264.56
254.727	295.56
254.96	314.56
255.193	315.56
255.426	293.56
255.659	282.56
255.892	249.56
256.124	277.56
256.357	260.56
256.59	261.56
256.823	236.56
257.056	233.56
257.289	252.56
257.521	233.56
257.754	230.56
257.987	230.56
258.22	221.56
258.452	233.56
258.685	237.56
258.918	234.56
259.151	222.56
259.383	249.56
259.616	244.56
259.849	238.56
260.081	259.56
260.314	293.56
260.547	287.56
260.779	264.56
261.012	280.56
261.244	266.56
261.477	263.56
261.71	260.56
261.942	244.56
262.175	264.56
262.407	238.56
262.64	258.56
262.872	243.56
263.105	231.56
263.337	220.56
263.57	232.56
263.802	234.56
264.035	219.56
264.267	216.56
264.499	245.56
264.732	228.56
264.964	217.56
265.197	213.56
265.429	231.56
265.661	220.56
265.894	227.56
266.126	222.56
266.358	211.56
266.591	222.56
266.823	235.56
267.055	236.56
267.287	242.56
267.52	247.56
267.752	245.56
267.984	235.56
268.216	247.56
268.448	259.56
268.681	265.56
268.913	272.56
269.145	287.56
269.377	298.56
269.609	287.56
269.841	277.56
270.073	296.56
270.306	309.56
270.538	339.56
270.77	352.56
271.002	342.56
271.234	316.56
271.466	312.56
271.698	355.56
271.93	355.56
272.162	346.56
272.394	351.56
272.626	329.56
272.858	330.56
273.09	296.56
273.322	294.56
273.553	292.56
273.785	265.56
274.017	271.56
274.249	268.56
274.481	266.56
274.713	278.56
274.945	287.56
275.176	293.56
275.408	278.56
275.64	283.56
275.872	284.56
276.104	266.56
276.335	278.56
276.567	279.56
276.799	299.56
277.031	315.56
277.262	348.56
277.494	345.56
277.726	314.56
277.957	294.56
278.189	295.56
278.421	287.56
278.652	280.56
278.884	302.56
279.115	274.56
279.347	282.56
279.579	269.56
279.81	265.56
280.042	257.56
280.273	271.56
280.505	263.56
280.736	279.56
280.968	279.56
281.199	279.56
281.431	263.56
281.662	278.56
281.894	276.56
282.125	299.56
282.356	300.56
282.588	320.56
282.819	337.56
283.051	301.56
283.282	250.56
283.513	285.56
283.745	280.56
283.976	285.56
284.207	291.56
284.439	284.56
284.67	283.56
284.901	287.56
285.132	287.56
285.364	276.56
285.595	299.56
285.826	268.56
286.057	277.56
286.288	283.56
286.52	274.56
286.751	288.56
286.982	283.56
287.213	307.56
287.444	299.56
287.675	290.56
287.906	302.56
288.138	303.56
288.369	307.56
288.6	319.56
288.831	302.56
289.062	292.56
289.293	316.56
289.524	328.56
289.755	291.56
289.986	286.56
290.217	306.56
290.448	280.56
290.679	271.56
290.91	291.56
291.141	304.56
291.371	299.56
291.602	292.56
291.833	268.56
292.064	287.56
292.295	295.56
292.526	292.56
292.757	295.56
292.987	283.56
293.218	285.56
293.449	296.56
293.68	280.56
293.91	280.56
294.141	304.56
294.372	288.56
294.603	310.56
294.833	304.56
295.064	269.56
295.295	291.56
295.525	307.56
295.756	308.56
295.987	316.56
296.217	350.56
296.448	360.56
296.679	307.56
296.909	300.56
297.14	300.56
297.37	291.56
297.601	330.56
297.831	286.56
298.062	311.56
298.292	294.56
298.523	305.56
298.753	314.56
298.984	317.56
299.214	289.56
299.445	303.56
299.675	306.56
299.905	318.56
300.136	313.56
300.366	310.56
300.597	304.56
300.827	323.56
301.057	327.56
301.288	322.56
301.518	336.56
301.748	333.56
301.979	325.56
302.209	325.56
302.439	341.56
302.669	309.56
302.9	334.56
303.13	319.56
303.36	329.56
303.59	336.56
303.82	342.56
304.051	334.56
304.281	339.56
304.511	330.56
304.741	329.56
304.971	327.56
305.201	334.56
305.431	337.56
305.661	324.56
305.891	326.56
306.121	342.56
306.352	352.56
306.582	357.56
306.812	346.56
307.042	361.56
307.272	322.56
307.502	343.56
307.731	336.56
307.961	327.56
308.191	356.56
308.421	324.56
308.651	360.56
308.881	340.56
309.111	343.56
309.341	339.56
309.571	361.56
309.8	390.56
310.03	405.56
310.26	400.56
310.49	400.56
310.72	397.56
310.949	428.56
311.179	423.56
311.409	403.56
311.639	389.56
311.868	412.56
312.098	400.56
312.328	405.56
312.557	438.56
312.787	451.56
313.017	453.56
313.246	407.56
313.476	405.56
313.706	393.56
313.935	407.56
314.165	414.56
314.394	443.56
314.624	422.56
314.853	420.56
315.083	406.56
315.312	398.56
315.542	391.56
315.771	379.56
316.001	409.56
316.23	361.56
316.46	396.56
316.689	409.56
316.919	405.56
317.148	405.56
317.377	414.56
317.607	413.56
317.836	419.56
318.065	407.56
318.295	386.56
318.524	397.56
318.753	385.56
318.983	387.56
319.212	403.56
319.441	395.56
319.67	428.56
319.9	401.56
320.129	404.56
320.358	393.56
320.587	404.56
320.816	392.56
321.046	427.56
321.275	448.56
321.504	419.56
321.733	419.56
321.962	429.56
322.191	438.56
322.42	466.56
322.649	489.56
322.878	509.56
323.108	503.56
323.337	532.56
323.566	574.56
323.795	615.56
324.024	672.56
324.253	828.56
324.482	1175.56
324.71	1871.56
324.939	2619.56
325.168	2243.56
325.397	1173.56
325.626	804.56
325.855	675.56
326.084	599.56
326.313	584.56
326.542	599.56
326.77	632.56
326.999	763.56
327.228	1061.56
327.457	1624.56
327.686	1971.56
327.914	1353.56
328.143	897.56
328.372	759.56
328.6	693.56
328.829	659.56
329.058	688.56
329.287	691.56
329.515	618.56
329.744	582.56
329.972	589.56
330.201	614.56
330.43	656.56
330.658	665.56
330.887	698.56
331.115	685.56
331.344	608.56
331.572	556.56
331.801	549.56
332.03	535.56
332.258	527.56
332.486	496.56
332.715	474.56
332.943	509.56
333.172	461.56
333.4	484.56
333.629	503.56
333.857	508.56
334.085	519.56
334.314	551.56
334.542	594.56
334.771	620.56
334.999	578.56
335.227	512.56
335.455	495.56
335.684	496.56
335.912	479.56
336.14	475.56
336.369	457.56
336.597	480.56
336.825	464.56
337.053	470.56
337.281	442.56
337.51	473.56
337.738	463.56
337.966	474.56
338.194	478.56
338.422	481.56
338.65	455.56
338.878	455.56
339.106	451.56
339.334	453.56
339.562	446.56
339.79	467.56
340.018	444.56
340.246	456.56
340.474	453.56
340.702	428.56
340.93	451.56
341.158	434.56
341.386	446.56
341.614	458.56
341.842	460.56
342.07	441.56
342.298	433.56
342.526	435.56
342.754	448.56
342.981	412.56
343.209	425.56
343.437	441.56
343.665	442.56
343.893	429.56
344.12	449.56
344.348	449.56
344.576	476.56
344.804	464.56
345.031	465.56
345.259	506.56
345.487	481.56
345.714	459.56
345.942	439.56
346.17	429.56
346.397	440.56
346.625	446.56
346.853	437.56
347.08	435.56
347.308	428.56
347.535	461.56
347.763	471.56
347.99	453.56
348.218	462.56
348.445	475.56
348.673	473.56
348.9	457.56
349.128	452.56
349.355	437.56
349.583	446.56
349.81	443.56
350.037	438.56
350.265	430.56
350.492	443.56
350.72	445.56
350.947	466.56
351.174	463.56
351.402	460.56
351.629	443.56
351.856	468.56
352.083	477.56
352.311	481.56
352.538	472.56
352.765	496.56
352.992	469.56
353.22	452.56
353.447	441.56
353.674	428.56
353.901	434.56
354.128	423.56
354.355	409.56
354.583	395.56
354.81	416.56
355.037	428.56
355.264	417.56
355.491	414.56
355.718	400.56
355.945	405.56
356.172	413.56
356.399	412.56
356.626	425.56
356.853	409.56
357.08	389.56
357.307	398.56
357.534	416.56
357.761	401.56
357.988	426.56
358.215	420.56
358.441	420.56
358.668	407.56
358.895	409.56
359.122	438.56
359.349	445.56
359.576	463.56
359.802	496.56
360.029	523.56
360.256	530.56
360.483	530.56
360.709	459.56
360.936	439.56
361.163	456.56
361.39	456.56
361.616	455.56
361.843	455.56
362.07	470.56
362.296	447.56
362.523	456.56
362.749	456.56
362.976	439.56
363.203	457.56
363.429	437.56
363.656	419.56
363.882	431.56
364.109	439.56
364.335	455.56
364.562	441.56
364.788	425.56
365.015	461.56
365.241	430.56
365.468	426.56
365.694	429.56
365.92	444.56
366.147	436.56
366.373	439.56
366.599	418.56
366.826	408.56
367.052	410.56
367.278	430.56
367.505	444.56
367.731	425.56
367.957	421.56
368.184	442.56
368.41	456.56
368.636	434.56
368.862	485.56
369.089	448.56
369.315	435.56
369.541	435.56
369.767	442.56
369.993	438.56
370.219	438.56
370.445	417.56
370.672	423.56
370.898	424.56
371.124	437.56
371.35	439.56
371.576	415.56
371.802	430.56
372.028	412.56
372.254	403.56
372.48	429.56
372.706	432.56
372.932	431.56
373.158	437.56
373.384	425.56
373.61	427.56
373.835	441.56
374.061	443.56
374.287	441.56
374.513	436.56
374.739	427.56
374.965	437.56
375.191	446.56
375.416	438.56
375.642	444.56
375.868	429.56
376.094	439.56
376.319	422.56
376.545	432.56
376.771	448.56
376.997	426.56
377.222	434.56
377.448	420.56
377.674	412.56
377.899	427.56
378.125	415.56
378.35	417.56
378.576	422.56
378.802	437.56
379.027	428.56
379.253	423.56
379.478	423.56
379.704	412.56
379.929	429.56
380.155	431.56
380.38	426.56
380.606	441.56
380.831	427.56
381.057	436.56
381.282	436.56
381.507	417.56
381.733	459.56
381.958	426.56
382.184	437.56
382.409	447.56
382.634	441.56
382.86	443.56
383.085	453.56
383.31	425.56
383.535	432.56
383.761	424.56
383.986	415.56
384.211	444.56
384.436	442.56
384.662	464.56
384.887	451.56
385.112	448.56
385.337	432.56
385.562	436.56
385.787	465.56
386.013	486.56
386.238	483.56
386.463	477.56
386.688	453.56
386.913	450.56
387.138	453.56
387.363	437.56
387.588	436.56
387.813	467.56
388.038	436.56
388.263	472.56
388.488	472.56
388.713	454.56
388.938	447.56
389.163	432.56
389.387	461.56
389.612	454.56
389.837	465.56
390.062	459.56
390.287	466.56
390.512	474.56
390.736	455.56
390.961	445.56
391.186	475.56
391.411	460.56
391.636	471.56
391.86	451.56
392.085	473.56
392.31	452.56
392.534	443.56
392.759	466.56
392.984	460.56
393.208	461.56
393.433	461.56
393.658	473.56
393.882	454.56
394.107	455.56
394.331	471.56
394.556	435.56
394.78	453.56
395.005	463.56
395.229	455.56
395.454	468.56
395.678	478.56
395.903	486.56
396.127	519.56
396.352	526.56
396.576	512.56
396.801	500.56
397.025	468.56
397.249	475.56
397.474	494.56
397.698	503.56
397.922	511.56
398.147	527.56
398.371	526.56
398.595	516.56
398.82	510.56
399.044	501.56
399.268	541.56
399.492	534.56
399.717	573.56
399.941	597.56
400.165	647.56
400.389	651.56
400.613	604.56
400.837	537.56
401.062	551.56
401.286	525.56
401.51	527.56
401.734	526.56
401.958	544.56
402.182	531.56
402.406	577.56
402.63	568.56
402.854	544.56
403.078	544.56
403.302	526.56
403.526	555.56
403.75	550.56
403.974	554.56
404.198	563.56
404.422	557.56
404.645	568.56
404.869	560.56
405.093	613.56
405.317	643.56
405.541	661.56
405.765	637.56
405.988	632.56
406.212	615.56
406.436	622.56
406.66	638.56
406.883	617.56
407.107	639.56
407.331	663.56
407.555	725.56
407.778	746.56
408.002	656.56
408.226	645.56
408.449	620.56
408.673	618.56
408.896	629.56
409.12	702.56
409.344	658.56
409.567	595.56
409.791	565.56
410.014	566.56
410.238	584.56
410.461	534.56
410.685	559.56
410.908	584.56
411.132	604.56
411.355	658.56
411.578	644.56
411.802	573.56
412.025	559.56
412.249	584.56
412.472	633.56
412.695	667.56
412.919	664.56
413.142	595.56
413.365	563.56
413.589	544.56
413.812	561.56
414.035	551.56
414.258	521.56
414.482	539.56
414.705	517.56
414.928	521.56
415.151	508.56
415.374	534.56
415.597	520.56
415.821	529.56
416.044	538.56
416.267	529.56
416.49	517.56
416.713	522.56
416.936	528.56
417.159	524.56
417.382	543.56
417.605	563.56
417.828	569.56
418.051	552.56
418.274	560.56
418.497	549.56
418.72	524.56
418.943	537.56
419.166	560.56
419.389	561.56
419.611	566.56
419.834	570.56
420.057	556.56
420.28	563.56
420.503	572.56
420.726	571.56
420.948	584.56
421.171	631.56
421.394	663.56
421.617	585.56
421.839	575.56
422.062	585.56
422.285	584.56
422.507	661.56
422.73	711.56
422.953	703.56
423.175	615.56
423.398	613.56
423.621	570.56
423.843	600.56
424.066	611.56
424.288	615.56
424.511	652.56
424.733	699.56
424.956	815.56
425.178	769.56
425.401	760.56
425.623	804.56
425.846	683.56
426.068	639.56
426.291	625.56
426.513	614.56
426.735	635.56
426.958	673.56
427.18	787.56
427.402	904.56
427.625	1021.56
427.847	921.56
428.069	820.56
428.292	705.56
428.514	639.56
428.736	600.56
428.958	615.56
429.181	599.56
429.403	596.56
429.625	583.56
429.847	617.56
430.069	692.56
430.292	708.56
430.514	614.56
430.736	581.56
430.958	580.56
431.18	579.56
431.402	567.56
431.624	539.56
431.846	521.56
432.068	563.56
432.29	521.56
432.512	538.56
432.734	543.56
432.956	548.56
433.178	572.56
433.4	579.56
433.622	539.56
433.844	544.56
434.066	521.56
434.287	545.56
434.509	554.56
434.731	552.56
434.953	553.56
435.175	581.56
435.397	599.56
435.618	649.56
435.84	693.56
436.062	787.56
436.284	837.56
436.505	721.56
436.727	635.56
436.949	637.56
437.17	593.56
437.392	635.56
437.614	589.56
437.835	655.56
438.057	762.56
438.278	880.56
438.5	893.56
438.721	924.56
438.943	870.56
439.165	723.56
439.386	670.56
439.608	667.56
439.829	654.56
440.05	678.56
440.272	752.56
440.493	697.56
440.715	633.56
440.936	619.56
441.158	587.56
441.379	611.56
441.6	600.56
441.822	617.56
442.043	660.56
442.264	764.56
442.486	855.56
442.707	687.56
442.928	666.56
443.149	660.56
443.371	706.56
443.592	736.56
443.813	838.56
444.034	872.56
444.255	726.56
444.476	647.56
444.698	639.56
444.919	628.56
445.14	781.56
445.361	698.56
445.582	666.56
445.803	759.56
446.024	871.56
446.245	878.56
446.466	800.56
446.687	685.56
446.908	649.56
447.129	631.56
447.35	601.56
447.571	600.56
447.792	589.56
448.013	585.56
448.234	627.56
448.455	693.56
448.675	836.56
448.896	904.56
449.117	783.56
449.338	757.56
449.559	846.56
449.779	949.56
450	771.56
450.221	647.56
450.442	637.56
450.662	608.56
450.883	593.56
451.104	619.56
451.324	618.56
451.545	589.56
451.766	532.56
451.986	534.56
452.207	548.56
452.428	518.56
452.648	539.56
452.869	537.56
453.089	535.56
453.31	571.56
453.53	573.56
453.751	537.56
453.971	540.56
454.192	563.56
454.412	537.56
454.633	559.56
454.853	530.56
455.073	549.56
455.294	587.56
455.514	632.56
455.734	622.56
455.955	541.56
456.175	509.56
456.395	497.56
456.616	491.56
456.836	487.56
457.056	504.56
457.276	477.56
457.497	503.56
457.717	499.56
457.937	495.56
458.157	499.56
458.377	526.56
458.598	558.56
458.818	621.56
459.038	739.56
459.258	711.56
459.478	639.56
459.698	560.56
459.918	561.56
460.138	537.56
460.358	547.56
460.578	540.56
460.798	532.56
461.018	544.56
461.238	536.56
461.458	549.56
461.678	530.56
461.898	541.56
462.118	541.56
462.338	532.56
462.558	533.56
462.777	554.56
462.997	569.56
463.217	557.56
463.437	571.56
463.657	571.56
463.876	557.56
464.096	565.56
464.316	565.56
464.536	571.56
464.755	567.56
464.975	607.56
465.195	681.56
465.414	764.56
465.634	667.56
465.854	613.56
466.073	572.56
466.293	556.56
466.512	520.56
466.732	539.56
466.951	539.56
467.171	515.56
467.391	527.56
467.61	550.56
467.829	559.56
468.049	546.56
468.268	573.56
468.488	539.56
468.707	520.56
468.927	499.56
469.146	517.56
469.365	530.56
469.585	542.56
469.804	546.56
470.023	548.56
470.243	538.56
470.462	568.56
470.681	584.56
470.901	592.56
471.12	557.56
471.339	524.56
471.558	539.56
471.777	536.56
471.997	554.56
472.216	563.56
472.435	610.56
472.654	594.56
472.873	565.56
473.092	553.56
473.311	549.56
473.53	539.56
473.749	565.56
473.968	615.56
474.187	733.56
474.406	751.56
474.625	607.56
474.844	576.56
475.063	581.56
475.282	551.56
475.501	553.56
475.72	565.56
475.939	559.56
476.158	567.56
476.377	567.56
476.596	575.56
476.814	590.56
477.033	582.56
477.252	566.56
477.471	586.56
477.69	576.56
477.908	603.56
478.127	599.56
478.346	577.56
478.564	596.56
478.783	589.56
479.002	628.56
479.22	630.56
479.439	622.56
479.658	651.56
479.876	678.56
480.095	679.56
480.313	690.56
480.532	667.56
480.751	664.56
480.969	675.56
481.188	785.56
481.406	848.56
481.624	743.56
481.843	691.56
482.061	687.56
482.28	674.56
482.498	660.56
482.717	640.56
482.935	661.56
483.153	670.56
483.372	655.56
483.59	657.56
483.808	650.56
484.027	643.56
484.245	655.56
484.463	647.56
484.681	658.56
484.9	681.56
485.118	651.56
485.336	685.56
485.554	647.56
485.772	670.56
485.99	691.56
486.209	651.56
486.427	686.56
486.645	685.56
486.863	711.56
487.081	713.56
487.299	715.56
487.517	703.56
487.735	715.56
487.953	727.56
488.171	711.56
488.389	719.56
488.607	718.56
488.825	725.56
489.043	721.56
489.261	727.56
489.479	718.56
489.696	721.56
489.914	724.56
490.132	764.56
490.35	774.56
490.568	741.56
490.786	787.56
491.003	735.56
491.221	775.56
491.439	814.56
491.657	813.56
491.874	814.56
492.092	816.56
492.31	832.56
492.527	839.56
492.745	844.56
492.963	854.56
493.18	849.56
493.398	837.56
493.615	870.56
493.833	858.56
494.05	857.56
494.268	894.56
494.485	871.56
494.703	874.56
494.92	865.56
495.138	846.56
495.355	844.56
495.573	841.56
495.79	843.56
496.008	877.56
496.225	861.56
496.442	852.56
496.66	848.56
496.877	878.56
497.094	869.56
497.312	884.56
497.529	862.56
497.746	885.56
497.963	894.56
498.181	912.56
498.398	895.56
498.615	886.56
498.832	924.56
499.049	926.56
499.267	937.56
499.484	957.56
499.701	957.56
499.918	991.56
500.135	986.56
500.352	1068.56
500.569	1077.56
500.786	1019.56
501.003	1038.56
501.22	1056.56
501.437	1039.56
501.654	1004.56
