Data from 1970.PennyLincolnUp.Lamp.En5.5.200Scan.071719.P1._HRD10591_15-14-03-842.txt Node
Date: Thu Jul 18 15:14:03 EDT 2019
User: cochatt
Spectrometer: HR+D1059
Trigger mode: 1
Integration Time (sec): 1.000000E-1
Scans to average: 1
Electric dark correction enabled: true
Nonlinearity correction enabled: false
Boxcar width: 0
XAxis mode: Wavelengths
Number of Pixels in Spectrum: 2048
>>>>>Begin Spectral Data<<<<<
223.165	-21.12
223.4	-21.12
223.635	-21.12
223.869	-17.12
224.104	-19.12
224.338	-20.12
224.573	-9.12
224.808	-12.12
225.042	10.88
225.277	-13.12
225.511	-11.12
225.746	4.88
225.98	6.88
226.215	5.88
226.449	12.88
226.683	17.88
226.918	31.88
227.152	31.88
227.387	46.88
227.621	17.88
227.856	39.88
228.09	33.88
228.324	24.88
228.559	46.88
228.793	76.88
229.027	94.88
229.262	105.88
229.496	119.88
229.73	141.88
229.964	171.88
230.199	136.88
230.433	121.88
230.667	133.88
230.901	131.88
231.136	107.88
231.37	102.88
231.604	107.88
231.838	119.88
232.072	117.88
232.306	113.88
232.541	114.88
232.775	126.88
233.009	129.88
233.243	125.88
233.477	123.88
233.711	129.88
233.945	124.88
234.179	127.88
234.413	123.88
234.647	126.88
234.881	143.88
235.115	111.88
235.349	106.88
235.583	119.88
235.817	125.88
236.051	137.88
236.285	129.88
236.519	153.88
236.753	153.88
236.987	165.88
237.221	210.88
237.455	259.88
237.689	206.88
237.922	159.88
238.156	140.88
238.39	136.88
238.624	131.88
238.858	130.88
239.091	132.88
239.325	131.88
239.559	131.88
239.793	137.88
240.027	139.88
240.26	161.88
240.494	183.88
240.728	158.88
240.961	159.88
241.195	154.88
241.429	160.88
241.662	150.88
241.896	153.88
242.13	127.88
242.363	149.88
242.597	146.88
242.83	151.88
243.064	144.88
243.298	161.88
243.531	140.88
243.765	149.88
243.998	147.88
244.232	151.88
244.465	173.88
244.699	158.88
244.932	167.88
245.166	153.88
245.399	151.88
245.633	149.88
245.866	166.88
246.099	149.88
246.333	167.88
246.566	170.88
246.8	181.88
247.033	169.88
247.266	177.88
247.5	193.88
247.733	169.88
247.966	178.88
248.2	180.88
248.433	193.88
248.666	192.88
248.899	208.88
249.133	219.88
249.366	227.88
249.599	231.88
249.832	192.88
250.066	200.88
250.299	201.88
250.532	215.88
250.765	228.88
250.998	241.88
251.231	242.88
251.465	227.88
251.698	233.88
251.931	215.88
252.164	214.88
252.397	214.88
252.63	223.88
252.863	225.88
253.096	229.88
253.329	266.88
253.562	248.88
253.795	242.88
254.028	227.88
254.261	234.88
254.494	248.88
254.727	277.88
254.96	319.88
255.193	302.88
255.426	279.88
255.659	251.88
255.892	270.88
256.124	253.88
256.357	250.88
256.59	245.88
256.823	255.88
257.056	222.88
257.289	233.88
257.521	217.88
257.754	229.88
257.987	235.88
258.22	214.88
258.452	215.88
258.685	212.88
258.918	226.88
259.151	229.88
259.383	222.88
259.616	225.88
259.849	255.88
260.081	267.88
260.314	272.88
260.547	286.88
260.779	254.88
261.012	252.88
261.244	260.88
261.477	243.88
261.71	228.88
261.942	235.88
262.175	247.88
262.407	260.88
262.64	236.88
262.872	236.88
263.105	230.88
263.337	220.88
263.57	229.88
263.802	230.88
264.035	224.88
264.267	211.88
264.499	212.88
264.732	230.88
264.964	218.88
265.197	225.88
265.429	233.88
265.661	218.88
265.894	215.88
266.126	206.88
266.358	216.88
266.591	233.88
266.823	232.88
267.055	236.88
267.287	234.88
267.52	245.88
267.752	235.88
267.984	222.88
268.216	241.88
268.448	238.88
268.681	239.88
268.913	247.88
269.145	275.88
269.377	286.88
269.609	287.88
269.841	278.88
270.073	298.88
270.306	280.88
270.538	316.88
270.77	349.88
271.002	313.88
271.234	303.88
271.466	324.88
271.698	346.88
271.93	356.88
272.162	340.88
272.394	328.88
272.626	315.88
272.858	310.88
273.09	283.88
273.322	274.88
273.553	279.88
273.785	275.88
274.017	277.88
274.249	267.88
274.481	245.88
274.713	291.88
274.945	267.88
275.176	268.88
275.408	271.88
275.64	284.88
275.872	267.88
276.104	278.88
276.335	275.88
276.567	276.88
276.799	301.88
277.031	310.88
277.262	328.88
277.494	323.88
277.726	316.88
277.957	295.88
278.189	283.88
278.421	281.88
278.652	287.88
278.884	287.88
279.115	278.88
279.347	261.88
279.579	263.88
279.81	277.88
280.042	283.88
280.273	270.88
280.505	245.88
280.736	260.88
280.968	235.88
281.199	261.88
281.431	257.88
281.662	262.88
281.894	299.88
282.125	263.88
282.356	283.88
282.588	297.88
282.819	302.88
283.051	268.88
283.282	275.88
283.513	277.88
283.745	262.88
283.976	285.88
284.207	270.88
284.439	279.88
284.67	265.88
284.901	261.88
285.132	272.88
285.364	260.88
285.595	264.88
285.826	265.88
286.057	278.88
286.288	261.88
286.52	274.88
286.751	260.88
286.982	275.88
287.213	268.88
287.444	284.88
287.675	280.88
287.906	298.88
288.138	295.88
288.369	303.88
288.6	309.88
288.831	300.88
289.062	297.88
289.293	269.88
289.524	297.88
289.755	281.88
289.986	284.88
290.217	292.88
290.448	287.88
290.679	300.88
290.91	276.88
291.141	271.88
291.371	283.88
291.602	265.88
291.833	288.88
292.064	277.88
292.295	295.88
292.526	279.88
292.757	287.88
292.987	291.88
293.218	281.88
293.449	268.88
293.68	279.88
293.91	286.88
294.141	271.88
294.372	291.88
294.603	306.88
294.833	277.88
295.064	292.88
295.295	283.88
295.525	289.88
295.756	291.88
295.987	293.88
296.217	313.88
296.448	330.88
296.679	301.88
296.909	285.88
297.14	323.88
297.37	283.88
297.601	293.88
297.831	300.88
298.062	299.88
298.292	302.88
298.523	299.88
298.753	302.88
298.984	292.88
299.214	295.88
299.445	297.88
299.675	301.88
299.905	335.88
300.136	309.88
300.366	311.88
300.597	299.88
300.827	309.88
301.057	325.88
301.288	329.88
301.518	323.88
301.748	304.88
301.979	314.88
302.209	307.88
302.439	317.88
302.669	333.88
302.9	311.88
303.13	299.88
303.36	331.88
303.59	317.88
303.82	325.88
304.051	334.88
304.281	342.88
304.511	319.88
304.741	305.88
304.971	312.88
305.201	341.88
305.431	323.88
305.661	316.88
305.891	310.88
306.121	330.88
306.352	345.88
306.582	346.88
306.812	335.88
307.042	321.88
307.272	329.88
307.502	321.88
307.731	318.88
307.961	330.88
308.191	335.88
308.421	329.88
308.651	353.88
308.881	345.88
309.111	362.88
309.341	337.88
309.571	359.88
309.8	359.88
310.03	376.88
310.26	387.88
310.49	387.88
310.72	396.88
310.949	396.88
311.179	400.88
311.409	387.88
311.639	388.88
311.868	381.88
312.098	365.88
312.328	365.88
312.557	399.88
312.787	413.88
313.017	422.88
313.246	411.88
313.476	383.88
313.706	379.88
313.935	389.88
314.165	409.88
314.394	407.88
314.624	398.88
314.853	403.88
315.083	387.88
315.312	390.88
315.542	379.88
315.771	364.88
316.001	371.88
316.23	359.88
316.46	379.88
316.689	387.88
316.919	390.88
317.148	405.88
317.377	385.88
317.607	382.88
317.836	403.88
318.065	366.88
318.295	377.88
318.524	366.88
318.753	393.88
318.983	377.88
319.212	374.88
319.441	389.88
319.67	413.88
319.9	362.88
320.129	389.88
320.358	369.88
320.587	386.88
320.816	404.88
321.046	404.88
321.275	405.88
321.504	419.88
321.733	420.88
321.962	429.88
322.191	425.88
322.42	425.88
322.649	481.88
322.878	486.88
323.108	463.88
323.337	497.88
323.566	519.88
323.795	560.88
324.024	620.88
324.253	758.88
324.482	1087.88
324.71	1653.88
324.939	2325.88
325.168	2012.88
325.397	1069.88
325.626	706.88
325.855	594.88
326.084	561.88
326.313	529.88
326.542	541.88
326.77	570.88
326.999	718.88
327.228	948.88
327.457	1455.88
327.686	1755.88
327.914	1221.88
328.143	805.88
328.372	705.88
328.6	639.88
328.829	633.88
329.058	627.88
329.287	629.88
329.515	583.88
329.744	546.88
329.972	525.88
330.201	545.88
330.43	621.88
330.658	643.88
330.887	659.88
331.115	679.88
331.344	567.88
331.572	536.88
331.801	497.88
332.03	530.88
332.258	476.88
332.486	465.88
332.715	475.88
332.943	471.88
333.172	455.88
333.4	462.88
333.629	462.88
333.857	498.88
334.085	501.88
334.314	529.88
334.542	545.88
334.771	567.88
334.999	507.88
335.227	484.88
335.455	446.88
335.684	460.88
335.912	428.88
336.14	472.88
336.369	423.88
336.597	451.88
336.825	454.88
337.053	433.88
337.281	441.88
337.51	430.88
337.738	437.88
337.966	441.88
338.194	438.88
338.422	456.88
338.65	441.88
338.878	441.88
339.106	444.88
339.334	428.88
339.562	425.88
339.79	429.88
340.018	430.88
340.246	434.88
340.474	437.88
340.702	457.88
340.93	425.88
341.158	444.88
341.386	427.88
341.614	427.88
341.842	437.88
342.07	447.88
342.298	427.88
342.526	417.88
342.754	422.88
342.981	441.88
343.209	435.88
343.437	430.88
343.665	436.88
343.893	426.88
344.12	443.88
344.348	442.88
344.576	435.88
344.804	455.88
345.031	437.88
345.259	461.88
345.487	436.88
345.714	461.88
345.942	429.88
346.17	426.88
346.397	450.88
346.625	447.88
346.853	425.88
347.08	446.88
347.308	433.88
347.535	442.88
347.763	454.88
347.99	457.88
348.218	437.88
348.445	441.88
348.673	431.88
348.9	444.88
349.128	440.88
349.355	425.88
349.583	429.88
349.81	419.88
350.037	390.88
350.265	415.88
350.492	382.88
350.72	421.88
350.947	421.88
351.174	444.88
351.402	455.88
351.629	457.88
351.856	422.88
352.083	459.88
352.311	463.88
352.538	458.88
352.765	455.88
352.992	446.88
353.22	452.88
353.447	436.88
353.674	438.88
353.901	416.88
354.128	411.88
354.355	397.88
354.583	401.88
354.81	405.88
355.037	386.88
355.264	409.88
355.491	418.88
355.718	395.88
355.945	378.88
356.172	396.88
356.399	389.88
356.626	407.88
356.853	398.88
357.08	388.88
357.307	399.88
357.534	410.88
357.761	400.88
357.988	418.88
358.215	396.88
358.441	411.88
358.668	405.88
358.895	400.88
359.122	409.88
359.349	439.88
359.576	448.88
359.802	460.88
360.029	494.88
360.256	519.88
360.483	491.88
360.709	452.88
360.936	448.88
361.163	439.88
361.39	462.88
361.616	460.88
361.843	444.88
362.07	451.88
362.296	443.88
362.523	446.88
362.749	441.88
362.976	432.88
363.203	445.88
363.429	413.88
363.656	424.88
363.882	416.88
364.109	433.88
364.335	427.88
364.562	419.88
364.788	437.88
365.015	411.88
365.241	437.88
365.468	453.88
365.694	429.88
365.92	430.88
366.147	435.88
366.373	419.88
366.599	425.88
366.826	405.88
367.052	394.88
367.278	446.88
367.505	415.88
367.731	415.88
367.957	418.88
368.184	414.88
368.41	429.88
368.636	441.88
368.862	426.88
369.089	430.88
369.315	425.88
369.541	407.88
369.767	418.88
369.993	416.88
370.219	405.88
370.445	424.88
370.672	433.88
370.898	427.88
371.124	409.88
371.35	420.88
371.576	409.88
371.802	412.88
372.028	408.88
372.254	403.88
372.48	419.88
372.706	423.88
372.932	427.88
373.158	418.88
373.384	415.88
373.61	422.88
373.835	416.88
374.061	423.88
374.287	409.88
374.513	416.88
374.739	427.88
374.965	425.88
375.191	430.88
375.416	414.88
375.642	415.88
375.868	422.88
376.094	412.88
376.319	421.88
376.545	414.88
376.771	410.88
376.997	399.88
377.222	431.88
377.448	422.88
377.674	398.88
377.899	414.88
378.125	426.88
378.35	419.88
378.576	424.88
378.802	407.88
379.027	403.88
379.253	395.88
379.478	404.88
379.704	423.88
379.929	420.88
380.155	409.88
380.38	423.88
380.606	421.88
380.831	438.88
381.057	425.88
381.282	416.88
381.507	429.88
381.733	418.88
381.958	438.88
382.184	418.88
382.409	428.88
382.634	427.88
382.86	439.88
383.085	420.88
383.31	438.88
383.535	463.88
383.761	442.88
383.986	447.88
384.211	422.88
384.436	414.88
384.662	421.88
384.887	421.88
385.112	445.88
385.337	436.88
385.562	446.88
385.787	439.88
386.013	459.88
386.238	468.88
386.463	451.88
386.688	444.88
386.913	431.88
387.138	437.88
387.363	461.88
387.588	429.88
387.813	444.88
388.038	441.88
388.263	453.88
388.488	444.88
388.713	460.88
388.938	451.88
389.163	478.88
389.387	451.88
389.612	441.88
389.837	428.88
390.062	455.88
390.287	429.88
390.512	474.88
390.736	467.88
390.961	453.88
391.186	477.88
391.411	447.88
391.636	455.88
391.86	457.88
392.085	473.88
392.31	482.88
392.534	464.88
392.759	449.88
392.984	451.88
393.208	485.88
393.433	478.88
393.658	461.88
393.882	479.88
394.107	463.88
394.331	459.88
394.556	456.88
394.78	465.88
395.005	480.88
395.229	459.88
395.454	466.88
395.678	463.88
395.903	473.88
396.127	495.88
396.352	498.88
396.576	499.88
396.801	489.88
397.025	497.88
397.249	497.88
397.474	486.88
397.698	460.88
397.922	498.88
398.147	527.88
398.371	501.88
398.595	495.88
398.82	511.88
399.044	519.88
399.268	535.88
399.492	569.88
399.717	558.88
399.941	618.88
400.165	637.88
400.389	638.88
400.613	582.88
400.837	549.88
401.062	542.88
401.286	514.88
401.51	526.88
401.734	511.88
401.958	523.88
402.182	529.88
402.406	535.88
402.63	554.88
402.854	554.88
403.078	535.88
403.302	557.88
403.526	562.88
403.75	521.88
403.974	530.88
404.198	541.88
404.422	550.88
404.645	590.88
404.869	579.88
405.093	612.88
405.317	641.88
405.541	659.88
405.765	615.88
405.988	579.88
406.212	589.88
406.436	601.88
406.66	621.88
406.883	599.88
407.107	620.88
407.331	673.88
407.555	693.88
407.778	704.88
408.002	666.88
408.226	630.88
408.449	615.88
408.673	614.88
408.896	631.88
409.12	665.88
409.344	633.88
409.567	598.88
409.791	573.88
410.014	550.88
410.238	542.88
410.461	567.88
410.685	565.88
410.908	570.88
411.132	613.88
411.355	639.88
411.578	645.88
411.802	570.88
412.025	563.88
412.249	567.88
412.472	559.88
412.695	651.88
412.919	621.88
413.142	584.88
413.365	549.88
413.589	541.88
413.812	525.88
414.035	518.88
414.258	508.88
414.482	538.88
414.705	515.88
414.928	532.88
415.151	517.88
415.374	511.88
415.597	517.88
415.821	511.88
416.044	518.88
416.267	521.88
416.49	543.88
416.713	522.88
416.936	514.88
417.159	537.88
417.382	529.88
417.605	533.88
417.828	537.88
418.051	558.88
418.274	558.88
418.497	580.88
418.72	529.88
418.943	527.88
419.166	545.88
419.389	565.88
419.611	575.88
419.834	559.88
420.057	545.88
420.28	575.88
420.503	573.88
420.726	567.88
420.948	582.88
421.171	607.88
421.394	657.88
421.617	594.88
421.839	554.88
422.062	572.88
422.285	577.88
422.507	636.88
422.73	718.88
422.953	697.88
423.175	603.88
423.398	582.88
423.621	572.88
423.843	617.88
424.066	605.88
424.288	597.88
424.511	624.88
424.733	689.88
424.956	776.88
425.178	749.88
425.401	736.88
425.623	743.88
425.846	658.88
426.068	637.88
426.291	609.88
426.513	596.88
426.735	599.88
426.958	674.88
427.18	783.88
427.402	881.88
427.625	951.88
427.847	899.88
428.069	776.88
428.292	673.88
428.514	633.88
428.736	588.88
428.958	577.88
429.181	578.88
429.403	547.88
429.625	615.88
429.847	614.88
430.069	695.88
430.292	662.88
430.514	623.88
430.736	561.88
430.958	581.88
431.18	539.88
431.402	538.88
431.624	524.88
431.846	520.88
432.068	546.88
432.29	531.88
432.512	549.88
432.734	561.88
432.956	543.88
433.178	570.88
433.4	549.88
433.622	553.88
433.844	540.88
434.066	525.88
434.287	526.88
434.509	537.88
434.731	553.88
434.953	570.88
435.175	561.88
435.397	590.88
435.618	641.88
435.84	638.88
436.062	771.88
436.284	835.88
436.505	707.88
436.727	626.88
436.949	602.88
437.17	599.88
437.392	559.88
437.614	585.88
437.835	621.88
438.057	726.88
438.278	839.88
438.5	855.88
438.721	911.88
438.943	853.88
439.165	691.88
439.386	663.88
439.608	629.88
439.829	643.88
440.05	654.88
440.272	706.88
440.493	676.88
440.715	611.88
440.936	608.88
441.158	600.88
441.379	570.88
441.6	599.88
441.822	629.88
442.043	651.88
442.264	755.88
442.486	781.88
442.707	685.88
442.928	621.88
443.149	643.88
443.371	657.88
443.592	707.88
443.813	806.88
444.034	873.88
444.255	719.88
444.476	661.88
444.698	593.88
444.919	616.88
445.14	731.88
445.361	679.88
445.582	689.88
445.803	742.88
446.024	832.88
446.245	791.88
446.466	781.88
446.687	667.88
446.908	625.88
447.129	588.88
447.35	584.88
447.571	582.88
447.792	569.88
448.013	585.88
448.234	598.88
448.455	643.88
448.675	781.88
448.896	873.88
449.117	752.88
449.338	743.88
449.559	817.88
449.779	925.88
450	753.88
450.221	649.88
450.442	597.88
450.662	582.88
450.883	573.88
451.104	594.88
451.324	582.88
451.545	586.88
451.766	533.88
451.986	521.88
452.207	511.88
452.428	524.88
452.648	505.88
452.869	502.88
453.089	544.88
453.31	538.88
453.53	534.88
453.751	527.88
453.971	507.88
454.192	517.88
454.412	541.88
454.633	520.88
454.853	505.88
455.073	515.88
455.294	550.88
455.514	621.88
455.734	623.88
455.955	519.88
456.175	500.88
456.395	470.88
456.616	470.88
456.836	475.88
457.056	488.88
457.276	471.88
457.497	461.88
457.717	477.88
457.937	508.88
458.157	501.88
458.377	515.88
458.598	534.88
458.818	588.88
459.038	683.88
459.258	699.88
459.478	618.88
459.698	570.88
459.918	513.88
460.138	535.88
460.358	519.88
460.578	546.88
460.798	517.88
461.018	525.88
461.238	524.88
461.458	517.88
461.678	550.88
461.898	530.88
462.118	508.88
462.338	515.88
462.558	536.88
462.777	544.88
462.997	553.88
463.217	566.88
463.437	557.88
463.657	560.88
463.876	572.88
464.096	555.88
464.316	575.88
464.536	589.88
464.755	584.88
464.975	584.88
465.195	628.88
465.414	729.88
465.634	639.88
465.854	587.88
466.073	580.88
466.293	547.88
466.512	552.88
466.732	515.88
466.951	502.88
467.171	504.88
467.391	515.88
467.61	548.88
467.829	549.88
468.049	535.88
468.268	528.88
468.488	529.88
468.707	498.88
468.927	507.88
469.146	492.88
469.365	525.88
469.585	489.88
469.804	542.88
470.023	540.88
470.243	546.88
470.462	540.88
470.681	567.88
470.901	568.88
471.12	543.88
471.339	522.88
471.558	540.88
471.777	527.88
471.997	519.88
472.216	551.88
472.435	592.88
472.654	587.88
472.873	544.88
473.092	541.88
473.311	552.88
473.53	517.88
473.749	565.88
473.968	599.88
474.187	691.88
474.406	705.88
474.625	603.88
474.844	547.88
475.063	540.88
475.282	527.88
475.501	557.88
475.72	550.88
475.939	549.88
476.158	554.88
476.377	537.88
476.596	540.88
476.814	565.88
477.033	561.88
477.252	588.88
477.471	577.88
477.69	575.88
477.908	594.88
478.127	571.88
478.346	572.88
478.564	577.88
478.783	603.88
479.002	603.88
479.22	631.88
479.439	627.88
479.658	632.88
479.876	666.88
480.095	659.88
480.313	690.88
480.532	675.88
480.751	640.88
480.969	654.88
481.188	731.88
481.406	782.88
481.624	697.88
481.843	653.88
482.061	656.88
482.28	643.88
482.498	643.88
482.717	615.88
482.935	637.88
483.153	638.88
483.372	613.88
483.59	641.88
483.808	635.88
484.027	617.88
484.245	656.88
484.463	633.88
484.681	636.88
484.9	648.88
485.118	639.88
485.336	661.88
485.554	656.88
485.772	689.88
485.99	641.88
486.209	637.88
486.427	687.88
486.645	700.88
486.863	717.88
487.081	706.88
487.299	703.88
487.517	689.88
487.735	703.88
487.953	707.88
488.171	668.88
488.389	702.88
488.607	710.88
488.825	708.88
489.043	702.88
489.261	696.88
489.479	709.88
489.696	694.88
489.914	691.88
490.132	718.88
490.35	732.88
490.568	725.88
490.786	733.88
491.003	746.88
491.221	760.88
491.439	790.88
491.657	800.88
491.874	806.88
492.092	791.88
492.31	814.88
492.527	815.88
492.745	819.88
492.963	825.88
493.18	829.88
493.398	845.88
493.615	835.88
493.833	856.88
494.05	837.88
494.268	841.88
494.485	824.88
494.703	839.88
494.92	811.88
495.138	821.88
495.355	847.88
495.573	828.88
495.79	834.88
496.008	866.88
496.225	871.88
496.442	834.88
496.66	859.88
496.877	810.88
497.094	858.88
497.312	870.88
497.529	859.88
497.746	841.88
497.963	866.88
498.181	897.88
498.398	892.88
498.615	901.88
498.832	897.88
499.049	902.88
499.267	908.88
499.484	954.88
499.701	945.88
499.918	969.88
500.135	1033.88
500.352	1030.88
500.569	1051.88
500.786	1079.88
501.003	1018.88
501.22	1022.88
501.437	1036.88
501.654	1002.88
501.871	1017.88
