Data from 1970.PennyLincolnUp.Lamp.En5.5.200Scan.071719.P1._HRD10591_15-13-51-842.txt Node
Date: Thu Jul 18 15:13:51 EDT 2019
User: cochatt
Spectrometer: HR+D1059
Trigger mode: 1
Integration Time (sec): 1.000000E-1
Scans to average: 1
Electric dark correction enabled: true
Nonlinearity correction enabled: false
Boxcar width: 0
XAxis mode: Wavelengths
Number of Pixels in Spectrum: 2048
>>>>>Begin Spectral Data<<<<<
223.165	-4.5
223.4	-4.5
223.635	-4.5
223.869	-6.5
224.104	-15.5
224.338	-15.5
224.573	-31.5
224.808	-12.5
225.042	3.5
225.277	-3.5
225.511	1.5
225.746	-0.5
225.98	6.5
226.215	11.5
226.449	19.5
226.683	16.5
226.918	15.5
227.152	15.5
227.387	32.5
227.621	41.5
227.856	40.5
228.09	49.5
228.324	59.5
228.559	49.5
228.793	75.5
229.027	121.5
229.262	112.5
229.496	124.5
229.73	143.5
229.964	177.5
230.199	140.5
230.433	133.5
230.667	118.5
230.901	112.5
231.136	122.5
231.37	114.5
231.604	117.5
231.838	117.5
232.072	114.5
232.306	123.5
232.541	118.5
232.775	123.5
233.009	114.5
233.243	112.5
233.477	126.5
233.711	118.5
233.945	118.5
234.179	121.5
234.413	125.5
234.647	117.5
234.881	125.5
235.115	124.5
235.349	128.5
235.583	137.5
235.817	134.5
236.051	135.5
236.285	125.5
236.519	121.5
236.753	128.5
236.987	151.5
237.221	195.5
237.455	256.5
237.689	209.5
237.922	148.5
238.156	157.5
238.39	137.5
238.624	135.5
238.858	128.5
239.091	127.5
239.325	126.5
239.559	133.5
239.793	153.5
240.027	142.5
240.26	157.5
240.494	167.5
240.728	153.5
240.961	181.5
241.195	146.5
241.429	141.5
241.662	141.5
241.896	129.5
242.13	133.5
242.363	133.5
242.597	156.5
242.83	150.5
243.064	163.5
243.298	139.5
243.531	135.5
243.765	134.5
243.998	141.5
244.232	148.5
244.465	152.5
244.699	142.5
244.932	157.5
245.166	147.5
245.399	146.5
245.633	156.5
245.866	149.5
246.099	153.5
246.333	177.5
246.566	162.5
246.8	165.5
247.033	177.5
247.266	165.5
247.5	171.5
247.733	175.5
247.966	175.5
248.2	199.5
248.433	189.5
248.666	189.5
248.899	195.5
249.133	215.5
249.366	221.5
249.599	215.5
249.832	198.5
250.066	191.5
250.299	206.5
250.532	186.5
250.765	222.5
250.998	226.5
251.231	249.5
251.465	234.5
251.698	226.5
251.931	221.5
252.164	235.5
252.397	214.5
252.63	224.5
252.863	226.5
253.096	235.5
253.329	248.5
253.562	257.5
253.795	226.5
254.028	234.5
254.261	223.5
254.494	249.5
254.727	283.5
254.96	302.5
255.193	318.5
255.426	269.5
255.659	249.5
255.892	249.5
256.124	248.5
256.357	263.5
256.59	249.5
256.823	230.5
257.056	230.5
257.289	222.5
257.521	227.5
257.754	228.5
257.987	209.5
258.22	227.5
258.452	226.5
258.685	215.5
258.918	213.5
259.151	222.5
259.383	230.5
259.616	225.5
259.849	237.5
260.081	249.5
260.314	256.5
260.547	250.5
260.779	256.5
261.012	240.5
261.244	237.5
261.477	243.5
261.71	249.5
261.942	233.5
262.175	242.5
262.407	243.5
262.64	233.5
262.872	212.5
263.105	206.5
263.337	228.5
263.57	229.5
263.802	224.5
264.035	202.5
264.267	215.5
264.499	225.5
264.732	221.5
264.964	211.5
265.197	216.5
265.429	209.5
265.661	229.5
265.894	211.5
266.126	207.5
266.358	213.5
266.591	221.5
266.823	210.5
267.055	226.5
267.287	223.5
267.52	227.5
267.752	220.5
267.984	224.5
268.216	245.5
268.448	245.5
268.681	254.5
268.913	258.5
269.145	272.5
269.377	290.5
269.609	283.5
269.841	279.5
270.073	250.5
270.306	293.5
270.538	318.5
270.77	317.5
271.002	319.5
271.234	317.5
271.466	301.5
271.698	309.5
271.93	308.5
272.162	328.5
272.394	328.5
272.626	307.5
272.858	293.5
273.09	283.5
273.322	253.5
273.553	263.5
273.785	271.5
274.017	258.5
274.249	259.5
274.481	258.5
274.713	270.5
274.945	279.5
275.176	266.5
275.408	257.5
275.64	262.5
275.872	273.5
276.104	260.5
276.335	249.5
276.567	255.5
276.799	274.5
277.031	288.5
277.262	323.5
277.494	298.5
277.726	320.5
277.957	281.5
278.189	279.5
278.421	270.5
278.652	259.5
278.884	271.5
279.115	289.5
279.347	249.5
279.579	261.5
279.81	284.5
280.042	266.5
280.273	263.5
280.505	280.5
280.736	258.5
280.968	254.5
281.199	257.5
281.431	255.5
281.662	253.5
281.894	259.5
282.125	255.5
282.356	259.5
282.588	290.5
282.819	299.5
283.051	274.5
283.282	259.5
283.513	248.5
283.745	269.5
283.976	272.5
284.207	266.5
284.439	268.5
284.67	279.5
284.901	273.5
285.132	269.5
285.364	266.5
285.595	265.5
285.826	266.5
286.057	269.5
286.288	279.5
286.52	282.5
286.751	263.5
286.982	275.5
287.213	280.5
287.444	266.5
287.675	282.5
287.906	287.5
288.138	306.5
288.369	304.5
288.6	295.5
288.831	295.5
289.062	285.5
289.293	265.5
289.524	269.5
289.755	261.5
289.986	279.5
290.217	268.5
290.448	283.5
290.679	290.5
290.91	282.5
291.141	262.5
291.371	256.5
291.602	254.5
291.833	259.5
292.064	293.5
292.295	269.5
292.526	272.5
292.757	262.5
292.987	258.5
293.218	269.5
293.449	277.5
293.68	296.5
293.91	284.5
294.141	280.5
294.372	285.5
294.603	284.5
294.833	289.5
295.064	284.5
295.295	276.5
295.525	285.5
295.756	284.5
295.987	295.5
296.217	294.5
296.448	325.5
296.679	296.5
296.909	270.5
297.14	280.5
297.37	299.5
297.601	295.5
297.831	287.5
298.062	285.5
298.292	288.5
298.523	278.5
298.753	298.5
298.984	270.5
299.214	284.5
299.445	289.5
299.675	273.5
299.905	298.5
300.136	303.5
300.366	278.5
300.597	271.5
300.827	307.5
301.057	307.5
301.288	313.5
301.518	294.5
301.748	307.5
301.979	311.5
302.209	311.5
302.439	313.5
302.669	307.5
302.9	308.5
303.13	315.5
303.36	304.5
303.59	325.5
303.82	333.5
304.051	324.5
304.281	319.5
304.511	300.5
304.741	305.5
304.971	297.5
305.201	297.5
305.431	296.5
305.661	297.5
305.891	310.5
306.121	287.5
306.352	301.5
306.582	296.5
306.812	311.5
307.042	327.5
307.272	301.5
307.502	317.5
307.731	309.5
307.961	336.5
308.191	320.5
308.421	328.5
308.651	306.5
308.881	329.5
309.111	314.5
309.341	341.5
309.571	341.5
309.8	343.5
310.03	354.5
310.26	358.5
310.49	371.5
310.72	378.5
310.949	395.5
311.179	388.5
311.409	375.5
311.639	352.5
311.868	365.5
312.098	375.5
312.328	367.5
312.557	391.5
312.787	401.5
313.017	415.5
313.246	381.5
313.476	362.5
313.706	373.5
313.935	377.5
314.165	382.5
314.394	374.5
314.624	357.5
314.853	365.5
315.083	362.5
315.312	364.5
315.542	338.5
315.771	346.5
316.001	378.5
316.23	350.5
316.46	348.5
316.689	356.5
316.919	377.5
317.148	357.5
317.377	385.5
317.607	371.5
317.836	357.5
318.065	362.5
318.295	378.5
318.524	357.5
318.753	368.5
318.983	361.5
319.212	361.5
319.441	370.5
319.67	390.5
319.9	376.5
320.129	367.5
320.358	352.5
320.587	364.5
320.816	374.5
321.046	399.5
321.275	377.5
321.504	361.5
321.733	391.5
321.962	365.5
322.191	407.5
322.42	430.5
322.649	425.5
322.878	434.5
323.108	446.5
323.337	483.5
323.566	503.5
323.795	539.5
324.024	589.5
324.253	709.5
324.482	1015.5
324.71	1565.5
324.939	2120.5
325.168	1880.5
325.397	1011.5
325.626	671.5
325.855	561.5
326.084	500.5
326.313	486.5
326.542	519.5
326.77	575.5
326.999	657.5
327.228	896.5
327.457	1341.5
327.686	1631.5
327.914	1106.5
328.143	760.5
328.372	671.5
328.6	577.5
328.829	588.5
329.058	581.5
329.287	607.5
329.515	584.5
329.744	523.5
329.972	523.5
330.201	508.5
330.43	579.5
330.658	619.5
330.887	639.5
331.115	619.5
331.344	550.5
331.572	491.5
331.801	470.5
332.03	478.5
332.258	472.5
332.486	448.5
332.715	429.5
332.943	428.5
333.172	455.5
333.4	454.5
333.629	451.5
333.857	465.5
334.085	487.5
334.314	497.5
334.542	521.5
334.771	538.5
334.999	481.5
335.227	463.5
335.455	466.5
335.684	439.5
335.912	441.5
336.14	433.5
336.369	412.5
336.597	446.5
336.825	426.5
337.053	426.5
337.281	401.5
337.51	437.5
337.738	432.5
337.966	441.5
338.194	411.5
338.422	429.5
338.65	415.5
338.878	404.5
339.106	414.5
339.334	426.5
339.562	407.5
339.79	417.5
340.018	413.5
340.246	405.5
340.474	440.5
340.702	423.5
340.93	414.5
341.158	421.5
341.386	395.5
341.614	406.5
341.842	445.5
342.07	414.5
342.298	424.5
342.526	417.5
342.754	403.5
342.981	410.5
343.209	403.5
343.437	396.5
343.665	415.5
343.893	394.5
344.12	416.5
344.348	439.5
344.576	430.5
344.804	401.5
345.031	421.5
345.259	454.5
345.487	457.5
345.714	435.5
345.942	430.5
346.17	421.5
346.397	397.5
346.625	421.5
346.853	406.5
347.08	393.5
347.308	397.5
347.535	429.5
347.763	434.5
347.99	420.5
348.218	429.5
348.445	421.5
348.673	441.5
348.9	409.5
349.128	413.5
349.355	410.5
349.583	403.5
349.81	405.5
350.037	401.5
350.265	404.5
350.492	391.5
350.72	414.5
350.947	409.5
351.174	417.5
351.402	433.5
351.629	419.5
351.856	408.5
352.083	423.5
352.311	417.5
352.538	432.5
352.765	450.5
352.992	427.5
353.22	410.5
353.447	423.5
353.674	417.5
353.901	420.5
354.128	422.5
354.355	406.5
354.583	389.5
354.81	385.5
355.037	386.5
355.264	401.5
355.491	374.5
355.718	384.5
355.945	385.5
356.172	379.5
356.399	399.5
356.626	379.5
356.853	399.5
357.08	391.5
357.307	403.5
357.534	381.5
357.761	373.5
357.988	369.5
358.215	380.5
358.441	392.5
358.668	386.5
358.895	413.5
359.122	400.5
359.349	398.5
359.576	415.5
359.802	458.5
360.029	478.5
360.256	475.5
360.483	464.5
360.709	418.5
360.936	437.5
361.163	411.5
361.39	410.5
361.616	430.5
361.843	418.5
362.07	415.5
362.296	407.5
362.523	414.5
362.749	416.5
362.976	426.5
363.203	418.5
363.429	403.5
363.656	394.5
363.882	396.5
364.109	418.5
364.335	402.5
364.562	401.5
364.788	399.5
365.015	405.5
365.241	413.5
365.468	419.5
365.694	421.5
365.92	425.5
366.147	415.5
366.373	400.5
366.599	411.5
366.826	401.5
367.052	384.5
367.278	398.5
367.505	424.5
367.731	408.5
367.957	400.5
368.184	418.5
368.41	423.5
368.636	422.5
368.862	429.5
369.089	438.5
369.315	419.5
369.541	404.5
369.767	385.5
369.993	412.5
370.219	386.5
370.445	397.5
370.672	401.5
370.898	393.5
371.124	400.5
371.35	388.5
371.576	382.5
371.802	393.5
372.028	386.5
372.254	393.5
372.48	413.5
372.706	385.5
372.932	381.5
373.158	415.5
373.384	401.5
373.61	398.5
373.835	400.5
374.061	396.5
374.287	412.5
374.513	424.5
374.739	404.5
374.965	423.5
375.191	406.5
375.416	419.5
375.642	401.5
375.868	422.5
376.094	430.5
376.319	407.5
376.545	400.5
376.771	410.5
376.997	413.5
377.222	404.5
377.448	399.5
377.674	394.5
377.899	389.5
378.125	388.5
378.35	395.5
378.576	382.5
378.802	410.5
379.027	417.5
379.253	399.5
379.478	409.5
379.704	395.5
379.929	417.5
380.155	402.5
380.38	411.5
380.606	405.5
380.831	395.5
381.057	420.5
381.282	411.5
381.507	381.5
381.733	404.5
381.958	406.5
382.184	418.5
382.409	422.5
382.634	409.5
382.86	411.5
383.085	426.5
383.31	431.5
383.535	416.5
383.761	402.5
383.986	406.5
384.211	434.5
384.436	415.5
384.662	424.5
384.887	441.5
385.112	423.5
385.337	462.5
385.562	425.5
385.787	433.5
386.013	434.5
386.238	460.5
386.463	460.5
386.688	451.5
386.913	447.5
387.138	424.5
387.363	433.5
387.588	449.5
387.813	425.5
388.038	419.5
388.263	418.5
388.488	445.5
388.713	429.5
388.938	451.5
389.163	430.5
389.387	420.5
389.612	454.5
389.837	445.5
390.062	428.5
390.287	432.5
390.512	439.5
390.736	434.5
390.961	461.5
391.186	431.5
391.411	466.5
391.636	434.5
391.86	439.5
392.085	451.5
392.31	441.5
392.534	446.5
392.759	438.5
392.984	428.5
393.208	433.5
393.433	459.5
393.658	467.5
393.882	446.5
394.107	433.5
394.331	453.5
394.556	437.5
394.78	461.5
395.005	442.5
395.229	441.5
395.454	460.5
395.678	440.5
395.903	475.5
396.127	495.5
396.352	466.5
396.576	461.5
396.801	470.5
397.025	477.5
397.249	439.5
397.474	466.5
397.698	471.5
397.922	472.5
398.147	491.5
398.371	510.5
398.595	495.5
398.82	488.5
399.044	496.5
399.268	516.5
399.492	534.5
399.717	563.5
399.941	583.5
400.165	574.5
400.389	585.5
400.613	571.5
400.837	537.5
401.062	517.5
401.286	494.5
401.51	479.5
401.734	502.5
401.958	485.5
402.182	517.5
402.406	544.5
402.63	492.5
402.854	509.5
403.078	499.5
403.302	524.5
403.526	514.5
403.75	498.5
403.974	518.5
404.198	485.5
404.422	505.5
404.645	532.5
404.869	523.5
405.093	550.5
405.317	594.5
405.541	654.5
405.765	581.5
405.988	575.5
406.212	573.5
406.436	599.5
406.66	623.5
406.883	572.5
407.107	602.5
407.331	651.5
407.555	679.5
407.778	722.5
408.002	645.5
408.226	577.5
408.449	599.5
408.673	571.5
408.896	607.5
409.12	622.5
409.344	602.5
409.567	554.5
409.791	557.5
410.014	517.5
410.238	540.5
410.461	516.5
410.685	530.5
410.908	527.5
411.132	574.5
411.355	623.5
411.578	569.5
411.802	529.5
412.025	524.5
412.249	529.5
412.472	571.5
412.695	581.5
412.919	567.5
413.142	547.5
413.365	525.5
413.589	537.5
413.812	513.5
414.035	503.5
414.258	499.5
414.482	506.5
414.705	482.5
414.928	480.5
415.151	478.5
415.374	486.5
415.597	484.5
415.821	506.5
416.044	504.5
416.267	525.5
416.49	479.5
416.713	514.5
416.936	485.5
417.159	478.5
417.382	520.5
417.605	505.5
417.828	524.5
418.051	545.5
418.274	525.5
418.497	489.5
418.72	533.5
418.943	523.5
419.166	515.5
419.389	538.5
419.611	562.5
419.834	556.5
420.057	548.5
420.28	539.5
420.503	528.5
420.726	533.5
420.948	555.5
421.171	598.5
421.394	615.5
421.617	552.5
421.839	529.5
422.062	555.5
422.285	560.5
422.507	615.5
422.73	695.5
422.953	667.5
423.175	609.5
423.398	563.5
423.621	565.5
423.843	571.5
424.066	567.5
424.288	580.5
424.511	592.5
424.733	647.5
424.956	757.5
425.178	733.5
425.401	726.5
425.623	700.5
425.846	640.5
426.068	592.5
426.291	578.5
426.513	571.5
426.735	584.5
426.958	649.5
427.18	707.5
427.402	846.5
427.625	908.5
427.847	834.5
428.069	715.5
428.292	629.5
428.514	606.5
428.736	590.5
428.958	575.5
429.181	551.5
429.403	531.5
429.625	568.5
429.847	592.5
430.069	655.5
430.292	665.5
430.514	571.5
430.736	549.5
430.958	547.5
431.18	517.5
431.402	520.5
431.624	502.5
431.846	515.5
432.068	463.5
432.29	498.5
432.512	520.5
432.734	525.5
432.956	520.5
433.178	525.5
433.4	532.5
433.622	533.5
433.844	491.5
434.066	482.5
434.287	478.5
434.509	509.5
434.731	521.5
434.953	522.5
435.175	561.5
435.397	564.5
435.618	580.5
435.84	640.5
436.062	732.5
436.284	771.5
436.505	675.5
436.727	592.5
436.949	555.5
437.17	571.5
437.392	546.5
437.614	569.5
437.835	603.5
438.057	706.5
438.278	816.5
438.5	795.5
438.721	879.5
438.943	836.5
439.165	663.5
439.386	608.5
439.608	612.5
439.829	606.5
440.05	664.5
440.272	651.5
440.493	623.5
440.715	608.5
440.936	564.5
441.158	560.5
441.379	565.5
441.6	572.5
441.822	579.5
442.043	637.5
442.264	705.5
442.486	743.5
442.707	648.5
442.928	596.5
443.149	617.5
443.371	645.5
443.592	645.5
443.813	773.5
444.034	827.5
444.255	720.5
444.476	600.5
444.698	601.5
444.919	585.5
445.14	729.5
445.361	657.5
445.582	630.5
445.803	690.5
446.024	812.5
446.245	816.5
446.466	744.5
446.687	639.5
446.908	603.5
447.129	567.5
447.35	551.5
447.571	561.5
447.792	545.5
448.013	547.5
448.234	565.5
448.455	631.5
448.675	744.5
448.896	816.5
449.117	725.5
449.338	737.5
449.559	785.5
449.779	858.5
450	747.5
450.221	603.5
450.442	576.5
450.662	561.5
450.883	543.5
451.104	554.5
451.324	565.5
451.545	532.5
451.766	509.5
451.986	498.5
452.207	494.5
452.428	500.5
452.648	480.5
452.869	484.5
453.089	498.5
453.31	506.5
453.53	511.5
453.751	492.5
453.971	490.5
454.192	498.5
454.412	524.5
454.633	493.5
454.853	511.5
455.073	469.5
455.294	509.5
455.514	612.5
455.734	596.5
455.955	503.5
456.175	483.5
456.395	465.5
456.616	455.5
456.836	455.5
457.056	456.5
457.276	438.5
457.497	469.5
457.717	457.5
457.937	479.5
458.157	469.5
458.377	472.5
458.598	483.5
458.818	581.5
459.038	672.5
459.258	653.5
459.478	550.5
459.698	510.5
459.918	518.5
460.138	489.5
460.358	497.5
460.578	478.5
460.798	516.5
461.018	491.5
461.238	505.5
461.458	492.5
461.678	505.5
461.898	512.5
462.118	509.5
462.338	496.5
462.558	531.5
462.777	529.5
462.997	531.5
463.217	532.5
463.437	536.5
463.657	523.5
463.876	539.5
464.096	538.5
464.316	547.5
464.536	545.5
464.755	547.5
464.975	537.5
465.195	597.5
465.414	681.5
465.634	613.5
465.854	551.5
466.073	530.5
466.293	535.5
466.512	510.5
466.732	521.5
466.951	501.5
467.171	494.5
467.391	496.5
467.61	502.5
467.829	519.5
468.049	512.5
468.268	509.5
468.488	505.5
468.707	504.5
468.927	497.5
469.146	477.5
469.365	505.5
469.585	507.5
469.804	506.5
470.023	492.5
470.243	527.5
470.462	508.5
470.681	552.5
470.901	521.5
471.12	526.5
471.339	499.5
471.558	506.5
471.777	498.5
471.997	486.5
472.216	491.5
472.435	561.5
472.654	556.5
472.873	514.5
473.092	503.5
473.311	503.5
473.53	521.5
473.749	522.5
473.968	578.5
474.187	662.5
474.406	685.5
474.625	565.5
474.844	529.5
475.063	518.5
475.282	521.5
475.501	532.5
475.72	542.5
475.939	525.5
476.158	519.5
476.377	537.5
476.596	521.5
476.814	542.5
477.033	551.5
477.252	554.5
477.471	525.5
477.69	551.5
477.908	546.5
478.127	578.5
478.346	565.5
478.564	555.5
478.783	571.5
479.002	604.5
479.22	578.5
479.439	617.5
479.658	603.5
479.876	589.5
480.095	617.5
480.313	659.5
480.532	621.5
480.751	601.5
480.969	642.5
481.188	706.5
481.406	738.5
481.624	663.5
481.843	638.5
482.061	608.5
482.28	605.5
482.498	596.5
482.717	600.5
482.935	608.5
483.153	609.5
483.372	593.5
483.59	613.5
483.808	594.5
484.027	623.5
484.245	587.5
484.463	608.5
484.681	630.5
484.9	592.5
485.118	603.5
485.336	603.5
485.554	633.5
485.772	647.5
485.99	633.5
486.209	624.5
486.427	633.5
486.645	629.5
486.863	675.5
487.081	661.5
487.299	663.5
487.517	675.5
487.735	680.5
487.953	665.5
488.171	670.5
488.389	647.5
488.607	679.5
488.825	686.5
489.043	661.5
489.261	658.5
489.479	688.5
489.696	678.5
489.914	671.5
490.132	701.5
490.35	711.5
490.568	715.5
490.786	716.5
491.003	721.5
491.221	745.5
491.439	781.5
491.657	757.5
491.874	776.5
492.092	781.5
492.31	797.5
492.527	765.5
492.745	801.5
492.963	787.5
493.18	783.5
493.398	806.5
493.615	799.5
493.833	812.5
494.05	784.5
494.268	793.5
494.485	815.5
494.703	807.5
494.92	786.5
495.138	800.5
495.355	810.5
495.573	812.5
495.79	798.5
496.008	823.5
496.225	791.5
496.442	800.5
496.66	811.5
496.877	791.5
497.094	821.5
497.312	793.5
497.529	841.5
497.746	826.5
497.963	814.5
498.181	835.5
498.398	837.5
498.615	834.5
498.832	853.5
499.049	879.5
499.267	879.5
499.484	893.5
499.701	916.5
499.918	919.5
500.135	931.5
500.352	978.5
500.569	984.5
500.786	977.5
501.003	1022.5
501.22	987.5
501.437	954.5
501.654	941.5
501.871	949.5
502.088	942.5
502.305	888.5
502.522	850.5
502.739	881.5
502.956	830.5
503.172	847.5
503.389	821.5
503.606	791.5
503.823	832.5
504.04	814.5
504.256	816.5
504.473	781.5
504.69	789.5
504.907	802.5
505.123	753.5
505.34	787.5
505.557	792.5
505.773	758.5
505.99	777.5
506.207	742.5
506.423	759.5
506.64	774.5
506.856	750.5
507.073	720.5
507.289	755.5
507.506	729.5
507.722	790.5
507.939	779.5
508.155	783.5
508.372	734.5
508.588	725.5
508.805	733.5
509.021	731.5
509.238	726.5
509.454	742.5
509.67	722.5
509.887	719.5
510.103	735.5
510.319	748.5
510.536	870.5
510.752	1403.5
510.968	1161.5
511.184	776.5
511.401	748.5
511.617	709.5
511.833	710.5
512.049	698.5
512.265	686.5
512.481	700.5
512.698	678.5
512.914	682.5
513.13	683.5
513.346	695.5
513.562	695.5
513.778	702.5
513.994	732.5
514.21	729.5
514.426	736.5
514.642	801.5
514.858	822.5
515.074	871.5
515.29	1035.5
515.506	1548.5
515.721	1251.5
515.937	875.5
516.153	774.5
516.369	743.5
516.585	715.5
516.801	705.5
517.016	715.5
517.232	684.5
517.448	718.5
517.664	682.5
517.879	669.5
518.095	684.5
518.311	687.5
518.527	698.5
518.742	702.5
518.958	675.5
519.173	705.5
519.389	691.5
519.605	650.5
519.82	695.5
