Data from 1970.PennyLincolnUp.Lamp.En5.5.200Scan.071719.P1._HRD10591_15-14-48-842.txt Node
Date: Thu Jul 18 15:14:48 EDT 2019
User: cochatt
Spectrometer: HR+D1059
Trigger mode: 1
Integration Time (sec): 1.000000E-1
Scans to average: 1
Electric dark correction enabled: true
Nonlinearity correction enabled: false
Boxcar width: 0
XAxis mode: Wavelengths
Number of Pixels in Spectrum: 2048
>>>>>Begin Spectral Data<<<<<
223.165	-11.69
223.4	-11.69
223.635	-11.69
223.869	-9.69
224.104	-14.69
224.338	-19.69
224.573	-19.69
224.808	-15.69
225.042	-6.69
225.277	-3.69
225.511	-7.69
225.746	-1.69
225.98	-0.69
226.215	12.31
226.449	21.31
226.683	20.31
226.918	22.31
227.152	35.31
227.387	31.31
227.621	38.31
227.856	53.31
228.09	52.31
228.324	51.31
228.559	57.31
228.793	75.31
229.027	103.31
229.262	124.31
229.496	129.31
229.73	137.31
229.964	181.31
230.199	154.31
230.433	115.31
230.667	129.31
230.901	109.31
231.136	118.31
231.37	124.31
231.604	121.31
231.838	105.31
232.072	110.31
232.306	125.31
232.541	135.31
232.775	126.31
233.009	123.31
233.243	124.31
233.477	112.31
233.711	126.31
233.945	127.31
234.179	117.31
234.413	129.31
234.647	125.31
234.881	124.31
235.115	132.31
235.349	127.31
235.583	126.31
235.817	136.31
236.051	145.31
236.285	134.31
236.519	129.31
236.753	137.31
236.987	179.31
237.221	208.31
237.455	265.31
237.689	217.31
237.922	166.31
238.156	159.31
238.39	143.31
238.624	140.31
238.858	141.31
239.091	141.31
239.325	140.31
239.559	144.31
239.793	137.31
240.027	134.31
240.26	153.31
240.494	185.31
240.728	169.31
240.961	171.31
241.195	140.31
241.429	155.31
241.662	120.31
241.896	159.31
242.13	151.31
242.363	143.31
242.597	146.31
242.83	152.31
243.064	127.31
243.298	153.31
243.531	144.31
243.765	161.31
243.998	148.31
244.232	156.31
244.465	167.31
244.699	145.31
244.932	151.31
245.166	161.31
245.399	150.31
245.633	166.31
245.866	154.31
246.099	142.31
246.333	159.31
246.566	167.31
246.8	161.31
247.033	165.31
247.266	173.31
247.5	175.31
247.733	182.31
247.966	184.31
248.2	187.31
248.433	204.31
248.666	175.31
248.899	199.31
249.133	216.31
249.366	226.31
249.599	195.31
249.832	205.31
250.066	207.31
250.299	201.31
250.532	229.31
250.765	218.31
250.998	233.31
251.231	259.31
251.465	232.31
251.698	240.31
251.931	223.31
252.164	207.31
252.397	217.31
252.63	219.31
252.863	237.31
253.096	234.31
253.329	251.31
253.562	265.31
253.795	243.31
254.028	240.31
254.261	239.31
254.494	245.31
254.727	276.31
254.96	312.31
255.193	308.31
255.426	279.31
255.659	272.31
255.892	251.31
256.124	268.31
256.357	258.31
256.59	257.31
256.823	236.31
257.056	236.31
257.289	230.31
257.521	247.31
257.754	225.31
257.987	218.31
258.22	215.31
258.452	218.31
258.685	223.31
258.918	213.31
259.151	234.31
259.383	236.31
259.616	253.31
259.849	240.31
260.081	263.31
260.314	268.31
260.547	284.31
260.779	277.31
261.012	251.31
261.244	247.31
261.477	235.31
261.71	260.31
261.942	265.31
262.175	250.31
262.407	251.31
262.64	237.31
262.872	223.31
263.105	234.31
263.337	231.31
263.57	218.31
263.802	223.31
264.035	227.31
264.267	226.31
264.499	225.31
264.732	220.31
264.964	229.31
265.197	228.31
265.429	230.31
265.661	210.31
265.894	225.31
266.126	216.31
266.358	216.31
266.591	221.31
266.823	231.31
267.055	243.31
267.287	231.31
267.52	221.31
267.752	235.31
267.984	249.31
268.216	243.31
268.448	243.31
268.681	259.31
268.913	268.31
269.145	271.31
269.377	286.31
269.609	287.31
269.841	287.31
270.073	304.31
270.306	297.31
270.538	322.31
270.77	332.31
271.002	334.31
271.234	310.31
271.466	339.31
271.698	349.31
271.93	347.31
272.162	339.31
272.394	337.31
272.626	336.31
272.858	297.31
273.09	300.31
273.322	270.31
273.553	280.31
273.785	291.31
274.017	282.31
274.249	276.31
274.481	271.31
274.713	265.31
274.945	281.31
275.176	294.31
275.408	277.31
275.64	284.31
275.872	264.31
276.104	269.31
276.335	274.31
276.567	277.31
276.799	300.31
277.031	320.31
277.262	353.31
277.494	323.31
277.726	316.31
277.957	287.31
278.189	285.31
278.421	273.31
278.652	269.31
278.884	294.31
279.115	281.31
279.347	269.31
279.579	268.31
279.81	271.31
280.042	280.31
280.273	267.31
280.505	275.31
280.736	267.31
280.968	272.31
281.199	279.31
281.431	280.31
281.662	273.31
281.894	267.31
282.125	283.31
282.356	295.31
282.588	323.31
282.819	305.31
283.051	280.31
283.282	291.31
283.513	272.31
283.745	274.31
283.976	273.31
284.207	275.31
284.439	282.31
284.67	265.31
284.901	280.31
285.132	284.31
285.364	285.31
285.595	266.31
285.826	257.31
286.057	270.31
286.288	275.31
286.52	276.31
286.751	264.31
286.982	282.31
287.213	281.31
287.444	270.31
287.675	279.31
287.906	292.31
288.138	286.31
288.369	304.31
288.6	312.31
288.831	291.31
289.062	293.31
289.293	287.31
289.524	281.31
289.755	285.31
289.986	304.31
290.217	283.31
290.448	293.31
290.679	287.31
290.91	287.31
291.141	280.31
291.371	285.31
291.602	268.31
291.833	296.31
292.064	300.31
292.295	288.31
292.526	286.31
292.757	290.31
292.987	278.31
293.218	282.31
293.449	288.31
293.68	278.31
293.91	281.31
294.141	296.31
294.372	278.31
294.603	294.31
294.833	293.31
295.064	289.31
295.295	291.31
295.525	290.31
295.756	298.31
295.987	296.31
296.217	342.31
296.448	345.31
296.679	319.31
296.909	265.31
297.14	270.31
297.37	280.31
297.601	292.31
297.831	288.31
298.062	294.31
298.292	275.31
298.523	303.31
298.753	297.31
298.984	304.31
299.214	310.31
299.445	309.31
299.675	293.31
299.905	303.31
300.136	303.31
300.366	296.31
300.597	322.31
300.827	313.31
301.057	311.31
301.288	305.31
301.518	325.31
301.748	331.31
301.979	326.31
302.209	324.31
302.439	291.31
302.669	330.31
302.9	340.31
303.13	301.31
303.36	334.31
303.59	330.31
303.82	339.31
304.051	340.31
304.281	330.31
304.511	321.31
304.741	311.31
304.971	308.31
305.201	307.31
305.431	317.31
305.661	309.31
305.891	323.31
306.121	319.31
306.352	330.31
306.582	333.31
306.812	344.31
307.042	328.31
307.272	345.31
307.502	341.31
307.731	314.31
307.961	322.31
308.191	325.31
308.421	341.31
308.651	333.31
308.881	335.31
309.111	357.31
309.341	332.31
309.571	363.31
309.8	366.31
310.03	393.31
310.26	385.31
310.49	376.31
310.72	369.31
310.949	424.31
311.179	412.31
311.409	408.31
311.639	387.31
311.868	396.31
312.098	383.31
312.328	398.31
312.557	398.31
312.787	428.31
313.017	423.31
313.246	387.31
313.476	389.31
313.706	388.31
313.935	390.31
314.165	415.31
314.394	398.31
314.624	401.31
314.853	386.31
315.083	395.31
315.312	393.31
315.542	361.31
315.771	350.31
316.001	379.31
316.23	375.31
316.46	382.31
316.689	375.31
316.919	377.31
317.148	387.31
317.377	407.31
317.607	391.31
317.836	393.31
318.065	389.31
318.295	383.31
318.524	384.31
318.753	400.31
318.983	387.31
319.212	387.31
319.441	366.31
319.67	392.31
319.9	393.31
320.129	383.31
320.358	394.31
320.587	409.31
320.816	387.31
321.046	393.31
321.275	400.31
321.504	390.31
321.733	410.31
321.962	424.31
322.191	444.31
322.42	452.31
322.649	474.31
322.878	460.31
323.108	509.31
323.337	508.31
323.566	545.31
323.795	582.31
324.024	643.31
324.253	767.31
324.482	1104.31
324.71	1688.31
324.939	2362.31
325.168	2094.31
325.397	1105.31
325.626	740.31
325.855	617.31
326.084	561.31
326.313	548.31
326.542	558.31
326.77	597.31
326.999	726.31
327.228	975.31
327.457	1471.31
327.686	1793.31
327.914	1217.31
328.143	840.31
328.372	683.31
328.6	664.31
328.829	630.31
329.058	643.31
329.287	631.31
329.515	627.31
329.744	558.31
329.972	578.31
330.201	585.31
330.43	623.31
330.658	651.31
330.887	669.31
331.115	652.31
331.344	555.31
331.572	524.31
331.801	505.31
332.03	511.31
332.258	481.31
332.486	464.31
332.715	449.31
332.943	478.31
333.172	477.31
333.4	468.31
333.629	478.31
333.857	484.31
334.085	485.31
334.314	537.31
334.542	555.31
334.771	570.31
334.999	523.31
335.227	492.31
335.455	477.31
335.684	461.31
335.912	439.31
336.14	445.31
336.369	462.31
336.597	468.31
336.825	452.31
337.053	455.31
337.281	443.31
337.51	441.31
337.738	438.31
337.966	449.31
338.194	448.31
338.422	457.31
338.65	452.31
338.878	413.31
339.106	436.31
339.334	428.31
339.562	430.31
339.79	416.31
340.018	444.31
340.246	437.31
340.474	454.31
340.702	438.31
340.93	427.31
341.158	433.31
341.386	444.31
341.614	463.31
341.842	450.31
342.07	455.31
342.298	429.31
342.526	429.31
342.754	402.31
342.981	426.31
343.209	436.31
343.437	437.31
343.665	428.31
343.893	415.31
344.12	426.31
344.348	425.31
344.576	443.31
344.804	445.31
345.031	468.31
345.259	452.31
345.487	449.31
345.714	455.31
345.942	461.31
346.17	440.31
346.397	439.31
346.625	431.31
346.853	423.31
347.08	439.31
347.308	429.31
347.535	446.31
347.763	442.31
347.99	453.31
348.218	449.31
348.445	465.31
348.673	453.31
348.9	442.31
349.128	426.31
349.355	407.31
349.583	409.31
349.81	436.31
350.037	413.31
350.265	420.31
350.492	400.31
350.72	433.31
350.947	443.31
351.174	454.31
351.402	446.31
351.629	429.31
351.856	443.31
352.083	439.31
352.311	437.31
352.538	468.31
352.765	486.31
352.992	447.31
353.22	460.31
353.447	430.31
353.674	441.31
353.901	410.31
354.128	401.31
354.355	420.31
354.583	392.31
354.81	430.31
355.037	392.31
355.264	405.31
355.491	394.31
355.718	395.31
355.945	416.31
356.172	397.31
356.399	389.31
356.626	400.31
356.853	397.31
357.08	406.31
357.307	393.31
357.534	412.31
357.761	397.31
357.988	415.31
358.215	415.31
358.441	412.31
358.668	424.31
358.895	408.31
359.122	413.31
359.349	415.31
359.576	453.31
359.802	476.31
360.029	510.31
360.256	540.31
360.483	488.31
360.709	432.31
360.936	458.31
361.163	433.31
361.39	438.31
361.616	443.31
361.843	481.31
362.07	458.31
362.296	448.31
362.523	443.31
362.749	443.31
362.976	420.31
363.203	441.31
363.429	429.31
363.656	426.31
363.882	425.31
364.109	411.31
364.335	428.31
364.562	412.31
364.788	411.31
365.015	443.31
365.241	410.31
365.468	411.31
365.694	415.31
365.92	445.31
366.147	429.31
366.373	420.31
366.599	414.31
366.826	419.31
367.052	421.31
367.278	412.31
367.505	422.31
367.731	413.31
367.957	417.31
368.184	438.31
368.41	426.31
368.636	429.31
368.862	436.31
369.089	422.31
369.315	431.31
369.541	413.31
369.767	413.31
369.993	419.31
370.219	401.31
370.445	423.31
370.672	392.31
370.898	422.31
371.124	415.31
371.35	427.31
371.576	414.31
371.802	400.31
372.028	409.31
372.254	417.31
372.48	424.31
372.706	409.31
372.932	407.31
373.158	411.31
373.384	429.31
373.61	425.31
373.835	405.31
374.061	409.31
374.287	446.31
374.513	419.31
374.739	432.31
374.965	431.31
375.191	424.31
375.416	426.31
375.642	442.31
375.868	416.31
376.094	443.31
376.319	433.31
376.545	419.31
376.771	401.31
376.997	402.31
377.222	400.31
377.448	408.31
377.674	407.31
377.899	400.31
378.125	427.31
378.35	419.31
378.576	429.31
378.802	414.31
379.027	412.31
379.253	404.31
379.478	396.31
379.704	432.31
379.929	407.31
380.155	410.31
380.38	427.31
380.606	442.31
380.831	458.31
381.057	427.31
381.282	412.31
381.507	407.31
381.733	413.31
381.958	431.31
382.184	413.31
382.409	428.31
382.634	434.31
382.86	455.31
383.085	428.31
383.31	443.31
383.535	435.31
383.761	449.31
383.986	440.31
384.211	437.31
384.436	433.31
384.662	452.31
384.887	444.31
385.112	436.31
385.337	440.31
385.562	439.31
385.787	454.31
386.013	478.31
386.238	447.31
386.463	469.31
386.688	460.31
386.913	458.31
387.138	459.31
387.363	433.31
387.588	460.31
387.813	445.31
388.038	447.31
388.263	461.31
388.488	460.31
388.713	432.31
388.938	463.31
389.163	461.31
389.387	449.31
389.612	443.31
389.837	455.31
390.062	472.31
390.287	440.31
390.512	457.31
390.736	450.31
390.961	460.31
391.186	447.31
391.411	468.31
391.636	457.31
391.86	471.31
392.085	480.31
392.31	475.31
392.534	458.31
392.759	470.31
392.984	476.31
393.208	451.31
393.433	437.31
393.658	471.31
393.882	450.31
394.107	441.31
394.331	457.31
394.556	488.31
394.78	444.31
395.005	464.31
395.229	446.31
395.454	459.31
395.678	460.31
395.903	465.31
396.127	486.31
396.352	494.31
396.576	488.31
396.801	480.31
397.025	447.31
397.249	482.31
397.474	507.31
397.698	487.31
397.922	490.31
398.147	500.31
398.371	517.31
398.595	523.31
398.82	522.31
399.044	518.31
399.268	517.31
399.492	542.31
399.717	567.31
399.941	565.31
400.165	620.31
400.389	631.31
400.613	580.31
400.837	560.31
401.062	530.31
401.286	516.31
401.51	513.31
401.734	492.31
401.958	504.31
402.182	529.31
402.406	531.31
402.63	551.31
402.854	520.31
403.078	508.31
403.302	538.31
403.526	539.31
403.75	546.31
403.974	525.31
404.198	538.31
404.422	553.31
404.645	561.31
404.869	580.31
405.093	581.31
405.317	639.31
405.541	671.31
405.765	606.31
405.988	575.31
406.212	593.31
406.436	620.31
406.66	601.31
406.883	609.31
407.107	622.31
407.331	669.31
407.555	728.31
407.778	682.31
408.002	649.31
408.226	638.31
408.449	582.31
408.673	599.31
408.896	628.31
409.12	661.31
409.344	645.31
409.567	542.31
409.791	556.31
410.014	570.31
410.238	568.31
410.461	570.31
410.685	551.31
410.908	607.31
411.132	590.31
411.355	626.31
411.578	599.31
411.802	583.31
412.025	569.31
412.249	571.31
412.472	570.31
412.695	613.31
412.919	639.31
413.142	595.31
413.365	565.31
413.589	525.31
413.812	540.31
414.035	558.31
414.258	540.31
414.482	517.31
414.705	520.31
414.928	501.31
415.151	491.31
415.374	519.31
415.597	525.31
415.821	519.31
416.044	538.31
416.267	536.31
416.49	506.31
416.713	510.31
416.936	518.31
417.159	510.31
417.382	539.31
417.605	547.31
417.828	528.31
418.051	535.31
418.274	548.31
418.497	541.31
418.72	522.31
418.943	535.31
419.166	541.31
419.389	556.31
419.611	557.31
419.834	545.31
420.057	557.31
420.28	568.31
420.503	553.31
420.726	557.31
420.948	574.31
421.171	613.31
421.394	641.31
421.617	575.31
421.839	553.31
422.062	550.31
422.285	565.31
422.507	635.31
422.73	715.31
422.953	671.31
423.175	612.31
423.398	587.31
423.621	599.31
423.843	575.31
424.066	608.31
424.288	596.31
424.511	628.31
424.733	672.31
424.956	766.31
425.178	728.31
425.401	725.31
425.623	769.31
425.846	651.31
426.068	609.31
426.291	609.31
426.513	614.31
426.735	647.31
426.958	662.31
427.18	759.31
427.402	913.31
427.625	963.31
427.847	914.31
428.069	743.31
428.292	682.31
428.514	636.31
428.736	631.31
428.958	618.31
429.181	593.31
429.403	580.31
429.625	589.31
429.847	627.31
430.069	701.31
430.292	680.31
430.514	597.31
430.736	569.31
430.958	563.31
431.18	539.31
431.402	555.31
431.624	560.31
431.846	543.31
432.068	516.31
432.29	553.31
432.512	542.31
432.734	526.31
432.956	543.31
433.178	550.31
433.4	583.31
433.622	550.31
433.844	543.31
434.066	556.31
434.287	539.31
434.509	534.31
434.731	540.31
434.953	561.31
435.175	567.31
435.397	620.31
435.618	604.31
435.84	649.31
436.062	762.31
436.284	813.31
436.505	700.31
436.727	622.31
436.949	611.31
437.17	574.31
437.392	593.31
437.614	600.31
437.835	634.31
438.057	741.31
438.278	860.31
438.5	809.31
438.721	871.31
438.943	857.31
439.165	713.31
439.386	665.31
439.608	640.31
439.829	659.31
440.05	652.31
440.272	712.31
440.493	676.31
440.715	629.31
440.936	609.31
441.158	573.31
441.379	581.31
441.6	605.31
441.822	608.31
442.043	658.31
442.264	767.31
442.486	809.31
442.707	675.31
442.928	648.31
443.149	623.31
443.371	671.31
443.592	702.31
443.813	804.31
444.034	820.31
444.255	715.31
444.476	640.31
444.698	627.31
444.919	606.31
445.14	702.31
445.361	656.31
445.582	680.31
445.803	726.31
446.024	824.31
446.245	841.31
446.466	803.31
446.687	702.31
446.908	633.31
447.129	612.31
447.35	587.31
447.571	573.31
447.792	564.31
448.013	580.31
448.234	584.31
448.455	641.31
448.675	769.31
448.896	896.31
449.117	775.31
449.338	731.31
449.559	844.31
449.779	939.31
450	731.31
450.221	631.31
450.442	604.31
450.662	585.31
450.883	585.31
451.104	598.31
451.324	601.31
451.545	565.31
451.766	536.31
451.986	541.31
452.207	530.31
452.428	505.31
452.648	526.31
452.869	517.31
453.089	535.31
453.31	532.31
453.53	525.31
453.751	525.31
453.971	522.31
454.192	560.31
454.412	529.31
454.633	523.31
454.853	506.31
455.073	534.31
455.294	548.31
455.514	617.31
455.734	606.31
455.955	539.31
456.175	510.31
456.395	501.31
456.616	504.31
456.836	485.31
457.056	490.31
457.276	472.31
457.497	495.31
457.717	477.31
457.937	496.31
458.157	495.31
458.377	490.31
458.598	529.31
458.818	580.31
459.038	682.31
459.258	717.31
459.478	592.31
459.698	555.31
459.918	545.31
460.138	527.31
460.358	511.31
460.578	528.31
460.798	529.31
461.018	529.31
461.238	554.31
461.458	530.31
461.678	496.31
461.898	519.31
462.118	536.31
462.338	532.31
462.558	552.31
462.777	554.31
462.997	561.31
463.217	567.31
463.437	556.31
463.657	538.31
463.876	565.31
464.096	560.31
464.316	550.31
464.536	564.31
464.755	565.31
464.975	563.31
465.195	635.31
465.414	731.31
465.634	639.31
465.854	565.31
466.073	565.31
466.293	553.31
466.512	554.31
466.732	524.31
466.951	519.31
467.171	518.31
467.391	511.31
467.61	527.31
467.829	542.31
468.049	552.31
468.268	524.31
468.488	533.31
468.707	499.31
468.927	507.31
469.146	507.31
469.365	484.31
469.585	503.31
469.804	541.31
470.023	555.31
470.243	543.31
470.462	536.31
470.681	543.31
470.901	566.31
471.12	523.31
471.339	519.31
471.558	538.31
471.777	546.31
471.997	520.31
472.216	529.31
472.435	584.31
472.654	558.31
472.873	529.31
473.092	539.31
473.311	528.31
473.53	551.31
473.749	551.31
473.968	622.31
474.187	701.31
474.406	720.31
474.625	608.31
474.844	583.31
475.063	545.31
475.282	544.31
475.501	566.31
475.72	540.31
475.939	553.31
476.158	542.31
476.377	553.31
476.596	565.31
476.814	573.31
477.033	552.31
477.252	566.31
477.471	551.31
477.69	577.31
477.908	565.31
478.127	566.31
478.346	583.31
478.564	592.31
478.783	617.31
479.002	586.31
479.22	602.31
479.439	635.31
479.658	655.31
479.876	667.31
480.095	639.31
480.313	681.31
480.532	657.31
480.751	643.31
480.969	671.31
481.188	737.31
481.406	783.31
481.624	688.31
481.843	663.31
482.061	678.31
482.28	661.31
482.498	632.31
482.717	652.31
482.935	657.31
483.153	638.31
483.372	647.31
483.59	642.31
483.808	625.31
484.027	650.31
484.245	618.31
484.463	627.31
484.681	651.31
484.9	644.31
485.118	663.31
485.336	656.31
485.554	638.31
485.772	662.31
485.99	663.31
486.209	644.31
486.427	666.31
486.645	689.31
486.863	729.31
487.081	713.31
487.299	677.31
487.517	698.31
487.735	707.31
487.953	724.31
488.171	693.31
488.389	712.31
488.607	691.31
488.825	696.31
489.043	691.31
489.261	696.31
489.479	719.31
489.696	696.31
489.914	726.31
490.132	727.31
490.35	723.31
490.568	732.31
490.786	765.31
491.003	747.31
491.221	775.31
491.439	763.31
491.657	819.31
491.874	823.31
492.092	813.31
492.31	806.31
492.527	825.31
492.745	818.31
492.963	843.31
493.18	807.31
493.398	825.31
493.615	854.31
493.833	863.31
494.05	870.31
494.268	808.31
494.485	824.31
494.703	845.31
494.92	833.31
495.138	844.31
495.355	835.31
495.573	834.31
495.79	833.31
496.008	851.31
496.225	857.31
496.442	853.31
496.66	829.31
496.877	841.31
497.094	883.31
497.312	857.31
497.529	824.31
497.746	856.31
497.963	853.31
498.181	877.31
498.398	869.31
498.615	893.31
498.832	890.31
499.049	911.31
499.267	929.31
499.484	951.31
499.701	959.31
499.918	976.31
500.135	1003.31
500.352	1032.31
500.569	1037.31
500.786	1037.31
501.003	1032.31
501.22	1006.31
501.437	992.31
501.654	996.31
501.871	1003.31
