Data from 1970.PennyLincolnUp.Lamp.En5.5.200Scan.071719.P1._HRD10591_15-12-51-844.txt Node
Date: Thu Jul 18 15:12:51 EDT 2019
User: cochatt
Spectrometer: HR+D1059
Trigger mode: 1
Integration Time (sec): 1.000000E-1
Scans to average: 1
Electric dark correction enabled: true
Nonlinearity correction enabled: false
Boxcar width: 0
XAxis mode: Wavelengths
Number of Pixels in Spectrum: 2048
>>>>>Begin Spectral Data<<<<<
223.165	-7.81
223.4	-7.81
223.635	-7.81
223.869	-7.81
224.104	-28.81
224.338	-16.81
224.573	-21.81
224.808	-12.81
225.042	-11.81
225.277	-13.81
225.511	-10.81
225.746	10.19
225.98	17.19
226.215	5.19
226.449	18.19
226.683	23.19
226.918	20.19
227.152	38.19
227.387	37.19
227.621	44.19
227.856	34.19
228.09	48.19
228.324	47.19
228.559	59.19
228.793	58.19
229.027	74.19
229.262	71.19
229.496	70.19
229.73	82.19
229.964	86.19
230.199	82.19
230.433	94.19
230.667	87.19
230.901	93.19
231.136	88.19
231.37	90.19
231.604	92.19
231.838	86.19
232.072	90.19
232.306	68.19
232.541	89.19
232.775	99.19
233.009	84.19
233.243	91.19
233.477	94.19
233.711	91.19
233.945	78.19
234.179	98.19
234.413	95.19
234.647	96.19
234.881	93.19
235.115	99.19
235.349	100.19
235.583	86.19
235.817	89.19
236.051	93.19
236.285	97.19
236.519	99.19
236.753	105.19
236.987	94.19
237.221	119.19
237.455	97.19
237.689	104.19
237.922	106.19
238.156	83.19
238.39	84.19
238.624	76.19
238.858	85.19
239.091	101.19
239.325	87.19
239.559	102.19
239.793	85.19
240.027	88.19
240.26	99.19
240.494	110.19
240.728	107.19
240.961	88.19
241.195	89.19
241.429	84.19
241.662	73.19
241.896	86.19
242.13	87.19
242.363	85.19
242.597	71.19
242.83	81.19
243.064	97.19
243.298	98.19
243.531	84.19
243.765	84.19
243.998	89.19
244.232	107.19
244.465	101.19
244.699	107.19
244.932	84.19
245.166	102.19
245.399	96.19
245.633	96.19
245.866	93.19
246.099	88.19
246.333	93.19
246.566	104.19
246.8	104.19
247.033	91.19
247.266	99.19
247.5	87.19
247.733	100.19
247.966	95.19
248.2	104.19
248.433	91.19
248.666	108.19
248.899	97.19
249.133	99.19
249.366	105.19
249.599	107.19
249.832	102.19
250.066	111.19
250.299	103.19
250.532	99.19
250.765	103.19
250.998	110.19
251.231	115.19
251.465	103.19
251.698	102.19
251.931	110.19
252.164	87.19
252.397	93.19
252.63	87.19
252.863	85.19
253.096	108.19
253.329	105.19
253.562	108.19
253.795	103.19
254.028	113.19
254.261	117.19
254.494	101.19
254.727	107.19
254.96	124.19
255.193	104.19
255.426	104.19
255.659	105.19
255.892	95.19
256.124	102.19
256.357	104.19
256.59	109.19
256.823	109.19
257.056	105.19
257.289	110.19
257.521	101.19
257.754	92.19
257.987	101.19
258.22	99.19
258.452	103.19
258.685	103.19
258.918	100.19
259.151	107.19
259.383	120.19
259.616	118.19
259.849	102.19
260.081	110.19
260.314	104.19
260.547	112.19
260.779	123.19
261.012	121.19
261.244	116.19
261.477	99.19
261.71	100.19
261.942	102.19
262.175	109.19
262.407	87.19
262.64	111.19
262.872	119.19
263.105	112.19
263.337	119.19
263.57	99.19
263.802	98.19
264.035	104.19
264.267	94.19
264.499	111.19
264.732	103.19
264.964	109.19
265.197	112.19
265.429	93.19
265.661	96.19
265.894	107.19
266.126	109.19
266.358	100.19
266.591	108.19
266.823	95.19
267.055	108.19
267.287	113.19
267.52	105.19
267.752	101.19
267.984	112.19
268.216	117.19
268.448	111.19
268.681	106.19
268.913	103.19
269.145	113.19
269.377	115.19
269.609	97.19
269.841	110.19
270.073	103.19
270.306	110.19
270.538	121.19
270.77	125.19
271.002	124.19
271.234	123.19
271.466	127.19
271.698	113.19
271.93	122.19
272.162	114.19
272.394	110.19
272.626	128.19
272.858	100.19
273.09	124.19
273.322	115.19
273.553	119.19
273.785	117.19
274.017	141.19
274.249	120.19
274.481	98.19
274.713	108.19
274.945	124.19
275.176	120.19
275.408	113.19
275.64	115.19
275.872	115.19
276.104	133.19
276.335	122.19
276.567	107.19
276.799	120.19
277.031	126.19
277.262	112.19
277.494	112.19
277.726	129.19
277.957	129.19
278.189	120.19
278.421	123.19
278.652	113.19
278.884	117.19
279.115	115.19
279.347	133.19
279.579	125.19
279.81	148.19
280.042	154.19
280.273	134.19
280.505	131.19
280.736	133.19
280.968	116.19
281.199	113.19
281.431	113.19
281.662	109.19
281.894	118.19
282.125	98.19
282.356	116.19
282.588	128.19
282.819	142.19
283.051	123.19
283.282	104.19
283.513	119.19
283.745	121.19
283.976	117.19
284.207	111.19
284.439	126.19
284.67	97.19
284.901	123.19
285.132	99.19
285.364	124.19
285.595	120.19
285.826	128.19
286.057	109.19
286.288	131.19
286.52	116.19
286.751	97.19
286.982	118.19
287.213	115.19
287.444	125.19
287.675	118.19
287.906	118.19
288.138	111.19
288.369	108.19
288.6	129.19
288.831	125.19
289.062	126.19
289.293	116.19
289.524	131.19
289.755	109.19
289.986	104.19
290.217	135.19
290.448	118.19
290.679	125.19
290.91	129.19
291.141	115.19
291.371	109.19
291.602	122.19
291.833	112.19
292.064	119.19
292.295	117.19
292.526	126.19
292.757	111.19
292.987	112.19
293.218	131.19
293.449	123.19
293.68	111.19
293.91	112.19
294.141	127.19
294.372	123.19
294.603	122.19
294.833	126.19
295.064	119.19
295.295	126.19
295.525	127.19
295.756	126.19
295.987	109.19
296.217	121.19
296.448	127.19
296.679	128.19
296.909	113.19
297.14	120.19
297.37	121.19
297.601	119.19
297.831	115.19
298.062	133.19
298.292	124.19
298.523	117.19
298.753	131.19
298.984	126.19
299.214	115.19
299.445	129.19
299.675	132.19
299.905	132.19
300.136	113.19
300.366	111.19
300.597	121.19
300.827	120.19
301.057	126.19
301.288	121.19
301.518	127.19
301.748	134.19
301.979	127.19
302.209	128.19
302.439	128.19
302.669	132.19
302.9	122.19
303.13	123.19
303.36	124.19
303.59	124.19
303.82	116.19
304.051	137.19
304.281	127.19
304.511	134.19
304.741	133.19
304.971	125.19
305.201	132.19
305.431	125.19
305.661	125.19
305.891	121.19
306.121	127.19
306.352	124.19
306.582	113.19
306.812	132.19
307.042	120.19
307.272	128.19
307.502	119.19
307.731	115.19
307.961	135.19
308.191	137.19
308.421	128.19
308.651	123.19
308.881	121.19
309.111	132.19
309.341	136.19
309.571	137.19
309.8	132.19
310.03	113.19
310.26	129.19
310.49	138.19
310.72	133.19
310.949	127.19
311.179	147.19
311.409	117.19
311.639	125.19
311.868	127.19
312.098	139.19
312.328	140.19
312.557	143.19
312.787	154.19
313.017	145.19
313.246	141.19
313.476	137.19
313.706	131.19
313.935	131.19
314.165	128.19
314.394	131.19
314.624	133.19
314.853	142.19
315.083	147.19
315.312	134.19
315.542	140.19
315.771	142.19
316.001	128.19
316.23	140.19
316.46	135.19
316.689	126.19
316.919	127.19
317.148	140.19
317.377	131.19
317.607	156.19
317.836	134.19
318.065	138.19
318.295	138.19
318.524	127.19
318.753	143.19
318.983	137.19
319.212	144.19
319.441	142.19
319.67	141.19
319.9	141.19
320.129	124.19
320.358	122.19
320.587	149.19
320.816	137.19
321.046	139.19
321.275	127.19
321.504	143.19
321.733	153.19
321.962	148.19
322.191	147.19
322.42	132.19
322.649	150.19
322.878	149.19
323.108	149.19
323.337	160.19
323.566	163.19
323.795	169.19
324.024	178.19
324.253	225.19
324.482	305.19
324.71	401.19
324.939	486.19
325.168	411.19
325.397	247.19
325.626	187.19
325.855	159.19
326.084	159.19
326.313	158.19
326.542	173.19
326.77	174.19
326.999	204.19
327.228	267.19
327.457	383.19
327.686	390.19
327.914	291.19
328.143	211.19
328.372	176.19
328.6	173.19
328.829	159.19
329.058	170.19
329.287	170.19
329.515	160.19
329.744	157.19
329.972	159.19
330.201	148.19
330.43	156.19
330.658	187.19
330.887	175.19
331.115	154.19
331.344	165.19
331.572	173.19
331.801	170.19
332.03	153.19
332.258	148.19
332.486	155.19
332.715	142.19
332.943	137.19
333.172	144.19
333.4	128.19
333.629	156.19
333.857	157.19
334.085	143.19
334.314	154.19
334.542	149.19
334.771	163.19
334.999	155.19
335.227	141.19
335.455	143.19
335.684	134.19
335.912	128.19
336.14	123.19
336.369	143.19
336.597	161.19
336.825	157.19
337.053	150.19
337.281	149.19
337.51	151.19
337.738	145.19
337.966	155.19
338.194	140.19
338.422	162.19
338.65	166.19
338.878	139.19
339.106	133.19
339.334	150.19
339.562	139.19
339.79	135.19
340.018	147.19
340.246	142.19
340.474	135.19
340.702	139.19
340.93	147.19
341.158	153.19
341.386	146.19
341.614	137.19
341.842	127.19
342.07	140.19
342.298	139.19
342.526	143.19
342.754	132.19
342.981	127.19
343.209	126.19
343.437	155.19
343.665	135.19
343.893	156.19
344.12	146.19
344.348	143.19
344.576	133.19
344.804	148.19
345.031	146.19
345.259	138.19
345.487	136.19
345.714	152.19
345.942	128.19
346.17	135.19
346.397	135.19
346.625	144.19
346.853	141.19
347.08	135.19
347.308	156.19
347.535	152.19
347.763	137.19
347.99	133.19
348.218	129.19
348.445	145.19
348.673	144.19
348.9	138.19
349.128	136.19
349.355	147.19
349.583	131.19
349.81	143.19
350.037	139.19
350.265	143.19
350.492	149.19
350.72	126.19
350.947	147.19
351.174	135.19
351.402	135.19
351.629	137.19
351.856	139.19
352.083	135.19
352.311	132.19
352.538	164.19
352.765	140.19
352.992	140.19
353.22	132.19
353.447	130.19
353.674	144.19
353.901	145.19
354.128	133.19
354.355	151.19
354.583	136.19
354.81	123.19
355.037	133.19
355.264	142.19
355.491	129.19
355.718	134.19
355.945	135.19
356.172	128.19
356.399	143.19
356.626	128.19
356.853	134.19
357.08	138.19
357.307	129.19
357.534	137.19
357.761	135.19
357.988	150.19
358.215	137.19
358.441	133.19
358.668	141.19
358.895	137.19
359.122	134.19
359.349	147.19
359.576	138.19
359.802	128.19
360.029	156.19
360.256	155.19
360.483	134.19
360.709	145.19
360.936	138.19
361.163	129.19
361.39	135.19
361.616	137.19
361.843	127.19
362.07	136.19
362.296	148.19
362.523	137.19
362.749	149.19
362.976	122.19
363.203	140.19
363.429	139.19
363.656	139.19
363.882	146.19
364.109	139.19
364.335	141.19
364.562	136.19
364.788	124.19
365.015	120.19
365.241	135.19
365.468	135.19
365.694	143.19
365.92	150.19
366.147	123.19
366.373	128.19
366.599	135.19
366.826	153.19
367.052	153.19
367.278	131.19
367.505	140.19
367.731	144.19
367.957	139.19
368.184	137.19
368.41	129.19
368.636	142.19
368.862	126.19
369.089	129.19
369.315	132.19
369.541	129.19
369.767	136.19
369.993	143.19
370.219	144.19
370.445	135.19
370.672	135.19
370.898	141.19
371.124	148.19
371.35	143.19
371.576	119.19
371.802	153.19
372.028	159.19
372.254	137.19
372.48	133.19
372.706	141.19
372.932	138.19
373.158	127.19
373.384	153.19
373.61	147.19
373.835	137.19
374.061	135.19
374.287	146.19
374.513	124.19
374.739	133.19
374.965	135.19
375.191	138.19
375.416	141.19
375.642	130.19
375.868	142.19
376.094	132.19
376.319	132.19
376.545	130.19
376.771	150.19
376.997	135.19
377.222	133.19
377.448	137.19
377.674	136.19
377.899	136.19
378.125	121.19
378.35	140.19
378.576	132.19
378.802	140.19
379.027	150.19
379.253	129.19
379.478	134.19
379.704	140.19
379.929	143.19
380.155	139.19
380.38	149.19
380.606	139.19
380.831	144.19
381.057	139.19
381.282	151.19
381.507	148.19
381.733	125.19
381.958	126.19
382.184	141.19
382.409	140.19
382.634	141.19
382.86	140.19
383.085	135.19
383.31	163.19
383.535	159.19
383.761	138.19
383.986	137.19
384.211	144.19
384.436	152.19
384.662	153.19
384.887	159.19
385.112	155.19
385.337	151.19
385.562	154.19
385.787	158.19
386.013	152.19
386.238	152.19
386.463	157.19
386.688	129.19
386.913	163.19
387.138	136.19
387.363	153.19
387.588	148.19
387.813	144.19
388.038	154.19
388.263	163.19
388.488	164.19
388.713	144.19
388.938	151.19
389.163	159.19
389.387	163.19
389.612	144.19
389.837	149.19
390.062	153.19
390.287	137.19
390.512	152.19
390.736	140.19
390.961	129.19
391.186	150.19
391.411	137.19
391.636	133.19
391.86	160.19
392.085	163.19
392.31	147.19
392.534	163.19
392.759	164.19
392.984	143.19
393.208	202.19
393.433	239.19
393.658	222.19
393.882	166.19
394.107	154.19
394.331	149.19
394.556	157.19
394.78	139.19
395.005	145.19
395.229	153.19
395.454	144.19
395.678	144.19
395.903	160.19
396.127	175.19
396.352	159.19
396.576	167.19
396.801	185.19
397.025	231.19
397.249	179.19
397.474	165.19
397.698	162.19
397.922	167.19
398.147	160.19
398.371	160.19
398.595	172.19
398.82	169.19
399.044	165.19
399.268	154.19
399.492	165.19
399.717	166.19
399.941	171.19
400.165	177.19
400.389	189.19
400.613	173.19
400.837	166.19
401.062	174.19
401.286	153.19
401.51	179.19
401.734	160.19
401.958	163.19
402.182	147.19
402.406	156.19
402.63	184.19
402.854	156.19
403.078	146.19
403.302	163.19
403.526	162.19
403.75	153.19
403.974	162.19
404.198	168.19
404.422	173.19
404.645	166.19
404.869	172.19
405.093	171.19
405.317	167.19
405.541	173.19
405.765	157.19
405.988	177.19
406.212	168.19
406.436	167.19
406.66	170.19
406.883	172.19
407.107	176.19
407.331	198.19
407.555	192.19
407.778	185.19
408.002	187.19
408.226	173.19
408.449	170.19
408.673	174.19
408.896	159.19
409.12	172.19
409.344	159.19
409.567	174.19
409.791	158.19
410.014	156.19
410.238	157.19
410.461	166.19
410.685	163.19
410.908	159.19
411.132	169.19
411.355	169.19
411.578	155.19
411.802	175.19
412.025	168.19
412.249	162.19
412.472	155.19
412.695	151.19
412.919	153.19
413.142	174.19
413.365	164.19
413.589	157.19
413.812	175.19
414.035	154.19
414.258	152.19
414.482	171.19
414.705	152.19
414.928	151.19
415.151	164.19
415.374	167.19
415.597	157.19
415.821	150.19
416.044	163.19
416.267	157.19
416.49	157.19
416.713	170.19
416.936	157.19
417.159	159.19
417.382	153.19
417.605	158.19
417.828	172.19
418.051	158.19
418.274	155.19
418.497	158.19
418.72	174.19
418.943	163.19
419.166	154.19
419.389	151.19
419.611	155.19
419.834	166.19
420.057	186.19
420.28	171.19
420.503	166.19
420.726	175.19
420.948	159.19
421.171	192.19
421.394	191.19
421.617	172.19
421.839	171.19
422.062	183.19
422.285	165.19
422.507	196.19
422.73	213.19
422.953	202.19
423.175	169.19
423.398	183.19
423.621	169.19
423.843	183.19
424.066	160.19
424.288	161.19
424.511	161.19
424.733	180.19
424.956	214.19
425.178	198.19
425.401	181.19
425.623	190.19
425.846	176.19
426.068	181.19
426.291	168.19
426.513	173.19
426.735	168.19
426.958	192.19
427.18	202.19
427.402	214.19
427.625	229.19
427.847	207.19
428.069	192.19
428.292	183.19
428.514	174.19
428.736	184.19
428.958	163.19
429.181	158.19
429.403	173.19
429.625	159.19
429.847	159.19
430.069	179.19
430.292	187.19
430.514	164.19
430.736	181.19
430.958	158.19
431.18	159.19
431.402	149.19
431.624	156.19
431.846	148.19
432.068	142.19
432.29	167.19
432.512	167.19
432.734	156.19
432.956	159.19
433.178	154.19
433.4	160.19
433.622	164.19
433.844	158.19
434.066	165.19
434.287	155.19
434.509	143.19
434.731	145.19
434.953	146.19
435.175	151.19
435.397	168.19
435.618	158.19
435.84	177.19
436.062	208.19
436.284	208.19
436.505	192.19
436.727	171.19
436.949	169.19
437.17	160.19
437.392	172.19
437.614	160.19
437.835	171.19
438.057	184.19
438.278	203.19
438.5	217.19
438.721	213.19
438.943	211.19
439.165	176.19
439.386	169.19
439.608	188.19
439.829	164.19
440.05	187.19
440.272	190.19
440.493	184.19
440.715	154.19
440.936	160.19
441.158	181.19
441.379	181.19
441.6	165.19
441.822	176.19
442.043	187.19
442.264	206.19
442.486	192.19
442.707	202.19
442.928	187.19
443.149	170.19
443.371	197.19
443.592	183.19
443.813	208.19
444.034	212.19
444.255	197.19
444.476	189.19
444.698	187.19
444.919	189.19
445.14	312.19
445.361	242.19
445.582	191.19
445.803	209.19
446.024	206.19
446.245	203.19
446.466	193.19
446.687	197.19
446.908	175.19
447.129	182.19
447.35	179.19
447.571	173.19
447.792	181.19
448.013	176.19
448.234	177.19
448.455	180.19
448.675	212.19
448.896	201.19
449.117	188.19
449.338	203.19
449.559	215.19
449.779	221.19
450	198.19
450.221	181.19
450.442	168.19
450.662	158.19
450.883	181.19
451.104	165.19
451.324	172.19
451.545	149.19
451.766	173.19
451.986	171.19
452.207	163.19
452.428	158.19
452.648	158.19
452.869	153.19
453.089	159.19
453.31	156.19
453.53	164.19
453.751	149.19
453.971	173.19
454.192	152.19
454.412	161.19
454.633	163.19
454.853	174.19
455.073	159.19
455.294	167.19
455.514	169.19
455.734	168.19
455.955	160.19
456.175	153.19
456.395	147.19
456.616	179.19
456.836	139.19
457.056	151.19
457.276	141.19
457.497	158.19
457.717	142.19
457.937	153.19
458.157	146.19
458.377	159.19
458.598	154.19
458.818	168.19
459.038	177.19
459.258	172.19
459.478	171.19
459.698	172.19
459.918	143.19
460.138	181.19
460.358	180.19
460.578	163.19
460.798	154.19
461.018	153.19
461.238	146.19
461.458	159.19
461.678	169.19
461.898	166.19
462.118	163.19
462.338	155.19
462.558	170.19
462.777	152.19
462.997	185.19
463.217	179.19
463.437	163.19
463.657	168.19
463.876	156.19
464.096	163.19
464.316	161.19
464.536	169.19
464.755	157.19
464.975	158.19
465.195	187.19
465.414	208.19
465.634	188.19
465.854	170.19
466.073	162.19
466.293	159.19
466.512	161.19
466.732	168.19
466.951	182.19
467.171	152.19
467.391	145.19
467.61	168.19
467.829	167.19
468.049	166.19
468.268	157.19
468.488	160.19
468.707	151.19
468.927	151.19
469.146	163.19
469.365	144.19
469.585	176.19
469.804	163.19
470.023	160.19
470.243	168.19
470.462	159.19
470.681	163.19
470.901	170.19
471.12	149.19
471.339	147.19
471.558	162.19
471.777	154.19
471.997	154.19
472.216	171.19
472.435	130.19
472.654	154.19
472.873	152.19
473.092	141.19
473.311	156.19
473.53	146.19
473.749	158.19
473.968	168.19
474.187	186.19
474.406	190.19
474.625	173.19
474.844	168.19
475.063	163.19
475.282	161.19
475.501	152.19
475.72	168.19
475.939	160.19
476.158	166.19
476.377	176.19
476.596	158.19
476.814	155.19
477.033	166.19
477.252	170.19
477.471	166.19
477.69	179.19
477.908	181.19
478.127	182.19
478.346	159.19
478.564	181.19
478.783	187.19
479.002	183.19
479.22	157.19
479.439	171.19
479.658	174.19
479.876	171.19
480.095	189.19
480.313	191.19
480.532	168.19
480.751	183.19
480.969	184.19
481.188	180.19
481.406	188.19
481.624	176.19
481.843	153.19
482.061	164.19
482.28	165.19
482.498	152.19
482.717	170.19
482.935	172.19
483.153	174.19
483.372	182.19
483.59	167.19
483.808	180.19
484.027	159.19
484.245	177.19
484.463	179.19
484.681	191.19
484.9	167.19
485.118	183.19
485.336	174.19
485.554	180.19
485.772	179.19
485.99	180.19
486.209	182.19
486.427	185.19
486.645	194.19
486.863	179.19
487.081	189.19
487.299	173.19
487.517	180.19
487.735	200.19
487.953	177.19
488.171	206.19
488.389	203.19
488.607	169.19
488.825	177.19
489.043	174.19
489.261	194.19
489.479	184.19
489.696	184.19
489.914	190.19
490.132	200.19
490.35	179.19
490.568	189.19
490.786	179.19
491.003	176.19
491.221	205.19
491.439	199.19
491.657	196.19
491.874	224.19
492.092	220.19
492.31	215.19
492.527	214.19
492.745	216.19
492.963	213.19
493.18	226.19
493.398	220.19
493.615	206.19
493.833	211.19
494.05	197.19
494.268	221.19
494.485	208.19
494.703	209.19
494.92	216.19
495.138	194.19
495.355	204.19
495.573	192.19
495.79	216.19
496.008	218.19
496.225	215.19
496.442	202.19
496.66	214.19
496.877	217.19
497.094	198.19
497.312	206.19
497.529	202.19
497.746	209.19
497.963	210.19
498.181	214.19
498.398	192.19
498.615	234.19
498.832	233.19
499.049	202.19
499.267	226.19
499.484	228.19
499.701	237.19
499.918	240.19
500.135	263.19
500.352	272.19
500.569	259.19
500.786	270.19
501.003	240.19
501.22	259.19
501.437	253.19
501.654	236.19
501.871	248.19
502.088	229.19
502.305	219.19
502.522	214.19
502.739	219.19
502.956	213.19
503.172	226.19
