Data from 1970.PennyLincolnUp.Lamp.En5.5.200Scan.071719.P1._HRD10591_15-14-30-843.txt Node
Date: Thu Jul 18 15:14:30 EDT 2019
User: cochatt
Spectrometer: HR+D1059
Trigger mode: 1
Integration Time (sec): 1.000000E-1
Scans to average: 1
Electric dark correction enabled: true
Nonlinearity correction enabled: false
Boxcar width: 0
XAxis mode: Wavelengths
Number of Pixels in Spectrum: 2048
>>>>>Begin Spectral Data<<<<<
223.165	-12.19
223.4	-12.19
223.635	-12.19
223.869	-15.19
224.104	-19.19
224.338	-17.19
224.573	-16.19
224.808	-13.19
225.042	-5.19
225.277	-13.19
225.511	-5.19
225.746	8.81
225.98	12.81
226.215	3.81
226.449	23.81
226.683	23.81
226.918	23.81
227.152	19.81
227.387	31.81
227.621	44.81
227.856	43.81
228.09	37.81
228.324	38.81
228.559	52.81
228.793	80.81
229.027	96.81
229.262	122.81
229.496	131.81
229.73	138.81
229.964	177.81
230.199	148.81
230.433	121.81
230.667	119.81
230.901	130.81
231.136	120.81
231.37	128.81
231.604	115.81
231.838	121.81
232.072	113.81
232.306	115.81
232.541	127.81
232.775	120.81
233.009	119.81
233.243	111.81
233.477	128.81
233.711	121.81
233.945	116.81
234.179	117.81
234.413	130.81
234.647	122.81
234.881	107.81
235.115	117.81
235.349	124.81
235.583	133.81
235.817	135.81
236.051	128.81
236.285	140.81
236.519	142.81
236.753	128.81
236.987	162.81
237.221	204.81
237.455	271.81
237.689	202.81
237.922	155.81
238.156	145.81
238.39	143.81
238.624	136.81
238.858	130.81
239.091	130.81
239.325	131.81
239.559	126.81
239.793	119.81
240.027	153.81
240.26	145.81
240.494	150.81
240.728	163.81
240.961	149.81
241.195	139.81
241.429	164.81
241.662	138.81
241.896	159.81
242.13	152.81
242.363	132.81
242.597	148.81
242.83	154.81
243.064	136.81
243.298	133.81
243.531	145.81
243.765	146.81
243.998	169.81
244.232	152.81
244.465	143.81
244.699	154.81
244.932	150.81
245.166	148.81
245.399	173.81
245.633	178.81
245.866	156.81
246.099	154.81
246.333	163.81
246.566	158.81
246.8	164.81
247.033	165.81
247.266	151.81
247.5	171.81
247.733	179.81
247.966	171.81
248.2	198.81
248.433	193.81
248.666	190.81
248.899	206.81
249.133	211.81
249.366	223.81
249.599	199.81
249.832	182.81
250.066	202.81
250.299	204.81
250.532	196.81
250.765	217.81
250.998	233.81
251.231	258.81
251.465	249.81
251.698	227.81
251.931	219.81
252.164	215.81
252.397	207.81
252.63	207.81
252.863	231.81
253.096	250.81
253.329	263.81
253.562	237.81
253.795	234.81
254.028	231.81
254.261	229.81
254.494	254.81
254.727	281.81
254.96	318.81
255.193	299.81
255.426	298.81
255.659	251.81
255.892	246.81
256.124	259.81
256.357	256.81
256.59	265.81
256.823	267.81
257.056	231.81
257.289	238.81
257.521	222.81
257.754	228.81
257.987	224.81
258.22	222.81
258.452	201.81
258.685	227.81
258.918	231.81
259.151	236.81
259.383	235.81
259.616	246.81
259.849	250.81
260.081	232.81
260.314	276.81
260.547	279.81
260.779	286.81
261.012	262.81
261.244	244.81
261.477	244.81
261.71	252.81
261.942	248.81
262.175	243.81
262.407	244.81
262.64	236.81
262.872	220.81
263.105	228.81
263.337	203.81
263.57	228.81
263.802	218.81
264.035	222.81
264.267	204.81
264.499	226.81
264.732	234.81
264.964	221.81
265.197	229.81
265.429	241.81
265.661	222.81
265.894	216.81
266.126	213.81
266.358	218.81
266.591	235.81
266.823	216.81
267.055	244.81
267.287	234.81
267.52	238.81
267.752	231.81
267.984	233.81
268.216	230.81
268.448	256.81
268.681	235.81
268.913	270.81
269.145	252.81
269.377	286.81
269.609	271.81
269.841	275.81
270.073	277.81
270.306	296.81
270.538	323.81
270.77	335.81
271.002	314.81
271.234	304.81
271.466	318.81
271.698	332.81
271.93	332.81
272.162	331.81
272.394	336.81
272.626	326.81
272.858	303.81
273.09	308.81
273.322	296.81
273.553	277.81
273.785	272.81
274.017	288.81
274.249	273.81
274.481	278.81
274.713	283.81
274.945	274.81
275.176	274.81
275.408	267.81
275.64	262.81
275.872	270.81
276.104	263.81
276.335	275.81
276.567	282.81
276.799	314.81
277.031	328.81
277.262	328.81
277.494	331.81
277.726	331.81
277.957	292.81
278.189	278.81
278.421	292.81
278.652	283.81
278.884	267.81
279.115	278.81
279.347	277.81
279.579	284.81
279.81	278.81
280.042	266.81
280.273	279.81
280.505	292.81
280.736	284.81
280.968	267.81
281.199	256.81
281.431	265.81
281.662	266.81
281.894	264.81
282.125	269.81
282.356	290.81
282.588	311.81
282.819	299.81
283.051	278.81
283.282	270.81
283.513	274.81
283.745	278.81
283.976	285.81
284.207	270.81
284.439	291.81
284.67	288.81
284.901	280.81
285.132	284.81
285.364	275.81
285.595	266.81
285.826	287.81
286.057	284.81
286.288	263.81
286.52	273.81
286.751	282.81
286.982	264.81
287.213	286.81
287.444	287.81
287.675	280.81
287.906	295.81
288.138	307.81
288.369	319.81
288.6	308.81
288.831	308.81
289.062	299.81
289.293	272.81
289.524	278.81
289.755	281.81
289.986	279.81
290.217	272.81
290.448	268.81
290.679	289.81
290.91	298.81
291.141	290.81
291.371	293.81
291.602	294.81
291.833	263.81
292.064	272.81
292.295	293.81
292.526	273.81
292.757	283.81
292.987	283.81
293.218	282.81
293.449	293.81
293.68	299.81
293.91	293.81
294.141	296.81
294.372	299.81
294.603	297.81
294.833	313.81
295.064	290.81
295.295	286.81
295.525	306.81
295.756	313.81
295.987	300.81
296.217	325.81
296.448	349.81
296.679	298.81
296.909	298.81
297.14	279.81
297.37	296.81
297.601	294.81
297.831	295.81
298.062	283.81
298.292	305.81
298.523	301.81
298.753	300.81
298.984	303.81
299.214	327.81
299.445	313.81
299.675	303.81
299.905	312.81
300.136	294.81
300.366	313.81
300.597	311.81
300.827	306.81
301.057	316.81
301.288	324.81
301.518	311.81
301.748	317.81
301.979	340.81
302.209	310.81
302.439	325.81
302.669	319.81
302.9	320.81
303.13	313.81
303.36	308.81
303.59	334.81
303.82	352.81
304.051	339.81
304.281	316.81
304.511	307.81
304.741	313.81
304.971	326.81
305.201	314.81
305.431	315.81
305.661	329.81
305.891	327.81
306.121	310.81
306.352	326.81
306.582	339.81
306.812	337.81
307.042	334.81
307.272	326.81
307.502	322.81
307.731	330.81
307.961	314.81
308.191	311.81
308.421	348.81
308.651	339.81
308.881	352.81
309.111	336.81
309.341	340.81
309.571	347.81
309.8	371.81
310.03	357.81
310.26	376.81
310.49	380.81
310.72	374.81
310.949	408.81
311.179	413.81
311.409	396.81
311.639	388.81
311.868	393.81
312.098	397.81
312.328	387.81
312.557	406.81
312.787	418.81
313.017	418.81
313.246	419.81
313.476	378.81
313.706	370.81
313.935	393.81
314.165	398.81
314.394	414.81
314.624	392.81
314.853	392.81
315.083	415.81
315.312	392.81
315.542	384.81
315.771	384.81
316.001	379.81
316.23	363.81
316.46	380.81
316.689	366.81
316.919	374.81
317.148	388.81
317.377	415.81
317.607	386.81
317.836	380.81
318.065	390.81
318.295	388.81
318.524	381.81
318.753	384.81
318.983	379.81
319.212	375.81
319.441	376.81
319.67	380.81
319.9	374.81
320.129	388.81
320.358	392.81
320.587	370.81
320.816	388.81
321.046	412.81
321.275	413.81
321.504	399.81
321.733	416.81
321.962	423.81
322.191	446.81
322.42	464.81
322.649	474.81
322.878	484.81
323.108	486.81
323.337	514.81
323.566	538.81
323.795	580.81
324.024	628.81
324.253	774.81
324.482	1092.81
324.71	1681.81
324.939	2358.81
325.168	2064.81
325.397	1125.81
325.626	738.81
325.855	607.81
326.084	561.81
326.313	542.81
326.542	546.81
326.77	604.81
326.999	691.81
327.228	968.81
327.457	1474.81
327.686	1782.81
327.914	1210.81
328.143	807.81
328.372	698.81
328.6	652.81
328.829	612.81
329.058	654.81
329.287	657.81
329.515	592.81
329.744	567.81
329.972	534.81
330.201	570.81
330.43	609.81
330.658	652.81
330.887	674.81
331.115	662.81
331.344	570.81
331.572	518.81
331.801	517.81
332.03	500.81
332.258	498.81
332.486	480.81
332.715	465.81
332.943	454.81
333.172	477.81
333.4	471.81
333.629	486.81
333.857	476.81
334.085	496.81
334.314	528.81
334.542	564.81
334.771	582.81
334.999	514.81
335.227	482.81
335.455	470.81
335.684	472.81
335.912	454.81
336.14	445.81
336.369	456.81
336.597	461.81
336.825	463.81
337.053	434.81
337.281	459.81
337.51	447.81
337.738	452.81
337.966	441.81
338.194	455.81
338.422	458.81
338.65	430.81
338.878	439.81
339.106	426.81
339.334	429.81
339.562	439.81
339.79	446.81
340.018	433.81
340.246	419.81
340.474	430.81
340.702	463.81
340.93	439.81
341.158	427.81
341.386	448.81
341.614	464.81
341.842	446.81
342.07	446.81
342.298	430.81
342.526	439.81
342.754	436.81
342.981	414.81
343.209	426.81
343.437	407.81
343.665	425.81
343.893	417.81
344.12	453.81
344.348	444.81
344.576	455.81
344.804	450.81
345.031	467.81
345.259	477.81
345.487	462.81
345.714	464.81
345.942	451.81
346.17	410.81
346.397	430.81
346.625	443.81
346.853	435.81
347.08	412.81
347.308	423.81
347.535	443.81
347.763	457.81
347.99	450.81
348.218	444.81
348.445	450.81
348.673	471.81
348.9	451.81
349.128	424.81
349.355	420.81
349.583	406.81
349.81	410.81
350.037	423.81
350.265	408.81
350.492	404.81
350.72	419.81
350.947	419.81
351.174	440.81
351.402	462.81
351.629	451.81
351.856	439.81
352.083	476.81
352.311	473.81
352.538	450.81
352.765	466.81
352.992	458.81
353.22	462.81
353.447	424.81
353.674	434.81
353.901	400.81
354.128	404.81
354.355	390.81
354.583	414.81
354.81	393.81
355.037	404.81
355.264	380.81
355.491	389.81
355.718	410.81
355.945	409.81
356.172	398.81
356.399	399.81
356.626	401.81
356.853	390.81
357.08	382.81
357.307	408.81
357.534	392.81
357.761	408.81
357.988	420.81
358.215	402.81
358.441	400.81
358.668	382.81
358.895	411.81
359.122	418.81
359.349	419.81
359.576	446.81
359.802	474.81
360.029	489.81
360.256	519.81
360.483	486.81
360.709	457.81
360.936	448.81
361.163	451.81
361.39	443.81
361.616	454.81
361.843	447.81
362.07	438.81
362.296	446.81
362.523	455.81
362.749	440.81
362.976	432.81
363.203	431.81
363.429	419.81
363.656	409.81
363.882	418.81
364.109	436.81
364.335	418.81
364.562	419.81
364.788	409.81
365.015	437.81
365.241	403.81
365.468	447.81
365.694	428.81
365.92	435.81
366.147	431.81
366.373	432.81
366.599	407.81
366.826	411.81
367.052	413.81
367.278	420.81
367.505	420.81
367.731	422.81
367.957	420.81
368.184	413.81
368.41	413.81
368.636	443.81
368.862	426.81
369.089	430.81
369.315	418.81
369.541	435.81
369.767	425.81
369.993	433.81
370.219	407.81
370.445	412.81
370.672	415.81
370.898	432.81
371.124	403.81
371.35	425.81
371.576	408.81
371.802	398.81
372.028	415.81
372.254	405.81
372.48	424.81
372.706	431.81
372.932	430.81
373.158	405.81
373.384	426.81
373.61	420.81
373.835	418.81
374.061	418.81
374.287	428.81
374.513	435.81
374.739	409.81
374.965	403.81
375.191	397.81
375.416	443.81
375.642	438.81
375.868	445.81
376.094	428.81
376.319	426.81
376.545	450.81
376.771	416.81
376.997	438.81
377.222	418.81
377.448	422.81
377.674	412.81
377.899	416.81
378.125	413.81
378.35	408.81
378.576	386.81
378.802	411.81
379.027	428.81
379.253	431.81
379.478	411.81
379.704	427.81
379.929	443.81
380.155	408.81
380.38	432.81
380.606	436.81
380.831	410.81
381.057	448.81
381.282	404.81
381.507	432.81
381.733	427.81
381.958	412.81
382.184	416.81
382.409	445.81
382.634	425.81
382.86	456.81
383.085	456.81
383.31	429.81
383.535	438.81
383.761	430.81
383.986	429.81
384.211	446.81
384.436	445.81
384.662	402.81
384.887	426.81
385.112	422.81
385.337	425.81
385.562	441.81
385.787	448.81
386.013	460.81
386.238	456.81
386.463	462.81
386.688	446.81
386.913	437.81
387.138	444.81
387.363	439.81
387.588	444.81
387.813	471.81
388.038	460.81
388.263	442.81
388.488	436.81
388.713	461.81
388.938	448.81
389.163	455.81
389.387	465.81
389.612	448.81
389.837	411.81
390.062	428.81
390.287	443.81
390.512	436.81
390.736	454.81
390.961	464.81
391.186	450.81
391.411	466.81
391.636	466.81
391.86	476.81
392.085	474.81
392.31	467.81
392.534	480.81
392.759	468.81
392.984	475.81
393.208	442.81
393.433	472.81
393.658	472.81
393.882	467.81
394.107	464.81
394.331	438.81
394.556	459.81
394.78	452.81
395.005	446.81
395.229	464.81
395.454	471.81
395.678	463.81
395.903	489.81
396.127	514.81
396.352	511.81
396.576	463.81
396.801	467.81
397.025	470.81
397.249	487.81
397.474	464.81
397.698	488.81
397.922	479.81
398.147	503.81
398.371	526.81
398.595	511.81
398.82	511.81
399.044	517.81
399.268	521.81
399.492	563.81
399.717	582.81
399.941	613.81
400.165	633.81
400.389	625.81
400.613	588.81
400.837	554.81
401.062	534.81
401.286	515.81
401.51	532.81
401.734	510.81
401.958	513.81
402.182	527.81
402.406	520.81
402.63	551.81
402.854	557.81
403.078	527.81
403.302	526.81
403.526	572.81
403.75	547.81
403.974	552.81
404.198	540.81
404.422	541.81
404.645	536.81
404.869	563.81
405.093	595.81
405.317	617.81
405.541	654.81
405.765	614.81
405.988	580.81
406.212	597.81
406.436	602.81
406.66	604.81
406.883	627.81
407.107	603.81
407.331	644.81
407.555	726.81
407.778	738.81
408.002	674.81
408.226	607.81
408.449	600.81
408.673	598.81
408.896	631.81
409.12	656.81
409.344	657.81
409.567	586.81
409.791	582.81
410.014	545.81
410.238	566.81
410.461	537.81
410.685	572.81
410.908	578.81
411.132	611.81
411.355	646.81
411.578	596.81
411.802	570.81
412.025	564.81
412.249	565.81
412.472	582.81
412.695	617.81
412.919	602.81
413.142	569.81
413.365	572.81
413.589	523.81
413.812	546.81
414.035	541.81
414.258	523.81
414.482	536.81
414.705	520.81
414.928	520.81
415.151	528.81
415.374	503.81
415.597	485.81
415.821	515.81
416.044	526.81
416.267	532.81
416.49	518.81
416.713	502.81
416.936	517.81
417.159	499.81
417.382	543.81
417.605	527.81
417.828	568.81
418.051	526.81
418.274	536.81
418.497	541.81
418.72	522.81
418.943	550.81
419.166	534.81
419.389	564.81
419.611	567.81
419.834	551.81
420.057	570.81
420.28	570.81
420.503	559.81
420.726	569.81
420.948	563.81
421.171	609.81
421.394	670.81
421.617	592.81
421.839	564.81
422.062	554.81
422.285	572.81
422.507	642.81
422.73	749.81
422.953	705.81
423.175	598.81
423.398	600.81
423.621	574.81
423.843	602.81
424.066	616.81
424.288	623.81
424.511	605.81
424.733	695.81
424.956	779.81
425.178	744.81
425.401	735.81
425.623	766.81
425.846	657.81
426.068	644.81
426.291	619.81
426.513	599.81
426.735	621.81
426.958	653.81
427.18	754.81
427.402	866.81
427.625	953.81
427.847	886.81
428.069	758.81
428.292	691.81
428.514	621.81
428.736	590.81
428.958	605.81
429.181	559.81
429.403	564.81
429.625	575.81
429.847	619.81
430.069	703.81
430.292	708.81
430.514	587.81
430.736	557.81
430.958	543.81
431.18	547.81
431.402	537.81
431.624	523.81
431.846	534.81
432.068	511.81
432.29	529.81
432.512	542.81
432.734	575.81
432.956	544.81
433.178	581.81
433.4	571.81
433.622	539.81
433.844	539.81
434.066	532.81
434.287	530.81
434.509	539.81
434.731	540.81
434.953	541.81
435.175	559.81
435.397	624.81
435.618	604.81
435.84	655.81
436.062	767.81
436.284	823.81
436.505	721.81
436.727	639.81
436.949	593.81
437.17	591.81
437.392	572.81
437.614	595.81
437.835	627.81
438.057	768.81
438.278	847.81
438.5	847.81
438.721	905.81
438.943	871.81
439.165	706.81
439.386	623.81
439.608	651.81
439.829	632.81
440.05	671.81
440.272	707.81
440.493	668.81
440.715	608.81
440.936	612.81
441.158	586.81
441.379	567.81
441.6	590.81
441.822	610.81
442.043	668.81
442.264	752.81
442.486	813.81
442.707	688.81
442.928	626.81
443.149	638.81
443.371	656.81
443.592	711.81
443.813	824.81
444.034	857.81
444.255	726.81
444.476	637.81
444.698	642.81
444.919	601.81
445.14	736.81
445.361	674.81
445.582	661.81
445.803	728.81
446.024	845.81
446.245	846.81
446.466	793.81
446.687	676.81
446.908	632.81
447.129	575.81
447.35	568.81
447.571	555.81
447.792	573.81
448.013	591.81
448.234	601.81
448.455	658.81
448.675	766.81
448.896	858.81
449.117	746.81
449.338	745.81
449.559	837.81
449.779	900.81
450	754.81
450.221	658.81
450.442	616.81
450.662	570.81
450.883	590.81
451.104	595.81
451.324	599.81
451.545	557.81
451.766	542.81
451.986	536.81
452.207	505.81
452.428	532.81
452.648	510.81
452.869	521.81
453.089	531.81
453.31	557.81
453.53	543.81
453.751	529.81
453.971	501.81
454.192	542.81
454.412	536.81
454.633	508.81
454.853	502.81
455.073	514.81
455.294	540.81
455.514	635.81
455.734	608.81
455.955	524.81
456.175	508.81
456.395	485.81
456.616	482.81
456.836	472.81
457.056	445.81
457.276	465.81
457.497	500.81
457.717	476.81
457.937	517.81
458.157	506.81
458.377	503.81
458.598	546.81
458.818	590.81
459.038	686.81
459.258	680.81
459.478	604.81
459.698	534.81
459.918	537.81
460.138	510.81
460.358	523.81
460.578	540.81
460.798	522.81
461.018	521.81
461.238	538.81
461.458	534.81
461.678	533.81
461.898	522.81
462.118	530.81
462.338	526.81
462.558	556.81
462.777	540.81
462.997	553.81
463.217	580.81
463.437	548.81
463.657	552.81
463.876	528.81
464.096	555.81
464.316	564.81
464.536	558.81
464.755	580.81
464.975	582.81
465.195	647.81
465.414	724.81
465.634	647.81
465.854	574.81
466.073	564.81
466.293	549.81
466.512	544.81
466.732	501.81
466.951	527.81
467.171	528.81
467.391	551.81
467.61	526.81
467.829	565.81
468.049	540.81
468.268	538.81
468.488	523.81
468.707	525.81
468.927	518.81
469.146	514.81
469.365	533.81
469.585	510.81
469.804	520.81
470.023	524.81
470.243	511.81
470.462	529.81
470.681	553.81
470.901	554.81
471.12	525.81
471.339	528.81
471.558	529.81
471.777	547.81
471.997	533.81
472.216	536.81
472.435	580.81
472.654	549.81
472.873	537.81
473.092	530.81
473.311	515.81
473.53	532.81
473.749	542.81
473.968	606.81
474.187	697.81
474.406	725.81
474.625	609.81
474.844	552.81
475.063	540.81
475.282	523.81
475.501	538.81
475.72	548.81
475.939	557.81
476.158	552.81
476.377	525.81
476.596	516.81
476.814	569.81
477.033	574.81
477.252	566.81
477.471	545.81
477.69	574.81
477.908	575.81
478.127	582.81
478.346	605.81
478.564	587.81
478.783	600.81
479.002	613.81
479.22	612.81
479.439	618.81
479.658	640.81
479.876	643.81
480.095	643.81
480.313	667.81
480.532	671.81
480.751	642.81
480.969	686.81
481.188	748.81
481.406	799.81
481.624	718.81
481.843	671.81
482.061	655.81
482.28	652.81
482.498	644.81
482.717	633.81
482.935	650.81
483.153	639.81
483.372	662.81
483.59	642.81
483.808	638.81
484.027	617.81
484.245	644.81
484.463	655.81
484.681	645.81
484.9	647.81
485.118	636.81
485.336	663.81
485.554	666.81
485.772	661.81
485.99	676.81
486.209	658.81
486.427	680.81
486.645	685.81
486.863	706.81
487.081	684.81
487.299	696.81
487.517	682.81
487.735	672.81
487.953	703.81
488.171	711.81
488.389	688.81
488.607	706.81
488.825	743.81
489.043	711.81
489.261	693.81
489.479	716.81
489.696	706.81
489.914	706.81
490.132	702.81
490.35	718.81
490.568	752.81
490.786	748.81
491.003	748.81
491.221	771.81
491.439	776.81
491.657	784.81
491.874	797.81
492.092	792.81
492.31	813.81
492.527	813.81
492.745	812.81
492.963	826.81
493.18	848.81
493.398	839.81
493.615	837.81
493.833	843.81
494.05	835.81
494.268	835.81
494.485	823.81
494.703	819.81
494.92	830.81
495.138	846.81
495.355	872.81
495.573	886.81
495.79	859.81
496.008	841.81
496.225	858.81
496.442	795.81
496.66	843.81
496.877	831.81
497.094	811.81
497.312	832.81
497.529	853.81
497.746	847.81
497.963	863.81
498.181	882.81
498.398	889.81
498.615	902.81
498.832	908.81
499.049	909.81
499.267	916.81
499.484	939.81
499.701	956.81
499.918	974.81
500.135	983.81
500.352	1020.81
500.569	1036.81
500.786	1053.81
501.003	1031.81
501.22	1026.81
501.437	980.81
501.654	1005.81
501.871	989.81
