Data from 1970.PennyLincolnUp.Lamp.En5.5.200Scan.071719.P1._HRD10591_15-14-44-842.txt Node
Date: Thu Jul 18 15:14:44 EDT 2019
User: cochatt
Spectrometer: HR+D1059
Trigger mode: 1
Integration Time (sec): 1.000000E-1
Scans to average: 1
Electric dark correction enabled: true
Nonlinearity correction enabled: false
Boxcar width: 0
XAxis mode: Wavelengths
Number of Pixels in Spectrum: 2048
>>>>>Begin Spectral Data<<<<<
223.165	-15.75
223.4	-15.75
223.635	-15.75
223.869	-15.75
224.104	-5.75
224.338	-17.75
224.573	-9.75
224.808	-19.75
225.042	-14.75
225.277	-3.75
225.511	-2.75
225.746	-4.75
225.98	10.25
226.215	7.25
226.449	13.25
226.683	23.25
226.918	34.25
227.152	22.25
227.387	33.25
227.621	31.25
227.856	47.25
228.09	55.25
228.324	60.25
228.559	50.25
228.793	81.25
229.027	101.25
229.262	124.25
229.496	133.25
229.73	152.25
229.964	189.25
230.199	137.25
230.433	144.25
230.667	122.25
230.901	133.25
231.136	120.25
231.37	125.25
231.604	126.25
231.838	131.25
232.072	129.25
232.306	133.25
232.541	132.25
232.775	126.25
233.009	129.25
233.243	125.25
233.477	118.25
233.711	118.25
233.945	130.25
234.179	133.25
234.413	141.25
234.647	122.25
234.881	134.25
235.115	131.25
235.349	109.25
235.583	145.25
235.817	116.25
236.051	135.25
236.285	139.25
236.519	131.25
236.753	144.25
236.987	166.25
237.221	222.25
237.455	263.25
237.689	208.25
237.922	174.25
238.156	160.25
238.39	148.25
238.624	135.25
238.858	139.25
239.091	144.25
239.325	139.25
239.559	140.25
239.793	137.25
240.027	145.25
240.26	170.25
240.494	172.25
240.728	179.25
240.961	172.25
241.195	159.25
241.429	135.25
241.662	170.25
241.896	158.25
242.13	161.25
242.363	139.25
242.597	149.25
242.83	161.25
243.064	143.25
243.298	151.25
243.531	147.25
243.765	155.25
243.998	149.25
244.232	155.25
244.465	156.25
244.699	176.25
244.932	171.25
245.166	159.25
245.399	161.25
245.633	169.25
245.866	163.25
246.099	154.25
246.333	167.25
246.566	160.25
246.8	170.25
247.033	175.25
247.266	175.25
247.5	171.25
247.733	189.25
247.966	197.25
248.2	200.25
248.433	191.25
248.666	202.25
248.899	205.25
249.133	225.25
249.366	232.25
249.599	231.25
249.832	218.25
250.066	210.25
250.299	212.25
250.532	209.25
250.765	231.25
250.998	247.25
251.231	259.25
251.465	257.25
251.698	240.25
251.931	232.25
252.164	225.25
252.397	221.25
252.63	232.25
252.863	242.25
253.096	235.25
253.329	256.25
253.562	259.25
253.795	270.25
254.028	261.25
254.261	252.25
254.494	253.25
254.727	293.25
254.96	314.25
255.193	324.25
255.426	291.25
255.659	261.25
255.892	282.25
256.124	258.25
256.357	279.25
256.59	250.25
256.823	221.25
257.056	257.25
257.289	242.25
257.521	252.25
257.754	239.25
257.987	226.25
258.22	243.25
258.452	239.25
258.685	239.25
258.918	238.25
259.151	248.25
259.383	257.25
259.616	243.25
259.849	250.25
260.081	282.25
260.314	278.25
260.547	293.25
260.779	276.25
261.012	264.25
261.244	247.25
261.477	242.25
261.71	226.25
261.942	260.25
262.175	274.25
262.407	256.25
262.64	252.25
262.872	230.25
263.105	225.25
263.337	223.25
263.57	224.25
263.802	232.25
264.035	247.25
264.267	230.25
264.499	243.25
264.732	256.25
264.964	234.25
265.197	223.25
265.429	233.25
265.661	238.25
265.894	234.25
266.126	235.25
266.358	229.25
266.591	222.25
266.823	221.25
267.055	262.25
267.287	252.25
267.52	233.25
267.752	249.25
267.984	251.25
268.216	239.25
268.448	261.25
268.681	261.25
268.913	255.25
269.145	280.25
269.377	289.25
269.609	286.25
269.841	283.25
270.073	280.25
270.306	306.25
270.538	354.25
270.77	367.25
271.002	343.25
271.234	342.25
271.466	318.25
271.698	347.25
271.93	347.25
272.162	349.25
272.394	356.25
272.626	349.25
272.858	322.25
273.09	326.25
273.322	295.25
273.553	293.25
273.785	292.25
274.017	279.25
274.249	286.25
274.481	295.25
274.713	291.25
274.945	289.25
275.176	295.25
275.408	295.25
275.64	285.25
275.872	252.25
276.104	288.25
276.335	284.25
276.567	276.25
276.799	305.25
277.031	325.25
277.262	344.25
277.494	338.25
277.726	343.25
277.957	327.25
278.189	296.25
278.421	296.25
278.652	284.25
278.884	291.25
279.115	275.25
279.347	285.25
279.579	274.25
279.81	279.25
280.042	287.25
280.273	293.25
280.505	287.25
280.736	265.25
280.968	288.25
281.199	276.25
281.431	278.25
281.662	278.25
281.894	275.25
282.125	268.25
282.356	315.25
282.588	329.25
282.819	342.25
283.051	309.25
283.282	289.25
283.513	295.25
283.745	288.25
283.976	273.25
284.207	280.25
284.439	284.25
284.67	290.25
284.901	290.25
285.132	302.25
285.364	288.25
285.595	287.25
285.826	281.25
286.057	265.25
286.288	296.25
286.52	295.25
286.751	282.25
286.982	285.25
287.213	279.25
287.444	284.25
287.675	298.25
287.906	313.25
288.138	303.25
288.369	327.25
288.6	297.25
288.831	302.25
289.062	295.25
289.293	292.25
289.524	298.25
289.755	310.25
289.986	291.25
290.217	292.25
290.448	290.25
290.679	303.25
290.91	300.25
291.141	292.25
291.371	280.25
291.602	289.25
291.833	298.25
292.064	295.25
292.295	295.25
292.526	289.25
292.757	290.25
292.987	316.25
293.218	307.25
293.449	314.25
293.68	295.25
293.91	290.25
294.141	303.25
294.372	297.25
294.603	285.25
294.833	287.25
295.064	293.25
295.295	282.25
295.525	271.25
295.756	291.25
295.987	313.25
296.217	345.25
296.448	343.25
296.679	327.25
296.909	306.25
297.14	306.25
297.37	302.25
297.601	304.25
297.831	291.25
298.062	301.25
298.292	294.25
298.523	297.25
298.753	326.25
298.984	305.25
299.214	317.25
299.445	320.25
299.675	312.25
299.905	317.25
300.136	303.25
300.366	327.25
300.597	317.25
300.827	320.25
301.057	330.25
301.288	331.25
301.518	310.25
301.748	323.25
301.979	327.25
302.209	319.25
302.439	333.25
302.669	346.25
302.9	315.25
303.13	327.25
303.36	332.25
303.59	334.25
303.82	344.25
304.051	351.25
304.281	328.25
304.511	317.25
304.741	310.25
304.971	328.25
305.201	302.25
305.431	341.25
305.661	321.25
305.891	329.25
306.121	329.25
306.352	345.25
306.582	364.25
306.812	335.25
307.042	325.25
307.272	320.25
307.502	343.25
307.731	347.25
307.961	346.25
308.191	331.25
308.421	343.25
308.651	351.25
308.881	327.25
309.111	329.25
309.341	352.25
309.571	366.25
309.8	387.25
310.03	382.25
310.26	381.25
310.49	386.25
310.72	407.25
310.949	412.25
311.179	405.25
311.409	400.25
311.639	399.25
311.868	391.25
312.098	410.25
312.328	402.25
312.557	429.25
312.787	439.25
313.017	434.25
313.246	389.25
313.476	393.25
313.706	400.25
313.935	382.25
314.165	403.25
314.394	442.25
314.624	418.25
314.853	415.25
315.083	385.25
315.312	391.25
315.542	381.25
315.771	382.25
316.001	381.25
316.23	382.25
316.46	366.25
316.689	403.25
316.919	400.25
317.148	400.25
317.377	402.25
317.607	384.25
317.836	400.25
318.065	391.25
318.295	384.25
318.524	400.25
318.753	398.25
318.983	389.25
319.212	385.25
319.441	424.25
319.67	401.25
319.9	399.25
320.129	403.25
320.358	395.25
320.587	410.25
320.816	402.25
321.046	426.25
321.275	431.25
321.504	422.25
321.733	422.25
321.962	449.25
322.191	459.25
322.42	475.25
322.649	475.25
322.878	483.25
323.108	527.25
323.337	546.25
323.566	584.25
323.795	632.25
324.024	657.25
324.253	785.25
324.482	1135.25
324.71	1723.25
324.939	2504.25
325.168	2175.25
325.397	1169.25
325.626	781.25
325.855	634.25
326.084	567.25
326.313	581.25
326.542	575.25
326.77	620.25
326.999	722.25
327.228	1010.25
327.457	1546.25
327.686	1890.25
327.914	1265.25
328.143	848.25
328.372	737.25
328.6	677.25
328.829	644.25
329.058	683.25
329.287	668.25
329.515	619.25
329.744	581.25
329.972	566.25
330.201	581.25
330.43	642.25
330.658	677.25
330.887	697.25
331.115	696.25
331.344	573.25
331.572	557.25
331.801	558.25
332.03	554.25
332.258	533.25
332.486	500.25
332.715	477.25
332.943	475.25
333.172	470.25
333.4	469.25
333.629	504.25
333.857	484.25
334.085	533.25
334.314	540.25
334.542	576.25
334.771	621.25
334.999	526.25
335.227	502.25
335.455	498.25
335.684	460.25
335.912	464.25
336.14	460.25
336.369	481.25
336.597	488.25
336.825	465.25
337.053	479.25
337.281	451.25
337.51	445.25
337.738	459.25
337.966	475.25
338.194	467.25
338.422	505.25
338.65	462.25
338.878	455.25
339.106	457.25
339.334	439.25
339.562	429.25
339.79	457.25
340.018	460.25
340.246	454.25
340.474	463.25
340.702	440.25
340.93	444.25
341.158	439.25
341.386	435.25
341.614	466.25
341.842	429.25
342.07	462.25
342.298	449.25
342.526	425.25
342.754	452.25
342.981	439.25
343.209	430.25
343.437	443.25
343.665	445.25
343.893	439.25
344.12	459.25
344.348	445.25
344.576	460.25
344.804	441.25
345.031	479.25
345.259	490.25
345.487	453.25
345.714	461.25
345.942	466.25
346.17	465.25
346.397	450.25
346.625	455.25
346.853	431.25
347.08	445.25
347.308	438.25
347.535	456.25
347.763	483.25
347.99	475.25
348.218	461.25
348.445	461.25
348.673	470.25
348.9	459.25
349.128	440.25
349.355	454.25
349.583	431.25
349.81	433.25
350.037	436.25
350.265	431.25
350.492	433.25
350.72	450.25
350.947	439.25
351.174	451.25
351.402	473.25
351.629	458.25
351.856	473.25
352.083	488.25
352.311	482.25
352.538	494.25
352.765	479.25
352.992	473.25
353.22	441.25
353.447	453.25
353.674	445.25
353.901	431.25
354.128	419.25
354.355	402.25
354.583	422.25
354.81	409.25
355.037	423.25
355.264	394.25
355.491	401.25
355.718	392.25
355.945	409.25
356.172	420.25
356.399	394.25
356.626	421.25
356.853	401.25
357.08	385.25
357.307	403.25
357.534	397.25
357.761	425.25
357.988	401.25
358.215	407.25
358.441	407.25
358.668	427.25
358.895	432.25
359.122	426.25
359.349	451.25
359.576	462.25
359.802	492.25
360.029	525.25
360.256	528.25
360.483	511.25
360.709	475.25
360.936	442.25
361.163	459.25
361.39	472.25
361.616	451.25
361.843	448.25
362.07	447.25
362.296	459.25
362.523	430.25
362.749	455.25
362.976	437.25
363.203	437.25
363.429	447.25
363.656	431.25
363.882	455.25
364.109	456.25
364.335	438.25
364.562	453.25
364.788	453.25
365.015	443.25
365.241	430.25
365.468	441.25
365.694	459.25
365.92	450.25
366.147	416.25
366.373	446.25
366.599	420.25
366.826	410.25
367.052	429.25
367.278	409.25
367.505	436.25
367.731	417.25
367.957	401.25
368.184	432.25
368.41	438.25
368.636	465.25
368.862	441.25
369.089	438.25
369.315	437.25
369.541	440.25
369.767	440.25
369.993	428.25
370.219	445.25
370.445	414.25
370.672	423.25
370.898	408.25
371.124	414.25
371.35	441.25
371.576	433.25
371.802	418.25
372.028	417.25
372.254	411.25
372.48	429.25
372.706	424.25
372.932	433.25
373.158	432.25
373.384	448.25
373.61	439.25
373.835	417.25
374.061	429.25
374.287	439.25
374.513	418.25
374.739	433.25
374.965	421.25
375.191	433.25
375.416	427.25
375.642	441.25
375.868	450.25
376.094	435.25
376.319	423.25
376.545	434.25
376.771	429.25
376.997	431.25
377.222	446.25
377.448	450.25
377.674	426.25
377.899	429.25
378.125	432.25
378.35	429.25
378.576	414.25
378.802	413.25
379.027	423.25
379.253	445.25
379.478	419.25
379.704	413.25
379.929	415.25
380.155	434.25
380.38	426.25
380.606	430.25
380.831	415.25
381.057	433.25
381.282	413.25
381.507	440.25
381.733	435.25
381.958	430.25
382.184	457.25
382.409	427.25
382.634	451.25
382.86	443.25
383.085	446.25
383.31	473.25
383.535	448.25
383.761	451.25
383.986	443.25
384.211	440.25
384.436	457.25
384.662	445.25
384.887	453.25
385.112	461.25
385.337	440.25
385.562	479.25
385.787	467.25
386.013	458.25
386.238	479.25
386.463	463.25
386.688	464.25
386.913	465.25
387.138	451.25
387.363	432.25
387.588	470.25
387.813	474.25
388.038	448.25
388.263	457.25
388.488	469.25
388.713	474.25
388.938	472.25
389.163	471.25
389.387	455.25
389.612	466.25
389.837	469.25
390.062	445.25
390.287	468.25
390.512	481.25
390.736	459.25
390.961	483.25
391.186	470.25
391.411	457.25
391.636	473.25
391.86	469.25
392.085	478.25
392.31	477.25
392.534	462.25
392.759	483.25
392.984	468.25
393.208	481.25
393.433	474.25
393.658	471.25
393.882	464.25
394.107	454.25
394.331	472.25
394.556	458.25
394.78	485.25
395.005	471.25
395.229	472.25
395.454	483.25
395.678	486.25
395.903	487.25
396.127	514.25
396.352	529.25
396.576	472.25
396.801	490.25
397.025	476.25
397.249	485.25
397.474	481.25
397.698	507.25
397.922	519.25
398.147	527.25
398.371	537.25
398.595	533.25
398.82	519.25
399.044	534.25
399.268	529.25
399.492	585.25
399.717	585.25
399.941	624.25
400.165	643.25
400.389	648.25
400.613	627.25
400.837	557.25
401.062	548.25
401.286	541.25
401.51	538.25
401.734	535.25
401.958	542.25
402.182	530.25
402.406	552.25
402.63	572.25
402.854	555.25
403.078	547.25
403.302	550.25
403.526	553.25
403.75	556.25
403.974	554.25
404.198	544.25
404.422	561.25
404.645	580.25
404.869	567.25
405.093	599.25
405.317	638.25
405.541	666.25
405.765	620.25
405.988	604.25
406.212	586.25
406.436	635.25
406.66	653.25
406.883	601.25
407.107	638.25
407.331	693.25
407.555	728.25
407.778	735.25
408.002	653.25
408.226	632.25
408.449	610.25
408.673	634.25
408.896	652.25
409.12	678.25
409.344	655.25
409.567	608.25
409.791	587.25
410.014	562.25
410.238	552.25
410.461	572.25
410.685	583.25
410.908	601.25
411.132	613.25
411.355	641.25
411.578	632.25
411.802	605.25
412.025	553.25
412.249	593.25
412.472	577.25
412.695	648.25
412.919	652.25
413.142	597.25
413.365	571.25
413.589	567.25
413.812	534.25
414.035	540.25
414.258	558.25
414.482	524.25
414.705	563.25
414.928	501.25
415.151	513.25
415.374	501.25
415.597	524.25
415.821	537.25
416.044	534.25
416.267	535.25
416.49	532.25
416.713	542.25
416.936	534.25
417.159	532.25
417.382	540.25
417.605	549.25
417.828	540.25
418.051	572.25
418.274	567.25
418.497	542.25
418.72	530.25
418.943	543.25
419.166	556.25
419.389	582.25
419.611	562.25
419.834	572.25
420.057	580.25
420.28	581.25
420.503	588.25
420.726	549.25
420.948	599.25
421.171	646.25
421.394	659.25
421.617	604.25
421.839	583.25
422.062	571.25
422.285	593.25
422.507	653.25
422.73	747.25
422.953	693.25
423.175	631.25
423.398	605.25
423.621	601.25
423.843	619.25
424.066	642.25
424.288	636.25
424.511	643.25
424.733	706.25
424.956	777.25
425.178	766.25
425.401	760.25
425.623	783.25
425.846	683.25
426.068	654.25
426.291	631.25
426.513	632.25
426.735	649.25
426.958	687.25
427.18	789.25
427.402	933.25
427.625	986.25
427.847	878.25
428.069	800.25
428.292	678.25
428.514	665.25
428.736	617.25
428.958	600.25
429.181	585.25
429.403	584.25
429.625	613.25
429.847	640.25
430.069	697.25
430.292	696.25
430.514	623.25
430.736	571.25
430.958	587.25
431.18	554.25
431.402	551.25
431.624	561.25
431.846	543.25
432.068	546.25
432.29	566.25
432.512	542.25
432.734	569.25
432.956	549.25
433.178	568.25
433.4	586.25
433.622	563.25
433.844	557.25
434.066	550.25
434.287	550.25
434.509	552.25
434.731	546.25
434.953	567.25
435.175	579.25
435.397	623.25
435.618	617.25
435.84	684.25
436.062	777.25
436.284	827.25
436.505	727.25
436.727	634.25
436.949	596.25
437.17	578.25
437.392	583.25
437.614	606.25
437.835	670.25
438.057	765.25
438.278	866.25
438.5	857.25
438.721	926.25
438.943	880.25
439.165	718.25
439.386	662.25
439.608	658.25
439.829	671.25
440.05	672.25
440.272	730.25
440.493	688.25
440.715	636.25
440.936	591.25
441.158	611.25
441.379	583.25
441.6	625.25
441.822	655.25
442.043	697.25
442.264	782.25
442.486	817.25
442.707	708.25
442.928	646.25
443.149	663.25
443.371	701.25
443.592	740.25
443.813	834.25
444.034	891.25
444.255	726.25
444.476	682.25
444.698	641.25
444.919	633.25
445.14	719.25
445.361	668.25
445.582	669.25
445.803	760.25
446.024	878.25
446.245	882.25
446.466	809.25
446.687	695.25
446.908	669.25
447.129	616.25
447.35	597.25
447.571	594.25
447.792	580.25
448.013	602.25
448.234	624.25
448.455	709.25
448.675	795.25
448.896	885.25
449.117	790.25
449.338	754.25
449.559	865.25
449.779	956.25
450	769.25
450.221	650.25
450.442	623.25
450.662	587.25
450.883	583.25
451.104	606.25
451.324	601.25
451.545	579.25
451.766	545.25
451.986	520.25
452.207	521.25
452.428	513.25
452.648	514.25
452.869	541.25
453.089	543.25
453.31	556.25
453.53	525.25
453.751	538.25
453.971	540.25
454.192	573.25
454.412	559.25
454.633	541.25
454.853	520.25
455.073	531.25
455.294	558.25
455.514	642.25
455.734	613.25
455.955	533.25
456.175	508.25
456.395	502.25
456.616	487.25
456.836	478.25
457.056	477.25
457.276	470.25
457.497	494.25
457.717	490.25
457.937	485.25
458.157	501.25
458.377	510.25
458.598	527.25
458.818	631.25
459.038	705.25
459.258	715.25
459.478	625.25
459.698	572.25
459.918	558.25
460.138	549.25
460.358	535.25
460.578	539.25
460.798	544.25
461.018	550.25
461.238	549.25
461.458	539.25
461.678	516.25
461.898	537.25
462.118	532.25
462.338	556.25
462.558	528.25
462.777	560.25
462.997	570.25
463.217	584.25
463.437	586.25
463.657	569.25
463.876	555.25
464.096	577.25
464.316	570.25
464.536	593.25
464.755	581.25
464.975	572.25
465.195	639.25
465.414	758.25
465.634	663.25
465.854	599.25
466.073	591.25
466.293	586.25
466.512	546.25
466.732	540.25
466.951	536.25
467.171	505.25
467.391	546.25
467.61	555.25
467.829	575.25
468.049	536.25
468.268	575.25
468.488	531.25
468.707	551.25
468.927	542.25
469.146	517.25
469.365	524.25
469.585	528.25
469.804	537.25
470.023	546.25
470.243	562.25
470.462	545.25
470.681	565.25
470.901	561.25
471.12	519.25
471.339	528.25
471.558	545.25
471.777	549.25
471.997	547.25
472.216	552.25
472.435	600.25
472.654	574.25
472.873	539.25
473.092	552.25
473.311	537.25
473.53	557.25
473.749	569.25
473.968	623.25
474.187	713.25
474.406	754.25
474.625	621.25
474.844	604.25
475.063	561.25
475.282	539.25
475.501	550.25
475.72	553.25
475.939	557.25
476.158	570.25
476.377	553.25
476.596	566.25
476.814	555.25
477.033	583.25
477.252	594.25
477.471	582.25
477.69	584.25
477.908	584.25
478.127	589.25
478.346	599.25
478.564	597.25
478.783	597.25
479.002	604.25
479.22	624.25
479.439	623.25
479.658	657.25
479.876	667.25
480.095	680.25
480.313	721.25
480.532	691.25
480.751	679.25
480.969	673.25
481.188	767.25
481.406	818.25
481.624	722.25
481.843	701.25
482.061	660.25
482.28	673.25
482.498	648.25
482.717	663.25
482.935	664.25
483.153	658.25
483.372	647.25
483.59	642.25
483.808	626.25
484.027	643.25
484.245	658.25
484.463	650.25
484.681	642.25
484.9	657.25
485.118	677.25
485.336	658.25
485.554	679.25
485.772	684.25
485.99	690.25
486.209	680.25
486.427	686.25
486.645	712.25
486.863	720.25
487.081	713.25
487.299	731.25
487.517	717.25
487.735	721.25
487.953	723.25
488.171	704.25
488.389	726.25
488.607	703.25
488.825	731.25
489.043	705.25
489.261	745.25
489.479	739.25
489.696	737.25
489.914	727.25
490.132	730.25
490.35	749.25
490.568	778.25
490.786	766.25
491.003	757.25
491.221	794.25
491.439	812.25
491.657	816.25
491.874	837.25
492.092	837.25
492.31	850.25
492.527	857.25
492.745	850.25
492.963	867.25
493.18	842.25
493.398	824.25
493.615	851.25
493.833	852.25
494.05	882.25
494.268	865.25
494.485	862.25
494.703	867.25
494.92	847.25
495.138	855.25
495.355	838.25
495.573	886.25
495.79	857.25
496.008	845.25
496.225	846.25
496.442	881.25
496.66	870.25
496.877	853.25
497.094	851.25
497.312	876.25
497.529	884.25
497.746	857.25
497.963	867.25
498.181	921.25
498.398	944.25
498.615	919.25
498.832	933.25
499.049	922.25
499.267	961.25
499.484	982.25
499.701	947.25
499.918	1014.25
500.135	997.25
500.352	1041.25
500.569	1069.25
500.786	1066.25
501.003	1057.25
501.22	1025.25
501.437	1037.25
501.654	998.25
