Data from 1970.PennyLincolnUp.Lamp.En5.5.200Scan.071719.P1._HRD10591_15-13-35-843.txt Node
Date: Thu Jul 18 15:13:35 EDT 2019
User: cochatt
Spectrometer: HR+D1059
Trigger mode: 1
Integration Time (sec): 1.000000E-1
Scans to average: 1
Electric dark correction enabled: true
Nonlinearity correction enabled: false
Boxcar width: 0
XAxis mode: Wavelengths
Number of Pixels in Spectrum: 2048
>>>>>Begin Spectral Data<<<<<
223.165	-19.06
223.4	-19.06
223.635	-19.06
223.869	-15.06
224.104	-19.06
224.338	-18.06
224.573	-14.06
224.808	-15.06
225.042	-0.06
225.277	-4.06
225.511	-2.06
225.746	5.94
225.98	6.94
226.215	9.94
226.449	2.94
226.683	22.94
226.918	30.94
227.152	26.94
227.387	36.94
227.621	34.94
227.856	45.94
228.09	55.94
228.324	52.94
228.559	62.94
228.793	78.94
229.027	96.94
229.262	110.94
229.496	124.94
229.73	139.94
229.964	161.94
230.199	136.94
230.433	130.94
230.667	124.94
230.901	110.94
231.136	105.94
231.37	129.94
231.604	129.94
231.838	123.94
232.072	111.94
232.306	123.94
232.541	129.94
232.775	122.94
233.009	117.94
233.243	132.94
233.477	113.94
233.711	121.94
233.945	121.94
234.179	116.94
234.413	116.94
234.647	109.94
234.881	128.94
235.115	114.94
235.349	125.94
235.583	121.94
235.817	123.94
236.051	123.94
236.285	127.94
236.519	146.94
236.753	130.94
236.987	156.94
237.221	198.94
237.455	229.94
237.689	198.94
237.922	157.94
238.156	145.94
238.39	139.94
238.624	132.94
238.858	128.94
239.091	124.94
239.325	127.94
239.559	151.94
239.793	140.94
240.027	128.94
240.26	146.94
240.494	143.94
240.728	135.94
240.961	149.94
241.195	136.94
241.429	159.94
241.662	135.94
241.896	145.94
242.13	158.94
242.363	135.94
242.597	134.94
242.83	154.94
243.064	140.94
243.298	149.94
243.531	150.94
243.765	156.94
243.998	129.94
244.232	155.94
244.465	161.94
244.699	153.94
244.932	148.94
245.166	144.94
245.399	147.94
245.633	148.94
245.866	151.94
246.099	153.94
246.333	149.94
246.566	157.94
246.8	149.94
247.033	175.94
247.266	174.94
247.5	160.94
247.733	174.94
247.966	177.94
248.2	179.94
248.433	184.94
248.666	175.94
248.899	205.94
249.133	208.94
249.366	222.94
249.599	213.94
249.832	203.94
250.066	166.94
250.299	195.94
250.532	198.94
250.765	214.94
250.998	228.94
251.231	226.94
251.465	229.94
251.698	217.94
251.931	209.94
252.164	213.94
252.397	202.94
252.63	214.94
252.863	228.94
253.096	238.94
253.329	235.94
253.562	240.94
253.795	226.94
254.028	241.94
254.261	230.94
254.494	239.94
254.727	269.94
254.96	316.94
255.193	275.94
255.426	249.94
255.659	248.94
255.892	248.94
256.124	235.94
256.357	244.94
256.59	223.94
256.823	214.94
257.056	217.94
257.289	206.94
257.521	216.94
257.754	233.94
257.987	228.94
258.22	229.94
258.452	201.94
258.685	220.94
258.918	223.94
259.151	212.94
259.383	210.94
259.616	235.94
259.849	211.94
260.081	255.94
260.314	254.94
260.547	256.94
260.779	257.94
261.012	249.94
261.244	236.94
261.477	229.94
261.71	216.94
261.942	230.94
262.175	258.94
262.407	242.94
262.64	223.94
262.872	208.94
263.105	218.94
263.337	201.94
263.57	196.94
263.802	221.94
264.035	218.94
264.267	201.94
264.499	216.94
264.732	226.94
264.964	209.94
265.197	220.94
265.429	208.94
265.661	196.94
265.894	205.94
266.126	215.94
266.358	209.94
266.591	196.94
266.823	234.94
267.055	221.94
267.287	226.94
267.52	217.94
267.752	226.94
267.984	225.94
268.216	210.94
268.448	217.94
268.681	217.94
268.913	247.94
269.145	246.94
269.377	259.94
269.609	262.94
269.841	263.94
270.073	262.94
270.306	296.94
270.538	300.94
270.77	284.94
271.002	294.94
271.234	287.94
271.466	288.94
271.698	300.94
271.93	308.94
272.162	288.94
272.394	325.94
272.626	286.94
272.858	280.94
273.09	270.94
273.322	252.94
273.553	270.94
273.785	250.94
274.017	247.94
274.249	259.94
274.481	235.94
274.713	240.94
274.945	268.94
275.176	237.94
275.408	261.94
275.64	251.94
275.872	271.94
276.104	249.94
276.335	253.94
276.567	272.94
276.799	265.94
277.031	287.94
277.262	300.94
277.494	300.94
277.726	280.94
277.957	265.94
278.189	252.94
278.421	260.94
278.652	263.94
278.884	265.94
279.115	272.94
279.347	249.94
279.579	243.94
279.81	250.94
280.042	241.94
280.273	265.94
280.505	241.94
280.736	256.94
280.968	232.94
281.199	234.94
281.431	242.94
281.662	269.94
281.894	263.94
282.125	248.94
282.356	273.94
282.588	270.94
282.819	284.94
283.051	272.94
283.282	235.94
283.513	251.94
283.745	258.94
283.976	264.94
284.207	263.94
284.439	262.94
284.67	266.94
284.901	249.94
285.132	252.94
285.364	253.94
285.595	268.94
285.826	248.94
286.057	249.94
286.288	244.94
286.52	255.94
286.751	241.94
286.982	268.94
287.213	232.94
287.444	262.94
287.675	270.94
287.906	265.94
288.138	269.94
288.369	265.94
288.6	272.94
288.831	274.94
289.062	283.94
289.293	272.94
289.524	281.94
289.755	277.94
289.986	265.94
290.217	259.94
290.448	253.94
290.679	242.94
290.91	267.94
291.141	268.94
291.371	265.94
291.602	264.94
291.833	260.94
292.064	250.94
292.295	264.94
292.526	266.94
292.757	263.94
292.987	256.94
293.218	230.94
293.449	278.94
293.68	278.94
293.91	252.94
294.141	279.94
294.372	266.94
294.603	273.94
294.833	248.94
295.064	262.94
295.295	265.94
295.525	260.94
295.756	284.94
295.987	272.94
296.217	306.94
296.448	304.94
296.679	279.94
296.909	263.94
297.14	248.94
297.37	250.94
297.601	261.94
297.831	274.94
298.062	288.94
298.292	274.94
298.523	274.94
298.753	272.94
298.984	274.94
299.214	282.94
299.445	287.94
299.675	284.94
299.905	277.94
300.136	288.94
300.366	271.94
300.597	273.94
300.827	277.94
301.057	281.94
301.288	292.94
301.518	297.94
301.748	311.94
301.979	303.94
302.209	291.94
302.439	292.94
302.669	298.94
302.9	300.94
303.13	316.94
303.36	311.94
303.59	303.94
303.82	300.94
304.051	295.94
304.281	298.94
304.511	280.94
304.741	294.94
304.971	279.94
305.201	296.94
305.431	293.94
305.661	287.94
305.891	294.94
306.121	292.94
306.352	306.94
306.582	308.94
306.812	296.94
307.042	310.94
307.272	289.94
307.502	308.94
307.731	326.94
307.961	303.94
308.191	293.94
308.421	307.94
308.651	316.94
308.881	287.94
309.111	312.94
309.341	319.94
309.571	316.94
309.8	315.94
310.03	341.94
310.26	358.94
310.49	345.94
310.72	357.94
310.949	362.94
311.179	360.94
311.409	369.94
311.639	325.94
311.868	331.94
312.098	347.94
312.328	365.94
312.557	368.94
312.787	381.94
313.017	381.94
313.246	357.94
313.476	337.94
313.706	349.94
313.935	363.94
314.165	366.94
314.394	362.94
314.624	366.94
314.853	364.94
315.083	349.94
315.312	360.94
315.542	341.94
315.771	346.94
316.001	331.94
316.23	376.94
316.46	341.94
316.689	355.94
316.919	345.94
317.148	357.94
317.377	344.94
317.607	364.94
317.836	348.94
318.065	366.94
318.295	350.94
318.524	366.94
318.753	342.94
318.983	345.94
319.212	360.94
319.441	369.94
319.67	367.94
319.9	345.94
320.129	364.94
320.358	352.94
320.587	350.94
320.816	360.94
321.046	367.94
321.275	377.94
321.504	361.94
321.733	362.94
321.962	390.94
322.191	404.94
322.42	382.94
322.649	405.94
322.878	414.94
323.108	432.94
323.337	475.94
323.566	472.94
323.795	508.94
324.024	573.94
324.253	646.94
324.482	930.94
324.71	1398.94
324.939	2031.94
325.168	1764.94
325.397	936.94
325.626	643.94
325.855	521.94
326.084	496.94
326.313	462.94
326.542	472.94
326.77	511.94
326.999	621.94
327.228	854.94
327.457	1278.94
327.686	1498.94
327.914	1029.94
328.143	684.94
328.372	615.94
328.6	561.94
328.829	524.94
329.058	541.94
329.287	546.94
329.515	518.94
329.744	486.94
329.972	476.94
330.201	509.94
330.43	541.94
330.658	543.94
330.887	586.94
331.115	566.94
331.344	469.94
331.572	470.94
331.801	470.94
332.03	477.94
332.258	444.94
332.486	431.94
332.715	411.94
332.943	412.94
333.172	396.94
333.4	419.94
333.629	431.94
333.857	447.94
334.085	433.94
334.314	444.94
334.542	470.94
334.771	492.94
334.999	455.94
335.227	420.94
335.455	440.94
335.684	424.94
335.912	423.94
336.14	408.94
336.369	404.94
336.597	420.94
336.825	423.94
337.053	414.94
337.281	406.94
337.51	412.94
337.738	400.94
337.966	411.94
338.194	415.94
338.422	406.94
338.65	409.94
338.878	388.94
339.106	396.94
339.334	411.94
339.562	395.94
339.79	408.94
340.018	387.94
340.246	396.94
340.474	399.94
340.702	398.94
340.93	380.94
341.158	399.94
341.386	406.94
341.614	386.94
341.842	407.94
342.07	406.94
342.298	390.94
342.526	374.94
342.754	383.94
342.981	395.94
343.209	384.94
343.437	374.94
343.665	394.94
343.893	412.94
344.12	390.94
344.348	383.94
344.576	383.94
344.804	403.94
345.031	401.94
345.259	421.94
345.487	411.94
345.714	429.94
345.942	409.94
346.17	395.94
346.397	382.94
346.625	398.94
346.853	413.94
347.08	385.94
347.308	383.94
347.535	424.94
347.763	402.94
347.99	398.94
348.218	405.94
348.445	415.94
348.673	392.94
348.9	387.94
349.128	389.94
349.355	387.94
349.583	381.94
349.81	381.94
350.037	402.94
350.265	367.94
350.492	386.94
350.72	390.94
350.947	398.94
351.174	392.94
351.402	402.94
351.629	405.94
351.856	405.94
352.083	395.94
352.311	396.94
352.538	413.94
352.765	422.94
352.992	417.94
353.22	415.94
353.447	402.94
353.674	385.94
353.901	381.94
354.128	386.94
354.355	354.94
354.583	385.94
354.81	358.94
355.037	380.94
355.264	376.94
355.491	352.94
355.718	376.94
355.945	359.94
356.172	376.94
356.399	349.94
356.626	353.94
356.853	396.94
357.08	388.94
357.307	376.94
357.534	381.94
357.761	383.94
357.988	363.94
358.215	372.94
358.441	366.94
358.668	379.94
358.895	348.94
359.122	380.94
359.349	388.94
359.576	393.94
359.802	412.94
360.029	450.94
360.256	435.94
360.483	439.94
360.709	411.94
360.936	383.94
361.163	407.94
361.39	399.94
361.616	414.94
361.843	413.94
362.07	397.94
362.296	409.94
362.523	416.94
362.749	396.94
362.976	379.94
363.203	386.94
363.429	392.94
363.656	388.94
363.882	386.94
364.109	374.94
364.335	381.94
364.562	383.94
364.788	377.94
365.015	379.94
365.241	396.94
365.468	380.94
365.694	416.94
365.92	400.94
366.147	396.94
366.373	387.94
366.599	389.94
366.826	388.94
367.052	367.94
367.278	378.94
367.505	382.94
367.731	395.94
367.957	382.94
368.184	392.94
368.41	391.94
368.636	411.94
368.862	409.94
369.089	394.94
369.315	383.94
369.541	387.94
369.767	388.94
369.993	388.94
370.219	377.94
370.445	364.94
370.672	376.94
370.898	398.94
371.124	384.94
371.35	387.94
371.576	385.94
371.802	383.94
372.028	347.94
372.254	369.94
372.48	374.94
372.706	384.94
372.932	382.94
373.158	391.94
373.384	405.94
373.61	394.94
373.835	388.94
374.061	380.94
374.287	394.94
374.513	379.94
374.739	403.94
374.965	422.94
375.191	397.94
375.416	378.94
375.642	396.94
375.868	386.94
376.094	395.94
376.319	398.94
376.545	393.94
376.771	397.94
376.997	392.94
377.222	376.94
377.448	372.94
377.674	385.94
377.899	398.94
378.125	406.94
378.35	375.94
378.576	388.94
378.802	394.94
379.027	400.94
379.253	400.94
379.478	386.94
379.704	387.94
379.929	392.94
380.155	384.94
380.38	391.94
380.606	409.94
380.831	415.94
381.057	403.94
381.282	386.94
381.507	388.94
381.733	384.94
381.958	389.94
382.184	399.94
382.409	401.94
382.634	396.94
382.86	404.94
383.085	391.94
383.31	383.94
383.535	392.94
383.761	386.94
383.986	402.94
384.211	408.94
384.436	408.94
384.662	392.94
384.887	414.94
385.112	425.94
385.337	425.94
385.562	394.94
385.787	436.94
386.013	433.94
386.238	433.94
386.463	434.94
386.688	409.94
386.913	409.94
387.138	407.94
387.363	407.94
387.588	430.94
387.813	392.94
388.038	418.94
388.263	432.94
388.488	420.94
388.713	426.94
388.938	420.94
389.163	413.94
389.387	419.94
389.612	402.94
389.837	414.94
390.062	414.94
390.287	407.94
390.512	408.94
390.736	409.94
390.961	443.94
391.186	401.94
391.411	414.94
391.636	410.94
391.86	425.94
392.085	443.94
392.31	429.94
392.534	428.94
392.759	383.94
392.984	430.94
393.208	442.94
393.433	433.94
393.658	439.94
393.882	436.94
394.107	430.94
394.331	420.94
394.556	428.94
394.78	423.94
395.005	427.94
395.229	424.94
395.454	437.94
395.678	438.94
395.903	440.94
396.127	482.94
396.352	466.94
396.576	439.94
396.801	469.94
397.025	461.94
397.249	453.94
397.474	443.94
397.698	442.94
397.922	456.94
398.147	462.94
398.371	464.94
398.595	456.94
398.82	460.94
399.044	459.94
399.268	472.94
399.492	493.94
399.717	545.94
399.941	552.94
400.165	570.94
400.389	581.94
400.613	532.94
400.837	508.94
401.062	490.94
401.286	494.94
401.51	484.94
401.734	465.94
401.958	475.94
402.182	484.94
402.406	490.94
402.63	505.94
402.854	485.94
403.078	470.94
403.302	507.94
403.526	508.94
403.75	480.94
403.974	489.94
404.198	492.94
404.422	509.94
404.645	518.94
404.869	509.94
405.093	550.94
405.317	584.94
405.541	595.94
405.765	556.94
405.988	530.94
406.212	541.94
406.436	580.94
406.66	576.94
406.883	554.94
407.107	576.94
407.331	602.94
407.555	645.94
407.778	660.94
408.002	618.94
408.226	572.94
408.449	547.94
408.673	558.94
408.896	572.94
409.12	616.94
409.344	597.94
409.567	560.94
409.791	545.94
410.014	489.94
410.238	521.94
410.461	514.94
410.685	512.94
410.908	541.94
411.132	546.94
411.355	593.94
411.578	566.94
411.802	522.94
412.025	501.94
412.249	517.94
412.472	547.94
412.695	539.94
412.919	560.94
413.142	516.94
413.365	505.94
413.589	480.94
413.812	509.94
414.035	497.94
414.258	484.94
414.482	470.94
414.705	460.94
414.928	488.94
415.151	479.94
415.374	462.94
415.597	507.94
415.821	471.94
416.044	493.94
416.267	494.94
416.49	488.94
416.713	487.94
416.936	471.94
417.159	478.94
417.382	495.94
417.605	490.94
417.828	507.94
418.051	515.94
418.274	494.94
418.497	496.94
418.72	493.94
418.943	480.94
419.166	498.94
419.389	524.94
419.611	509.94
419.834	519.94
420.057	549.94
420.28	517.94
420.503	517.94
420.726	507.94
420.948	526.94
421.171	573.94
421.394	583.94
421.617	532.94
421.839	493.94
422.062	527.94
422.285	528.94
422.507	585.94
422.73	658.94
422.953	640.94
423.175	550.94
423.398	540.94
423.621	572.94
423.843	558.94
424.066	550.94
424.288	548.94
424.511	583.94
424.733	632.94
424.956	724.94
425.178	703.94
425.401	657.94
425.623	689.94
425.846	585.94
426.068	557.94
426.291	561.94
426.513	578.94
426.735	559.94
426.958	610.94
427.18	702.94
427.402	792.94
427.625	885.94
427.847	801.94
428.069	680.94
428.292	626.94
428.514	577.94
428.736	571.94
428.958	533.94
429.181	526.94
429.403	518.94
429.625	527.94
429.847	541.94
430.069	628.94
430.292	620.94
430.514	539.94
430.736	528.94
430.958	516.94
431.18	514.94
431.402	482.94
431.624	490.94
431.846	478.94
432.068	492.94
432.29	487.94
432.512	494.94
432.734	495.94
432.956	490.94
433.178	516.94
433.4	528.94
433.622	527.94
433.844	492.94
434.066	496.94
434.287	495.94
434.509	507.94
434.731	500.94
434.953	503.94
435.175	528.94
435.397	549.94
435.618	569.94
435.84	591.94
436.062	702.94
436.284	764.94
436.505	648.94
436.727	579.94
436.949	564.94
437.17	554.94
437.392	535.94
437.614	553.94
437.835	582.94
438.057	682.94
438.278	770.94
438.5	763.94
438.721	817.94
438.943	763.94
439.165	630.94
439.386	610.94
439.608	574.94
439.829	592.94
440.05	609.94
440.272	638.94
440.493	594.94
440.715	555.94
440.936	543.94
441.158	550.94
441.379	522.94
441.6	552.94
441.822	579.94
442.043	599.94
442.264	683.94
442.486	731.94
442.707	636.94
442.928	603.94
443.149	590.94
443.371	616.94
443.592	658.94
443.813	764.94
444.034	776.94
444.255	679.94
444.476	582.94
444.698	589.94
444.919	574.94
445.14	637.94
445.361	601.94
445.582	612.94
445.803	684.94
446.024	760.94
446.245	768.94
446.466	719.94
446.687	621.94
446.908	590.94
447.129	535.94
447.35	538.94
447.571	517.94
447.792	509.94
448.013	521.94
448.234	540.94
448.455	593.94
448.675	704.94
448.896	806.94
449.117	711.94
449.338	643.94
449.559	756.94
449.779	829.94
450	665.94
450.221	592.94
450.442	528.94
450.662	514.94
450.883	540.94
451.104	537.94
451.324	530.94
451.545	497.94
451.766	513.94
451.986	495.94
452.207	491.94
452.428	471.94
452.648	478.94
452.869	470.94
453.089	473.94
453.31	485.94
453.53	484.94
453.751	474.94
453.971	462.94
454.192	514.94
454.412	491.94
454.633	470.94
454.853	448.94
455.073	472.94
455.294	503.94
455.514	570.94
455.734	559.94
455.955	483.94
456.175	469.94
456.395	441.94
456.616	438.94
456.836	439.94
457.056	440.94
457.276	459.94
457.497	443.94
457.717	436.94
457.937	472.94
458.157	445.94
458.377	446.94
458.598	469.94
458.818	530.94
459.038	623.94
459.258	638.94
459.478	544.94
459.698	506.94
459.918	479.94
460.138	491.94
460.358	502.94
460.578	480.94
460.798	484.94
461.018	486.94
461.238	496.94
461.458	466.94
461.678	490.94
461.898	512.94
462.118	495.94
462.338	484.94
462.558	502.94
462.777	477.94
462.997	511.94
463.217	524.94
463.437	536.94
463.657	519.94
463.876	515.94
464.096	537.94
464.316	504.94
464.536	509.94
464.755	516.94
464.975	528.94
465.195	542.94
465.414	667.94
465.634	566.94
465.854	527.94
466.073	505.94
466.293	504.94
466.512	486.94
466.732	473.94
466.951	480.94
467.171	473.94
467.391	464.94
467.61	496.94
467.829	498.94
468.049	503.94
468.268	479.94
468.488	473.94
468.707	474.94
468.927	469.94
469.146	475.94
469.365	465.94
469.585	449.94
469.804	466.94
470.023	500.94
470.243	494.94
470.462	501.94
470.681	529.94
470.901	511.94
471.12	490.94
471.339	488.94
471.558	507.94
471.777	492.94
471.997	479.94
472.216	481.94
472.435	520.94
472.654	516.94
472.873	475.94
473.092	500.94
473.311	472.94
473.53	488.94
473.749	508.94
473.968	540.94
474.187	643.94
474.406	668.94
474.625	560.94
474.844	496.94
475.063	522.94
475.282	509.94
475.501	505.94
475.72	503.94
475.939	490.94
476.158	514.94
476.377	516.94
476.596	507.94
476.814	519.94
477.033	523.94
477.252	520.94
477.471	515.94
477.69	529.94
477.908	521.94
478.127	540.94
478.346	535.94
478.564	539.94
478.783	552.94
479.002	554.94
479.22	577.94
479.439	585.94
479.658	587.94
479.876	585.94
480.095	608.94
480.313	652.94
480.532	597.94
480.751	622.94
480.969	616.94
481.188	647.94
481.406	679.94
481.624	637.94
481.843	612.94
482.061	595.94
482.28	596.94
482.498	606.94
482.717	578.94
482.935	586.94
483.153	568.94
483.372	606.94
483.59	604.94
483.808	570.94
484.027	590.94
484.245	570.94
484.463	599.94
484.681	589.94
484.9	596.94
485.118	594.94
485.336	586.94
485.554	601.94
485.772	599.94
485.99	604.94
486.209	615.94
486.427	603.94
486.645	608.94
486.863	644.94
487.081	638.94
487.299	627.94
487.517	650.94
487.735	624.94
487.953	652.94
488.171	637.94
488.389	636.94
488.607	657.94
488.825	645.94
489.043	636.94
489.261	628.94
489.479	653.94
489.696	656.94
489.914	664.94
490.132	683.94
490.35	678.94
490.568	675.94
490.786	689.94
491.003	689.94
491.221	707.94
491.439	726.94
491.657	743.94
491.874	734.94
492.092	746.94
492.31	732.94
492.527	740.94
492.745	748.94
492.963	749.94
493.18	740.94
493.398	768.94
493.615	757.94
493.833	761.94
494.05	777.94
494.268	761.94
494.485	787.94
494.703	762.94
494.92	765.94
495.138	758.94
495.355	772.94
495.573	772.94
495.79	777.94
496.008	794.94
496.225	758.94
496.442	769.94
496.66	777.94
496.877	770.94
497.094	778.94
497.312	758.94
497.529	766.94
497.746	777.94
497.963	798.94
498.181	820.94
498.398	807.94
498.615	808.94
498.832	834.94
499.049	845.94
499.267	824.94
499.484	849.94
499.701	888.94
499.918	884.94
500.135	918.94
500.352	959.94
500.569	937.94
500.786	945.94
501.003	942.94
501.22	935.94
501.437	928.94
501.654	904.94
501.871	898.94
