Data from 1970.PennyLincolnUp.Lamp.En5.5.200Scan.071719.P1._HRD10591_15-13-07-843.txt Node
Date: Thu Jul 18 15:13:07 EDT 2019
User: cochatt
Spectrometer: HR+D1059
Trigger mode: 1
Integration Time (sec): 1.000000E-1
Scans to average: 1
Electric dark correction enabled: true
Nonlinearity correction enabled: false
Boxcar width: 0
XAxis mode: Wavelengths
Number of Pixels in Spectrum: 2048
>>>>>Begin Spectral Data<<<<<
223.165	-16.44
223.4	-16.44
223.635	-16.44
223.869	-15.44
224.104	-4.44
224.338	-21.44
224.573	-7.44
224.808	-24.44
225.042	-9.44
225.277	4.56
225.511	-3.44
225.746	-10.44
225.98	10.56
226.215	16.56
226.449	6.56
226.683	20.56
226.918	16.56
227.152	37.56
227.387	46.56
227.621	33.56
227.856	62.56
228.09	43.56
228.324	36.56
228.559	46.56
228.793	74.56
229.027	84.56
229.262	102.56
229.496	94.56
229.73	119.56
229.964	137.56
230.199	121.56
230.433	113.56
230.667	117.56
230.901	111.56
231.136	99.56
231.37	110.56
231.604	104.56
231.838	103.56
232.072	102.56
232.306	87.56
232.541	92.56
232.775	108.56
233.009	107.56
233.243	102.56
233.477	103.56
233.711	100.56
233.945	113.56
234.179	90.56
234.413	106.56
234.647	122.56
234.881	96.56
235.115	114.56
235.349	110.56
235.583	115.56
235.817	112.56
236.051	121.56
236.285	119.56
236.519	111.56
236.753	127.56
236.987	144.56
237.221	160.56
237.455	206.56
237.689	158.56
237.922	124.56
238.156	119.56
238.39	110.56
238.624	118.56
238.858	109.56
239.091	115.56
239.325	119.56
239.559	114.56
239.793	122.56
240.027	126.56
240.26	129.56
240.494	142.56
240.728	134.56
240.961	118.56
241.195	135.56
241.429	122.56
241.662	125.56
241.896	120.56
242.13	128.56
242.363	131.56
242.597	123.56
242.83	125.56
243.064	129.56
243.298	137.56
243.531	124.56
243.765	127.56
243.998	122.56
244.232	125.56
244.465	139.56
244.699	130.56
244.932	115.56
245.166	131.56
245.399	148.56
245.633	136.56
245.866	129.56
246.099	130.56
246.333	120.56
246.566	129.56
246.8	154.56
247.033	143.56
247.266	158.56
247.5	148.56
247.733	139.56
247.966	152.56
248.2	163.56
248.433	159.56
248.666	159.56
248.899	164.56
249.133	187.56
249.366	190.56
249.599	168.56
249.832	161.56
250.066	174.56
250.299	166.56
250.532	155.56
250.765	170.56
250.998	180.56
251.231	204.56
251.465	193.56
251.698	192.56
251.931	184.56
252.164	180.56
252.397	187.56
252.63	192.56
252.863	180.56
253.096	195.56
253.329	197.56
253.562	196.56
253.795	199.56
254.028	198.56
254.261	190.56
254.494	202.56
254.727	210.56
254.96	224.56
255.193	238.56
255.426	210.56
255.659	191.56
255.892	209.56
256.124	204.56
256.357	190.56
256.59	194.56
256.823	188.56
257.056	182.56
257.289	188.56
257.521	179.56
257.754	192.56
257.987	180.56
258.22	181.56
258.452	191.56
258.685	196.56
258.918	176.56
259.151	178.56
259.383	196.56
259.616	182.56
259.849	174.56
260.081	216.56
260.314	226.56
260.547	221.56
260.779	218.56
261.012	190.56
261.244	214.56
261.477	210.56
261.71	194.56
261.942	182.56
262.175	200.56
262.407	196.56
262.64	195.56
262.872	196.56
263.105	171.56
263.337	176.56
263.57	171.56
263.802	166.56
264.035	187.56
264.267	184.56
264.499	169.56
264.732	177.56
264.964	184.56
265.197	180.56
265.429	172.56
265.661	182.56
265.894	186.56
266.126	192.56
266.358	165.56
266.591	175.56
266.823	199.56
267.055	203.56
267.287	193.56
267.52	183.56
267.752	199.56
267.984	200.56
268.216	202.56
268.448	185.56
268.681	190.56
268.913	198.56
269.145	218.56
269.377	225.56
269.609	228.56
269.841	222.56
270.073	222.56
270.306	232.56
270.538	256.56
270.77	251.56
271.002	221.56
271.234	238.56
271.466	234.56
271.698	241.56
271.93	249.56
272.162	263.56
272.394	248.56
272.626	242.56
272.858	226.56
273.09	233.56
273.322	231.56
273.553	217.56
273.785	200.56
274.017	214.56
274.249	212.56
274.481	205.56
274.713	222.56
274.945	223.56
275.176	227.56
275.408	219.56
275.64	204.56
275.872	201.56
276.104	212.56
276.335	210.56
276.567	212.56
276.799	198.56
277.031	234.56
277.262	247.56
277.494	246.56
277.726	226.56
277.957	241.56
278.189	230.56
278.421	219.56
278.652	215.56
278.884	215.56
279.115	209.56
279.347	227.56
279.579	215.56
279.81	215.56
280.042	206.56
280.273	228.56
280.505	213.56
280.736	216.56
280.968	225.56
281.199	218.56
281.431	200.56
281.662	202.56
281.894	213.56
282.125	211.56
282.356	217.56
282.588	246.56
282.819	246.56
283.051	217.56
283.282	207.56
283.513	212.56
283.745	198.56
283.976	216.56
284.207	208.56
284.439	218.56
284.67	233.56
284.901	217.56
285.132	232.56
285.364	228.56
285.595	212.56
285.826	231.56
286.057	215.56
286.288	225.56
286.52	224.56
286.751	225.56
286.982	231.56
287.213	227.56
287.444	225.56
287.675	214.56
287.906	218.56
288.138	218.56
288.369	241.56
288.6	218.56
288.831	238.56
289.062	218.56
289.293	228.56
289.524	224.56
289.755	227.56
289.986	229.56
290.217	240.56
290.448	216.56
290.679	223.56
290.91	230.56
291.141	217.56
291.371	212.56
291.602	206.56
291.833	219.56
292.064	215.56
292.295	227.56
292.526	211.56
292.757	230.56
292.987	226.56
293.218	231.56
293.449	217.56
293.68	233.56
293.91	224.56
294.141	217.56
294.372	226.56
294.603	220.56
294.833	227.56
295.064	228.56
295.295	233.56
295.525	206.56
295.756	224.56
295.987	239.56
296.217	243.56
296.448	245.56
296.679	240.56
296.909	240.56
297.14	222.56
297.37	231.56
297.601	246.56
297.831	235.56
298.062	235.56
298.292	251.56
298.523	240.56
298.753	230.56
298.984	234.56
299.214	254.56
299.445	228.56
299.675	243.56
299.905	248.56
300.136	229.56
300.366	252.56
300.597	244.56
300.827	230.56
301.057	243.56
301.288	254.56
301.518	250.56
301.748	240.56
301.979	240.56
302.209	246.56
302.439	245.56
302.669	260.56
302.9	236.56
303.13	240.56
303.36	257.56
303.59	242.56
303.82	248.56
304.051	256.56
304.281	245.56
304.511	250.56
304.741	239.56
304.971	256.56
305.201	262.56
305.431	246.56
305.661	255.56
305.891	238.56
306.121	248.56
306.352	260.56
306.582	260.56
306.812	244.56
307.042	251.56
307.272	252.56
307.502	243.56
307.731	266.56
307.961	258.56
308.191	263.56
308.421	256.56
308.651	280.56
308.881	260.56
309.111	272.56
309.341	265.56
309.571	250.56
309.8	279.56
310.03	275.56
310.26	276.56
310.49	289.56
310.72	268.56
310.949	307.56
311.179	291.56
311.409	294.56
311.639	293.56
311.868	279.56
312.098	287.56
312.328	274.56
312.557	297.56
312.787	300.56
313.017	310.56
313.246	291.56
313.476	289.56
313.706	296.56
313.935	293.56
314.165	304.56
314.394	297.56
314.624	298.56
314.853	307.56
315.083	312.56
315.312	303.56
315.542	293.56
315.771	283.56
316.001	266.56
316.23	284.56
316.46	288.56
316.689	293.56
316.919	295.56
317.148	268.56
317.377	280.56
317.607	312.56
317.836	278.56
318.065	299.56
318.295	276.56
318.524	299.56
318.753	300.56
318.983	293.56
319.212	270.56
319.441	284.56
319.67	320.56
319.9	293.56
320.129	290.56
320.358	304.56
320.587	283.56
320.816	291.56
321.046	304.56
321.275	315.56
321.504	319.56
321.733	314.56
321.962	314.56
322.191	331.56
322.42	329.56
322.649	330.56
322.878	342.56
323.108	348.56
323.337	364.56
323.566	368.56
323.795	392.56
324.024	422.56
324.253	512.56
324.482	675.56
324.71	1007.56
324.939	1463.56
325.168	1298.56
325.397	694.56
325.626	465.56
325.855	384.56
326.084	379.56
326.313	376.56
326.542	369.56
326.77	415.56
326.999	469.56
327.228	644.56
327.457	960.56
327.686	1092.56
327.914	755.56
328.143	537.56
328.372	466.56
328.6	427.56
328.829	407.56
329.058	434.56
329.287	430.56
329.515	395.56
329.744	378.56
329.972	361.56
330.201	390.56
330.43	404.56
330.658	437.56
330.887	450.56
331.115	432.56
331.344	390.56
331.572	365.56
331.801	383.56
332.03	375.56
332.258	367.56
332.486	346.56
332.715	345.56
332.943	325.56
333.172	329.56
333.4	353.56
333.629	363.56
333.857	371.56
334.085	368.56
334.314	364.56
334.542	373.56
334.771	386.56
334.999	367.56
335.227	344.56
335.455	346.56
335.684	346.56
335.912	336.56
336.14	341.56
336.369	347.56
336.597	340.56
336.825	340.56
337.053	343.56
337.281	332.56
337.51	325.56
337.738	354.56
337.966	330.56
338.194	343.56
338.422	336.56
338.65	342.56
338.878	337.56
339.106	324.56
339.334	339.56
339.562	346.56
339.79	334.56
340.018	342.56
340.246	326.56
340.474	338.56
340.702	328.56
340.93	336.56
341.158	316.56
341.386	350.56
341.614	338.56
341.842	341.56
342.07	321.56
342.298	329.56
342.526	323.56
342.754	331.56
342.981	323.56
343.209	324.56
343.437	329.56
343.665	321.56
343.893	342.56
344.12	355.56
344.348	352.56
344.576	339.56
344.804	330.56
345.031	372.56
345.259	382.56
345.487	353.56
345.714	338.56
345.942	337.56
346.17	339.56
346.397	332.56
346.625	323.56
346.853	302.56
347.08	304.56
347.308	331.56
347.535	347.56
347.763	350.56
347.99	338.56
348.218	345.56
348.445	366.56
348.673	328.56
348.9	325.56
349.128	323.56
349.355	316.56
349.583	326.56
349.81	328.56
350.037	329.56
350.265	318.56
350.492	319.56
350.72	332.56
350.947	330.56
351.174	332.56
351.402	335.56
351.629	337.56
351.856	333.56
352.083	332.56
352.311	353.56
352.538	328.56
352.765	345.56
352.992	337.56
353.22	343.56
353.447	333.56
353.674	319.56
353.901	337.56
354.128	328.56
354.355	310.56
354.583	331.56
354.81	330.56
355.037	311.56
355.264	300.56
355.491	311.56
355.718	308.56
355.945	308.56
356.172	319.56
356.399	323.56
356.626	307.56
356.853	312.56
357.08	304.56
357.307	306.56
357.534	313.56
357.761	311.56
357.988	331.56
358.215	332.56
358.441	318.56
358.668	326.56
358.895	333.56
359.122	343.56
359.349	337.56
359.576	331.56
359.802	354.56
360.029	357.56
360.256	367.56
360.483	363.56
360.709	352.56
360.936	322.56
361.163	339.56
361.39	316.56
361.616	355.56
361.843	346.56
362.07	343.56
362.296	334.56
362.523	350.56
362.749	355.56
362.976	328.56
363.203	326.56
363.429	314.56
363.656	348.56
363.882	337.56
364.109	314.56
364.335	323.56
364.562	325.56
364.788	306.56
365.015	325.56
365.241	324.56
365.468	334.56
365.694	330.56
365.92	347.56
366.147	332.56
366.373	334.56
366.599	320.56
366.826	323.56
367.052	326.56
367.278	316.56
367.505	338.56
367.731	326.56
367.957	313.56
368.184	325.56
368.41	339.56
368.636	331.56
368.862	342.56
369.089	345.56
369.315	324.56
369.541	348.56
369.767	334.56
369.993	328.56
370.219	341.56
370.445	349.56
370.672	321.56
370.898	326.56
371.124	328.56
371.35	332.56
371.576	347.56
371.802	344.56
372.028	346.56
372.254	331.56
372.48	359.56
372.706	317.56
372.932	340.56
373.158	346.56
373.384	351.56
373.61	337.56
373.835	347.56
374.061	321.56
374.287	322.56
374.513	337.56
374.739	339.56
374.965	359.56
375.191	348.56
375.416	346.56
375.642	335.56
375.868	359.56
376.094	352.56
376.319	335.56
376.545	339.56
376.771	328.56
376.997	321.56
377.222	337.56
377.448	350.56
377.674	339.56
377.899	324.56
378.125	339.56
378.35	340.56
378.576	341.56
378.802	345.56
379.027	340.56
379.253	345.56
379.478	337.56
379.704	358.56
379.929	323.56
380.155	355.56
380.38	369.56
380.606	347.56
380.831	341.56
381.057	342.56
381.282	332.56
381.507	328.56
381.733	347.56
381.958	341.56
382.184	340.56
382.409	348.56
382.634	352.56
382.86	344.56
383.085	358.56
383.31	326.56
383.535	359.56
383.761	375.56
383.986	344.56
384.211	359.56
384.436	357.56
384.662	357.56
384.887	360.56
385.112	377.56
385.337	374.56
385.562	374.56
385.787	378.56
386.013	391.56
386.238	387.56
386.463	373.56
386.688	375.56
386.913	355.56
387.138	386.56
387.363	382.56
387.588	372.56
387.813	365.56
388.038	366.56
388.263	375.56
388.488	375.56
388.713	359.56
388.938	361.56
389.163	370.56
389.387	356.56
389.612	364.56
389.837	367.56
390.062	383.56
390.287	374.56
390.512	363.56
390.736	367.56
390.961	378.56
391.186	359.56
391.411	372.56
391.636	380.56
391.86	394.56
392.085	359.56
392.31	410.56
392.534	370.56
392.759	397.56
392.984	362.56
393.208	392.56
393.433	391.56
393.658	414.56
393.882	380.56
394.107	388.56
394.331	380.56
394.556	375.56
394.78	377.56
395.005	354.56
395.229	376.56
395.454	370.56
395.678	373.56
395.903	394.56
396.127	428.56
396.352	432.56
396.576	428.56
396.801	402.56
397.025	437.56
397.249	393.56
397.474	393.56
397.698	403.56
397.922	405.56
398.147	401.56
398.371	435.56
398.595	401.56
398.82	411.56
399.044	420.56
399.268	442.56
399.492	427.56
399.717	472.56
399.941	498.56
400.165	518.56
400.389	522.56
400.613	472.56
400.837	447.56
401.062	424.56
401.286	410.56
401.51	426.56
401.734	411.56
401.958	420.56
402.182	402.56
402.406	406.56
402.63	419.56
402.854	432.56
403.078	441.56
403.302	423.56
403.526	470.56
403.75	442.56
403.974	415.56
404.198	450.56
404.422	466.56
404.645	444.56
404.869	436.56
405.093	482.56
405.317	509.56
405.541	516.56
405.765	482.56
405.988	466.56
406.212	471.56
406.436	460.56
406.66	492.56
406.883	450.56
407.107	508.56
407.331	528.56
407.555	583.56
407.778	591.56
408.002	509.56
408.226	499.56
408.449	511.56
408.673	484.56
408.896	516.56
409.12	539.56
409.344	524.56
409.567	479.56
409.791	450.56
410.014	451.56
410.238	438.56
410.461	438.56
410.685	441.56
410.908	453.56
411.132	497.56
411.355	494.56
411.578	482.56
411.802	463.56
412.025	452.56
412.249	455.56
412.472	476.56
412.695	476.56
412.919	457.56
413.142	455.56
413.365	446.56
413.589	423.56
413.812	406.56
414.035	414.56
414.258	428.56
414.482	433.56
414.705	431.56
414.928	425.56
415.151	442.56
415.374	411.56
415.597	414.56
415.821	401.56
416.044	421.56
416.267	395.56
416.49	406.56
416.713	388.56
416.936	420.56
417.159	417.56
417.382	426.56
417.605	424.56
417.828	428.56
418.051	455.56
418.274	447.56
418.497	428.56
418.72	396.56
418.943	418.56
419.166	443.56
419.389	457.56
419.611	471.56
419.834	453.56
420.057	455.56
420.28	440.56
420.503	428.56
420.726	428.56
420.948	466.56
421.171	493.56
421.394	502.56
421.617	457.56
421.839	436.56
422.062	462.56
422.285	444.56
422.507	519.56
422.73	568.56
422.953	560.56
423.175	482.56
423.398	463.56
423.621	451.56
423.843	484.56
424.066	474.56
424.288	471.56
424.511	490.56
424.733	536.56
424.956	626.56
425.178	591.56
425.401	574.56
425.623	585.56
425.846	512.56
426.068	495.56
426.291	477.56
426.513	464.56
426.735	482.56
426.958	528.56
427.18	596.56
427.402	703.56
427.625	763.56
427.847	661.56
428.069	588.56
428.292	524.56
428.514	496.56
428.736	475.56
428.958	451.56
429.181	461.56
429.403	454.56
429.625	472.56
429.847	476.56
430.069	544.56
430.292	542.56
430.514	467.56
430.736	462.56
430.958	446.56
431.18	442.56
431.402	432.56
431.624	418.56
431.846	427.56
432.068	425.56
432.29	430.56
432.512	448.56
432.734	434.56
432.956	428.56
433.178	438.56
433.4	448.56
433.622	427.56
433.844	428.56
434.066	449.56
434.287	450.56
434.509	428.56
434.731	444.56
434.953	447.56
435.175	455.56
435.397	458.56
435.618	484.56
435.84	492.56
436.062	581.56
436.284	658.56
436.505	574.56
436.727	484.56
436.949	458.56
437.17	463.56
437.392	442.56
437.614	459.56
437.835	510.56
438.057	555.56
438.278	662.56
438.5	668.56
438.721	706.56
438.943	682.56
439.165	578.56
439.386	501.56
439.608	485.56
439.829	516.56
440.05	519.56
440.272	533.56
440.493	517.56
440.715	474.56
440.936	467.56
441.158	456.56
441.379	449.56
441.6	458.56
441.822	463.56
442.043	502.56
442.264	591.56
442.486	625.56
442.707	546.56
442.928	488.56
443.149	503.56
443.371	522.56
443.592	568.56
443.813	644.56
444.034	694.56
444.255	584.56
444.476	510.56
444.698	479.56
444.919	500.56
445.14	612.56
445.361	552.56
445.582	526.56
445.803	574.56
446.024	609.56
446.245	649.56
446.466	579.56
446.687	534.56
446.908	495.56
447.129	483.56
447.35	475.56
447.571	472.56
447.792	470.56
448.013	442.56
448.234	444.56
448.455	518.56
448.675	613.56
448.896	716.56
449.117	586.56
449.338	582.56
449.559	684.56
449.779	735.56
450	610.56
450.221	502.56
450.442	475.56
450.662	456.56
450.883	455.56
451.104	455.56
451.324	436.56
451.545	431.56
451.766	418.56
451.986	422.56
452.207	408.56
452.428	408.56
452.648	400.56
452.869	421.56
453.089	391.56
453.31	406.56
453.53	404.56
453.751	392.56
453.971	398.56
454.192	416.56
454.412	379.56
454.633	407.56
454.853	394.56
455.073	398.56
455.294	428.56
455.514	490.56
455.734	459.56
455.955	414.56
456.175	398.56
456.395	385.56
456.616	374.56
456.836	366.56
457.056	380.56
457.276	375.56
457.497	385.56
457.717	378.56
457.937	387.56
458.157	391.56
458.377	394.56
458.598	409.56
458.818	450.56
459.038	506.56
459.258	520.56
459.478	438.56
459.698	430.56
459.918	406.56
460.138	434.56
460.358	444.56
460.578	428.56
460.798	439.56
461.018	459.56
461.238	427.56
461.458	432.56
461.678	435.56
461.898	422.56
462.118	432.56
462.338	447.56
462.558	445.56
462.777	451.56
462.997	450.56
463.217	461.56
463.437	474.56
463.657	458.56
463.876	444.56
464.096	463.56
464.316	461.56
464.536	464.56
464.755	468.56
464.975	458.56
465.195	480.56
465.414	535.56
465.634	487.56
465.854	449.56
466.073	449.56
466.293	405.56
466.512	432.56
466.732	430.56
466.951	422.56
467.171	417.56
467.391	420.56
467.61	413.56
467.829	415.56
468.049	423.56
468.268	409.56
468.488	403.56
468.707	434.56
468.927	408.56
469.146	420.56
469.365	403.56
469.585	410.56
469.804	404.56
470.023	427.56
470.243	419.56
470.462	426.56
470.681	427.56
470.901	448.56
471.12	419.56
471.339	411.56
471.558	409.56
471.777	436.56
471.997	436.56
472.216	435.56
472.435	439.56
472.654	416.56
472.873	436.56
473.092	427.56
473.311	426.56
473.53	427.56
473.749	431.56
473.968	483.56
474.187	539.56
474.406	526.56
474.625	484.56
474.844	442.56
475.063	432.56
475.282	420.56
475.501	414.56
475.72	418.56
475.939	441.56
476.158	436.56
476.377	431.56
476.596	446.56
476.814	455.56
477.033	442.56
477.252	451.56
477.471	443.56
477.69	459.56
477.908	459.56
478.127	455.56
478.346	463.56
478.564	463.56
478.783	466.56
479.002	470.56
479.22	499.56
479.439	495.56
479.658	499.56
479.876	515.56
480.095	515.56
480.313	541.56
480.532	501.56
480.751	497.56
480.969	511.56
481.188	535.56
481.406	576.56
481.624	523.56
481.843	503.56
482.061	508.56
482.28	522.56
482.498	487.56
482.717	520.56
482.935	514.56
483.153	503.56
483.372	503.56
483.59	508.56
483.808	524.56
484.027	515.56
484.245	513.56
484.463	505.56
484.681	506.56
484.9	516.56
485.118	513.56
485.336	526.56
485.554	514.56
485.772	547.56
485.99	507.56
486.209	505.56
486.427	535.56
486.645	545.56
486.863	567.56
487.081	520.56
487.299	540.56
487.517	541.56
487.735	554.56
487.953	542.56
488.171	529.56
488.389	564.56
488.607	564.56
488.825	552.56
489.043	550.56
489.261	533.56
489.479	528.56
489.696	553.56
489.914	545.56
490.132	549.56
490.35	566.56
490.568	564.56
490.786	598.56
491.003	592.56
491.221	588.56
491.439	614.56
491.657	635.56
491.874	646.56
492.092	649.56
492.31	641.56
492.527	625.56
492.745	624.56
492.963	652.56
493.18	651.56
493.398	643.56
493.615	635.56
493.833	638.56
494.05	650.56
494.268	652.56
494.485	657.56
494.703	655.56
494.92	648.56
495.138	655.56
495.355	666.56
495.573	653.56
495.79	650.56
496.008	654.56
496.225	650.56
496.442	658.56
496.66	662.56
496.877	670.56
497.094	650.56
497.312	658.56
497.529	674.56
497.746	694.56
497.963	690.56
498.181	700.56
498.398	694.56
498.615	723.56
498.832	732.56
499.049	726.56
499.267	755.56
499.484	783.56
499.701	772.56
499.918	784.56
500.135	818.56
500.352	843.56
500.569	859.56
500.786	862.56
501.003	846.56
501.22	825.56
501.437	822.56
501.654	800.56
501.871	786.56
502.088	775.56
