Data from 1970.PennyLincolnUp.Lamp.En5.5.200Scan.071719.P1._HRD10591_15-16-02-841.txt Node
Date: Thu Jul 18 15:16:02 EDT 2019
User: cochatt
Spectrometer: HR+D1059
Trigger mode: 1
Integration Time (sec): 1.000000E-1
Scans to average: 1
Electric dark correction enabled: true
Nonlinearity correction enabled: false
Boxcar width: 0
XAxis mode: Wavelengths
Number of Pixels in Spectrum: 2048
>>>>>Begin Spectral Data<<<<<
223.165	-17.88
223.4	-17.88
223.635	-17.88
223.869	-25.88
224.104	-15.88
224.338	-14.88
224.573	-10.88
224.808	-7.88
225.042	-24.88
225.277	-3.88
225.511	-11.88
225.746	15.12
225.98	14.12
226.215	2.12
226.449	12.12
226.683	9.12
226.918	38.12
227.152	43.12
227.387	42.12
227.621	38.12
227.856	44.12
228.09	32.12
228.324	45.12
228.559	56.12
228.793	68.12
229.027	103.12
229.262	130.12
229.496	148.12
229.73	161.12
229.964	172.12
230.199	139.12
230.433	145.12
230.667	140.12
230.901	130.12
231.136	122.12
231.37	121.12
231.604	132.12
231.838	127.12
232.072	130.12
232.306	128.12
232.541	137.12
232.775	114.12
233.009	137.12
233.243	122.12
233.477	123.12
233.711	123.12
233.945	127.12
234.179	122.12
234.413	143.12
234.647	125.12
234.881	119.12
235.115	128.12
235.349	132.12
235.583	120.12
235.817	144.12
236.051	135.12
236.285	145.12
236.519	126.12
236.753	146.12
236.987	173.12
237.221	195.12
237.455	272.12
237.689	211.12
237.922	156.12
238.156	146.12
238.39	147.12
238.624	147.12
238.858	146.12
239.091	142.12
239.325	141.12
239.559	140.12
239.793	145.12
240.027	149.12
240.26	167.12
240.494	195.12
240.728	175.12
240.961	174.12
241.195	170.12
241.429	149.12
241.662	151.12
241.896	152.12
242.13	151.12
242.363	161.12
242.597	160.12
242.83	142.12
243.064	156.12
243.298	173.12
243.531	145.12
243.765	151.12
243.998	146.12
244.232	141.12
244.465	162.12
244.699	173.12
244.932	161.12
245.166	170.12
245.399	170.12
245.633	169.12
245.866	167.12
246.099	175.12
246.333	172.12
246.566	161.12
246.8	166.12
247.033	163.12
247.266	169.12
247.5	190.12
247.733	184.12
247.966	197.12
248.2	201.12
248.433	201.12
248.666	199.12
248.899	194.12
249.133	233.12
249.366	241.12
249.599	224.12
249.832	208.12
250.066	213.12
250.299	212.12
250.532	209.12
250.765	232.12
250.998	258.12
251.231	266.12
251.465	250.12
251.698	221.12
251.931	235.12
252.164	241.12
252.397	229.12
252.63	235.12
252.863	225.12
253.096	252.12
253.329	256.12
253.562	263.12
253.795	239.12
254.028	258.12
254.261	245.12
254.494	256.12
254.727	306.12
254.96	329.12
255.193	316.12
255.426	283.12
255.659	251.12
255.892	264.12
256.124	263.12
256.357	267.12
256.59	247.12
256.823	242.12
257.056	238.12
257.289	253.12
257.521	245.12
257.754	249.12
257.987	238.12
258.22	235.12
258.452	242.12
258.685	241.12
258.918	226.12
259.151	234.12
259.383	256.12
259.616	245.12
259.849	267.12
260.081	299.12
260.314	307.12
260.547	306.12
260.779	275.12
261.012	269.12
261.244	238.12
261.477	254.12
261.71	242.12
261.942	260.12
262.175	269.12
262.407	282.12
262.64	241.12
262.872	245.12
263.105	240.12
263.337	238.12
263.57	222.12
263.802	241.12
264.035	234.12
264.267	229.12
264.499	221.12
264.732	248.12
264.964	206.12
265.197	233.12
265.429	259.12
265.661	240.12
265.894	240.12
266.126	241.12
266.358	236.12
266.591	245.12
266.823	233.12
267.055	229.12
267.287	251.12
267.52	266.12
267.752	237.12
267.984	241.12
268.216	242.12
268.448	246.12
268.681	258.12
268.913	262.12
269.145	285.12
269.377	296.12
269.609	300.12
269.841	299.12
270.073	299.12
270.306	318.12
270.538	336.12
270.77	346.12
271.002	345.12
271.234	315.12
271.466	339.12
271.698	335.12
271.93	354.12
272.162	344.12
272.394	351.12
272.626	337.12
272.858	314.12
273.09	317.12
273.322	301.12
273.553	297.12
273.785	282.12
274.017	270.12
274.249	290.12
274.481	271.12
274.713	281.12
274.945	284.12
275.176	297.12
275.408	298.12
275.64	307.12
275.872	287.12
276.104	293.12
276.335	287.12
276.567	287.12
276.799	296.12
277.031	335.12
277.262	351.12
277.494	335.12
277.726	328.12
277.957	305.12
278.189	301.12
278.421	315.12
278.652	305.12
278.884	273.12
279.115	287.12
279.347	291.12
279.579	286.12
279.81	278.12
280.042	288.12
280.273	282.12
280.505	273.12
280.736	276.12
280.968	263.12
281.199	284.12
281.431	273.12
281.662	268.12
281.894	282.12
282.125	281.12
282.356	302.12
282.588	320.12
282.819	332.12
283.051	303.12
283.282	274.12
283.513	284.12
283.745	272.12
283.976	286.12
284.207	301.12
284.439	296.12
284.67	274.12
284.901	265.12
285.132	291.12
285.364	291.12
285.595	273.12
285.826	295.12
286.057	289.12
286.288	293.12
286.52	292.12
286.751	304.12
286.982	280.12
287.213	294.12
287.444	301.12
287.675	283.12
287.906	312.12
288.138	303.12
288.369	303.12
288.6	313.12
288.831	307.12
289.062	307.12
289.293	317.12
289.524	285.12
289.755	314.12
289.986	286.12
290.217	305.12
290.448	305.12
290.679	302.12
290.91	301.12
291.141	290.12
291.371	299.12
291.602	310.12
291.833	295.12
292.064	305.12
292.295	297.12
292.526	310.12
292.757	304.12
292.987	273.12
293.218	301.12
293.449	298.12
293.68	290.12
293.91	302.12
294.141	296.12
294.372	280.12
294.603	309.12
294.833	296.12
295.064	295.12
295.295	310.12
295.525	294.12
295.756	288.12
295.987	319.12
296.217	352.12
296.448	366.12
296.679	318.12
296.909	275.12
297.14	290.12
297.37	302.12
297.601	305.12
297.831	300.12
298.062	303.12
298.292	314.12
298.523	317.12
298.753	320.12
298.984	299.12
299.214	331.12
299.445	322.12
299.675	311.12
299.905	320.12
300.136	317.12
300.366	326.12
300.597	321.12
300.827	319.12
301.057	330.12
301.288	344.12
301.518	344.12
301.748	337.12
301.979	335.12
302.209	342.12
302.439	317.12
302.669	343.12
302.9	321.12
303.13	343.12
303.36	330.12
303.59	365.12
303.82	349.12
304.051	348.12
304.281	330.12
304.511	314.12
304.741	334.12
304.971	327.12
305.201	326.12
305.431	315.12
305.661	349.12
305.891	348.12
306.121	334.12
306.352	349.12
306.582	352.12
306.812	355.12
307.042	336.12
307.272	315.12
307.502	354.12
307.731	344.12
307.961	335.12
308.191	331.12
308.421	332.12
308.651	338.12
308.881	348.12
309.111	359.12
309.341	385.12
309.571	361.12
309.8	385.12
310.03	387.12
310.26	402.12
310.49	406.12
310.72	378.12
310.949	450.12
311.179	459.12
311.409	431.12
311.639	405.12
311.868	398.12
312.098	418.12
312.328	419.12
312.557	453.12
312.787	458.12
313.017	442.12
313.246	406.12
313.476	386.12
313.706	391.12
313.935	409.12
314.165	421.12
314.394	432.12
314.624	453.12
314.853	413.12
315.083	430.12
315.312	386.12
315.542	398.12
315.771	411.12
316.001	408.12
316.23	397.12
316.46	386.12
316.689	392.12
316.919	412.12
317.148	439.12
317.377	416.12
317.607	397.12
317.836	413.12
318.065	392.12
318.295	399.12
318.524	399.12
318.753	395.12
318.983	388.12
319.212	400.12
319.441	416.12
319.67	413.12
319.9	400.12
320.129	399.12
320.358	409.12
320.587	427.12
320.816	444.12
321.046	416.12
321.275	424.12
321.504	428.12
321.733	421.12
321.962	429.12
322.191	457.12
322.42	486.12
322.649	504.12
322.878	500.12
323.108	524.12
323.337	545.12
323.566	570.12
323.795	640.12
324.024	710.12
324.253	858.12
324.482	1220.12
324.71	1873.12
324.939	2681.12
325.168	2285.12
325.397	1233.12
325.626	816.12
325.855	668.12
326.084	584.12
326.313	585.12
326.542	588.12
326.77	644.12
326.999	792.12
327.228	1102.12
327.457	1637.12
327.686	2039.12
327.914	1380.12
328.143	920.12
328.372	785.12
328.6	731.12
328.829	667.12
329.058	682.12
329.287	703.12
329.515	665.12
329.744	622.12
329.972	577.12
330.201	617.12
330.43	701.12
330.658	696.12
330.887	744.12
331.115	701.12
331.344	595.12
331.572	590.12
331.801	589.12
332.03	553.12
332.258	522.12
332.486	499.12
332.715	496.12
332.943	483.12
333.172	458.12
333.4	493.12
333.629	477.12
333.857	498.12
334.085	528.12
334.314	537.12
334.542	588.12
334.771	621.12
334.999	574.12
335.227	519.12
335.455	493.12
335.684	493.12
335.912	472.12
336.14	467.12
336.369	479.12
336.597	466.12
336.825	492.12
337.053	467.12
337.281	476.12
337.51	455.12
337.738	464.12
337.966	461.12
338.194	476.12
338.422	456.12
338.65	458.12
338.878	468.12
339.106	450.12
339.334	439.12
339.562	448.12
339.79	443.12
340.018	472.12
340.246	453.12
340.474	478.12
340.702	466.12
340.93	475.12
341.158	444.12
341.386	441.12
341.614	464.12
341.842	460.12
342.07	479.12
342.298	468.12
342.526	450.12
342.754	445.12
342.981	438.12
343.209	442.12
343.437	445.12
343.665	433.12
343.893	439.12
344.12	428.12
344.348	453.12
344.576	458.12
344.804	470.12
345.031	487.12
345.259	483.12
345.487	489.12
345.714	468.12
345.942	449.12
346.17	467.12
346.397	446.12
346.625	437.12
346.853	452.12
347.08	438.12
347.308	450.12
347.535	474.12
347.763	479.12
347.99	471.12
348.218	469.12
348.445	454.12
348.673	463.12
348.9	472.12
349.128	434.12
349.355	437.12
349.583	426.12
349.81	434.12
350.037	438.12
350.265	441.12
350.492	457.12
350.72	446.12
350.947	449.12
351.174	462.12
351.402	486.12
351.629	494.12
351.856	453.12
352.083	484.12
352.311	469.12
352.538	470.12
352.765	476.12
352.992	469.12
353.22	474.12
353.447	443.12
353.674	447.12
353.901	433.12
354.128	409.12
354.355	435.12
354.583	436.12
354.81	421.12
355.037	420.12
355.264	429.12
355.491	402.12
355.718	419.12
355.945	407.12
356.172	417.12
356.399	412.12
356.626	395.12
356.853	419.12
357.08	405.12
357.307	396.12
357.534	406.12
357.761	434.12
357.988	412.12
358.215	405.12
358.441	423.12
358.668	411.12
358.895	440.12
359.122	435.12
359.349	448.12
359.576	480.12
359.802	490.12
360.029	531.12
360.256	529.12
360.483	486.12
360.709	471.12
360.936	465.12
361.163	458.12
361.39	472.12
361.616	479.12
361.843	459.12
362.07	462.12
362.296	475.12
362.523	421.12
362.749	462.12
362.976	446.12
363.203	467.12
363.429	423.12
363.656	440.12
363.882	458.12
364.109	429.12
364.335	432.12
364.562	427.12
364.788	453.12
365.015	441.12
365.241	441.12
365.468	455.12
365.694	440.12
365.92	457.12
366.147	459.12
366.373	412.12
366.599	423.12
366.826	438.12
367.052	429.12
367.278	433.12
367.505	445.12
367.731	431.12
367.957	455.12
368.184	464.12
368.41	446.12
368.636	456.12
368.862	460.12
369.089	445.12
369.315	439.12
369.541	450.12
369.767	428.12
369.993	439.12
370.219	450.12
370.445	446.12
370.672	431.12
370.898	425.12
371.124	428.12
371.35	413.12
371.576	421.12
371.802	424.12
372.028	440.12
372.254	428.12
372.48	418.12
372.706	425.12
372.932	424.12
373.158	423.12
373.384	447.12
373.61	427.12
373.835	426.12
374.061	428.12
374.287	425.12
374.513	440.12
374.739	428.12
374.965	440.12
375.191	419.12
375.416	455.12
375.642	419.12
375.868	439.12
376.094	424.12
376.319	450.12
376.545	423.12
376.771	417.12
376.997	434.12
377.222	414.12
377.448	411.12
377.674	441.12
377.899	428.12
378.125	413.12
378.35	417.12
378.576	421.12
378.802	423.12
379.027	441.12
379.253	416.12
379.478	404.12
379.704	424.12
379.929	409.12
380.155	431.12
380.38	437.12
380.606	454.12
380.831	441.12
381.057	439.12
381.282	433.12
381.507	437.12
381.733	438.12
381.958	434.12
382.184	441.12
382.409	437.12
382.634	431.12
382.86	441.12
383.085	443.12
383.31	446.12
383.535	445.12
383.761	418.12
383.986	439.12
384.211	442.12
384.436	446.12
384.662	440.12
384.887	467.12
385.112	442.12
385.337	444.12
385.562	473.12
385.787	461.12
386.013	466.12
386.238	471.12
386.463	482.12
386.688	477.12
386.913	461.12
387.138	443.12
387.363	459.12
387.588	473.12
387.813	476.12
388.038	472.12
388.263	456.12
388.488	471.12
388.713	459.12
388.938	454.12
389.163	473.12
389.387	455.12
389.612	460.12
389.837	449.12
390.062	450.12
390.287	464.12
390.512	446.12
390.736	446.12
390.961	454.12
391.186	455.12
391.411	456.12
391.636	457.12
391.86	456.12
392.085	461.12
392.31	470.12
392.534	471.12
392.759	484.12
392.984	476.12
393.208	455.12
393.433	463.12
393.658	480.12
393.882	450.12
394.107	467.12
394.331	462.12
394.556	455.12
394.78	471.12
395.005	477.12
395.229	464.12
395.454	477.12
395.678	484.12
395.903	503.12
396.127	492.12
396.352	523.12
396.576	494.12
396.801	482.12
397.025	465.12
397.249	504.12
397.474	489.12
397.698	486.12
397.922	512.12
398.147	512.12
398.371	521.12
398.595	508.12
398.82	508.12
399.044	524.12
399.268	542.12
399.492	557.12
399.717	566.12
399.941	603.12
400.165	638.12
400.389	671.12
400.613	592.12
400.837	559.12
401.062	549.12
401.286	535.12
401.51	526.12
401.734	533.12
401.958	543.12
402.182	525.12
402.406	550.12
402.63	566.12
402.854	547.12
403.078	529.12
403.302	537.12
403.526	526.12
403.75	558.12
403.974	546.12
404.198	558.12
404.422	554.12
404.645	575.12
404.869	561.12
405.093	608.12
405.317	636.12
405.541	659.12
405.765	641.12
405.988	606.12
406.212	614.12
406.436	638.12
406.66	671.12
406.883	627.12
407.107	638.12
407.331	672.12
407.555	739.12
407.778	720.12
408.002	697.12
408.226	645.12
408.449	624.12
408.673	602.12
408.896	647.12
409.12	673.12
409.344	647.12
409.567	606.12
409.791	578.12
410.014	546.12
410.238	579.12
410.461	542.12
410.685	559.12
410.908	597.12
411.132	609.12
411.355	660.12
411.578	611.12
411.802	581.12
412.025	552.12
412.249	577.12
412.472	600.12
412.695	659.12
412.919	634.12
413.142	581.12
413.365	562.12
413.589	560.12
413.812	552.12
414.035	527.12
414.258	531.12
414.482	508.12
414.705	537.12
414.928	527.12
415.151	514.12
415.374	531.12
415.597	534.12
415.821	509.12
416.044	527.12
416.267	533.12
416.49	513.12
416.713	524.12
416.936	519.12
417.159	522.12
417.382	536.12
417.605	525.12
417.828	555.12
418.051	576.12
418.274	555.12
418.497	545.12
418.72	552.12
418.943	549.12
419.166	544.12
419.389	559.12
419.611	584.12
419.834	592.12
420.057	563.12
420.28	578.12
420.503	561.12
420.726	550.12
420.948	604.12
421.171	640.12
421.394	659.12
421.617	600.12
421.839	579.12
422.062	561.12
422.285	583.12
422.507	658.12
422.73	723.12
422.953	688.12
423.175	626.12
423.398	626.12
423.621	586.12
423.843	644.12
424.066	621.12
424.288	619.12
424.511	635.12
424.733	675.12
424.956	776.12
425.178	789.12
425.401	758.12
425.623	782.12
425.846	680.12
426.068	631.12
426.291	623.12
426.513	642.12
426.735	635.12
426.958	635.12
427.18	771.12
427.402	927.12
427.625	1028.12
427.847	922.12
428.069	816.12
428.292	729.12
428.514	657.12
428.736	618.12
428.958	599.12
429.181	588.12
429.403	596.12
429.625	600.12
429.847	651.12
430.069	752.12
430.292	690.12
430.514	606.12
430.736	587.12
430.958	590.12
431.18	587.12
431.402	548.12
431.624	544.12
431.846	541.12
432.068	531.12
432.29	544.12
432.512	556.12
432.734	579.12
432.956	571.12
433.178	564.12
433.4	573.12
433.622	543.12
433.844	531.12
434.066	517.12
434.287	552.12
434.509	552.12
434.731	535.12
434.953	583.12
435.175	595.12
435.397	600.12
435.618	635.12
435.84	673.12
436.062	788.12
436.284	868.12
436.505	723.12
436.727	649.12
436.949	593.12
437.17	590.12
437.392	596.12
437.614	612.12
437.835	662.12
438.057	765.12
438.278	893.12
438.5	871.12
438.721	940.12
438.943	881.12
439.165	732.12
439.386	687.12
439.608	670.12
439.829	644.12
440.05	686.12
440.272	728.12
440.493	710.12
440.715	643.12
440.936	611.12
441.158	594.12
441.379	600.12
441.6	612.12
441.822	648.12
442.043	692.12
442.264	780.12
442.486	811.12
442.707	712.12
442.928	650.12
443.149	694.12
443.371	688.12
443.592	719.12
443.813	824.12
444.034	889.12
444.255	719.12
444.476	679.12
444.698	623.12
444.919	631.12
445.14	750.12
445.361	700.12
445.582	685.12
445.803	764.12
446.024	870.12
446.245	882.12
446.466	824.12
446.687	710.12
446.908	659.12
447.129	613.12
447.35	617.12
447.571	585.12
447.792	589.12
448.013	587.12
448.234	654.12
448.455	679.12
448.675	791.12
448.896	899.12
449.117	797.12
449.338	765.12
449.559	877.12
449.779	958.12
450	750.12
450.221	662.12
450.442	629.12
450.662	577.12
450.883	610.12
451.104	620.12
451.324	613.12
451.545	581.12
451.766	583.12
451.986	538.12
452.207	540.12
452.428	530.12
452.648	526.12
452.869	543.12
453.089	550.12
453.31	577.12
453.53	546.12
453.751	541.12
453.971	531.12
454.192	565.12
454.412	566.12
454.633	524.12
454.853	531.12
455.073	541.12
455.294	574.12
455.514	624.12
455.734	641.12
455.955	505.12
456.175	506.12
456.395	496.12
456.616	498.12
456.836	497.12
457.056	498.12
457.276	487.12
457.497	480.12
457.717	499.12
457.937	496.12
458.157	504.12
458.377	515.12
458.598	551.12
458.818	612.12
459.038	728.12
459.258	745.12
459.478	629.12
459.698	580.12
459.918	559.12
460.138	520.12
460.358	541.12
460.578	525.12
460.798	570.12
461.018	550.12
461.238	542.12
461.458	513.12
461.678	539.12
461.898	534.12
462.118	543.12
462.338	537.12
462.558	559.12
462.777	544.12
462.997	573.12
463.217	548.12
463.437	554.12
463.657	541.12
463.876	573.12
464.096	573.12
464.316	553.12
464.536	582.12
464.755	581.12
464.975	589.12
465.195	653.12
465.414	791.12
465.634	682.12
465.854	604.12
466.073	595.12
466.293	555.12
466.512	563.12
466.732	544.12
466.951	519.12
467.171	504.12
467.391	536.12
467.61	542.12
467.829	586.12
468.049	560.12
468.268	573.12
468.488	556.12
468.707	536.12
468.927	506.12
469.146	503.12
469.365	503.12
469.585	521.12
469.804	531.12
470.023	520.12
470.243	541.12
470.462	552.12
470.681	571.12
470.901	566.12
471.12	544.12
471.339	533.12
471.558	569.12
471.777	559.12
471.997	543.12
472.216	557.12
472.435	627.12
472.654	605.12
472.873	521.12
473.092	538.12
473.311	528.12
473.53	566.12
473.749	569.12
473.968	611.12
474.187	753.12
474.406	739.12
474.625	628.12
474.844	605.12
475.063	546.12
475.282	551.12
475.501	568.12
475.72	559.12
475.939	557.12
476.158	561.12
476.377	569.12
476.596	569.12
476.814	586.12
477.033	579.12
477.252	565.12
477.471	574.12
477.69	587.12
477.908	582.12
478.127	580.12
478.346	605.12
478.564	591.12
478.783	608.12
479.002	622.12
479.22	617.12
479.439	618.12
479.658	664.12
479.876	686.12
480.095	671.12
480.313	709.12
480.532	664.12
480.751	655.12
480.969	697.12
481.188	777.12
481.406	855.12
481.624	721.12
481.843	707.12
482.061	675.12
482.28	675.12
482.498	672.12
482.717	652.12
482.935	671.12
483.153	641.12
483.372	662.12
483.59	624.12
483.808	637.12
484.027	657.12
484.245	684.12
484.463	621.12
484.681	655.12
484.9	666.12
485.118	649.12
485.336	649.12
485.554	659.12
485.772	664.12
485.99	666.12
486.209	702.12
486.427	681.12
486.645	731.12
486.863	723.12
487.081	748.12
487.299	721.12
487.517	712.12
487.735	709.12
487.953	716.12
488.171	698.12
488.389	704.12
488.607	720.12
488.825	692.12
489.043	714.12
489.261	705.12
489.479	743.12
489.696	736.12
489.914	742.12
490.132	722.12
490.35	761.12
490.568	751.12
490.786	759.12
491.003	791.12
491.221	796.12
491.439	806.12
491.657	825.12
491.874	829.12
492.092	821.12
492.31	858.12
492.527	838.12
492.745	843.12
492.963	834.12
493.18	846.12
493.398	860.12
493.615	890.12
493.833	881.12
494.05	861.12
494.268	871.12
494.485	885.12
494.703	863.12
494.92	880.12
495.138	866.12
495.355	856.12
495.573	871.12
495.79	861.12
496.008	848.12
496.225	867.12
496.442	835.12
496.66	840.12
496.877	858.12
497.094	878.12
497.312	881.12
497.529	862.12
497.746	841.12
497.963	890.12
498.181	917.12
498.398	898.12
498.615	913.12
498.832	935.12
499.049	921.12
499.267	945.12
499.484	961.12
499.701	977.12
499.918	1011.12
500.135	1039.12
500.352	1026.12
500.569	1054.12
500.786	1045.12
501.003	1046.12
501.22	1067.12
501.437	1029.12
501.654	1021.12
