Data from 1970.PennyLincolnUp.Lamp.En5.5.200Scan.071719.P1._HRD10591_15-12-55-844.txt Node
Date: Thu Jul 18 15:12:55 EDT 2019
User: cochatt
Spectrometer: HR+D1059
Trigger mode: 1
Integration Time (sec): 1.000000E-1
Scans to average: 1
Electric dark correction enabled: true
Nonlinearity correction enabled: false
Boxcar width: 0
XAxis mode: Wavelengths
Number of Pixels in Spectrum: 2048
>>>>>Begin Spectral Data<<<<<
223.165	-8.56
223.4	-8.56
223.635	-8.56
223.869	-2.56
224.104	-21.56
224.338	-23.56
224.573	-14.56
224.808	-23.56
225.042	-12.56
225.277	-6.56
225.511	0.44
225.746	4.44
225.98	11.44
226.215	5.44
226.449	19.44
226.683	6.44
226.918	31.44
227.152	34.44
227.387	21.44
227.621	30.44
227.856	38.44
228.09	44.44
228.324	50.44
228.559	45.44
228.793	82.44
229.027	87.44
229.262	103.44
229.496	101.44
229.73	118.44
229.964	139.44
230.199	131.44
230.433	142.44
230.667	124.44
230.901	112.44
231.136	107.44
231.37	97.44
231.604	104.44
231.838	108.44
232.072	111.44
232.306	107.44
232.541	124.44
232.775	115.44
233.009	115.44
233.243	105.44
233.477	119.44
233.711	117.44
233.945	109.44
234.179	120.44
234.413	109.44
234.647	118.44
234.881	121.44
235.115	102.44
235.349	125.44
235.583	115.44
235.817	107.44
236.051	126.44
236.285	118.44
236.519	97.44
236.753	124.44
236.987	143.44
237.221	167.44
237.455	191.44
237.689	147.44
237.922	118.44
238.156	140.44
238.39	114.44
238.624	119.44
238.858	135.44
239.091	118.44
239.325	123.44
239.559	118.44
239.793	130.44
240.027	123.44
240.26	139.44
240.494	136.44
240.728	146.44
240.961	134.44
241.195	119.44
241.429	141.44
241.662	127.44
241.896	105.44
242.13	136.44
242.363	129.44
242.597	115.44
242.83	107.44
243.064	129.44
243.298	111.44
243.531	131.44
243.765	133.44
243.998	126.44
244.232	124.44
244.465	137.44
244.699	128.44
244.932	123.44
245.166	133.44
245.399	129.44
245.633	136.44
245.866	127.44
246.099	133.44
246.333	126.44
246.566	135.44
246.8	125.44
247.033	132.44
247.266	145.44
247.5	152.44
247.733	139.44
247.966	163.44
248.2	194.44
248.433	176.44
248.666	153.44
248.899	159.44
249.133	181.44
249.366	198.44
249.599	190.44
249.832	192.44
250.066	157.44
250.299	149.44
250.532	164.44
250.765	183.44
250.998	192.44
251.231	203.44
251.465	188.44
251.698	175.44
251.931	204.44
252.164	200.44
252.397	177.44
252.63	184.44
252.863	204.44
253.096	207.44
253.329	214.44
253.562	201.44
253.795	194.44
254.028	183.44
254.261	191.44
254.494	210.44
254.727	239.44
254.96	218.44
255.193	230.44
255.426	193.44
255.659	191.44
255.892	191.44
256.124	163.44
256.357	189.44
256.59	179.44
256.823	183.44
257.056	183.44
257.289	179.44
257.521	174.44
257.754	179.44
257.987	171.44
258.22	168.44
258.452	175.44
258.685	182.44
258.918	176.44
259.151	195.44
259.383	205.44
259.616	193.44
259.849	206.44
260.081	224.44
260.314	208.44
260.547	212.44
260.779	211.44
261.012	206.44
261.244	200.44
261.477	206.44
261.71	213.44
261.942	238.44
262.175	244.44
262.407	250.44
262.64	225.44
262.872	208.44
263.105	193.44
263.337	210.44
263.57	195.44
263.802	199.44
264.035	186.44
264.267	183.44
264.499	187.44
264.732	206.44
264.964	190.44
265.197	169.44
265.429	198.44
265.661	197.44
265.894	179.44
266.126	190.44
266.358	191.44
266.591	207.44
266.823	203.44
267.055	215.44
267.287	187.44
267.52	209.44
267.752	201.44
267.984	208.44
268.216	204.44
268.448	209.44
268.681	208.44
268.913	227.44
269.145	228.44
269.377	227.44
269.609	234.44
269.841	220.44
270.073	247.44
270.306	245.44
270.538	277.44
270.77	271.44
271.002	275.44
271.234	240.44
271.466	265.44
271.698	274.44
271.93	277.44
272.162	270.44
272.394	267.44
272.626	267.44
272.858	264.44
273.09	240.44
273.322	270.44
273.553	246.44
273.785	243.44
274.017	250.44
274.249	251.44
274.481	241.44
274.713	247.44
274.945	280.44
275.176	259.44
275.408	265.44
275.64	265.44
275.872	268.44
276.104	246.44
276.335	274.44
276.567	252.44
276.799	293.44
277.031	333.44
277.262	317.44
277.494	309.44
277.726	303.44
277.957	291.44
278.189	295.44
278.421	281.44
278.652	319.44
278.884	307.44
279.115	360.44
279.347	462.44
279.579	684.44
279.81	871.44
280.042	782.44
280.273	627.44
280.505	668.44
280.736	563.44
280.968	331.44
281.199	282.44
281.431	280.44
281.662	264.44
281.894	282.44
282.125	281.44
282.356	300.44
282.588	346.44
282.819	338.44
283.051	277.44
283.282	255.44
283.513	279.44
283.745	272.44
283.976	275.44
284.207	269.44
284.439	275.44
284.67	279.44
284.901	300.44
285.132	341.44
285.364	412.44
285.595	413.44
285.826	307.44
286.057	265.44
286.288	271.44
286.52	279.44
286.751	279.44
286.982	258.44
287.213	255.44
287.444	251.44
287.675	268.44
287.906	287.44
288.138	319.44
288.369	352.44
288.6	346.44
288.831	278.44
289.062	290.44
289.293	261.44
289.524	256.44
289.755	264.44
289.986	269.44
290.217	259.44
290.448	251.44
290.679	267.44
290.91	267.44
291.141	269.44
291.371	254.44
291.602	260.44
291.833	235.44
292.064	268.44
292.295	268.44
292.526	270.44
292.757	279.44
292.987	261.44
293.218	277.44
293.449	259.44
293.68	270.44
293.91	283.44
294.141	274.44
294.372	270.44
294.603	268.44
294.833	269.44
295.064	269.44
295.295	246.44
295.525	287.44
295.756	284.44
295.987	311.44
296.217	331.44
296.448	351.44
296.679	315.44
296.909	280.44
297.14	268.44
297.37	270.44
297.601	297.44
297.831	278.44
298.062	291.44
298.292	289.44
298.523	287.44
298.753	295.44
298.984	272.44
299.214	284.44
299.445	293.44
299.675	303.44
299.905	295.44
300.136	300.44
300.366	308.44
300.597	285.44
300.827	300.44
301.057	308.44
301.288	329.44
301.518	330.44
301.748	300.44
301.979	323.44
302.209	324.44
302.439	331.44
302.669	309.44
302.9	287.44
303.13	293.44
303.36	320.44
303.59	319.44
303.82	336.44
304.051	344.44
304.281	311.44
304.511	315.44
304.741	280.44
304.971	301.44
305.201	302.44
305.431	312.44
305.661	320.44
305.891	303.44
306.121	309.44
306.352	343.44
306.582	329.44
306.812	321.44
307.042	292.44
307.272	304.44
307.502	340.44
307.731	332.44
307.961	345.44
308.191	351.44
308.421	367.44
308.651	359.44
308.881	371.44
309.111	399.44
309.341	407.44
309.571	453.44
309.8	409.44
310.03	414.44
310.26	431.44
310.49	408.44
310.72	420.44
310.949	442.44
311.179	419.44
311.409	380.44
311.639	399.44
311.868	392.44
312.098	406.44
312.328	397.44
312.557	415.44
312.787	448.44
313.017	448.44
313.246	398.44
313.476	375.44
313.706	385.44
313.935	393.44
314.165	400.44
314.394	437.44
314.624	421.44
314.853	392.44
315.083	384.44
315.312	388.44
315.542	392.44
315.771	408.44
316.001	429.44
316.23	422.44
316.46	389.44
316.689	402.44
316.919	400.44
317.148	404.44
317.377	409.44
317.607	440.44
317.836	441.44
318.065	489.44
318.295	452.44
318.524	435.44
318.753	396.44
318.983	389.44
319.212	393.44
319.441	424.44
319.67	432.44
319.9	405.44
320.129	396.44
320.358	405.44
320.587	392.44
320.816	412.44
321.046	422.44
321.275	425.44
321.504	389.44
321.733	421.44
321.962	456.44
322.191	461.44
322.42	488.44
322.649	531.44
322.878	538.44
323.108	543.44
323.337	645.44
323.566	687.44
323.795	799.44
324.024	917.44
324.253	1211.44
324.482	1923.44
324.71	3088.44
324.939	4077.44
325.168	3175.44
325.397	1477.44
325.626	875.44
325.855	695.44
326.084	627.44
326.313	616.44
326.542	640.44
326.77	753.44
326.999	1080.44
327.228	1693.44
327.457	2562.44
327.686	2905.44
327.914	1777.44
328.143	1077.44
328.372	931.44
328.6	777.44
328.829	688.44
329.058	722.44
329.287	731.44
329.515	650.44
329.744	569.44
329.972	577.44
330.201	573.44
330.43	640.44
330.658	717.44
330.887	808.44
331.115	743.44
331.344	583.44
331.572	534.44
331.801	517.44
332.03	535.44
332.258	484.44
332.486	451.44
332.715	459.44
332.943	441.44
333.172	439.44
333.4	425.44
333.629	447.44
333.857	472.44
334.085	499.44
334.314	514.44
334.542	523.44
334.771	542.44
334.999	548.44
335.227	515.44
335.455	477.44
335.684	459.44
335.912	431.44
336.14	445.44
336.369	437.44
336.597	455.44
336.825	451.44
337.053	431.44
337.281	428.44
337.51	447.44
337.738	441.44
337.966	456.44
338.194	504.44
338.422	503.44
338.65	497.44
338.878	424.44
339.106	400.44
339.334	418.44
339.562	401.44
339.79	406.44
340.018	395.44
340.246	401.44
340.474	422.44
340.702	396.44
340.93	409.44
341.158	414.44
341.386	419.44
341.614	427.44
341.842	426.44
342.07	402.44
342.298	390.44
342.526	383.44
342.754	366.44
342.981	369.44
343.209	377.44
343.437	391.44
343.665	365.44
343.893	373.44
344.12	385.44
344.348	400.44
344.576	397.44
344.804	441.44
345.031	441.44
345.259	440.44
345.487	432.44
345.714	395.44
345.942	402.44
346.17	401.44
346.397	407.44
346.625	397.44
346.853	383.44
347.08	380.44
347.308	390.44
347.535	424.44
347.763	436.44
347.99	426.44
348.218	419.44
348.445	434.44
348.673	432.44
348.9	405.44
349.128	385.44
349.355	371.44
349.583	360.44
349.81	358.44
350.037	364.44
350.265	383.44
350.492	364.44
350.72	389.44
350.947	387.44
351.174	392.44
351.402	453.44
351.629	395.44
351.856	409.44
352.083	422.44
352.311	441.44
352.538	475.44
352.765	445.44
352.992	407.44
353.22	409.44
353.447	395.44
353.674	385.44
353.901	370.44
354.128	352.44
354.355	354.44
354.583	376.44
354.81	363.44
355.037	357.44
355.264	327.44
355.491	328.44
355.718	354.44
355.945	355.44
356.172	355.44
356.399	332.44
356.626	332.44
356.853	357.44
357.08	338.44
357.307	358.44
357.534	348.44
357.761	350.44
357.988	364.44
358.215	367.44
358.441	372.44
358.668	371.44
358.895	375.44
359.122	373.44
359.349	378.44
359.576	412.44
359.802	435.44
360.029	518.44
360.256	533.44
360.483	476.44
360.709	417.44
360.936	402.44
361.163	396.44
361.39	425.44
361.616	406.44
361.843	382.44
362.07	410.44
362.296	416.44
362.523	397.44
362.749	389.44
362.976	381.44
363.203	381.44
363.429	382.44
363.656	386.44
363.882	361.44
364.109	357.44
364.335	360.44
364.562	372.44
364.788	357.44
365.015	363.44
365.241	372.44
365.468	371.44
365.694	386.44
365.92	390.44
366.147	377.44
366.373	346.44
366.599	341.44
366.826	351.44
367.052	343.44
367.278	335.44
367.505	333.44
367.731	353.44
367.957	351.44
368.184	372.44
368.41	364.44
368.636	399.44
368.862	398.44
369.089	361.44
369.315	345.44
369.541	352.44
369.767	359.44
369.993	346.44
370.219	343.44
370.445	346.44
370.672	343.44
370.898	352.44
371.124	347.44
371.35	335.44
371.576	328.44
371.802	331.44
372.028	343.44
372.254	340.44
372.48	340.44
372.706	357.44
372.932	332.44
373.158	354.44
373.384	374.44
373.61	371.44
373.835	401.44
374.061	395.44
374.287	373.44
374.513	372.44
374.739	354.44
374.965	370.44
375.191	371.44
375.416	341.44
375.642	353.44
375.868	361.44
376.094	379.44
376.319	352.44
376.545	351.44
376.771	315.44
376.997	322.44
377.222	320.44
377.448	323.44
377.674	328.44
377.899	326.44
378.125	326.44
378.35	328.44
378.576	316.44
378.802	333.44
379.027	323.44
379.253	335.44
379.478	336.44
379.704	340.44
379.929	343.44
380.155	354.44
380.38	336.44
380.606	326.44
380.831	334.44
381.057	332.44
381.282	329.44
381.507	361.44
381.733	345.44
381.958	373.44
382.184	343.44
382.409	380.44
382.634	385.44
382.86	407.44
383.085	424.44
383.31	457.44
383.535	454.44
383.761	459.44
383.986	481.44
384.211	437.44
384.436	381.44
384.662	361.44
384.887	367.44
385.112	384.44
385.337	367.44
385.562	393.44
385.787	401.44
386.013	409.44
386.238	400.44
386.463	436.44
386.688	401.44
386.913	385.44
387.138	377.44
387.363	368.44
387.588	363.44
387.813	375.44
388.038	373.44
388.263	389.44
388.488	400.44
388.713	383.44
388.938	341.44
389.163	343.44
389.387	344.44
389.612	336.44
389.837	351.44
390.062	361.44
390.287	343.44
390.512	344.44
390.736	346.44
390.961	373.44
391.186	343.44
391.411	339.44
391.636	367.44
391.86	382.44
392.085	384.44
392.31	401.44
392.534	407.44
392.759	472.44
392.984	609.44
393.208	1007.44
393.433	1638.44
393.658	1632.44
393.882	749.44
394.107	481.44
394.331	471.44
394.556	491.44
394.78	461.44
395.005	394.44
395.229	381.44
395.454	387.44
395.678	402.44
395.903	461.44
396.127	545.44
396.352	653.44
396.576	691.44
396.801	959.44
397.025	1275.44
397.249	859.44
397.474	488.44
397.698	380.44
397.922	405.44
398.147	397.44
398.371	402.44
398.595	378.44
398.82	401.44
399.044	389.44
399.268	387.44
399.492	401.44
399.717	440.44
399.941	417.44
400.165	464.44
400.389	448.44
400.613	423.44
400.837	408.44
401.062	391.44
401.286	365.44
401.51	377.44
401.734	367.44
401.958	387.44
402.182	402.44
402.406	429.44
402.63	409.44
402.854	387.44
403.078	401.44
403.302	394.44
403.526	386.44
403.75	406.44
403.974	405.44
404.198	389.44
404.422	408.44
404.645	417.44
404.869	417.44
405.093	427.44
405.317	450.44
405.541	463.44
405.765	436.44
405.988	439.44
406.212	478.44
406.436	532.44
406.66	517.44
406.883	461.44
407.107	480.44
407.331	508.44
407.555	528.44
407.778	549.44
408.002	489.44
408.226	446.44
408.449	424.44
408.673	430.44
408.896	442.44
409.12	469.44
409.344	452.44
409.567	412.44
409.791	389.44
410.014	387.44
410.238	373.44
410.461	401.44
410.685	377.44
410.908	387.44
411.132	415.44
411.355	449.44
411.578	440.44
411.802	394.44
412.025	393.44
412.249	408.44
412.472	415.44
412.695	428.44
412.919	426.44
413.142	377.44
413.365	387.44
413.589	366.44
413.812	373.44
414.035	347.44
414.258	375.44
414.482	347.44
414.705	358.44
414.928	379.44
415.151	379.44
415.374	367.44
415.597	362.44
415.821	360.44
416.044	372.44
416.267	348.44
416.49	357.44
416.713	356.44
416.936	359.44
417.159	352.44
417.382	380.44
417.605	366.44
417.828	383.44
418.051	381.44
418.274	366.44
418.497	360.44
418.72	354.44
418.943	354.44
419.166	364.44
419.389	366.44
419.611	372.44
419.834	367.44
420.057	373.44
420.28	377.44
420.503	376.44
420.726	395.44
420.948	383.44
421.171	431.44
421.394	457.44
421.617	409.44
421.839	405.44
422.062	404.44
422.285	432.44
422.507	555.44
422.73	796.44
422.953	880.44
423.175	543.44
423.398	444.44
423.621	389.44
423.843	412.44
424.066	413.44
424.288	412.44
424.511	423.44
424.733	469.44
424.956	552.44
425.178	544.44
425.401	521.44
425.623	521.44
425.846	454.44
426.068	421.44
426.291	419.44
426.513	424.44
426.735	412.44
426.958	448.44
427.18	555.44
427.402	645.44
427.625	809.44
427.847	686.44
428.069	587.44
428.292	488.44
428.514	474.44
428.736	416.44
428.958	431.44
429.181	414.44
429.403	381.44
429.625	395.44
429.847	465.44
430.069	493.44
430.292	540.44
430.514	498.44
430.736	430.44
430.958	411.44
431.18	368.44
431.402	351.44
431.624	365.44
431.846	368.44
432.068	378.44
432.29	365.44
432.512	349.44
432.734	363.44
432.956	365.44
433.178	385.44
433.4	405.44
433.622	375.44
433.844	366.44
434.066	356.44
434.287	358.44
434.509	369.44
434.731	365.44
434.953	358.44
435.175	381.44
435.397	409.44
435.618	429.44
435.84	452.44
436.062	535.44
436.284	595.44
436.505	479.44
436.727	445.44
436.949	405.44
437.17	392.44
437.392	363.44
437.614	387.44
437.835	462.44
438.057	556.44
438.278	595.44
438.5	615.44
438.721	623.44
438.943	580.44
439.165	491.44
439.386	441.44
439.608	461.44
439.829	446.44
440.05	512.44
440.272	560.44
440.493	515.44
440.715	462.44
440.936	409.44
441.158	395.44
441.379	422.44
441.6	422.44
441.822	415.44
442.043	488.44
442.264	543.44
442.486	563.44
442.707	485.44
442.928	468.44
443.149	477.44
443.371	490.44
443.592	581.44
443.813	624.44
444.034	604.44
444.255	505.44
444.476	445.44
444.698	441.44
444.919	424.44
445.14	586.44
445.361	543.44
445.582	595.44
445.803	691.44
446.024	701.44
446.245	664.44
446.466	610.44
446.687	476.44
446.908	441.44
447.129	419.44
447.35	422.44
447.571	420.44
447.792	397.44
448.013	410.44
448.234	429.44
448.455	469.44
448.675	543.44
448.896	607.44
449.117	507.44
449.338	508.44
449.559	558.44
449.779	624.44
450	518.44
450.221	457.44
450.442	398.44
450.662	424.44
450.883	451.44
451.104	477.44
451.324	453.44
451.545	410.44
451.766	367.44
451.986	367.44
452.207	361.44
452.428	355.44
452.648	367.44
452.869	397.44
453.089	395.44
453.31	428.44
453.53	420.44
453.751	425.44
453.971	409.44
454.192	422.44
454.412	431.44
454.633	383.44
454.853	365.44
455.073	357.44
455.294	400.44
455.514	509.44
455.734	464.44
455.955	386.44
456.175	332.44
456.395	336.44
456.616	326.44
456.836	324.44
457.056	328.44
457.276	319.44
457.497	327.44
457.717	325.44
457.937	349.44
458.157	338.44
458.377	358.44
458.598	399.44
458.818	503.44
459.038	582.44
459.258	568.44
459.478	460.44
459.698	389.44
459.918	382.44
460.138	366.44
460.358	373.44
460.578	373.44
460.798	381.44
461.018	384.44
461.238	349.44
461.458	348.44
461.678	359.44
461.898	364.44
462.118	364.44
462.338	357.44
462.558	366.44
462.777	364.44
462.997	367.44
463.217	373.44
463.437	380.44
463.657	376.44
463.876	380.44
464.096	381.44
464.316	380.44
464.536	397.44
464.755	423.44
464.975	451.44
465.195	574.44
465.414	717.44
465.634	551.44
465.854	446.44
466.073	387.44
466.293	369.44
466.512	368.44
466.732	377.44
466.951	361.44
467.171	367.44
467.391	370.44
467.61	407.44
467.829	409.44
468.049	395.44
468.268	381.44
468.488	375.44
468.707	345.44
468.927	355.44
469.146	354.44
469.365	347.44
469.585	360.44
469.804	371.44
470.023	399.44
470.243	393.44
470.462	404.44
470.681	455.44
470.901	411.44
471.12	384.44
471.339	371.44
471.558	387.44
471.777	379.44
471.997	361.44
472.216	365.44
472.435	401.44
472.654	384.44
472.873	347.44
473.092	352.44
473.311	351.44
473.53	345.44
473.749	361.44
473.968	411.44
474.187	495.44
474.406	495.44
474.625	415.44
474.844	374.44
475.063	364.44
475.282	352.44
475.501	367.44
475.72	376.44
475.939	359.44
476.158	385.44
476.377	355.44
476.596	373.44
476.814	375.44
477.033	396.44
477.252	379.44
477.471	379.44
477.69	366.44
477.908	379.44
478.127	402.44
478.346	401.44
478.564	403.44
478.783	405.44
479.002	417.44
479.22	437.44
479.439	438.44
479.658	475.44
479.876	464.44
480.095	460.44
480.313	455.44
480.532	455.44
480.751	445.44
480.969	458.44
481.188	531.44
481.406	545.44
481.624	446.44
481.843	424.44
482.061	400.44
482.28	423.44
482.498	406.44
482.717	421.44
482.935	431.44
483.153	398.44
483.372	416.44
483.59	412.44
483.808	403.44
484.027	408.44
484.245	434.44
484.463	441.44
484.681	441.44
484.9	430.44
485.118	455.44
485.336	426.44
485.554	430.44
485.772	432.44
485.99	424.44
486.209	451.44
486.427	426.44
486.645	464.44
486.863	487.44
487.081	503.44
487.299	492.44
487.517	443.44
487.735	429.44
487.953	477.44
488.171	462.44
488.389	465.44
488.607	456.44
488.825	454.44
489.043	437.44
489.261	461.44
489.479	456.44
489.696	427.44
489.914	437.44
490.132	465.44
490.35	446.44
490.568	455.44
490.786	449.44
491.003	463.44
491.221	475.44
491.439	477.44
491.657	499.44
491.874	499.44
492.092	493.44
492.31	510.44
492.527	500.44
492.745	501.44
492.963	480.44
493.18	491.44
493.398	511.44
493.615	601.44
493.833	558.44
494.05	502.44
494.268	483.44
494.485	484.44
494.703	494.44
494.92	476.44
495.138	485.44
495.355	503.44
495.573	477.44
495.79	506.44
496.008	554.44
496.225	545.44
496.442	519.44
496.66	541.44
496.877	481.44
497.094	473.44
497.312	483.44
497.529	516.44
497.746	522.44
497.963	511.44
498.181	573.44
498.398	624.44
498.615	598.44
498.832	555.44
499.049	568.44
499.267	607.44
499.484	588.44
499.701	587.44
499.918	598.44
500.135	665.44
500.352	658.44
500.569	640.44
500.786	673.44
501.003	681.44
501.22	650.44
501.437	632.44
501.654	655.44
501.871	674.44
