Data from 1970.PennyLincolnUp.Lamp.En5.5.200Scan.071719.P1._HRD10591_15-15-23-841.txt Node
Date: Thu Jul 18 15:15:23 EDT 2019
User: cochatt
Spectrometer: HR+D1059
Trigger mode: 1
Integration Time (sec): 1.000000E-1
Scans to average: 1
Electric dark correction enabled: true
Nonlinearity correction enabled: false
Boxcar width: 0
XAxis mode: Wavelengths
Number of Pixels in Spectrum: 2048
>>>>>Begin Spectral Data<<<<<
223.165	-14.25
223.4	-14.25
223.635	-14.25
223.869	-29.25
224.104	-15.25
224.338	-8.25
224.573	-10.25
224.808	-21.25
225.042	-17.25
225.277	0.75
225.511	0.75
225.746	4.75
225.98	17.75
226.215	12.75
226.449	5.75
226.683	16.75
226.918	21.75
227.152	34.75
227.387	34.75
227.621	39.75
227.856	29.75
228.09	41.75
228.324	50.75
228.559	38.75
228.793	76.75
229.027	110.75
229.262	101.75
229.496	130.75
229.73	136.75
229.964	165.75
230.199	132.75
230.433	126.75
230.667	128.75
230.901	121.75
231.136	117.75
231.37	122.75
231.604	121.75
231.838	119.75
232.072	118.75
232.306	110.75
232.541	120.75
232.775	120.75
233.009	117.75
233.243	105.75
233.477	113.75
233.711	114.75
233.945	123.75
234.179	123.75
234.413	115.75
234.647	120.75
234.881	118.75
235.115	125.75
235.349	118.75
235.583	120.75
235.817	123.75
236.051	119.75
236.285	141.75
236.519	135.75
236.753	159.75
236.987	150.75
237.221	187.75
237.455	240.75
237.689	204.75
237.922	162.75
238.156	142.75
238.39	138.75
238.624	126.75
238.858	121.75
239.091	138.75
239.325	108.75
239.559	131.75
239.793	134.75
240.027	134.75
240.26	153.75
240.494	166.75
240.728	146.75
240.961	146.75
241.195	142.75
241.429	142.75
241.662	161.75
241.896	150.75
242.13	142.75
242.363	130.75
242.597	131.75
242.83	121.75
243.064	140.75
243.298	129.75
243.531	148.75
243.765	132.75
243.998	136.75
244.232	143.75
244.465	152.75
244.699	137.75
244.932	135.75
245.166	160.75
245.399	143.75
245.633	143.75
245.866	148.75
246.099	149.75
246.333	142.75
246.566	152.75
246.8	155.75
247.033	165.75
247.266	156.75
247.5	152.75
247.733	167.75
247.966	162.75
248.2	182.75
248.433	189.75
248.666	182.75
248.899	179.75
249.133	197.75
249.366	218.75
249.599	200.75
249.832	193.75
250.066	180.75
250.299	183.75
250.532	185.75
250.765	225.75
250.998	235.75
251.231	255.75
251.465	238.75
251.698	227.75
251.931	208.75
252.164	212.75
252.397	198.75
252.63	200.75
252.863	212.75
253.096	212.75
253.329	232.75
253.562	237.75
253.795	236.75
254.028	224.75
254.261	236.75
254.494	257.75
254.727	260.75
254.96	285.75
255.193	284.75
255.426	244.75
255.659	255.75
255.892	258.75
256.124	237.75
256.357	248.75
256.59	240.75
256.823	220.75
257.056	208.75
257.289	224.75
257.521	221.75
257.754	230.75
257.987	223.75
258.22	224.75
258.452	222.75
258.685	217.75
258.918	213.75
259.151	225.75
259.383	221.75
259.616	227.75
259.849	231.75
260.081	241.75
260.314	275.75
260.547	266.75
260.779	267.75
261.012	245.75
261.244	237.75
261.477	218.75
261.71	223.75
261.942	232.75
262.175	252.75
262.407	246.75
262.64	220.75
262.872	217.75
263.105	201.75
263.337	214.75
263.57	205.75
263.802	204.75
264.035	199.75
264.267	205.75
264.499	216.75
264.732	204.75
264.964	199.75
265.197	201.75
265.429	223.75
265.661	211.75
265.894	214.75
266.126	207.75
266.358	219.75
266.591	206.75
266.823	216.75
267.055	212.75
267.287	207.75
267.52	218.75
267.752	204.75
267.984	219.75
268.216	220.75
268.448	209.75
268.681	227.75
268.913	248.75
269.145	249.75
269.377	278.75
269.609	281.75
269.841	266.75
270.073	271.75
270.306	307.75
270.538	322.75
270.77	297.75
271.002	292.75
271.234	289.75
271.466	313.75
271.698	310.75
271.93	318.75
272.162	334.75
272.394	308.75
272.626	288.75
272.858	294.75
273.09	270.75
273.322	270.75
273.553	262.75
273.785	258.75
274.017	264.75
274.249	261.75
274.481	261.75
274.713	244.75
274.945	279.75
275.176	245.75
275.408	260.75
275.64	234.75
275.872	259.75
276.104	265.75
276.335	248.75
276.567	256.75
276.799	282.75
277.031	288.75
277.262	312.75
277.494	320.75
277.726	296.75
277.957	278.75
278.189	279.75
278.421	247.75
278.652	258.75
278.884	247.75
279.115	250.75
279.347	245.75
279.579	260.75
279.81	251.75
280.042	260.75
280.273	240.75
280.505	246.75
280.736	244.75
280.968	230.75
281.199	248.75
281.431	251.75
281.662	264.75
281.894	247.75
282.125	241.75
282.356	273.75
282.588	280.75
282.819	286.75
283.051	276.75
283.282	251.75
283.513	240.75
283.745	259.75
283.976	242.75
284.207	246.75
284.439	268.75
284.67	246.75
284.901	258.75
285.132	249.75
285.364	245.75
285.595	244.75
285.826	255.75
286.057	260.75
286.288	262.75
286.52	248.75
286.751	244.75
286.982	260.75
287.213	254.75
287.444	266.75
287.675	263.75
287.906	278.75
288.138	254.75
288.369	265.75
288.6	274.75
288.831	270.75
289.062	269.75
289.293	263.75
289.524	271.75
289.755	262.75
289.986	262.75
290.217	256.75
290.448	264.75
290.679	249.75
290.91	260.75
291.141	250.75
291.371	261.75
291.602	246.75
291.833	254.75
292.064	241.75
292.295	244.75
292.526	249.75
292.757	274.75
292.987	268.75
293.218	259.75
293.449	272.75
293.68	267.75
293.91	252.75
294.141	249.75
294.372	246.75
294.603	247.75
294.833	242.75
295.064	278.75
295.295	268.75
295.525	249.75
295.756	280.75
295.987	246.75
296.217	289.75
296.448	294.75
296.679	280.75
296.909	267.75
297.14	268.75
297.37	265.75
297.601	278.75
297.831	241.75
298.062	264.75
298.292	265.75
298.523	266.75
298.753	268.75
298.984	256.75
299.214	265.75
299.445	288.75
299.675	274.75
299.905	284.75
300.136	276.75
300.366	268.75
300.597	275.75
300.827	278.75
301.057	288.75
301.288	305.75
301.518	292.75
301.748	288.75
301.979	285.75
302.209	273.75
302.439	291.75
302.669	276.75
302.9	296.75
303.13	289.75
303.36	302.75
303.59	284.75
303.82	309.75
304.051	300.75
304.281	283.75
304.511	284.75
304.741	297.75
304.971	306.75
305.201	279.75
305.431	288.75
305.661	293.75
305.891	303.75
306.121	299.75
306.352	310.75
306.582	310.75
306.812	300.75
307.042	284.75
307.272	294.75
307.502	283.75
307.731	306.75
307.961	290.75
308.191	290.75
308.421	293.75
308.651	326.75
308.881	314.75
309.111	327.75
309.341	317.75
309.571	329.75
309.8	330.75
310.03	342.75
310.26	346.75
310.49	354.75
310.72	356.75
310.949	371.75
311.179	380.75
311.409	353.75
311.639	351.75
311.868	349.75
312.098	336.75
312.328	354.75
312.557	362.75
312.787	375.75
313.017	370.75
313.246	372.75
313.476	352.75
313.706	345.75
313.935	351.75
314.165	372.75
314.394	364.75
314.624	371.75
314.853	348.75
315.083	354.75
315.312	342.75
315.542	333.75
315.771	328.75
316.001	325.75
316.23	352.75
316.46	346.75
316.689	364.75
316.919	348.75
317.148	359.75
317.377	356.75
317.607	364.75
317.836	352.75
318.065	357.75
318.295	345.75
318.524	342.75
318.753	325.75
318.983	325.75
319.212	341.75
319.441	352.75
319.67	365.75
319.9	342.75
320.129	343.75
320.358	338.75
320.587	334.75
320.816	354.75
321.046	381.75
321.275	372.75
321.504	385.75
321.733	372.75
321.962	388.75
322.191	401.75
322.42	411.75
322.649	429.75
322.878	452.75
323.108	464.75
323.337	484.75
323.566	512.75
323.795	546.75
324.024	600.75
324.253	730.75
324.482	1061.75
324.71	1613.75
324.939	2304.75
325.168	1962.75
325.397	1072.75
325.626	702.75
325.855	601.75
326.084	536.75
326.313	521.75
326.542	506.75
326.77	572.75
326.999	705.75
327.228	947.75
327.457	1437.75
327.686	1728.75
327.914	1193.75
328.143	776.75
328.372	694.75
328.6	610.75
328.829	601.75
329.058	587.75
329.287	614.75
329.515	561.75
329.744	496.75
329.972	498.75
330.201	544.75
330.43	604.75
330.658	631.75
330.887	647.75
331.115	613.75
331.344	535.75
331.572	491.75
331.801	481.75
332.03	472.75
332.258	458.75
332.486	435.75
332.715	426.75
332.943	398.75
333.172	429.75
333.4	455.75
333.629	410.75
333.857	453.75
334.085	472.75
334.314	473.75
334.542	520.75
334.771	537.75
334.999	496.75
335.227	448.75
335.455	436.75
335.684	415.75
335.912	404.75
336.14	414.75
336.369	396.75
336.597	406.75
336.825	400.75
337.053	414.75
337.281	406.75
337.51	377.75
337.738	399.75
337.966	401.75
338.194	386.75
338.422	417.75
338.65	418.75
338.878	377.75
339.106	396.75
339.334	380.75
339.562	371.75
339.79	382.75
340.018	400.75
340.246	394.75
340.474	393.75
340.702	394.75
340.93	393.75
341.158	402.75
341.386	386.75
341.614	402.75
341.842	409.75
342.07	385.75
342.298	395.75
342.526	384.75
342.754	384.75
342.981	373.75
343.209	372.75
343.437	374.75
343.665	369.75
343.893	383.75
344.12	393.75
344.348	381.75
344.576	398.75
344.804	389.75
345.031	410.75
345.259	428.75
345.487	405.75
345.714	410.75
345.942	394.75
346.17	402.75
346.397	378.75
346.625	376.75
346.853	385.75
347.08	389.75
347.308	393.75
347.535	440.75
347.763	407.75
347.99	417.75
348.218	412.75
348.445	419.75
348.673	400.75
348.9	398.75
349.128	371.75
349.355	370.75
349.583	373.75
349.81	372.75
350.037	372.75
350.265	384.75
350.492	362.75
350.72	368.75
350.947	390.75
351.174	393.75
351.402	405.75
351.629	417.75
351.856	399.75
352.083	409.75
352.311	416.75
352.538	416.75
352.765	428.75
352.992	428.75
353.22	419.75
353.447	382.75
353.674	389.75
353.901	364.75
354.128	372.75
354.355	359.75
354.583	362.75
354.81	364.75
355.037	367.75
355.264	339.75
355.491	339.75
355.718	362.75
355.945	347.75
356.172	346.75
356.399	352.75
356.626	349.75
356.853	350.75
357.08	342.75
357.307	347.75
357.534	354.75
357.761	355.75
357.988	357.75
358.215	369.75
358.441	354.75
358.668	350.75
358.895	364.75
359.122	372.75
359.349	380.75
359.576	401.75
359.802	426.75
360.029	472.75
360.256	463.75
360.483	462.75
360.709	419.75
360.936	416.75
361.163	396.75
361.39	408.75
361.616	400.75
361.843	408.75
362.07	397.75
362.296	405.75
362.523	391.75
362.749	413.75
362.976	379.75
363.203	367.75
363.429	378.75
363.656	391.75
363.882	379.75
364.109	392.75
364.335	369.75
364.562	380.75
364.788	380.75
365.015	380.75
365.241	389.75
365.468	388.75
365.694	381.75
365.92	392.75
366.147	396.75
366.373	368.75
366.599	378.75
366.826	363.75
367.052	358.75
367.278	372.75
367.505	356.75
367.731	384.75
367.957	379.75
368.184	370.75
368.41	372.75
368.636	402.75
368.862	396.75
369.089	384.75
369.315	388.75
369.541	358.75
369.767	378.75
369.993	357.75
370.219	380.75
370.445	384.75
370.672	368.75
370.898	378.75
371.124	348.75
371.35	367.75
371.576	375.75
371.802	349.75
372.028	372.75
372.254	353.75
372.48	352.75
372.706	368.75
372.932	377.75
373.158	373.75
373.384	366.75
373.61	375.75
373.835	380.75
374.061	369.75
374.287	376.75
374.513	374.75
374.739	374.75
374.965	372.75
375.191	368.75
375.416	361.75
375.642	380.75
375.868	393.75
376.094	363.75
376.319	386.75
376.545	372.75
376.771	359.75
376.997	340.75
377.222	362.75
377.448	347.75
377.674	365.75
377.899	345.75
378.125	356.75
378.35	349.75
378.576	365.75
378.802	363.75
379.027	370.75
379.253	353.75
379.478	352.75
379.704	371.75
379.929	374.75
380.155	362.75
380.38	376.75
380.606	361.75
380.831	374.75
381.057	362.75
381.282	370.75
381.507	387.75
381.733	378.75
381.958	370.75
382.184	374.75
382.409	380.75
382.634	366.75
382.86	364.75
383.085	371.75
383.31	386.75
383.535	375.75
383.761	377.75
383.986	383.75
384.211	380.75
384.436	370.75
384.662	385.75
384.887	388.75
385.112	390.75
385.337	380.75
385.562	388.75
385.787	382.75
386.013	398.75
386.238	398.75
386.463	407.75
386.688	402.75
386.913	398.75
387.138	389.75
387.363	394.75
387.588	395.75
387.813	389.75
388.038	391.75
388.263	397.75
388.488	412.75
388.713	384.75
388.938	415.75
389.163	417.75
389.387	384.75
389.612	382.75
389.837	398.75
390.062	402.75
390.287	394.75
390.512	391.75
390.736	365.75
390.961	389.75
391.186	412.75
391.411	390.75
391.636	387.75
391.86	384.75
392.085	405.75
392.31	404.75
392.534	414.75
392.759	385.75
392.984	404.75
393.208	388.75
393.433	396.75
393.658	402.75
393.882	381.75
394.107	399.75
394.331	390.75
394.556	400.75
394.78	410.75
395.005	395.75
395.229	381.75
395.454	396.75
395.678	411.75
395.903	430.75
396.127	424.75
396.352	446.75
396.576	420.75
396.801	420.75
397.025	413.75
397.249	422.75
397.474	416.75
397.698	413.75
397.922	422.75
398.147	439.75
398.371	454.75
398.595	426.75
398.82	444.75
399.044	454.75
399.268	429.75
399.492	474.75
399.717	480.75
399.941	508.75
400.165	527.75
400.389	557.75
400.613	507.75
400.837	473.75
401.062	451.75
401.286	442.75
401.51	433.75
401.734	429.75
401.958	454.75
402.182	446.75
402.406	477.75
402.63	483.75
402.854	443.75
403.078	468.75
403.302	436.75
403.526	488.75
403.75	475.75
403.974	445.75
404.198	474.75
404.422	470.75
404.645	487.75
404.869	474.75
405.093	504.75
405.317	547.75
405.541	562.75
405.765	528.75
405.988	489.75
406.212	499.75
406.436	552.75
406.66	575.75
406.883	511.75
407.107	528.75
407.331	575.75
407.555	599.75
407.778	635.75
408.002	570.75
408.226	536.75
408.449	524.75
408.673	524.75
408.896	551.75
409.12	578.75
409.344	545.75
409.567	512.75
409.791	496.75
410.014	473.75
410.238	472.75
410.461	470.75
410.685	490.75
410.908	509.75
411.132	519.75
411.355	552.75
411.578	543.75
411.802	500.75
412.025	465.75
412.249	479.75
412.472	518.75
412.695	562.75
412.919	553.75
413.142	499.75
413.365	458.75
413.589	462.75
413.812	462.75
414.035	450.75
414.258	453.75
414.482	420.75
414.705	440.75
414.928	444.75
415.151	453.75
415.374	427.75
415.597	446.75
415.821	449.75
416.044	449.75
416.267	463.75
416.49	460.75
416.713	445.75
416.936	456.75
417.159	454.75
417.382	467.75
417.605	473.75
417.828	465.75
418.051	462.75
418.274	471.75
418.497	451.75
418.72	434.75
418.943	463.75
419.166	470.75
419.389	502.75
419.611	493.75
419.834	485.75
420.057	469.75
420.28	488.75
420.503	494.75
420.726	502.75
420.948	512.75
421.171	547.75
421.394	588.75
421.617	539.75
421.839	507.75
422.062	491.75
422.285	516.75
422.507	562.75
422.73	610.75
422.953	608.75
423.175	518.75
423.398	517.75
423.621	516.75
423.843	520.75
424.066	538.75
424.288	536.75
424.511	544.75
424.733	602.75
424.956	652.75
425.178	664.75
425.401	683.75
425.623	645.75
425.846	566.75
426.068	531.75
426.291	540.75
426.513	527.75
426.735	549.75
426.958	606.75
427.18	651.75
427.402	778.75
427.625	876.75
427.847	807.75
428.069	696.75
428.292	621.75
428.514	552.75
428.736	520.75
428.958	523.75
429.181	529.75
429.403	522.75
429.625	509.75
429.847	564.75
430.069	597.75
430.292	605.75
430.514	536.75
430.736	516.75
430.958	493.75
431.18	488.75
431.402	490.75
431.624	467.75
431.846	455.75
432.068	462.75
432.29	469.75
432.512	452.75
432.734	481.75
432.956	479.75
433.178	500.75
433.4	506.75
433.622	468.75
433.844	485.75
434.066	457.75
434.287	476.75
434.509	450.75
434.731	463.75
434.953	480.75
435.175	500.75
435.397	543.75
435.618	548.75
435.84	570.75
436.062	667.75
436.284	714.75
436.505	615.75
436.727	580.75
436.949	528.75
437.17	497.75
437.392	522.75
437.614	530.75
437.835	576.75
438.057	676.75
438.278	790.75
438.5	743.75
438.721	797.75
438.943	796.75
439.165	634.75
439.386	600.75
439.608	581.75
439.829	573.75
440.05	577.75
440.272	617.75
440.493	618.75
440.715	552.75
440.936	520.75
441.158	507.75
441.379	497.75
441.6	525.75
441.822	549.75
442.043	587.75
442.264	672.75
442.486	680.75
442.707	605.75
442.928	544.75
443.149	552.75
443.371	585.75
443.592	648.75
443.813	697.75
444.034	762.75
444.255	632.75
444.476	570.75
444.698	544.75
444.919	538.75
445.14	656.75
445.361	585.75
445.582	593.75
445.803	648.75
446.024	764.75
446.245	755.75
446.466	689.75
446.687	588.75
446.908	582.75
447.129	512.75
447.35	517.75
447.571	510.75
447.792	513.75
448.013	522.75
448.234	549.75
448.455	586.75
448.675	724.75
448.896	754.75
449.117	684.75
449.338	668.75
449.559	756.75
449.779	796.75
450	677.75
450.221	578.75
450.442	522.75
450.662	508.75
450.883	530.75
451.104	538.75
451.324	519.75
451.545	499.75
451.766	487.75
451.986	481.75
452.207	473.75
452.428	452.75
452.648	451.75
452.869	445.75
453.089	474.75
453.31	488.75
453.53	466.75
453.751	443.75
453.971	467.75
454.192	491.75
454.412	479.75
454.633	465.75
454.853	477.75
455.073	475.75
455.294	497.75
455.514	566.75
455.734	548.75
455.955	495.75
456.175	442.75
456.395	411.75
456.616	420.75
456.836	422.75
457.056	420.75
457.276	413.75
457.497	426.75
457.717	417.75
457.937	444.75
458.157	442.75
458.377	421.75
458.598	474.75
458.818	524.75
459.038	628.75
459.258	624.75
459.478	517.75
459.698	461.75
459.918	468.75
460.138	475.75
460.358	448.75
460.578	467.75
460.798	461.75
461.018	471.75
461.238	434.75
461.458	454.75
461.678	465.75
461.898	455.75
462.118	459.75
462.338	448.75
462.558	464.75
462.777	439.75
462.997	470.75
463.217	461.75
463.437	475.75
463.657	476.75
463.876	466.75
464.096	479.75
464.316	464.75
464.536	476.75
464.755	483.75
464.975	503.75
465.195	560.75
465.414	639.75
465.634	586.75
465.854	525.75
466.073	508.75
466.293	480.75
466.512	450.75
466.732	456.75
466.951	459.75
467.171	456.75
467.391	459.75
467.61	492.75
467.829	474.75
468.049	488.75
468.268	468.75
468.488	472.75
468.707	462.75
468.927	441.75
469.146	457.75
469.365	457.75
469.585	458.75
469.804	456.75
470.023	455.75
470.243	473.75
470.462	513.75
470.681	480.75
470.901	492.75
471.12	493.75
471.339	492.75
471.558	488.75
471.777	484.75
471.997	441.75
472.216	478.75
472.435	546.75
472.654	526.75
472.873	484.75
473.092	470.75
473.311	466.75
473.53	474.75
473.749	490.75
473.968	541.75
474.187	646.75
474.406	681.75
474.625	541.75
474.844	500.75
475.063	470.75
475.282	475.75
475.501	477.75
475.72	486.75
475.939	480.75
476.158	500.75
476.377	488.75
476.596	468.75
476.814	487.75
477.033	517.75
477.252	512.75
477.471	503.75
477.69	530.75
477.908	520.75
478.127	489.75
478.346	521.75
478.564	519.75
478.783	531.75
479.002	531.75
479.22	525.75
479.439	536.75
479.658	579.75
479.876	579.75
480.095	580.75
480.313	600.75
480.532	582.75
480.751	574.75
480.969	593.75
481.188	684.75
481.406	688.75
481.624	640.75
481.843	590.75
482.061	586.75
482.28	567.75
482.498	548.75
482.717	555.75
482.935	552.75
483.153	590.75
483.372	552.75
483.59	575.75
483.808	534.75
484.027	568.75
484.245	556.75
484.463	565.75
484.681	589.75
484.9	585.75
485.118	593.75
485.336	583.75
485.554	576.75
485.772	594.75
485.99	591.75
486.209	588.75
486.427	598.75
486.645	615.75
486.863	603.75
487.081	631.75
487.299	606.75
487.517	629.75
487.735	604.75
487.953	628.75
488.171	615.75
488.389	620.75
488.607	632.75
488.825	612.75
489.043	638.75
489.261	632.75
489.479	604.75
489.696	650.75
489.914	629.75
490.132	630.75
490.35	652.75
490.568	662.75
490.786	650.75
491.003	656.75
491.221	668.75
491.439	721.75
491.657	713.75
491.874	730.75
492.092	739.75
492.31	740.75
492.527	744.75
492.745	743.75
492.963	739.75
493.18	731.75
493.398	744.75
493.615	750.75
493.833	732.75
494.05	716.75
494.268	723.75
494.485	730.75
494.703	708.75
494.92	738.75
495.138	748.75
495.355	750.75
495.573	765.75
495.79	776.75
496.008	759.75
496.225	762.75
496.442	749.75
496.66	737.75
496.877	760.75
497.094	755.75
497.312	758.75
497.529	770.75
497.746	753.75
497.963	744.75
498.181	789.75
498.398	793.75
498.615	772.75
498.832	785.75
499.049	780.75
499.267	772.75
499.484	788.75
499.701	801.75
499.918	793.75
500.135	868.75
500.352	882.75
500.569	896.75
500.786	894.75
501.003	880.75
501.22	856.75
501.437	868.75
501.654	869.75
501.871	861.75
