Data from 1970.PennyLincolnUp.Lamp.En5.5.200Scan.071719.P1._HRD10591_15-15-49-842.txt Node
Date: Thu Jul 18 15:15:49 EDT 2019
User: cochatt
Spectrometer: HR+D1059
Trigger mode: 1
Integration Time (sec): 1.000000E-1
Scans to average: 1
Electric dark correction enabled: true
Nonlinearity correction enabled: false
Boxcar width: 0
XAxis mode: Wavelengths
Number of Pixels in Spectrum: 2048
>>>>>Begin Spectral Data<<<<<
223.165	-12.94
223.4	-12.94
223.635	-12.94
223.869	-36.94
224.104	-22.94
224.338	-9.94
224.573	-8.94
224.808	-1.94
225.042	-9.94
225.277	-6.94
225.511	-15.94
225.746	0.06
225.98	17.06
226.215	17.06
226.449	12.06
226.683	30.06
226.918	20.06
227.152	30.06
227.387	34.06
227.621	52.06
227.856	58.06
228.09	50.06
228.324	40.06
228.559	55.06
228.793	76.06
229.027	108.06
229.262	128.06
229.496	137.06
229.73	155.06
229.964	163.06
230.199	155.06
230.433	128.06
230.667	120.06
230.901	124.06
231.136	130.06
231.37	129.06
231.604	114.06
231.838	123.06
232.072	122.06
232.306	112.06
232.541	137.06
232.775	119.06
233.009	127.06
233.243	122.06
233.477	125.06
233.711	118.06
233.945	116.06
234.179	116.06
234.413	123.06
234.647	119.06
234.881	139.06
235.115	126.06
235.349	135.06
235.583	130.06
235.817	126.06
236.051	129.06
236.285	132.06
236.519	134.06
236.753	149.06
236.987	156.06
237.221	199.06
237.455	271.06
237.689	223.06
237.922	163.06
238.156	144.06
238.39	135.06
238.624	151.06
238.858	138.06
239.091	119.06
239.325	145.06
239.559	150.06
239.793	167.06
240.027	145.06
240.26	142.06
240.494	186.06
240.728	170.06
240.961	171.06
241.195	179.06
241.429	151.06
241.662	143.06
241.896	151.06
242.13	149.06
242.363	142.06
242.597	142.06
242.83	138.06
243.064	150.06
243.298	155.06
243.531	153.06
243.765	160.06
243.998	148.06
244.232	155.06
244.465	163.06
244.699	175.06
244.932	153.06
245.166	156.06
245.399	151.06
245.633	150.06
245.866	151.06
246.099	161.06
246.333	168.06
246.566	153.06
246.8	168.06
247.033	160.06
247.266	169.06
247.5	187.06
247.733	186.06
247.966	181.06
248.2	182.06
248.433	200.06
248.666	191.06
248.899	220.06
249.133	237.06
249.366	245.06
249.599	220.06
249.832	211.06
250.066	209.06
250.299	206.06
250.532	228.06
250.765	239.06
250.998	250.06
251.231	259.06
251.465	236.06
251.698	235.06
251.931	211.06
252.164	212.06
252.397	209.06
252.63	229.06
252.863	227.06
253.096	236.06
253.329	263.06
253.562	259.06
253.795	254.06
254.028	237.06
254.261	242.06
254.494	265.06
254.727	292.06
254.96	330.06
255.193	295.06
255.426	281.06
255.659	272.06
255.892	280.06
256.124	269.06
256.357	290.06
256.59	271.06
256.823	265.06
257.056	239.06
257.289	253.06
257.521	243.06
257.754	248.06
257.987	239.06
258.22	223.06
258.452	252.06
258.685	223.06
258.918	227.06
259.151	226.06
259.383	222.06
259.616	229.06
259.849	260.06
260.081	245.06
260.314	297.06
260.547	274.06
260.779	279.06
261.012	283.06
261.244	240.06
261.477	235.06
261.71	251.06
261.942	252.06
262.175	265.06
262.407	247.06
262.64	250.06
262.872	247.06
263.105	243.06
263.337	218.06
263.57	223.06
263.802	222.06
264.035	234.06
264.267	236.06
264.499	247.06
264.732	231.06
264.964	221.06
265.197	214.06
265.429	213.06
265.661	219.06
265.894	220.06
266.126	235.06
266.358	225.06
266.591	230.06
266.823	237.06
267.055	244.06
267.287	244.06
267.52	251.06
267.752	243.06
267.984	242.06
268.216	258.06
268.448	244.06
268.681	249.06
268.913	265.06
269.145	281.06
269.377	307.06
269.609	296.06
269.841	273.06
270.073	300.06
270.306	326.06
270.538	355.06
270.77	347.06
271.002	345.06
271.234	305.06
271.466	334.06
271.698	349.06
271.93	334.06
272.162	349.06
272.394	346.06
272.626	345.06
272.858	327.06
273.09	314.06
273.322	297.06
273.553	279.06
273.785	294.06
274.017	290.06
274.249	301.06
274.481	307.06
274.713	285.06
274.945	291.06
275.176	275.06
275.408	290.06
275.64	285.06
275.872	275.06
276.104	280.06
276.335	281.06
276.567	284.06
276.799	304.06
277.031	319.06
277.262	354.06
277.494	326.06
277.726	332.06
277.957	315.06
278.189	295.06
278.421	291.06
278.652	286.06
278.884	296.06
279.115	275.06
279.347	277.06
279.579	286.06
279.81	297.06
280.042	279.06
280.273	265.06
280.505	282.06
280.736	281.06
280.968	279.06
281.199	282.06
281.431	293.06
281.662	271.06
281.894	291.06
282.125	287.06
282.356	292.06
282.588	330.06
282.819	326.06
283.051	303.06
283.282	271.06
283.513	293.06
283.745	274.06
283.976	296.06
284.207	286.06
284.439	279.06
284.67	264.06
284.901	281.06
285.132	279.06
285.364	285.06
285.595	296.06
285.826	294.06
286.057	287.06
286.288	279.06
286.52	290.06
286.751	291.06
286.982	275.06
287.213	280.06
287.444	295.06
287.675	283.06
287.906	288.06
288.138	306.06
288.369	299.06
288.6	307.06
288.831	301.06
289.062	302.06
289.293	309.06
289.524	282.06
289.755	275.06
289.986	296.06
290.217	284.06
290.448	287.06
290.679	279.06
290.91	285.06
291.141	307.06
291.371	271.06
291.602	307.06
291.833	295.06
292.064	304.06
292.295	312.06
292.526	284.06
292.757	292.06
292.987	285.06
293.218	278.06
293.449	292.06
293.68	294.06
293.91	291.06
294.141	302.06
294.372	287.06
294.603	297.06
294.833	280.06
295.064	307.06
295.295	315.06
295.525	291.06
295.756	305.06
295.987	291.06
296.217	342.06
296.448	344.06
296.679	315.06
296.909	299.06
297.14	291.06
297.37	281.06
297.601	305.06
297.831	322.06
298.062	310.06
298.292	303.06
298.523	300.06
298.753	331.06
298.984	319.06
299.214	305.06
299.445	311.06
299.675	332.06
299.905	329.06
300.136	307.06
300.366	302.06
300.597	330.06
300.827	314.06
301.057	321.06
301.288	345.06
301.518	339.06
301.748	326.06
301.979	316.06
302.209	311.06
302.439	320.06
302.669	330.06
302.9	314.06
303.13	315.06
303.36	348.06
303.59	330.06
303.82	345.06
304.051	336.06
304.281	327.06
304.511	328.06
304.741	329.06
304.971	320.06
305.201	333.06
305.431	339.06
305.661	322.06
305.891	337.06
306.121	336.06
306.352	352.06
306.582	360.06
306.812	332.06
307.042	326.06
307.272	336.06
307.502	314.06
307.731	345.06
307.961	340.06
308.191	330.06
308.421	327.06
308.651	358.06
308.881	343.06
309.111	359.06
309.341	359.06
309.571	364.06
309.8	364.06
310.03	399.06
310.26	399.06
310.49	400.06
310.72	408.06
310.949	432.06
311.179	419.06
311.409	399.06
311.639	383.06
311.868	404.06
312.098	392.06
312.328	391.06
312.557	451.06
312.787	449.06
313.017	456.06
313.246	441.06
313.476	400.06
313.706	381.06
313.935	424.06
314.165	415.06
314.394	424.06
314.624	428.06
314.853	421.06
315.083	406.06
315.312	387.06
315.542	408.06
315.771	409.06
316.001	367.06
316.23	374.06
316.46	403.06
316.689	409.06
316.919	413.06
317.148	394.06
317.377	422.06
317.607	392.06
317.836	415.06
318.065	394.06
318.295	366.06
318.524	389.06
318.753	372.06
318.983	411.06
319.212	378.06
319.441	389.06
319.67	415.06
319.9	393.06
320.129	380.06
320.358	405.06
320.587	390.06
320.816	413.06
321.046	418.06
321.275	415.06
321.504	422.06
321.733	421.06
321.962	439.06
322.191	452.06
322.42	479.06
322.649	485.06
322.878	470.06
323.108	502.06
323.337	539.06
323.566	561.06
323.795	623.06
324.024	680.06
324.253	828.06
324.482	1149.06
324.71	1795.06
324.939	2555.06
325.168	2237.06
325.397	1201.06
325.626	781.06
325.855	640.06
326.084	565.06
326.313	569.06
326.542	571.06
326.77	653.06
326.999	754.06
327.228	1031.06
327.457	1600.06
327.686	1912.06
327.914	1302.06
328.143	868.06
328.372	742.06
328.6	680.06
328.829	688.06
329.058	692.06
329.287	689.06
329.515	629.06
329.744	579.06
329.972	601.06
330.201	601.06
330.43	662.06
330.658	670.06
330.887	745.06
331.115	713.06
331.344	594.06
331.572	541.06
331.801	540.06
332.03	551.06
332.258	518.06
332.486	522.06
332.715	508.06
332.943	492.06
333.172	480.06
333.4	487.06
333.629	496.06
333.857	512.06
334.085	507.06
334.314	543.06
334.542	573.06
334.771	631.06
334.999	550.06
335.227	499.06
335.455	469.06
335.684	470.06
335.912	467.06
336.14	461.06
336.369	470.06
336.597	493.06
336.825	485.06
337.053	471.06
337.281	461.06
337.51	427.06
337.738	453.06
337.966	445.06
338.194	473.06
338.422	466.06
338.65	463.06
338.878	452.06
339.106	437.06
339.334	436.06
339.562	464.06
339.79	460.06
340.018	444.06
340.246	461.06
340.474	455.06
340.702	474.06
340.93	455.06
341.158	451.06
341.386	455.06
341.614	456.06
341.842	464.06
342.07	464.06
342.298	422.06
342.526	435.06
342.754	465.06
342.981	461.06
343.209	415.06
343.437	425.06
343.665	433.06
343.893	438.06
344.12	451.06
344.348	456.06
344.576	450.06
344.804	481.06
345.031	467.06
345.259	487.06
345.487	454.06
345.714	430.06
345.942	442.06
346.17	430.06
346.397	462.06
346.625	442.06
346.853	440.06
347.08	457.06
347.308	441.06
347.535	474.06
347.763	463.06
347.99	455.06
348.218	465.06
348.445	469.06
348.673	468.06
348.9	455.06
349.128	432.06
349.355	433.06
349.583	418.06
349.81	430.06
350.037	438.06
350.265	452.06
350.492	445.06
350.72	439.06
350.947	450.06
351.174	465.06
351.402	444.06
351.629	471.06
351.856	445.06
352.083	466.06
352.311	478.06
352.538	471.06
352.765	470.06
352.992	479.06
353.22	457.06
353.447	446.06
353.674	446.06
353.901	429.06
354.128	426.06
354.355	397.06
354.583	422.06
354.81	417.06
355.037	404.06
355.264	413.06
355.491	391.06
355.718	406.06
355.945	416.06
356.172	428.06
356.399	388.06
356.626	406.06
356.853	413.06
357.08	393.06
357.307	386.06
357.534	411.06
357.761	418.06
357.988	412.06
358.215	418.06
358.441	422.06
358.668	402.06
358.895	406.06
359.122	442.06
359.349	444.06
359.576	451.06
359.802	477.06
360.029	515.06
360.256	536.06
360.483	508.06
360.709	473.06
360.936	471.06
361.163	446.06
361.39	461.06
361.616	463.06
361.843	469.06
362.07	454.06
362.296	473.06
362.523	457.06
362.749	447.06
362.976	449.06
363.203	417.06
363.429	430.06
363.656	429.06
363.882	435.06
364.109	448.06
364.335	452.06
364.562	444.06
364.788	424.06
365.015	440.06
365.241	443.06
365.468	440.06
365.694	451.06
365.92	428.06
366.147	416.06
366.373	418.06
366.599	441.06
366.826	413.06
367.052	413.06
367.278	407.06
367.505	437.06
367.731	439.06
367.957	441.06
368.184	430.06
368.41	440.06
368.636	445.06
368.862	457.06
369.089	450.06
369.315	448.06
369.541	443.06
369.767	418.06
369.993	421.06
370.219	431.06
370.445	426.06
370.672	429.06
370.898	407.06
371.124	407.06
371.35	428.06
371.576	448.06
371.802	431.06
372.028	421.06
372.254	411.06
372.48	423.06
372.706	414.06
372.932	422.06
373.158	443.06
373.384	443.06
373.61	417.06
373.835	422.06
374.061	399.06
374.287	421.06
374.513	416.06
374.739	436.06
374.965	431.06
375.191	451.06
375.416	445.06
375.642	436.06
375.868	441.06
376.094	429.06
376.319	441.06
376.545	435.06
376.771	419.06
376.997	439.06
377.222	423.06
377.448	409.06
377.674	419.06
377.899	431.06
378.125	428.06
378.35	435.06
378.576	426.06
378.802	415.06
379.027	407.06
379.253	429.06
379.478	411.06
379.704	409.06
379.929	423.06
380.155	456.06
380.38	437.06
380.606	431.06
380.831	422.06
381.057	432.06
381.282	455.06
381.507	425.06
381.733	431.06
381.958	426.06
382.184	439.06
382.409	427.06
382.634	416.06
382.86	435.06
383.085	452.06
383.31	436.06
383.535	453.06
383.761	415.06
383.986	443.06
384.211	436.06
384.436	433.06
384.662	406.06
384.887	443.06
385.112	440.06
385.337	461.06
385.562	452.06
385.787	479.06
386.013	474.06
386.238	463.06
386.463	482.06
386.688	467.06
386.913	467.06
387.138	469.06
387.363	448.06
387.588	457.06
387.813	445.06
388.038	458.06
388.263	447.06
388.488	435.06
388.713	445.06
388.938	462.06
389.163	475.06
389.387	468.06
389.612	446.06
389.837	448.06
390.062	469.06
390.287	467.06
390.512	455.06
390.736	453.06
390.961	447.06
391.186	455.06
391.411	461.06
391.636	451.06
391.86	464.06
392.085	465.06
392.31	472.06
392.534	443.06
392.759	489.06
392.984	459.06
393.208	464.06
393.433	482.06
393.658	463.06
393.882	462.06
394.107	457.06
394.331	459.06
394.556	464.06
394.78	438.06
395.005	446.06
395.229	450.06
395.454	482.06
395.678	483.06
395.903	489.06
396.127	512.06
396.352	523.06
396.576	524.06
396.801	480.06
397.025	501.06
397.249	514.06
397.474	477.06
397.698	484.06
397.922	515.06
398.147	511.06
398.371	515.06
398.595	515.06
398.82	497.06
399.044	507.06
399.268	536.06
399.492	542.06
399.717	559.06
399.941	595.06
400.165	639.06
400.389	637.06
400.613	601.06
400.837	543.06
401.062	570.06
401.286	548.06
401.51	532.06
401.734	524.06
401.958	544.06
402.182	544.06
402.406	551.06
402.63	546.06
402.854	546.06
403.078	535.06
403.302	532.06
403.526	552.06
403.75	539.06
403.974	558.06
404.198	571.06
404.422	569.06
404.645	556.06
404.869	567.06
405.093	633.06
405.317	644.06
405.541	668.06
405.765	608.06
405.988	599.06
406.212	581.06
406.436	635.06
406.66	652.06
406.883	653.06
407.107	660.06
407.331	679.06
407.555	736.06
407.778	717.06
408.002	685.06
408.226	609.06
408.449	611.06
408.673	624.06
408.896	648.06
409.12	692.06
409.344	652.06
409.567	579.06
409.791	580.06
410.014	543.06
410.238	559.06
410.461	554.06
410.685	565.06
410.908	586.06
411.132	621.06
411.355	651.06
411.578	626.06
411.802	588.06
412.025	553.06
412.249	573.06
412.472	589.06
412.695	655.06
412.919	629.06
413.142	593.06
413.365	559.06
413.589	555.06
413.812	541.06
414.035	538.06
414.258	540.06
414.482	520.06
414.705	522.06
414.928	515.06
415.151	522.06
415.374	511.06
415.597	539.06
415.821	518.06
416.044	524.06
416.267	529.06
416.49	533.06
416.713	519.06
416.936	531.06
417.159	536.06
417.382	534.06
417.605	533.06
417.828	535.06
418.051	569.06
418.274	549.06
418.497	534.06
418.72	540.06
418.943	533.06
419.166	556.06
419.389	573.06
419.611	588.06
419.834	567.06
420.057	570.06
420.28	565.06
420.503	564.06
420.726	548.06
420.948	592.06
421.171	651.06
421.394	648.06
421.617	605.06
421.839	551.06
422.062	566.06
422.285	587.06
422.507	622.06
422.73	719.06
422.953	681.06
423.175	632.06
423.398	579.06
423.621	596.06
423.843	615.06
424.066	617.06
424.288	615.06
424.511	647.06
424.733	714.06
424.956	789.06
425.178	772.06
425.401	738.06
425.623	727.06
425.846	678.06
426.068	641.06
426.291	623.06
426.513	642.06
426.735	649.06
426.958	672.06
427.18	765.06
427.402	891.06
427.625	991.06
427.847	916.06
428.069	815.06
428.292	683.06
428.514	636.06
428.736	623.06
428.958	627.06
429.181	581.06
429.403	572.06
429.625	604.06
429.847	619.06
430.069	697.06
430.292	687.06
430.514	632.06
430.736	595.06
430.958	584.06
431.18	573.06
431.402	547.06
431.624	549.06
431.846	518.06
432.068	536.06
432.29	537.06
432.512	549.06
432.734	576.06
432.956	554.06
433.178	563.06
433.4	587.06
433.622	547.06
433.844	558.06
434.066	550.06
434.287	535.06
434.509	524.06
434.731	541.06
434.953	554.06
435.175	593.06
435.397	624.06
435.618	636.06
435.84	670.06
436.062	760.06
436.284	807.06
436.505	711.06
436.727	655.06
436.949	611.06
437.17	570.06
437.392	573.06
437.614	601.06
437.835	666.06
438.057	746.06
438.278	856.06
438.5	851.06
438.721	899.06
438.943	881.06
439.165	720.06
439.386	665.06
439.608	641.06
439.829	663.06
440.05	679.06
440.272	731.06
440.493	676.06
440.715	627.06
440.936	612.06
441.158	595.06
441.379	611.06
441.6	597.06
441.822	633.06
442.043	693.06
442.264	775.06
442.486	820.06
442.707	684.06
442.928	621.06
443.149	656.06
443.371	675.06
443.592	705.06
443.813	842.06
444.034	873.06
444.255	730.06
444.476	671.06
444.698	643.06
444.919	621.06
445.14	755.06
445.361	698.06
445.582	695.06
445.803	737.06
446.024	849.06
446.245	885.06
446.466	789.06
446.687	712.06
446.908	654.06
447.129	629.06
447.35	619.06
447.571	586.06
447.792	587.06
448.013	600.06
448.234	623.06
448.455	664.06
448.675	799.06
448.896	886.06
449.117	781.06
449.338	750.06
449.559	839.06
449.779	931.06
450	767.06
450.221	676.06
450.442	621.06
450.662	588.06
450.883	599.06
451.104	613.06
451.324	581.06
451.545	581.06
451.766	550.06
451.986	559.06
452.207	533.06
452.428	510.06
452.648	518.06
452.869	544.06
453.089	541.06
453.31	584.06
453.53	535.06
453.751	515.06
453.971	535.06
454.192	555.06
454.412	533.06
454.633	524.06
454.853	521.06
455.073	517.06
455.294	547.06
455.514	629.06
455.734	618.06
455.955	534.06
456.175	496.06
456.395	486.06
456.616	484.06
456.836	503.06
457.056	494.06
457.276	469.06
457.497	501.06
457.717	476.06
457.937	490.06
458.157	496.06
458.377	497.06
458.598	545.06
458.818	604.06
459.038	720.06
459.258	731.06
459.478	602.06
459.698	525.06
459.918	536.06
460.138	526.06
460.358	525.06
460.578	558.06
460.798	545.06
461.018	558.06
461.238	537.06
461.458	529.06
461.678	541.06
461.898	526.06
462.118	515.06
462.338	539.06
462.558	564.06
462.777	546.06
462.997	590.06
463.217	577.06
463.437	555.06
463.657	571.06
463.876	551.06
464.096	576.06
464.316	555.06
464.536	594.06
464.755	585.06
464.975	595.06
465.195	635.06
465.414	760.06
465.634	662.06
465.854	611.06
466.073	581.06
466.293	556.06
466.512	569.06
466.732	547.06
466.951	526.06
467.171	552.06
467.391	550.06
467.61	564.06
467.829	573.06
468.049	562.06
468.268	536.06
468.488	532.06
468.707	527.06
468.927	539.06
469.146	511.06
469.365	521.06
469.585	529.06
469.804	520.06
470.023	544.06
470.243	551.06
470.462	551.06
470.681	573.06
470.901	582.06
471.12	552.06
471.339	539.06
471.558	541.06
471.777	547.06
471.997	529.06
472.216	549.06
472.435	588.06
472.654	589.06
472.873	555.06
473.092	544.06
473.311	546.06
473.53	540.06
473.749	581.06
473.968	607.06
474.187	713.06
474.406	752.06
474.625	612.06
474.844	575.06
475.063	540.06
475.282	554.06
475.501	541.06
475.72	547.06
475.939	549.06
476.158	545.06
476.377	574.06
476.596	561.06
476.814	584.06
477.033	578.06
477.252	586.06
477.471	602.06
477.69	576.06
477.908	585.06
478.127	572.06
478.346	581.06
478.564	616.06
478.783	600.06
479.002	611.06
479.22	599.06
479.439	647.06
479.658	637.06
479.876	664.06
480.095	669.06
480.313	703.06
480.532	684.06
480.751	645.06
480.969	648.06
481.188	770.06
481.406	827.06
481.624	712.06
481.843	686.06
482.061	665.06
482.28	657.06
482.498	639.06
482.717	636.06
482.935	659.06
483.153	629.06
483.372	640.06
483.59	655.06
483.808	672.06
484.027	665.06
484.245	675.06
484.463	640.06
484.681	659.06
484.9	677.06
485.118	652.06
485.336	665.06
485.554	675.06
485.772	672.06
485.99	675.06
486.209	682.06
486.427	684.06
486.645	711.06
486.863	732.06
487.081	713.06
487.299	693.06
487.517	689.06
487.735	700.06
487.953	696.06
488.171	710.06
488.389	713.06
488.607	712.06
488.825	721.06
489.043	708.06
489.261	717.06
489.479	711.06
489.696	726.06
489.914	729.06
490.132	726.06
490.35	747.06
490.568	747.06
490.786	759.06
491.003	769.06
491.221	777.06
491.439	821.06
491.657	837.06
491.874	810.06
492.092	812.06
492.31	802.06
492.527	842.06
492.745	829.06
492.963	813.06
493.18	838.06
493.398	869.06
493.615	855.06
493.833	864.06
494.05	842.06
494.268	847.06
494.485	851.06
494.703	839.06
494.92	852.06
495.138	847.06
495.355	857.06
495.573	876.06
495.79	832.06
496.008	816.06
496.225	842.06
496.442	861.06
496.66	853.06
496.877	852.06
497.094	837.06
497.312	841.06
497.529	885.06
497.746	871.06
497.963	864.06
498.181	885.06
498.398	899.06
498.615	917.06
498.832	932.06
499.049	941.06
499.267	937.06
499.484	916.06
499.701	933.06
499.918	931.06
500.135	1011.06
500.352	1038.06
500.569	1060.06
500.786	1048.06
501.003	1055.06
501.22	1035.06
501.437	1015.06
501.654	1023.06
