Data from 1970.PennyLincolnUp.Lamp.En5.5.200Scan.071719.P1._HRD10591_15-14-28-842.txt Node
Date: Thu Jul 18 15:14:28 EDT 2019
User: cochatt
Spectrometer: HR+D1059
Trigger mode: 1
Integration Time (sec): 1.000000E-1
Scans to average: 1
Electric dark correction enabled: true
Nonlinearity correction enabled: false
Boxcar width: 0
XAxis mode: Wavelengths
Number of Pixels in Spectrum: 2048
>>>>>Begin Spectral Data<<<<<
223.165	-17.88
223.4	-17.88
223.635	-17.88
223.869	-11.88
224.104	-17.88
224.338	-7.88
224.573	-19.88
224.808	-24.88
225.042	0.12
225.277	-4.88
225.511	-15.88
225.746	5.12
225.98	0.12
226.215	11.12
226.449	15.12
226.683	41.12
226.918	13.12
227.152	35.12
227.387	39.12
227.621	27.12
227.856	23.12
228.09	43.12
228.324	37.12
228.559	61.12
228.793	67.12
229.027	103.12
229.262	121.12
229.496	125.12
229.73	149.12
229.964	179.12
230.199	143.12
230.433	140.12
230.667	113.12
230.901	124.12
231.136	121.12
231.37	105.12
231.604	118.12
231.838	103.12
232.072	109.12
232.306	116.12
232.541	134.12
232.775	120.12
233.009	120.12
233.243	108.12
233.477	117.12
233.711	116.12
233.945	118.12
234.179	122.12
234.413	125.12
234.647	118.12
234.881	117.12
235.115	119.12
235.349	120.12
235.583	119.12
235.817	117.12
236.051	140.12
236.285	124.12
236.519	142.12
236.753	153.12
236.987	147.12
237.221	204.12
237.455	251.12
237.689	207.12
237.922	151.12
238.156	148.12
238.39	134.12
238.624	126.12
238.858	122.12
239.091	128.12
239.325	136.12
239.559	121.12
239.793	131.12
240.027	145.12
240.26	141.12
240.494	173.12
240.728	166.12
240.961	162.12
241.195	153.12
241.429	149.12
241.662	143.12
241.896	150.12
242.13	128.12
242.363	155.12
242.597	130.12
242.83	149.12
243.064	138.12
243.298	147.12
243.531	148.12
243.765	144.12
243.998	165.12
244.232	149.12
244.465	144.12
244.699	139.12
244.932	163.12
245.166	143.12
245.399	152.12
245.633	155.12
245.866	150.12
246.099	163.12
246.333	161.12
246.566	161.12
246.8	157.12
247.033	166.12
247.266	159.12
247.5	164.12
247.733	185.12
247.966	191.12
248.2	189.12
248.433	185.12
248.666	207.12
248.899	197.12
249.133	213.12
249.366	217.12
249.599	224.12
249.832	199.12
250.066	212.12
250.299	197.12
250.532	208.12
250.765	217.12
250.998	239.12
251.231	259.12
251.465	244.12
251.698	230.12
251.931	219.12
252.164	231.12
252.397	213.12
252.63	229.12
252.863	218.12
253.096	228.12
253.329	245.12
253.562	232.12
253.795	240.12
254.028	226.12
254.261	246.12
254.494	247.12
254.727	281.12
254.96	311.12
255.193	304.12
255.426	291.12
255.659	248.12
255.892	245.12
256.124	271.12
256.357	250.12
256.59	250.12
256.823	235.12
257.056	232.12
257.289	232.12
257.521	223.12
257.754	201.12
257.987	207.12
258.22	229.12
258.452	196.12
258.685	221.12
258.918	200.12
259.151	227.12
259.383	225.12
259.616	229.12
259.849	235.12
260.081	236.12
260.314	262.12
260.547	285.12
260.779	248.12
261.012	243.12
261.244	244.12
261.477	243.12
261.71	240.12
261.942	251.12
262.175	241.12
262.407	249.12
262.64	225.12
262.872	227.12
263.105	229.12
263.337	220.12
263.57	204.12
263.802	210.12
264.035	222.12
264.267	216.12
264.499	221.12
264.732	218.12
264.964	236.12
265.197	209.12
265.429	221.12
265.661	196.12
265.894	215.12
266.126	224.12
266.358	235.12
266.591	240.12
266.823	223.12
267.055	216.12
267.287	224.12
267.52	207.12
267.752	232.12
267.984	228.12
268.216	236.12
268.448	239.12
268.681	245.12
268.913	244.12
269.145	263.12
269.377	273.12
269.609	265.12
269.841	281.12
270.073	272.12
270.306	295.12
270.538	316.12
270.77	331.12
271.002	322.12
271.234	315.12
271.466	310.12
271.698	329.12
271.93	325.12
272.162	334.12
272.394	314.12
272.626	308.12
272.858	309.12
273.09	298.12
273.322	272.12
273.553	279.12
273.785	270.12
274.017	261.12
274.249	284.12
274.481	261.12
274.713	272.12
274.945	266.12
275.176	267.12
275.408	268.12
275.64	273.12
275.872	276.12
276.104	278.12
276.335	269.12
276.567	273.12
276.799	291.12
277.031	316.12
277.262	318.12
277.494	323.12
277.726	287.12
277.957	307.12
278.189	267.12
278.421	297.12
278.652	281.12
278.884	239.12
279.115	263.12
279.347	271.12
279.579	253.12
279.81	267.12
280.042	270.12
280.273	268.12
280.505	270.12
280.736	255.12
280.968	254.12
281.199	254.12
281.431	282.12
281.662	248.12
281.894	267.12
282.125	258.12
282.356	281.12
282.588	303.12
282.819	287.12
283.051	263.12
283.282	276.12
283.513	262.12
283.745	262.12
283.976	276.12
284.207	287.12
284.439	248.12
284.67	282.12
284.901	269.12
285.132	283.12
285.364	273.12
285.595	271.12
285.826	263.12
286.057	253.12
286.288	259.12
286.52	269.12
286.751	264.12
286.982	264.12
287.213	262.12
287.444	269.12
287.675	264.12
287.906	281.12
288.138	269.12
288.369	279.12
288.6	301.12
288.831	292.12
289.062	287.12
289.293	285.12
289.524	278.12
289.755	269.12
289.986	293.12
290.217	275.12
290.448	261.12
290.679	280.12
290.91	274.12
291.141	270.12
291.371	253.12
291.602	269.12
291.833	273.12
292.064	264.12
292.295	282.12
292.526	266.12
292.757	276.12
292.987	265.12
293.218	282.12
293.449	277.12
293.68	263.12
293.91	267.12
294.141	272.12
294.372	291.12
294.603	276.12
294.833	262.12
295.064	296.12
295.295	288.12
295.525	261.12
295.756	276.12
295.987	294.12
296.217	312.12
296.448	328.12
296.679	303.12
296.909	288.12
297.14	289.12
297.37	288.12
297.601	268.12
297.831	295.12
298.062	279.12
298.292	287.12
298.523	282.12
298.753	283.12
298.984	299.12
299.214	294.12
299.445	306.12
299.675	309.12
299.905	297.12
300.136	298.12
300.366	286.12
300.597	301.12
300.827	311.12
301.057	311.12
301.288	298.12
301.518	317.12
301.748	299.12
301.979	307.12
302.209	301.12
302.439	284.12
302.669	320.12
302.9	313.12
303.13	309.12
303.36	295.12
303.59	318.12
303.82	317.12
304.051	306.12
304.281	316.12
304.511	313.12
304.741	294.12
304.971	307.12
305.201	320.12
305.431	327.12
305.661	315.12
305.891	315.12
306.121	287.12
306.352	323.12
306.582	320.12
306.812	318.12
307.042	330.12
307.272	319.12
307.502	309.12
307.731	338.12
307.961	311.12
308.191	304.12
308.421	308.12
308.651	336.12
308.881	312.12
309.111	332.12
309.341	332.12
309.571	340.12
309.8	354.12
310.03	348.12
310.26	377.12
310.49	366.12
310.72	371.12
310.949	387.12
311.179	418.12
311.409	378.12
311.639	380.12
311.868	359.12
312.098	366.12
312.328	371.12
312.557	388.12
312.787	402.12
313.017	416.12
313.246	402.12
313.476	375.12
313.706	363.12
313.935	383.12
314.165	379.12
314.394	372.12
314.624	392.12
314.853	389.12
315.083	373.12
315.312	357.12
315.542	371.12
315.771	356.12
316.001	347.12
316.23	358.12
316.46	372.12
316.689	373.12
316.919	372.12
317.148	371.12
317.377	388.12
317.607	379.12
317.836	387.12
318.065	394.12
318.295	372.12
318.524	367.12
318.753	367.12
318.983	346.12
319.212	371.12
319.441	371.12
319.67	389.12
319.9	359.12
320.129	364.12
320.358	376.12
320.587	374.12
320.816	392.12
321.046	390.12
321.275	384.12
321.504	391.12
321.733	395.12
321.962	418.12
322.191	408.12
322.42	417.12
322.649	456.12
322.878	459.12
323.108	465.12
323.337	503.12
323.566	520.12
323.795	556.12
324.024	614.12
324.253	747.12
324.482	1065.12
324.71	1659.12
324.939	2263.12
325.168	1971.12
325.397	1035.12
325.626	712.12
325.855	595.12
326.084	543.12
326.313	520.12
326.542	509.12
326.77	588.12
326.999	672.12
327.228	920.12
327.457	1416.12
327.686	1733.12
327.914	1159.12
328.143	789.12
328.372	689.12
328.6	646.12
328.829	616.12
329.058	623.12
329.287	636.12
329.515	577.12
329.744	529.12
329.972	545.12
330.201	540.12
330.43	597.12
330.658	624.12
330.887	664.12
331.115	605.12
331.344	536.12
331.572	504.12
331.801	477.12
332.03	494.12
332.258	460.12
332.486	482.12
332.715	467.12
332.943	457.12
333.172	469.12
333.4	454.12
333.629	477.12
333.857	464.12
334.085	468.12
334.314	479.12
334.542	534.12
334.771	569.12
334.999	519.12
335.227	460.12
335.455	455.12
335.684	423.12
335.912	431.12
336.14	413.12
336.369	422.12
336.597	438.12
336.825	463.12
337.053	414.12
337.281	432.12
337.51	431.12
337.738	423.12
337.966	420.12
338.194	432.12
338.422	442.12
338.65	446.12
338.878	441.12
339.106	429.12
339.334	420.12
339.562	410.12
339.79	408.12
340.018	421.12
340.246	420.12
340.474	444.12
340.702	429.12
340.93	423.12
341.158	408.12
341.386	433.12
341.614	423.12
341.842	419.12
342.07	420.12
342.298	399.12
342.526	400.12
342.754	426.12
342.981	400.12
343.209	413.12
343.437	407.12
343.665	412.12
343.893	415.12
344.12	408.12
344.348	430.12
344.576	432.12
344.804	433.12
345.031	449.12
345.259	464.12
345.487	442.12
345.714	447.12
345.942	416.12
346.17	391.12
346.397	409.12
346.625	417.12
346.853	411.12
347.08	394.12
347.308	430.12
347.535	406.12
347.763	450.12
347.99	427.12
348.218	424.12
348.445	457.12
348.673	422.12
348.9	419.12
349.128	415.12
349.355	392.12
349.583	403.12
349.81	424.12
350.037	409.12
350.265	402.12
350.492	413.12
350.72	415.12
350.947	406.12
351.174	435.12
351.402	423.12
351.629	421.12
351.856	429.12
352.083	431.12
352.311	430.12
352.538	445.12
352.765	446.12
352.992	440.12
353.22	438.12
353.447	439.12
353.674	423.12
353.901	396.12
354.128	415.12
354.355	391.12
354.583	417.12
354.81	405.12
355.037	371.12
355.264	385.12
355.491	397.12
355.718	392.12
355.945	392.12
356.172	393.12
356.399	389.12
356.626	384.12
356.853	378.12
357.08	379.12
357.307	397.12
357.534	379.12
357.761	369.12
357.988	395.12
358.215	407.12
358.441	389.12
358.668	404.12
358.895	391.12
359.122	404.12
359.349	406.12
359.576	430.12
359.802	455.12
360.029	486.12
360.256	485.12
360.483	463.12
360.709	431.12
360.936	420.12
361.163	437.12
361.39	439.12
361.616	445.12
361.843	428.12
362.07	432.12
362.296	448.12
362.523	425.12
362.749	411.12
362.976	413.12
363.203	421.12
363.429	415.12
363.656	421.12
363.882	413.12
364.109	417.12
364.335	414.12
364.562	419.12
364.788	414.12
365.015	391.12
365.241	405.12
365.468	416.12
365.694	426.12
365.92	409.12
366.147	407.12
366.373	406.12
366.599	404.12
366.826	411.12
367.052	421.12
367.278	393.12
367.505	421.12
367.731	383.12
367.957	403.12
368.184	401.12
368.41	418.12
368.636	405.12
368.862	419.12
369.089	411.12
369.315	405.12
369.541	396.12
369.767	403.12
369.993	423.12
370.219	417.12
370.445	405.12
370.672	397.12
370.898	403.12
371.124	395.12
371.35	396.12
371.576	396.12
371.802	377.12
372.028	386.12
372.254	389.12
372.48	404.12
372.706	415.12
372.932	399.12
373.158	402.12
373.384	407.12
373.61	404.12
373.835	401.12
374.061	396.12
374.287	402.12
374.513	401.12
374.739	399.12
374.965	388.12
375.191	403.12
375.416	415.12
375.642	393.12
375.868	414.12
376.094	407.12
376.319	404.12
376.545	411.12
376.771	391.12
376.997	388.12
377.222	392.12
377.448	397.12
377.674	402.12
377.899	412.12
378.125	413.12
378.35	396.12
378.576	398.12
378.802	389.12
379.027	396.12
379.253	398.12
379.478	390.12
379.704	384.12
379.929	402.12
380.155	412.12
380.38	397.12
380.606	400.12
380.831	395.12
381.057	420.12
381.282	418.12
381.507	425.12
381.733	421.12
381.958	404.12
382.184	414.12
382.409	413.12
382.634	387.12
382.86	411.12
383.085	376.12
383.31	407.12
383.535	415.12
383.761	428.12
383.986	408.12
384.211	414.12
384.436	417.12
384.662	426.12
384.887	412.12
385.112	415.12
385.337	422.12
385.562	443.12
385.787	415.12
386.013	456.12
386.238	446.12
386.463	448.12
386.688	441.12
386.913	419.12
387.138	425.12
387.363	441.12
387.588	446.12
387.813	443.12
388.038	437.12
388.263	445.12
388.488	430.12
388.713	430.12
388.938	425.12
389.163	436.12
389.387	451.12
389.612	423.12
389.837	432.12
390.062	407.12
390.287	431.12
390.512	428.12
390.736	438.12
390.961	447.12
391.186	445.12
391.411	425.12
391.636	426.12
391.86	437.12
392.085	431.12
392.31	429.12
392.534	427.12
392.759	439.12
392.984	432.12
393.208	420.12
393.433	438.12
393.658	444.12
393.882	427.12
394.107	422.12
394.331	450.12
394.556	443.12
394.78	464.12
395.005	420.12
395.229	446.12
395.454	455.12
395.678	489.12
395.903	450.12
396.127	472.12
396.352	491.12
396.576	446.12
396.801	439.12
397.025	451.12
397.249	458.12
397.474	465.12
397.698	451.12
397.922	473.12
398.147	480.12
398.371	473.12
398.595	475.12
398.82	474.12
399.044	489.12
399.268	503.12
399.492	494.12
399.717	559.12
399.941	556.12
400.165	583.12
400.389	608.12
400.613	558.12
400.837	545.12
401.062	493.12
401.286	517.12
401.51	503.12
401.734	487.12
401.958	502.12
402.182	512.12
402.406	512.12
402.63	508.12
402.854	509.12
403.078	503.12
403.302	528.12
403.526	541.12
403.75	517.12
403.974	509.12
404.198	512.12
404.422	511.12
404.645	527.12
404.869	542.12
405.093	563.12
405.317	611.12
405.541	635.12
405.765	570.12
405.988	551.12
406.212	560.12
406.436	591.12
406.66	617.12
406.883	579.12
407.107	600.12
407.331	645.12
407.555	687.12
407.778	651.12
408.002	616.12
408.226	581.12
408.449	573.12
408.673	571.12
408.896	595.12
409.12	672.12
409.344	628.12
409.567	568.12
409.791	531.12
410.014	525.12
410.238	524.12
410.461	522.12
410.685	502.12
410.908	533.12
411.132	595.12
411.355	611.12
411.578	598.12
411.802	530.12
412.025	511.12
412.249	533.12
412.472	561.12
412.695	597.12
412.919	585.12
413.142	533.12
413.365	549.12
413.589	519.12
413.812	519.12
414.035	499.12
414.258	494.12
414.482	494.12
414.705	497.12
414.928	493.12
415.151	500.12
415.374	511.12
415.597	497.12
415.821	492.12
416.044	473.12
416.267	489.12
416.49	502.12
416.713	485.12
416.936	502.12
417.159	481.12
417.382	509.12
417.605	520.12
417.828	528.12
418.051	527.12
418.274	519.12
418.497	503.12
418.72	483.12
418.943	509.12
419.166	505.12
419.389	540.12
419.611	547.12
419.834	528.12
420.057	519.12
420.28	510.12
420.503	507.12
420.726	534.12
420.948	554.12
421.171	595.12
421.394	610.12
421.617	568.12
421.839	535.12
422.062	551.12
422.285	585.12
422.507	612.12
422.73	687.12
422.953	643.12
423.175	599.12
423.398	549.12
423.621	537.12
423.843	589.12
424.066	567.12
424.288	577.12
424.511	603.12
424.733	670.12
424.956	725.12
425.178	725.12
425.401	694.12
425.623	709.12
425.846	648.12
426.068	603.12
426.291	607.12
426.513	584.12
426.735	624.12
426.958	653.12
427.18	769.12
427.402	834.12
427.625	940.12
427.847	844.12
428.069	724.12
428.292	673.12
428.514	631.12
428.736	583.12
428.958	586.12
429.181	569.12
429.403	551.12
429.625	547.12
429.847	603.12
430.069	670.12
430.292	665.12
430.514	571.12
430.736	546.12
430.958	547.12
431.18	524.12
431.402	504.12
431.624	513.12
431.846	485.12
432.068	486.12
432.29	487.12
432.512	508.12
432.734	504.12
432.956	524.12
433.178	539.12
433.4	536.12
433.622	506.12
433.844	493.12
434.066	497.12
434.287	530.12
434.509	519.12
434.731	513.12
434.953	545.12
435.175	560.12
435.397	600.12
435.618	607.12
435.84	649.12
436.062	750.12
436.284	814.12
436.505	676.12
436.727	621.12
436.949	569.12
437.17	553.12
437.392	579.12
437.614	564.12
437.835	600.12
438.057	692.12
438.278	837.12
438.5	809.12
438.721	887.12
438.943	833.12
439.165	681.12
439.386	634.12
439.608	611.12
439.829	609.12
440.05	622.12
440.272	645.12
440.493	643.12
440.715	604.12
440.936	590.12
441.158	581.12
441.379	560.12
441.6	563.12
441.822	579.12
442.043	649.12
442.264	693.12
442.486	753.12
442.707	672.12
442.928	601.12
443.149	612.12
443.371	651.12
443.592	697.12
443.813	775.12
444.034	819.12
444.255	705.12
444.476	631.12
444.698	584.12
444.919	587.12
445.14	725.12
445.361	667.12
445.582	656.12
445.803	707.12
446.024	786.12
446.245	814.12
446.466	750.12
446.687	640.12
446.908	614.12
447.129	571.12
447.35	562.12
447.571	558.12
447.792	537.12
448.013	571.12
448.234	584.12
448.455	655.12
448.675	755.12
448.896	851.12
449.117	735.12
449.338	673.12
449.559	809.12
449.779	895.12
450	744.12
450.221	628.12
450.442	588.12
450.662	566.12
450.883	567.12
451.104	547.12
451.324	571.12
451.545	536.12
451.766	525.12
451.986	500.12
452.207	489.12
452.428	500.12
452.648	487.12
452.869	502.12
453.089	492.12
453.31	519.12
453.53	500.12
453.751	508.12
453.971	525.12
454.192	528.12
454.412	528.12
454.633	499.12
454.853	489.12
455.073	503.12
455.294	537.12
455.514	593.12
455.734	574.12
455.955	506.12
456.175	467.12
456.395	467.12
456.616	461.12
456.836	452.12
457.056	443.12
457.276	438.12
457.497	456.12
457.717	465.12
457.937	450.12
458.157	482.12
458.377	477.12
458.598	523.12
458.818	559.12
459.038	658.12
459.258	665.12
459.478	576.12
459.698	519.12
459.918	505.12
460.138	499.12
460.358	505.12
460.578	503.12
460.798	531.12
461.018	502.12
461.238	507.12
461.458	512.12
461.678	488.12
461.898	498.12
462.118	464.12
462.338	496.12
462.558	512.12
462.777	525.12
462.997	510.12
463.217	525.12
463.437	535.12
463.657	528.12
463.876	538.12
464.096	523.12
464.316	535.12
464.536	547.12
464.755	526.12
464.975	540.12
465.195	590.12
465.414	679.12
465.634	619.12
465.854	583.12
466.073	512.12
466.293	534.12
466.512	517.12
466.732	487.12
466.951	502.12
467.171	468.12
467.391	515.12
467.61	499.12
467.829	538.12
468.049	542.12
468.268	533.12
468.488	507.12
468.707	509.12
468.927	488.12
469.146	503.12
469.365	498.12
469.585	508.12
469.804	517.12
470.023	493.12
470.243	512.12
470.462	505.12
470.681	535.12
470.901	521.12
471.12	500.12
471.339	506.12
471.558	504.12
471.777	499.12
471.997	497.12
472.216	517.12
472.435	574.12
472.654	543.12
472.873	508.12
473.092	494.12
473.311	491.12
473.53	532.12
473.749	542.12
473.968	557.12
474.187	692.12
474.406	697.12
474.625	585.12
474.844	541.12
475.063	525.12
475.282	522.12
475.501	508.12
475.72	539.12
475.939	523.12
476.158	530.12
476.377	506.12
476.596	520.12
476.814	530.12
477.033	539.12
477.252	541.12
477.471	546.12
477.69	554.12
477.908	532.12
478.127	540.12
478.346	541.12
478.564	561.12
478.783	584.12
479.002	559.12
479.22	565.12
479.439	581.12
479.658	623.12
479.876	637.12
480.095	631.12
480.313	648.12
480.532	641.12
480.751	638.12
480.969	637.12
481.188	723.12
481.406	791.12
481.624	678.12
481.843	657.12
482.061	605.12
482.28	620.12
482.498	613.12
482.717	620.12
482.935	616.12
483.153	631.12
483.372	617.12
483.59	620.12
483.808	616.12
484.027	591.12
484.245	631.12
484.463	628.12
484.681	643.12
484.9	606.12
485.118	633.12
485.336	633.12
485.554	636.12
485.772	616.12
485.99	632.12
486.209	632.12
486.427	631.12
486.645	648.12
486.863	696.12
487.081	667.12
487.299	670.12
487.517	658.12
487.735	679.12
487.953	701.12
488.171	656.12
488.389	660.12
488.607	693.12
488.825	673.12
489.043	673.12
489.261	672.12
489.479	689.12
489.696	635.12
489.914	657.12
490.132	689.12
490.35	697.12
490.568	710.12
490.786	727.12
491.003	743.12
491.221	739.12
491.439	740.12
491.657	734.12
491.874	779.12
492.092	777.12
492.31	799.12
492.527	785.12
492.745	801.12
492.963	760.12
493.18	788.12
493.398	792.12
493.615	795.12
493.833	775.12
494.05	805.12
494.268	791.12
494.485	786.12
494.703	806.12
494.92	815.12
495.138	797.12
495.355	811.12
495.573	821.12
495.79	791.12
496.008	801.12
496.225	783.12
496.442	809.12
496.66	820.12
496.877	800.12
497.094	816.12
497.312	824.12
497.529	811.12
497.746	827.12
497.963	837.12
498.181	847.12
498.398	856.12
498.615	849.12
498.832	872.12
499.049	886.12
499.267	900.12
499.484	900.12
499.701	906.12
499.918	916.12
500.135	924.12
500.352	985.12
500.569	992.12
500.786	987.12
501.003	976.12
501.22	948.12
501.437	962.12
501.654	970.12
501.871	967.12
