Data from 1970.PennyLincolnUp.Lamp.En5.5.200Scan.071719.P1._HRD10591_15-13-54-842.txt Node
Date: Thu Jul 18 15:13:54 EDT 2019
User: cochatt
Spectrometer: HR+D1059
Trigger mode: 1
Integration Time (sec): 1.000000E-1
Scans to average: 1
Electric dark correction enabled: true
Nonlinearity correction enabled: false
Boxcar width: 0
XAxis mode: Wavelengths
Number of Pixels in Spectrum: 2048
>>>>>Begin Spectral Data<<<<<
223.165	-4.81
223.4	-4.81
223.635	-4.81
223.869	-26.81
224.104	-10.81
224.338	-21.81
224.573	-10.81
224.808	-10.81
225.042	-9.81
225.277	-12.81
225.511	-3.81
225.746	9.19
225.98	11.19
226.215	0.19
226.449	21.19
226.683	16.19
226.918	21.19
227.152	33.19
227.387	33.19
227.621	41.19
227.856	40.19
228.09	45.19
228.324	51.19
228.559	51.19
228.793	63.19
229.027	113.19
229.262	126.19
229.496	116.19
229.73	136.19
229.964	182.19
230.199	151.19
230.433	116.19
230.667	121.19
230.901	116.19
231.136	110.19
231.37	110.19
231.604	104.19
231.838	122.19
232.072	115.19
232.306	126.19
232.541	124.19
232.775	113.19
233.009	104.19
233.243	111.19
233.477	110.19
233.711	117.19
233.945	114.19
234.179	123.19
234.413	115.19
234.647	121.19
234.881	111.19
235.115	101.19
235.349	112.19
235.583	123.19
235.817	117.19
236.051	134.19
236.285	124.19
236.519	121.19
236.753	128.19
236.987	154.19
237.221	187.19
237.455	230.19
237.689	184.19
237.922	160.19
238.156	163.19
238.39	132.19
238.624	137.19
238.858	125.19
239.091	118.19
239.325	120.19
239.559	130.19
239.793	135.19
240.027	135.19
240.26	145.19
240.494	167.19
240.728	161.19
240.961	152.19
241.195	146.19
241.429	137.19
241.662	137.19
241.896	135.19
242.13	136.19
242.363	143.19
242.597	145.19
242.83	130.19
243.064	144.19
243.298	129.19
243.531	149.19
243.765	140.19
243.998	133.19
244.232	154.19
244.465	152.19
244.699	153.19
244.932	140.19
245.166	133.19
245.399	158.19
245.633	163.19
245.866	138.19
246.099	142.19
246.333	154.19
246.566	166.19
246.8	156.19
247.033	158.19
247.266	162.19
247.5	166.19
247.733	171.19
247.966	178.19
248.2	171.19
248.433	160.19
248.666	178.19
248.899	171.19
249.133	213.19
249.366	231.19
249.599	192.19
249.832	188.19
250.066	206.19
250.299	191.19
250.532	200.19
250.765	218.19
250.998	242.19
251.231	250.19
251.465	219.19
251.698	213.19
251.931	205.19
252.164	200.19
252.397	210.19
252.63	212.19
252.863	237.19
253.096	227.19
253.329	230.19
253.562	247.19
253.795	229.19
254.028	243.19
254.261	220.19
254.494	235.19
254.727	252.19
254.96	299.19
255.193	293.19
255.426	261.19
255.659	249.19
255.892	247.19
256.124	249.19
256.357	236.19
256.59	227.19
256.823	223.19
257.056	214.19
257.289	219.19
257.521	215.19
257.754	213.19
257.987	220.19
258.22	216.19
258.452	224.19
258.685	220.19
258.918	215.19
259.151	210.19
259.383	232.19
259.616	225.19
259.849	222.19
260.081	240.19
260.314	258.19
260.547	263.19
260.779	268.19
261.012	253.19
261.244	240.19
261.477	227.19
261.71	230.19
261.942	223.19
262.175	239.19
262.407	230.19
262.64	202.19
262.872	216.19
263.105	208.19
263.337	200.19
263.57	208.19
263.802	194.19
264.035	196.19
264.267	215.19
264.499	206.19
264.732	207.19
264.964	207.19
265.197	204.19
265.429	219.19
265.661	214.19
265.894	196.19
266.126	225.19
266.358	213.19
266.591	213.19
266.823	207.19
267.055	220.19
267.287	217.19
267.52	232.19
267.752	212.19
267.984	212.19
268.216	226.19
268.448	241.19
268.681	229.19
268.913	257.19
269.145	251.19
269.377	269.19
269.609	273.19
269.841	268.19
270.073	260.19
270.306	310.19
270.538	312.19
270.77	306.19
271.002	313.19
271.234	283.19
271.466	303.19
271.698	299.19
271.93	328.19
272.162	310.19
272.394	318.19
272.626	287.19
272.858	280.19
273.09	270.19
273.322	260.19
273.553	269.19
273.785	264.19
274.017	251.19
274.249	251.19
274.481	264.19
274.713	273.19
274.945	278.19
275.176	237.19
275.408	250.19
275.64	267.19
275.872	248.19
276.104	257.19
276.335	251.19
276.567	256.19
276.799	272.19
277.031	295.19
277.262	309.19
277.494	308.19
277.726	295.19
277.957	283.19
278.189	259.19
278.421	261.19
278.652	262.19
278.884	274.19
279.115	248.19
279.347	240.19
279.579	245.19
279.81	272.19
280.042	256.19
280.273	243.19
280.505	255.19
280.736	252.19
280.968	257.19
281.199	252.19
281.431	257.19
281.662	247.19
281.894	244.19
282.125	250.19
282.356	279.19
282.588	303.19
282.819	299.19
283.051	275.19
283.282	247.19
283.513	264.19
283.745	255.19
283.976	256.19
284.207	257.19
284.439	264.19
284.67	280.19
284.901	267.19
285.132	253.19
285.364	277.19
285.595	256.19
285.826	260.19
286.057	269.19
286.288	269.19
286.52	264.19
286.751	256.19
286.982	260.19
287.213	268.19
287.444	250.19
287.675	267.19
287.906	276.19
288.138	255.19
288.369	291.19
288.6	276.19
288.831	275.19
289.062	260.19
289.293	273.19
289.524	276.19
289.755	257.19
289.986	277.19
290.217	279.19
290.448	284.19
290.679	278.19
290.91	272.19
291.141	259.19
291.371	270.19
291.602	268.19
291.833	277.19
292.064	261.19
292.295	257.19
292.526	244.19
292.757	267.19
292.987	262.19
293.218	248.19
293.449	244.19
293.68	283.19
293.91	267.19
294.141	250.19
294.372	273.19
294.603	258.19
294.833	268.19
295.064	275.19
295.295	244.19
295.525	267.19
295.756	277.19
295.987	298.19
296.217	324.19
296.448	326.19
296.679	304.19
296.909	282.19
297.14	263.19
297.37	262.19
297.601	279.19
297.831	273.19
298.062	251.19
298.292	279.19
298.523	276.19
298.753	277.19
298.984	285.19
299.214	307.19
299.445	300.19
299.675	295.19
299.905	287.19
300.136	273.19
300.366	294.19
300.597	284.19
300.827	279.19
301.057	288.19
301.288	293.19
301.518	291.19
301.748	294.19
301.979	299.19
302.209	317.19
302.439	301.19
302.669	303.19
302.9	289.19
303.13	275.19
303.36	306.19
303.59	304.19
303.82	317.19
304.051	323.19
304.281	304.19
304.511	300.19
304.741	301.19
304.971	333.19
305.201	293.19
305.431	302.19
305.661	303.19
305.891	295.19
306.121	299.19
306.352	311.19
306.582	307.19
306.812	289.19
307.042	303.19
307.272	297.19
307.502	308.19
307.731	316.19
307.961	312.19
308.191	321.19
308.421	311.19
308.651	307.19
308.881	316.19
309.111	297.19
309.341	342.19
309.571	348.19
309.8	315.19
310.03	338.19
310.26	372.19
310.49	356.19
310.72	375.19
310.949	387.19
311.179	396.19
311.409	378.19
311.639	360.19
311.868	369.19
312.098	356.19
312.328	365.19
312.557	365.19
312.787	405.19
313.017	385.19
313.246	376.19
313.476	346.19
313.706	339.19
313.935	360.19
314.165	356.19
314.394	356.19
314.624	376.19
314.853	364.19
315.083	375.19
315.312	362.19
315.542	344.19
315.771	343.19
316.001	351.19
316.23	348.19
316.46	347.19
316.689	365.19
316.919	342.19
317.148	347.19
317.377	376.19
317.607	350.19
317.836	360.19
318.065	357.19
318.295	360.19
318.524	340.19
318.753	349.19
318.983	356.19
319.212	349.19
319.441	374.19
319.67	375.19
319.9	355.19
320.129	352.19
320.358	347.19
320.587	374.19
320.816	364.19
321.046	391.19
321.275	388.19
321.504	381.19
321.733	391.19
321.962	376.19
322.191	397.19
322.42	433.19
322.649	408.19
322.878	435.19
323.108	469.19
323.337	457.19
323.566	483.19
323.795	545.19
324.024	550.19
324.253	682.19
324.482	987.19
324.71	1543.19
324.939	2130.19
325.168	1847.19
325.397	1010.19
325.626	678.19
325.855	549.19
326.084	489.19
326.313	492.19
326.542	524.19
326.77	555.19
326.999	635.19
327.228	891.19
327.457	1325.19
327.686	1631.19
327.914	1107.19
328.143	741.19
328.372	627.19
328.6	588.19
328.829	567.19
329.058	577.19
329.287	579.19
329.515	559.19
329.744	523.19
329.972	518.19
330.201	512.19
330.43	552.19
330.658	592.19
330.887	638.19
331.115	604.19
331.344	529.19
331.572	477.19
331.801	481.19
332.03	477.19
332.258	444.19
332.486	439.19
332.715	427.19
332.943	409.19
333.172	417.19
333.4	433.19
333.629	435.19
333.857	460.19
334.085	450.19
334.314	479.19
334.542	521.19
334.771	548.19
334.999	487.19
335.227	445.19
335.455	443.19
335.684	428.19
335.912	420.19
336.14	402.19
336.369	416.19
336.597	409.19
336.825	429.19
337.053	422.19
337.281	430.19
337.51	406.19
337.738	425.19
337.966	412.19
338.194	398.19
338.422	432.19
338.65	406.19
338.878	397.19
339.106	392.19
339.334	405.19
339.562	411.19
339.79	396.19
340.018	387.19
340.246	417.19
340.474	425.19
340.702	416.19
340.93	407.19
341.158	427.19
341.386	407.19
341.614	415.19
341.842	426.19
342.07	415.19
342.298	407.19
342.526	409.19
342.754	391.19
342.981	415.19
343.209	390.19
343.437	387.19
343.665	414.19
343.893	405.19
344.12	392.19
344.348	401.19
344.576	407.19
344.804	415.19
345.031	438.19
345.259	435.19
345.487	422.19
345.714	408.19
345.942	402.19
346.17	416.19
346.397	406.19
346.625	376.19
346.853	397.19
347.08	404.19
347.308	431.19
347.535	415.19
347.763	407.19
347.99	411.19
348.218	406.19
348.445	425.19
348.673	417.19
348.9	409.19
349.128	411.19
349.355	381.19
349.583	386.19
349.81	393.19
350.037	391.19
350.265	385.19
350.492	366.19
350.72	399.19
350.947	398.19
351.174	409.19
351.402	416.19
351.629	423.19
351.856	423.19
352.083	432.19
352.311	419.19
352.538	449.19
352.765	444.19
352.992	411.19
353.22	415.19
353.447	402.19
353.674	403.19
353.901	371.19
354.128	385.19
354.355	394.19
354.583	377.19
354.81	370.19
355.037	377.19
355.264	375.19
355.491	384.19
355.718	373.19
355.945	371.19
356.172	372.19
356.399	377.19
356.626	379.19
356.853	381.19
357.08	380.19
357.307	360.19
357.534	357.19
357.761	371.19
357.988	379.19
358.215	362.19
358.441	369.19
358.668	393.19
358.895	387.19
359.122	403.19
359.349	393.19
359.576	417.19
359.802	435.19
360.029	460.19
360.256	476.19
360.483	450.19
360.709	415.19
360.936	423.19
361.163	392.19
361.39	408.19
361.616	432.19
361.843	411.19
362.07	427.19
362.296	408.19
362.523	433.19
362.749	398.19
362.976	395.19
363.203	386.19
363.429	376.19
363.656	403.19
363.882	395.19
364.109	391.19
364.335	376.19
364.562	397.19
364.788	426.19
365.015	392.19
365.241	380.19
365.468	399.19
365.694	387.19
365.92	401.19
366.147	408.19
366.373	371.19
366.599	392.19
366.826	390.19
367.052	378.19
367.278	401.19
367.505	403.19
367.731	401.19
367.957	391.19
368.184	387.19
368.41	397.19
368.636	415.19
368.862	416.19
369.089	413.19
369.315	411.19
369.541	394.19
369.767	395.19
369.993	398.19
370.219	375.19
370.445	381.19
370.672	396.19
370.898	384.19
371.124	393.19
371.35	380.19
371.576	389.19
371.802	371.19
372.028	378.19
372.254	412.19
372.48	376.19
372.706	381.19
372.932	371.19
373.158	395.19
373.384	398.19
373.61	385.19
373.835	396.19
374.061	378.19
374.287	395.19
374.513	378.19
374.739	393.19
374.965	396.19
375.191	405.19
375.416	401.19
375.642	386.19
375.868	396.19
376.094	397.19
376.319	409.19
376.545	406.19
376.771	397.19
376.997	379.19
377.222	375.19
377.448	377.19
377.674	400.19
377.899	388.19
378.125	367.19
378.35	376.19
378.576	377.19
378.802	389.19
379.027	403.19
379.253	388.19
379.478	386.19
379.704	388.19
379.929	385.19
380.155	378.19
380.38	401.19
380.606	408.19
380.831	384.19
381.057	389.19
381.282	398.19
381.507	399.19
381.733	396.19
381.958	407.19
382.184	403.19
382.409	405.19
382.634	387.19
382.86	401.19
383.085	390.19
383.31	395.19
383.535	409.19
383.761	416.19
383.986	408.19
384.211	407.19
384.436	416.19
384.662	419.19
384.887	427.19
385.112	417.19
385.337	412.19
385.562	416.19
385.787	423.19
386.013	453.19
386.238	432.19
386.463	430.19
386.688	426.19
386.913	412.19
387.138	428.19
387.363	441.19
387.588	416.19
387.813	410.19
388.038	404.19
388.263	417.19
388.488	420.19
388.713	419.19
388.938	421.19
389.163	429.19
389.387	439.19
389.612	431.19
389.837	436.19
390.062	413.19
390.287	428.19
390.512	421.19
390.736	433.19
390.961	443.19
391.186	421.19
391.411	420.19
391.636	422.19
391.86	427.19
392.085	423.19
392.31	425.19
392.534	417.19
392.759	437.19
392.984	417.19
393.208	440.19
393.433	438.19
393.658	447.19
393.882	433.19
394.107	423.19
394.331	409.19
394.556	426.19
394.78	439.19
395.005	429.19
395.229	418.19
395.454	421.19
395.678	457.19
395.903	448.19
396.127	464.19
396.352	476.19
396.576	477.19
396.801	459.19
397.025	452.19
397.249	450.19
397.474	464.19
397.698	459.19
397.922	463.19
398.147	484.19
398.371	501.19
398.595	482.19
398.82	495.19
399.044	490.19
399.268	505.19
399.492	500.19
399.717	523.19
399.941	555.19
400.165	593.19
400.389	581.19
400.613	556.19
400.837	534.19
401.062	477.19
401.286	511.19
401.51	497.19
401.734	500.19
401.958	467.19
402.182	483.19
402.406	489.19
402.63	503.19
402.854	484.19
403.078	497.19
403.302	515.19
403.526	521.19
403.75	491.19
403.974	496.19
404.198	494.19
404.422	487.19
404.645	521.19
404.869	525.19
405.093	549.19
405.317	586.19
405.541	609.19
405.765	592.19
405.988	551.19
406.212	561.19
406.436	587.19
406.66	582.19
406.883	559.19
407.107	610.19
407.331	602.19
407.555	674.19
407.778	666.19
408.002	612.19
408.226	564.19
408.449	545.19
408.673	549.19
408.896	597.19
409.12	629.19
409.344	579.19
409.567	539.19
409.791	537.19
410.014	497.19
410.238	492.19
410.461	498.19
410.685	526.19
410.908	537.19
411.132	579.19
411.355	595.19
411.578	580.19
411.802	523.19
412.025	517.19
412.249	526.19
412.472	557.19
412.695	582.19
412.919	605.19
413.142	535.19
413.365	496.19
413.589	507.19
413.812	494.19
414.035	496.19
414.258	491.19
414.482	508.19
414.705	486.19
414.928	496.19
415.151	474.19
415.374	507.19
415.597	489.19
415.821	486.19
416.044	483.19
416.267	477.19
416.49	496.19
416.713	491.19
416.936	492.19
417.159	498.19
417.382	498.19
417.605	491.19
417.828	523.19
418.051	538.19
418.274	520.19
418.497	499.19
418.72	489.19
418.943	495.19
419.166	523.19
419.389	525.19
419.611	513.19
419.834	513.19
420.057	534.19
420.28	529.19
420.503	519.19
420.726	552.19
420.948	557.19
421.171	587.19
421.394	599.19
421.617	547.19
421.839	526.19
422.062	528.19
422.285	536.19
422.507	580.19
422.73	683.19
422.953	637.19
423.175	566.19
423.398	539.19
423.621	539.19
423.843	572.19
424.066	561.19
424.288	555.19
424.511	590.19
424.733	656.19
424.956	721.19
425.178	723.19
425.401	681.19
425.623	699.19
425.846	621.19
426.068	581.19
426.291	590.19
426.513	585.19
426.735	596.19
426.958	615.19
427.18	708.19
427.402	823.19
427.625	907.19
427.847	807.19
428.069	704.19
428.292	632.19
428.514	596.19
428.736	569.19
428.958	564.19
429.181	527.19
429.403	553.19
429.625	531.19
429.847	559.19
430.069	661.19
430.292	644.19
430.514	563.19
430.736	522.19
430.958	559.19
431.18	518.19
431.402	500.19
431.624	473.19
431.846	508.19
432.068	479.19
432.29	479.19
432.512	519.19
432.734	541.19
432.956	511.19
433.178	529.19
433.4	523.19
433.622	518.19
433.844	511.19
434.066	504.19
434.287	478.19
434.509	513.19
434.731	498.19
434.953	507.19
435.175	539.19
435.397	561.19
435.618	571.19
435.84	634.19
436.062	693.19
436.284	774.19
436.505	646.19
436.727	601.19
436.949	561.19
437.17	541.19
437.392	529.19
437.614	548.19
437.835	584.19
438.057	698.19
438.278	782.19
438.5	799.19
438.721	868.19
438.943	828.19
439.165	684.19
439.386	627.19
439.608	602.19
439.829	614.19
440.05	611.19
440.272	649.19
440.493	616.19
440.715	570.19
440.936	548.19
441.158	545.19
441.379	561.19
441.6	578.19
441.822	580.19
442.043	602.19
442.264	720.19
442.486	735.19
442.707	650.19
442.928	585.19
443.149	592.19
443.371	645.19
443.592	675.19
443.813	745.19
444.034	815.19
444.255	674.19
444.476	625.19
444.698	564.19
444.919	579.19
445.14	689.19
445.361	646.19
445.582	637.19
445.803	679.19
446.024	781.19
446.245	803.19
446.466	751.19
446.687	636.19
446.908	571.19
447.129	535.19
447.35	556.19
447.571	535.19
447.792	537.19
448.013	538.19
448.234	557.19
448.455	639.19
448.675	753.19
448.896	824.19
449.117	738.19
449.338	677.19
449.559	777.19
449.779	847.19
450	705.19
450.221	605.19
450.442	564.19
450.662	526.19
450.883	548.19
451.104	551.19
451.324	561.19
451.545	510.19
451.766	495.19
451.986	487.19
452.207	474.19
452.428	448.19
452.648	469.19
452.869	499.19
453.089	503.19
453.31	508.19
453.53	482.19
453.751	490.19
453.971	486.19
454.192	499.19
454.412	509.19
454.633	492.19
454.853	488.19
455.073	486.19
455.294	504.19
455.514	581.19
455.734	557.19
455.955	485.19
456.175	481.19
456.395	452.19
456.616	437.19
456.836	464.19
457.056	436.19
457.276	436.19
457.497	457.19
457.717	455.19
457.937	442.19
458.157	461.19
458.377	481.19
458.598	488.19
458.818	544.19
459.038	637.19
459.258	646.19
459.478	565.19
459.698	509.19
459.918	483.19
460.138	487.19
460.358	502.19
460.578	510.19
460.798	487.19
461.018	511.19
461.238	487.19
461.458	482.19
461.678	460.19
461.898	487.19
462.118	496.19
462.338	510.19
462.558	496.19
462.777	491.19
462.997	500.19
463.217	511.19
463.437	524.19
463.657	533.19
463.876	513.19
464.096	536.19
464.316	512.19
464.536	524.19
464.755	515.19
464.975	533.19
465.195	589.19
465.414	654.19
465.634	602.19
465.854	539.19
466.073	541.19
466.293	491.19
466.512	478.19
466.732	488.19
466.951	517.19
467.171	497.19
467.391	484.19
467.61	498.19
467.829	502.19
468.049	508.19
468.268	490.19
468.488	490.19
468.707	467.19
468.927	490.19
469.146	479.19
469.365	483.19
469.585	486.19
469.804	495.19
470.023	470.19
470.243	488.19
470.462	509.19
470.681	503.19
470.901	500.19
471.12	516.19
471.339	493.19
471.558	507.19
471.777	507.19
471.997	507.19
472.216	484.19
472.435	545.19
472.654	555.19
472.873	502.19
473.092	484.19
473.311	503.19
473.53	495.19
473.749	518.19
473.968	564.19
474.187	663.19
474.406	684.19
474.625	580.19
474.844	552.19
475.063	511.19
475.282	521.19
475.501	495.19
475.72	519.19
475.939	520.19
476.158	535.19
476.377	533.19
476.596	525.19
476.814	543.19
477.033	529.19
477.252	549.19
477.471	540.19
477.69	536.19
477.908	546.19
478.127	563.19
478.346	555.19
478.564	555.19
478.783	549.19
479.002	548.19
479.22	585.19
479.439	585.19
479.658	596.19
479.876	605.19
480.095	628.19
480.313	636.19
480.532	643.19
480.751	600.19
480.969	603.19
481.188	674.19
481.406	710.19
481.624	668.19
481.843	629.19
482.061	592.19
482.28	605.19
482.498	603.19
482.717	619.19
482.935	599.19
483.153	603.19
483.372	582.19
483.59	609.19
483.808	573.19
484.027	592.19
484.245	610.19
484.463	611.19
484.681	604.19
484.9	620.19
485.118	623.19
485.336	601.19
485.554	637.19
485.772	612.19
485.99	625.19
486.209	632.19
486.427	615.19
486.645	643.19
486.863	652.19
487.081	669.19
487.299	668.19
487.517	644.19
487.735	660.19
487.953	648.19
488.171	658.19
488.389	653.19
488.607	651.19
488.825	639.19
489.043	635.19
489.261	687.19
489.479	641.19
489.696	645.19
489.914	663.19
490.132	660.19
490.35	682.19
490.568	702.19
490.786	709.19
491.003	748.19
491.221	719.19
491.439	753.19
491.657	751.19
491.874	772.19
492.092	767.19
492.31	767.19
492.527	753.19
492.745	756.19
492.963	781.19
493.18	781.19
493.398	796.19
493.615	791.19
493.833	774.19
494.05	794.19
494.268	800.19
494.485	803.19
494.703	768.19
494.92	790.19
495.138	801.19
495.355	803.19
495.573	788.19
495.79	790.19
496.008	808.19
496.225	772.19
496.442	768.19
496.66	808.19
496.877	799.19
497.094	790.19
497.312	776.19
497.529	796.19
497.746	827.19
497.963	807.19
498.181	818.19
498.398	823.19
498.615	829.19
498.832	827.19
499.049	853.19
499.267	844.19
499.484	902.19
499.701	891.19
499.918	931.19
500.135	949.19
500.352	945.19
500.569	956.19
500.786	981.19
501.003	997.19
501.22	969.19
501.437	946.19
501.654	940.19
501.871	939.19
