Data from 1970.PennyLincolnUp.Lamp.En5.5.200Scan.071719.P1._HRD10591_15-14-19-842.txt Node
Date: Thu Jul 18 15:14:19 EDT 2019
User: cochatt
Spectrometer: HR+D1059
Trigger mode: 1
Integration Time (sec): 1.000000E-1
Scans to average: 1
Electric dark correction enabled: true
Nonlinearity correction enabled: false
Boxcar width: 0
XAxis mode: Wavelengths
Number of Pixels in Spectrum: 2048
>>>>>Begin Spectral Data<<<<<
223.165	-16.5
223.4	-16.5
223.635	-16.5
223.869	-23.5
224.104	-23.5
224.338	-16.5
224.573	-7.5
224.808	-8.5
225.042	-23.5
225.277	-5.5
225.511	0.5
225.746	12.5
225.98	12.5
226.215	8.5
226.449	23.5
226.683	23.5
226.918	12.5
227.152	31.5
227.387	47.5
227.621	32.5
227.856	48.5
228.09	48.5
228.324	56.5
228.559	68.5
228.793	77.5
229.027	100.5
229.262	123.5
229.496	124.5
229.73	141.5
229.964	175.5
230.199	144.5
230.433	133.5
230.667	123.5
230.901	128.5
231.136	129.5
231.37	126.5
231.604	105.5
231.838	116.5
232.072	106.5
232.306	127.5
232.541	120.5
232.775	116.5
233.009	108.5
233.243	132.5
233.477	113.5
233.711	132.5
233.945	128.5
234.179	126.5
234.413	128.5
234.647	130.5
234.881	128.5
235.115	110.5
235.349	112.5
235.583	126.5
235.817	125.5
236.051	142.5
236.285	135.5
236.519	134.5
236.753	146.5
236.987	156.5
237.221	185.5
237.455	262.5
237.689	208.5
237.922	164.5
238.156	147.5
238.39	136.5
238.624	148.5
238.858	136.5
239.091	129.5
239.325	153.5
239.559	136.5
239.793	140.5
240.027	142.5
240.26	159.5
240.494	174.5
240.728	182.5
240.961	168.5
241.195	164.5
241.429	166.5
241.662	145.5
241.896	148.5
242.13	152.5
242.363	145.5
242.597	145.5
242.83	149.5
243.064	144.5
243.298	156.5
243.531	140.5
243.765	148.5
243.998	136.5
244.232	152.5
244.465	150.5
244.699	152.5
244.932	146.5
245.166	148.5
245.399	166.5
245.633	161.5
245.866	160.5
246.099	140.5
246.333	161.5
246.566	170.5
246.8	184.5
247.033	174.5
247.266	179.5
247.5	156.5
247.733	162.5
247.966	176.5
248.2	186.5
248.433	185.5
248.666	177.5
248.899	199.5
249.133	201.5
249.366	233.5
249.599	212.5
249.832	197.5
250.066	194.5
250.299	192.5
250.532	217.5
250.765	213.5
250.998	249.5
251.231	251.5
251.465	230.5
251.698	226.5
251.931	207.5
252.164	219.5
252.397	231.5
252.63	215.5
252.863	239.5
253.096	235.5
253.329	274.5
253.562	240.5
253.795	254.5
254.028	234.5
254.261	249.5
254.494	256.5
254.727	276.5
254.96	324.5
255.193	313.5
255.426	275.5
255.659	261.5
255.892	257.5
256.124	249.5
256.357	268.5
256.59	244.5
256.823	268.5
257.056	229.5
257.289	223.5
257.521	222.5
257.754	228.5
257.987	233.5
258.22	221.5
258.452	229.5
258.685	222.5
258.918	207.5
259.151	223.5
259.383	244.5
259.616	236.5
259.849	236.5
260.081	266.5
260.314	274.5
260.547	283.5
260.779	274.5
261.012	244.5
261.244	246.5
261.477	248.5
261.71	246.5
261.942	231.5
262.175	249.5
262.407	238.5
262.64	266.5
262.872	247.5
263.105	217.5
263.337	231.5
263.57	222.5
263.802	233.5
264.035	213.5
264.267	211.5
264.499	239.5
264.732	235.5
264.964	222.5
265.197	229.5
265.429	220.5
265.661	225.5
265.894	226.5
266.126	213.5
266.358	228.5
266.591	231.5
266.823	218.5
267.055	236.5
267.287	231.5
267.52	242.5
267.752	234.5
267.984	228.5
268.216	231.5
268.448	239.5
268.681	231.5
268.913	237.5
269.145	278.5
269.377	280.5
269.609	288.5
269.841	292.5
270.073	303.5
270.306	296.5
270.538	340.5
270.77	321.5
271.002	313.5
271.234	305.5
271.466	323.5
271.698	322.5
271.93	340.5
272.162	325.5
272.394	346.5
272.626	323.5
272.858	301.5
273.09	289.5
273.322	283.5
273.553	285.5
273.785	269.5
274.017	274.5
274.249	296.5
274.481	284.5
274.713	265.5
274.945	275.5
275.176	270.5
275.408	268.5
275.64	265.5
275.872	260.5
276.104	264.5
276.335	270.5
276.567	281.5
276.799	312.5
277.031	325.5
277.262	331.5
277.494	325.5
277.726	317.5
277.957	311.5
278.189	270.5
278.421	264.5
278.652	280.5
278.884	284.5
279.115	264.5
279.347	269.5
279.579	272.5
279.81	286.5
280.042	269.5
280.273	277.5
280.505	279.5
280.736	250.5
280.968	257.5
281.199	265.5
281.431	256.5
281.662	274.5
281.894	271.5
282.125	264.5
282.356	281.5
282.588	304.5
282.819	303.5
283.051	283.5
283.282	272.5
283.513	281.5
283.745	261.5
283.976	274.5
284.207	272.5
284.439	263.5
284.67	288.5
284.901	287.5
285.132	287.5
285.364	251.5
285.595	279.5
285.826	294.5
286.057	290.5
286.288	265.5
286.52	280.5
286.751	299.5
286.982	301.5
287.213	286.5
287.444	297.5
287.675	284.5
287.906	286.5
288.138	320.5
288.369	292.5
288.6	304.5
288.831	291.5
289.062	302.5
289.293	299.5
289.524	282.5
289.755	305.5
289.986	296.5
290.217	272.5
290.448	299.5
290.679	288.5
290.91	284.5
291.141	282.5
291.371	274.5
291.602	275.5
291.833	281.5
292.064	295.5
292.295	285.5
292.526	283.5
292.757	280.5
292.987	265.5
293.218	292.5
293.449	282.5
293.68	270.5
293.91	269.5
294.141	300.5
294.372	280.5
294.603	287.5
294.833	287.5
295.064	277.5
295.295	289.5
295.525	296.5
295.756	295.5
295.987	317.5
296.217	339.5
296.448	321.5
296.679	328.5
296.909	321.5
297.14	284.5
297.37	304.5
297.601	297.5
297.831	289.5
298.062	295.5
298.292	290.5
298.523	285.5
298.753	288.5
298.984	310.5
299.214	308.5
299.445	312.5
299.675	302.5
299.905	300.5
300.136	311.5
300.366	305.5
300.597	310.5
300.827	316.5
301.057	306.5
301.288	327.5
301.518	309.5
301.748	319.5
301.979	301.5
302.209	320.5
302.439	331.5
302.669	332.5
302.9	331.5
303.13	313.5
303.36	319.5
303.59	341.5
303.82	332.5
304.051	346.5
304.281	324.5
304.511	317.5
304.741	319.5
304.971	326.5
305.201	311.5
305.431	328.5
305.661	308.5
305.891	327.5
306.121	331.5
306.352	338.5
306.582	318.5
306.812	325.5
307.042	334.5
307.272	334.5
307.502	337.5
307.731	358.5
307.961	334.5
308.191	334.5
308.421	345.5
308.651	335.5
308.881	346.5
309.111	335.5
309.341	340.5
309.571	349.5
309.8	358.5
310.03	360.5
310.26	366.5
310.49	377.5
310.72	394.5
310.949	390.5
311.179	398.5
311.409	365.5
311.639	377.5
311.868	403.5
312.098	393.5
312.328	390.5
312.557	424.5
312.787	412.5
313.017	398.5
313.246	407.5
313.476	384.5
313.706	386.5
313.935	385.5
314.165	386.5
314.394	403.5
314.624	407.5
314.853	407.5
315.083	377.5
315.312	393.5
315.542	368.5
315.771	375.5
316.001	386.5
316.23	375.5
316.46	372.5
316.689	379.5
316.919	378.5
317.148	401.5
317.377	387.5
317.607	390.5
317.836	383.5
318.065	392.5
318.295	386.5
318.524	382.5
318.753	375.5
318.983	391.5
319.212	375.5
319.441	379.5
319.67	410.5
319.9	396.5
320.129	380.5
320.358	377.5
320.587	388.5
320.816	396.5
321.046	416.5
321.275	432.5
321.504	408.5
321.733	407.5
321.962	418.5
322.191	428.5
322.42	470.5
322.649	477.5
322.878	481.5
323.108	481.5
323.337	488.5
323.566	521.5
323.795	566.5
324.024	620.5
324.253	774.5
324.482	1055.5
324.71	1635.5
324.939	2332.5
325.168	1967.5
325.397	1072.5
325.626	736.5
325.855	602.5
326.084	559.5
326.313	521.5
326.542	548.5
326.77	582.5
326.999	700.5
327.228	956.5
327.457	1408.5
327.686	1729.5
327.914	1195.5
328.143	783.5
328.372	705.5
328.6	651.5
328.829	612.5
329.058	624.5
329.287	630.5
329.515	602.5
329.744	554.5
329.972	505.5
330.201	558.5
330.43	608.5
330.658	668.5
330.887	661.5
331.115	642.5
331.344	566.5
331.572	519.5
331.801	534.5
332.03	526.5
332.258	512.5
332.486	463.5
332.715	460.5
332.943	461.5
333.172	460.5
333.4	469.5
333.629	459.5
333.857	473.5
334.085	516.5
334.314	512.5
334.542	553.5
334.771	571.5
334.999	530.5
335.227	490.5
335.455	477.5
335.684	467.5
335.912	456.5
336.14	457.5
336.369	455.5
336.597	455.5
336.825	463.5
337.053	449.5
337.281	466.5
337.51	426.5
337.738	455.5
337.966	442.5
338.194	461.5
338.422	448.5
338.65	443.5
338.878	440.5
339.106	423.5
339.334	420.5
339.562	411.5
339.79	447.5
340.018	436.5
340.246	428.5
340.474	445.5
340.702	472.5
340.93	454.5
341.158	453.5
341.386	443.5
341.614	438.5
341.842	450.5
342.07	431.5
342.298	430.5
342.526	451.5
342.754	422.5
342.981	404.5
343.209	422.5
343.437	431.5
343.665	433.5
343.893	429.5
344.12	427.5
344.348	446.5
344.576	431.5
344.804	436.5
345.031	469.5
345.259	487.5
345.487	463.5
345.714	432.5
345.942	442.5
346.17	429.5
346.397	410.5
346.625	422.5
346.853	439.5
347.08	423.5
347.308	432.5
347.535	437.5
347.763	432.5
347.99	424.5
348.218	445.5
348.445	448.5
348.673	443.5
348.9	446.5
349.128	414.5
349.355	417.5
349.583	428.5
349.81	394.5
350.037	408.5
350.265	406.5
350.492	413.5
350.72	414.5
350.947	432.5
351.174	445.5
351.402	452.5
351.629	455.5
351.856	442.5
352.083	468.5
352.311	473.5
352.538	461.5
352.765	450.5
352.992	470.5
353.22	452.5
353.447	445.5
353.674	433.5
353.901	406.5
354.128	430.5
354.355	411.5
354.583	414.5
354.81	418.5
355.037	398.5
355.264	403.5
355.491	402.5
355.718	395.5
355.945	386.5
356.172	403.5
356.399	417.5
356.626	414.5
356.853	398.5
357.08	398.5
357.307	398.5
357.534	402.5
357.761	402.5
357.988	390.5
358.215	426.5
358.441	409.5
358.668	422.5
358.895	414.5
359.122	422.5
359.349	436.5
359.576	447.5
359.802	479.5
360.029	487.5
360.256	501.5
360.483	469.5
360.709	460.5
360.936	439.5
361.163	464.5
361.39	440.5
361.616	449.5
361.843	430.5
362.07	458.5
362.296	460.5
362.523	418.5
362.749	450.5
362.976	422.5
363.203	428.5
363.429	423.5
363.656	426.5
363.882	436.5
364.109	410.5
364.335	414.5
364.562	424.5
364.788	414.5
365.015	410.5
365.241	427.5
365.468	430.5
365.694	422.5
365.92	441.5
366.147	442.5
366.373	400.5
366.599	408.5
366.826	407.5
367.052	385.5
367.278	411.5
367.505	431.5
367.731	432.5
367.957	418.5
368.184	427.5
368.41	424.5
368.636	437.5
368.862	450.5
369.089	441.5
369.315	427.5
369.541	418.5
369.767	425.5
369.993	429.5
370.219	411.5
370.445	429.5
370.672	431.5
370.898	406.5
371.124	430.5
371.35	416.5
371.576	415.5
371.802	393.5
372.028	424.5
372.254	420.5
372.48	402.5
372.706	423.5
372.932	416.5
373.158	417.5
373.384	421.5
373.61	417.5
373.835	411.5
374.061	437.5
374.287	418.5
374.513	429.5
374.739	412.5
374.965	442.5
375.191	421.5
375.416	428.5
375.642	419.5
375.868	406.5
376.094	406.5
376.319	413.5
376.545	412.5
376.771	408.5
376.997	398.5
377.222	422.5
377.448	422.5
377.674	410.5
377.899	389.5
378.125	428.5
378.35	422.5
378.576	424.5
378.802	415.5
379.027	421.5
379.253	432.5
379.478	422.5
379.704	411.5
379.929	436.5
380.155	425.5
380.38	409.5
380.606	434.5
380.831	420.5
381.057	449.5
381.282	429.5
381.507	426.5
381.733	401.5
381.958	416.5
382.184	425.5
382.409	430.5
382.634	411.5
382.86	412.5
383.085	434.5
383.31	436.5
383.535	437.5
383.761	440.5
383.986	435.5
384.211	434.5
384.436	444.5
384.662	420.5
384.887	432.5
385.112	430.5
385.337	425.5
385.562	441.5
385.787	421.5
386.013	454.5
386.238	484.5
386.463	481.5
386.688	454.5
386.913	447.5
387.138	452.5
387.363	467.5
387.588	457.5
387.813	456.5
388.038	450.5
388.263	472.5
388.488	451.5
388.713	450.5
388.938	470.5
389.163	458.5
389.387	457.5
389.612	461.5
389.837	461.5
390.062	463.5
390.287	469.5
390.512	457.5
390.736	453.5
390.961	464.5
391.186	455.5
391.411	447.5
391.636	461.5
391.86	482.5
392.085	462.5
392.31	469.5
392.534	464.5
392.759	476.5
392.984	459.5
393.208	458.5
393.433	467.5
393.658	475.5
393.882	466.5
394.107	444.5
394.331	446.5
394.556	455.5
394.78	448.5
395.005	443.5
395.229	473.5
395.454	459.5
395.678	470.5
395.903	484.5
396.127	502.5
396.352	490.5
396.576	487.5
396.801	472.5
397.025	488.5
397.249	486.5
397.474	487.5
397.698	472.5
397.922	497.5
398.147	523.5
398.371	530.5
398.595	495.5
398.82	495.5
399.044	493.5
399.268	535.5
399.492	536.5
399.717	571.5
399.941	609.5
400.165	641.5
400.389	617.5
400.613	580.5
400.837	554.5
401.062	572.5
401.286	529.5
401.51	518.5
401.734	536.5
401.958	537.5
402.182	534.5
402.406	550.5
402.63	553.5
402.854	545.5
403.078	525.5
403.302	551.5
403.526	548.5
403.75	530.5
403.974	536.5
404.198	529.5
404.422	545.5
404.645	544.5
404.869	547.5
405.093	584.5
405.317	640.5
405.541	669.5
405.765	611.5
405.988	575.5
406.212	585.5
406.436	599.5
406.66	646.5
406.883	601.5
407.107	633.5
407.331	666.5
407.555	705.5
407.778	693.5
408.002	648.5
408.226	608.5
408.449	597.5
408.673	604.5
408.896	620.5
409.12	670.5
409.344	664.5
409.567	593.5
409.791	573.5
410.014	577.5
410.238	566.5
410.461	573.5
410.685	556.5
410.908	590.5
411.132	629.5
411.355	636.5
411.578	625.5
411.802	584.5
412.025	561.5
412.249	568.5
412.472	601.5
412.695	670.5
412.919	629.5
413.142	560.5
413.365	547.5
413.589	568.5
413.812	550.5
414.035	532.5
414.258	536.5
414.482	533.5
414.705	512.5
414.928	497.5
415.151	530.5
415.374	528.5
415.597	529.5
415.821	533.5
416.044	524.5
416.267	532.5
416.49	502.5
416.713	512.5
416.936	513.5
417.159	531.5
417.382	525.5
417.605	542.5
417.828	535.5
418.051	551.5
418.274	542.5
418.497	548.5
418.72	539.5
418.943	536.5
419.166	566.5
419.389	584.5
419.611	551.5
419.834	555.5
420.057	557.5
420.28	540.5
420.503	563.5
420.726	548.5
420.948	580.5
421.171	618.5
421.394	651.5
421.617	585.5
421.839	544.5
422.062	585.5
422.285	565.5
422.507	616.5
422.73	708.5
422.953	688.5
423.175	605.5
423.398	588.5
423.621	584.5
423.843	607.5
424.066	592.5
424.288	593.5
424.511	634.5
424.733	664.5
424.956	773.5
425.178	720.5
425.401	767.5
425.623	762.5
425.846	650.5
426.068	625.5
426.291	607.5
426.513	621.5
426.735	635.5
426.958	678.5
427.18	761.5
427.402	878.5
427.625	980.5
427.847	897.5
428.069	764.5
428.292	668.5
428.514	631.5
428.736	608.5
428.958	597.5
429.181	576.5
429.403	576.5
429.625	577.5
429.847	607.5
430.069	708.5
430.292	676.5
430.514	585.5
430.736	565.5
430.958	565.5
431.18	555.5
431.402	533.5
431.624	535.5
431.846	527.5
432.068	522.5
432.29	545.5
432.512	552.5
432.734	561.5
432.956	559.5
433.178	559.5
433.4	554.5
433.622	534.5
433.844	531.5
434.066	516.5
434.287	514.5
434.509	524.5
434.731	540.5
434.953	548.5
435.175	587.5
435.397	616.5
435.618	630.5
435.84	671.5
436.062	758.5
436.284	820.5
436.505	705.5
436.727	644.5
436.949	592.5
437.17	587.5
437.392	581.5
437.614	591.5
437.835	638.5
438.057	749.5
438.278	863.5
438.5	854.5
438.721	900.5
438.943	875.5
439.165	713.5
439.386	676.5
439.608	646.5
439.829	641.5
440.05	674.5
440.272	719.5
440.493	673.5
440.715	615.5
440.936	620.5
441.158	598.5
441.379	574.5
441.6	613.5
441.822	631.5
442.043	674.5
442.264	764.5
442.486	814.5
442.707	694.5
442.928	659.5
443.149	639.5
443.371	660.5
443.592	697.5
443.813	773.5
444.034	847.5
444.255	743.5
444.476	654.5
444.698	615.5
444.919	624.5
445.14	725.5
445.361	676.5
445.582	678.5
445.803	723.5
446.024	816.5
446.245	849.5
446.466	760.5
446.687	680.5
446.908	615.5
447.129	591.5
447.35	589.5
447.571	593.5
447.792	587.5
448.013	564.5
448.234	606.5
448.455	651.5
448.675	782.5
448.896	873.5
449.117	752.5
449.338	735.5
449.559	828.5
449.779	903.5
450	762.5
450.221	645.5
450.442	616.5
450.662	569.5
450.883	596.5
451.104	606.5
451.324	581.5
451.545	557.5
451.766	556.5
451.986	546.5
452.207	530.5
452.428	518.5
452.648	521.5
452.869	512.5
453.089	522.5
453.31	526.5
453.53	531.5
453.751	530.5
453.971	521.5
454.192	542.5
454.412	538.5
454.633	518.5
454.853	504.5
455.073	526.5
455.294	542.5
455.514	605.5
455.734	616.5
455.955	540.5
456.175	504.5
456.395	483.5
456.616	490.5
456.836	490.5
457.056	491.5
457.276	460.5
457.497	460.5
457.717	501.5
457.937	472.5
458.157	488.5
458.377	517.5
458.598	529.5
458.818	608.5
459.038	688.5
459.258	698.5
459.478	606.5
459.698	530.5
459.918	524.5
460.138	537.5
460.358	528.5
460.578	527.5
460.798	547.5
461.018	541.5
461.238	521.5
461.458	542.5
461.678	529.5
461.898	526.5
462.118	516.5
462.338	519.5
462.558	552.5
462.777	558.5
462.997	542.5
463.217	565.5
463.437	565.5
463.657	542.5
463.876	542.5
464.096	573.5
464.316	559.5
464.536	565.5
464.755	570.5
464.975	599.5
465.195	640.5
465.414	737.5
465.634	620.5
465.854	585.5
466.073	566.5
466.293	548.5
466.512	531.5
466.732	525.5
466.951	525.5
467.171	526.5
467.391	526.5
467.61	522.5
467.829	538.5
468.049	540.5
468.268	560.5
468.488	517.5
468.707	507.5
468.927	508.5
469.146	508.5
469.365	519.5
469.585	514.5
469.804	531.5
470.023	537.5
470.243	518.5
470.462	519.5
470.681	549.5
470.901	533.5
471.12	536.5
471.339	518.5
471.558	518.5
471.777	530.5
471.997	526.5
472.216	549.5
472.435	580.5
472.654	565.5
472.873	553.5
473.092	513.5
473.311	523.5
473.53	524.5
473.749	548.5
473.968	598.5
474.187	705.5
474.406	714.5
474.625	613.5
474.844	583.5
475.063	557.5
475.282	536.5
475.501	540.5
475.72	557.5
475.939	564.5
476.158	552.5
476.377	557.5
476.596	540.5
476.814	578.5
477.033	554.5
477.252	587.5
477.471	554.5
477.69	562.5
477.908	585.5
478.127	590.5
478.346	588.5
478.564	590.5
478.783	602.5
479.002	605.5
479.22	608.5
479.439	608.5
479.658	661.5
479.876	657.5
480.095	646.5
480.313	672.5
480.532	657.5
480.751	666.5
480.969	664.5
481.188	742.5
481.406	774.5
481.624	692.5
481.843	688.5
482.061	649.5
482.28	642.5
482.498	649.5
482.717	620.5
482.935	632.5
483.153	630.5
483.372	636.5
483.59	642.5
483.808	639.5
484.027	632.5
484.245	622.5
484.463	654.5
484.681	647.5
484.9	650.5
485.118	654.5
485.336	668.5
485.554	669.5
485.772	658.5
485.99	667.5
486.209	629.5
486.427	659.5
486.645	664.5
486.863	709.5
487.081	666.5
487.299	688.5
487.517	693.5
487.735	703.5
487.953	718.5
488.171	696.5
488.389	717.5
488.607	678.5
488.825	698.5
489.043	700.5
489.261	713.5
489.479	710.5
489.696	695.5
489.914	706.5
490.132	727.5
490.35	732.5
490.568	749.5
490.786	771.5
491.003	768.5
491.221	788.5
491.439	784.5
491.657	810.5
491.874	813.5
492.092	831.5
492.31	795.5
492.527	835.5
492.745	806.5
492.963	813.5
493.18	812.5
493.398	813.5
493.615	832.5
493.833	801.5
494.05	837.5
494.268	848.5
494.485	850.5
494.703	837.5
494.92	821.5
495.138	833.5
495.355	827.5
495.573	837.5
495.79	862.5
496.008	842.5
496.225	832.5
496.442	823.5
496.66	838.5
496.877	883.5
497.094	828.5
497.312	857.5
497.529	838.5
497.746	844.5
497.963	854.5
498.181	883.5
498.398	890.5
498.615	915.5
498.832	901.5
499.049	888.5
499.267	908.5
499.484	961.5
499.701	972.5
499.918	1008.5
500.135	1008.5
500.352	1032.5
500.569	1035.5
500.786	1050.5
501.003	1063.5
501.22	1034.5
501.437	1026.5
501.654	982.5
501.871	1005.5
502.088	950.5
502.305	928.5
502.522	897.5
502.739	918.5
502.956	906.5
503.172	885.5
503.389	840.5
503.606	876.5
503.823	873.5
504.04	844.5
504.256	859.5
504.473	830.5
504.69	810.5
504.907	854.5
505.123	820.5
505.34	798.5
505.557	809.5
505.773	829.5
505.99	836.5
506.207	813.5
506.423	775.5
506.64	821.5
506.856	790.5
507.073	804.5
507.289	762.5
507.506	783.5
507.722	799.5
507.939	821.5
508.155	785.5
508.372	774.5
508.588	758.5
508.805	751.5
509.021	760.5
509.238	781.5
509.454	775.5
509.67	784.5
509.887	741.5
510.103	787.5
510.319	782.5
510.536	911.5
510.752	1460.5
510.968	1186.5
511.184	807.5
511.401	765.5
511.617	748.5
511.833	748.5
512.049	742.5
512.265	747.5
512.481	728.5
512.698	703.5
512.914	693.5
513.13	714.5
513.346	710.5
513.562	707.5
513.778	728.5
513.994	741.5
514.21	754.5
514.426	792.5
514.642	829.5
514.858	862.5
515.074	933.5
515.29	1102.5
515.506	1593.5
515.721	1325.5
515.937	897.5
516.153	814.5
516.369	780.5
516.585	759.5
516.801	748.5
517.016	758.5
517.232	727.5
517.448	717.5
517.664	732.5
517.879	733.5
518.095	725.5
518.311	736.5
518.527	716.5
518.742	712.5
518.958	714.5
519.173	719.5
519.389	737.5
519.605	720.5
