Data from 1970.PennyLincolnUp.Lamp.En5.5.200Scan.071719.P1._HRD10591_15-15-21-841.txt Node
Date: Thu Jul 18 15:15:21 EDT 2019
User: cochatt
Spectrometer: HR+D1059
Trigger mode: 1
Integration Time (sec): 1.000000E-1
Scans to average: 1
Electric dark correction enabled: true
Nonlinearity correction enabled: false
Boxcar width: 0
XAxis mode: Wavelengths
Number of Pixels in Spectrum: 2048
>>>>>Begin Spectral Data<<<<<
223.165	-5.75
223.4	-5.75
223.635	-5.75
223.869	-7.75
224.104	-17.75
224.338	-24.75
224.573	-24.75
224.808	-12.75
225.042	-5.75
225.277	0.25
225.511	2.25
225.746	3.25
225.98	5.25
226.215	8.25
226.449	9.25
226.683	21.25
226.918	21.25
227.152	28.25
227.387	36.25
227.621	39.25
227.856	51.25
228.09	53.25
228.324	41.25
228.559	41.25
228.793	65.25
229.027	99.25
229.262	92.25
229.496	120.25
229.73	123.25
229.964	171.25
230.199	120.25
230.433	118.25
230.667	124.25
230.901	114.25
231.136	110.25
231.37	112.25
231.604	107.25
231.838	113.25
232.072	121.25
232.306	110.25
232.541	118.25
232.775	125.25
233.009	103.25
233.243	119.25
233.477	123.25
233.711	125.25
233.945	129.25
234.179	109.25
234.413	107.25
234.647	118.25
234.881	107.25
235.115	115.25
235.349	109.25
235.583	120.25
235.817	126.25
236.051	130.25
236.285	129.25
236.519	123.25
236.753	129.25
236.987	161.25
237.221	193.25
237.455	246.25
237.689	197.25
237.922	149.25
238.156	129.25
238.39	131.25
238.624	123.25
238.858	125.25
239.091	133.25
239.325	120.25
239.559	128.25
239.793	139.25
240.027	128.25
240.26	159.25
240.494	160.25
240.728	163.25
240.961	157.25
241.195	165.25
241.429	159.25
241.662	134.25
241.896	132.25
242.13	130.25
242.363	141.25
242.597	140.25
242.83	140.25
243.064	142.25
243.298	153.25
243.531	148.25
243.765	127.25
243.998	126.25
244.232	165.25
244.465	163.25
244.699	140.25
244.932	149.25
245.166	150.25
245.399	149.25
245.633	136.25
245.866	153.25
246.099	146.25
246.333	148.25
246.566	163.25
246.8	168.25
247.033	148.25
247.266	167.25
247.5	166.25
247.733	175.25
247.966	177.25
248.2	186.25
248.433	191.25
248.666	170.25
248.899	197.25
249.133	197.25
249.366	217.25
249.599	209.25
249.832	194.25
250.066	184.25
250.299	201.25
250.532	205.25
250.765	206.25
250.998	240.25
251.231	233.25
251.465	229.25
251.698	220.25
251.931	205.25
252.164	224.25
252.397	209.25
252.63	213.25
252.863	209.25
253.096	230.25
253.329	235.25
253.562	251.25
253.795	235.25
254.028	223.25
254.261	225.25
254.494	221.25
254.727	264.25
254.96	288.25
255.193	297.25
255.426	281.25
255.659	249.25
255.892	247.25
256.124	246.25
256.357	253.25
256.59	232.25
256.823	225.25
257.056	228.25
257.289	222.25
257.521	225.25
257.754	203.25
257.987	214.25
258.22	219.25
258.452	212.25
258.685	196.25
258.918	213.25
259.151	202.25
259.383	221.25
259.616	230.25
259.849	221.25
260.081	231.25
260.314	256.25
260.547	276.25
260.779	257.25
261.012	248.25
261.244	235.25
261.477	222.25
261.71	226.25
261.942	248.25
262.175	234.25
262.407	247.25
262.64	240.25
262.872	218.25
263.105	206.25
263.337	211.25
263.57	230.25
263.802	195.25
264.035	227.25
264.267	205.25
264.499	201.25
264.732	221.25
264.964	230.25
265.197	209.25
265.429	198.25
265.661	202.25
265.894	206.25
266.126	210.25
266.358	208.25
266.591	216.25
266.823	209.25
267.055	238.25
267.287	226.25
267.52	222.25
267.752	223.25
267.984	218.25
268.216	207.25
268.448	238.25
268.681	231.25
268.913	230.25
269.145	254.25
269.377	261.25
269.609	265.25
269.841	288.25
270.073	262.25
270.306	301.25
270.538	329.25
270.77	318.25
271.002	300.25
271.234	301.25
271.466	289.25
271.698	315.25
271.93	319.25
272.162	338.25
272.394	333.25
272.626	326.25
272.858	298.25
273.09	280.25
273.322	266.25
273.553	255.25
273.785	281.25
274.017	244.25
274.249	258.25
274.481	254.25
274.713	236.25
274.945	253.25
275.176	263.25
275.408	254.25
275.64	233.25
275.872	255.25
276.104	265.25
276.335	272.25
276.567	264.25
276.799	280.25
277.031	324.25
277.262	322.25
277.494	299.25
277.726	311.25
277.957	290.25
278.189	261.25
278.421	261.25
278.652	262.25
278.884	279.25
279.115	255.25
279.347	244.25
279.579	253.25
279.81	252.25
280.042	262.25
280.273	243.25
280.505	231.25
280.736	246.25
280.968	220.25
281.199	257.25
281.431	240.25
281.662	244.25
281.894	245.25
282.125	264.25
282.356	271.25
282.588	283.25
282.819	278.25
283.051	283.25
283.282	253.25
283.513	254.25
283.745	254.25
283.976	266.25
284.207	250.25
284.439	248.25
284.67	251.25
284.901	266.25
285.132	267.25
285.364	248.25
285.595	253.25
285.826	262.25
286.057	255.25
286.288	247.25
286.52	249.25
286.751	249.25
286.982	245.25
287.213	252.25
287.444	255.25
287.675	257.25
287.906	271.25
288.138	278.25
288.369	272.25
288.6	285.25
288.831	278.25
289.062	270.25
289.293	267.25
289.524	271.25
289.755	265.25
289.986	248.25
290.217	248.25
290.448	262.25
290.679	245.25
290.91	243.25
291.141	247.25
291.371	265.25
291.602	267.25
291.833	268.25
292.064	266.25
292.295	284.25
292.526	261.25
292.757	263.25
292.987	273.25
293.218	254.25
293.449	268.25
293.68	273.25
293.91	243.25
294.141	255.25
294.372	272.25
294.603	260.25
294.833	257.25
295.064	276.25
295.295	263.25
295.525	249.25
295.756	275.25
295.987	271.25
296.217	291.25
296.448	305.25
296.679	292.25
296.909	267.25
297.14	270.25
297.37	252.25
297.601	278.25
297.831	263.25
298.062	266.25
298.292	263.25
298.523	278.25
298.753	282.25
298.984	267.25
299.214	269.25
299.445	259.25
299.675	278.25
299.905	279.25
300.136	299.25
300.366	281.25
300.597	287.25
300.827	281.25
301.057	290.25
301.288	274.25
301.518	317.25
301.748	291.25
301.979	276.25
302.209	280.25
302.439	282.25
302.669	295.25
302.9	308.25
303.13	299.25
303.36	286.25
303.59	284.25
303.82	292.25
304.051	298.25
304.281	292.25
304.511	278.25
304.741	296.25
304.971	295.25
305.201	293.25
305.431	304.25
305.661	287.25
305.891	271.25
306.121	293.25
306.352	301.25
306.582	300.25
306.812	301.25
307.042	310.25
307.272	315.25
307.502	300.25
307.731	321.25
307.961	307.25
308.191	318.25
308.421	294.25
308.651	292.25
308.881	317.25
309.111	311.25
309.341	309.25
309.571	340.25
309.8	338.25
310.03	342.25
310.26	354.25
310.49	351.25
310.72	366.25
310.949	379.25
311.179	370.25
311.409	361.25
311.639	342.25
311.868	351.25
312.098	369.25
312.328	376.25
312.557	377.25
312.787	377.25
313.017	394.25
313.246	385.25
313.476	352.25
313.706	343.25
313.935	351.25
314.165	370.25
314.394	362.25
314.624	395.25
314.853	348.25
315.083	341.25
315.312	346.25
315.542	311.25
315.771	353.25
316.001	326.25
316.23	347.25
316.46	354.25
316.689	353.25
316.919	357.25
317.148	363.25
317.377	372.25
317.607	362.25
317.836	351.25
318.065	369.25
318.295	363.25
318.524	359.25
318.753	344.25
318.983	353.25
319.212	350.25
319.441	364.25
319.67	367.25
319.9	356.25
320.129	353.25
320.358	359.25
320.587	362.25
320.816	377.25
321.046	372.25
321.275	373.25
321.504	359.25
321.733	391.25
321.962	391.25
322.191	379.25
322.42	419.25
322.649	446.25
322.878	461.25
323.108	464.25
323.337	478.25
323.566	502.25
323.795	522.25
324.024	586.25
324.253	734.25
324.482	1060.25
324.71	1612.25
324.939	2207.25
325.168	1949.25
325.397	1046.25
325.626	685.25
325.855	603.25
326.084	525.25
326.313	512.25
326.542	510.25
326.77	559.25
326.999	683.25
327.228	932.25
327.457	1345.25
327.686	1677.25
327.914	1156.25
328.143	795.25
328.372	670.25
328.6	635.25
328.829	617.25
329.058	611.25
329.287	613.25
329.515	570.25
329.744	519.25
329.972	531.25
330.201	542.25
330.43	583.25
330.658	626.25
330.887	611.25
331.115	618.25
331.344	525.25
331.572	478.25
331.801	459.25
332.03	486.25
332.258	452.25
332.486	449.25
332.715	446.25
332.943	429.25
333.172	435.25
333.4	429.25
333.629	435.25
333.857	449.25
334.085	453.25
334.314	486.25
334.542	511.25
334.771	522.25
334.999	460.25
335.227	450.25
335.455	449.25
335.684	411.25
335.912	415.25
336.14	407.25
336.369	394.25
336.597	428.25
336.825	424.25
337.053	417.25
337.281	395.25
337.51	399.25
337.738	400.25
337.966	418.25
338.194	403.25
338.422	430.25
338.65	418.25
338.878	402.25
339.106	389.25
339.334	389.25
339.562	390.25
339.79	389.25
340.018	388.25
340.246	391.25
340.474	399.25
340.702	406.25
340.93	399.25
341.158	412.25
341.386	396.25
341.614	392.25
341.842	405.25
342.07	398.25
342.298	389.25
342.526	378.25
342.754	385.25
342.981	383.25
343.209	386.25
343.437	379.25
343.665	383.25
343.893	396.25
344.12	419.25
344.348	379.25
344.576	408.25
344.804	415.25
345.031	427.25
345.259	420.25
345.487	423.25
345.714	410.25
345.942	424.25
346.17	405.25
346.397	391.25
346.625	402.25
346.853	404.25
347.08	379.25
347.308	407.25
347.535	404.25
347.763	386.25
347.99	411.25
348.218	404.25
348.445	409.25
348.673	396.25
348.9	394.25
349.128	400.25
349.355	385.25
349.583	385.25
349.81	386.25
350.037	374.25
350.265	403.25
350.492	383.25
350.72	396.25
350.947	392.25
351.174	388.25
351.402	412.25
351.629	402.25
351.856	395.25
352.083	406.25
352.311	417.25
352.538	410.25
352.765	427.25
352.992	401.25
353.22	411.25
353.447	393.25
353.674	409.25
353.901	381.25
354.128	361.25
354.355	358.25
354.583	377.25
354.81	373.25
355.037	376.25
355.264	351.25
355.491	345.25
355.718	366.25
355.945	363.25
356.172	346.25
356.399	349.25
356.626	331.25
356.853	385.25
357.08	364.25
357.307	349.25
357.534	364.25
357.761	370.25
357.988	350.25
358.215	347.25
358.441	347.25
358.668	360.25
358.895	380.25
359.122	399.25
359.349	392.25
359.576	401.25
359.802	422.25
360.029	459.25
360.256	467.25
360.483	462.25
360.709	430.25
360.936	417.25
361.163	397.25
361.39	402.25
361.616	413.25
361.843	389.25
362.07	399.25
362.296	414.25
362.523	411.25
362.749	416.25
362.976	409.25
363.203	395.25
363.429	357.25
363.656	375.25
363.882	370.25
364.109	384.25
364.335	370.25
364.562	380.25
364.788	384.25
365.015	386.25
365.241	397.25
365.468	387.25
365.694	394.25
365.92	384.25
366.147	389.25
366.373	392.25
366.599	371.25
366.826	383.25
367.052	371.25
367.278	387.25
367.505	390.25
367.731	389.25
367.957	377.25
368.184	354.25
368.41	390.25
368.636	379.25
368.862	400.25
369.089	403.25
369.315	375.25
369.541	388.25
369.767	385.25
369.993	370.25
370.219	383.25
370.445	369.25
370.672	398.25
370.898	373.25
371.124	379.25
371.35	393.25
371.576	373.25
371.802	350.25
372.028	364.25
372.254	381.25
372.48	369.25
372.706	381.25
372.932	394.25
373.158	387.25
373.384	370.25
373.61	389.25
373.835	396.25
374.061	366.25
374.287	389.25
374.513	381.25
374.739	360.25
374.965	383.25
375.191	385.25
375.416	387.25
375.642	370.25
375.868	381.25
376.094	354.25
376.319	389.25
376.545	365.25
376.771	375.25
376.997	359.25
377.222	363.25
377.448	362.25
377.674	356.25
377.899	387.25
378.125	379.25
378.35	371.25
378.576	366.25
378.802	361.25
379.027	378.25
379.253	377.25
379.478	369.25
379.704	378.25
379.929	380.25
380.155	392.25
380.38	385.25
380.606	391.25
380.831	389.25
381.057	366.25
381.282	395.25
381.507	389.25
381.733	382.25
381.958	397.25
382.184	377.25
382.409	381.25
382.634	402.25
382.86	376.25
383.085	409.25
383.31	377.25
383.535	388.25
383.761	390.25
383.986	392.25
384.211	383.25
384.436	391.25
384.662	388.25
384.887	396.25
385.112	392.25
385.337	402.25
385.562	393.25
385.787	378.25
386.013	417.25
386.238	413.25
386.463	423.25
386.688	416.25
386.913	408.25
387.138	398.25
387.363	414.25
387.588	381.25
387.813	402.25
388.038	393.25
388.263	397.25
388.488	398.25
388.713	423.25
388.938	405.25
389.163	393.25
389.387	376.25
389.612	400.25
389.837	403.25
390.062	411.25
390.287	386.25
390.512	387.25
390.736	407.25
390.961	414.25
391.186	407.25
391.411	401.25
391.636	408.25
391.86	413.25
392.085	414.25
392.31	414.25
392.534	383.25
392.759	405.25
392.984	395.25
393.208	406.25
393.433	401.25
393.658	422.25
393.882	409.25
394.107	403.25
394.331	388.25
394.556	390.25
394.78	417.25
395.005	410.25
395.229	397.25
395.454	415.25
395.678	427.25
395.903	413.25
396.127	455.25
396.352	448.25
396.576	427.25
396.801	440.25
397.025	424.25
397.249	434.25
397.474	442.25
397.698	437.25
397.922	450.25
398.147	458.25
398.371	457.25
398.595	473.25
398.82	436.25
399.044	450.25
399.268	467.25
399.492	475.25
399.717	499.25
399.941	531.25
400.165	545.25
400.389	567.25
400.613	519.25
400.837	494.25
401.062	464.25
401.286	450.25
401.51	450.25
401.734	476.25
401.958	462.25
402.182	482.25
402.406	482.25
402.63	470.25
402.854	462.25
403.078	470.25
403.302	495.25
403.526	472.25
403.75	487.25
403.974	485.25
404.198	473.25
404.422	477.25
404.645	451.25
404.869	513.25
405.093	519.25
405.317	572.25
405.541	571.25
405.765	570.25
405.988	543.25
406.212	539.25
406.436	565.25
406.66	565.25
406.883	511.25
407.107	547.25
407.331	592.25
407.555	641.25
407.778	629.25
408.002	552.25
408.226	558.25
408.449	540.25
408.673	535.25
408.896	555.25
409.12	602.25
409.344	587.25
409.567	523.25
409.791	505.25
410.014	482.25
410.238	478.25
410.461	506.25
410.685	491.25
410.908	505.25
411.132	536.25
411.355	569.25
411.578	556.25
411.802	523.25
412.025	485.25
412.249	486.25
412.472	525.25
412.695	561.25
412.919	531.25
413.142	507.25
413.365	510.25
413.589	478.25
413.812	472.25
414.035	447.25
414.258	455.25
414.482	432.25
414.705	464.25
414.928	464.25
415.151	455.25
415.374	445.25
415.597	449.25
415.821	440.25
416.044	458.25
416.267	464.25
416.49	448.25
416.713	448.25
416.936	467.25
417.159	457.25
417.382	465.25
417.605	469.25
417.828	472.25
418.051	477.25
418.274	495.25
418.497	482.25
418.72	478.25
418.943	452.25
419.166	497.25
419.389	489.25
419.611	500.25
419.834	492.25
420.057	504.25
420.28	498.25
420.503	494.25
420.726	502.25
420.948	501.25
421.171	563.25
421.394	581.25
421.617	506.25
421.839	494.25
422.062	502.25
422.285	525.25
422.507	579.25
422.73	627.25
422.953	602.25
423.175	553.25
423.398	522.25
423.621	539.25
423.843	551.25
424.066	532.25
424.288	538.25
424.511	577.25
424.733	619.25
424.956	691.25
425.178	666.25
425.401	665.25
425.623	673.25
425.846	595.25
426.068	567.25
426.291	552.25
426.513	539.25
426.735	573.25
426.958	590.25
427.18	672.25
427.402	785.25
427.625	866.25
427.847	790.25
428.069	715.25
428.292	633.25
428.514	580.25
428.736	557.25
428.958	542.25
429.181	521.25
429.403	519.25
429.625	540.25
429.847	569.25
430.069	629.25
430.292	638.25
430.514	547.25
430.736	528.25
430.958	503.25
431.18	485.25
431.402	484.25
431.624	459.25
431.846	476.25
432.068	475.25
432.29	475.25
432.512	475.25
432.734	494.25
432.956	485.25
433.178	504.25
433.4	499.25
433.622	496.25
433.844	472.25
434.066	474.25
434.287	445.25
434.509	486.25
434.731	498.25
434.953	481.25
435.175	526.25
435.397	547.25
435.618	544.25
435.84	593.25
436.062	695.25
436.284	769.25
436.505	618.25
436.727	574.25
436.949	547.25
437.17	513.25
437.392	511.25
437.614	507.25
437.835	582.25
438.057	685.25
438.278	750.25
438.5	749.25
438.721	808.25
438.943	789.25
439.165	634.25
439.386	612.25
439.608	571.25
439.829	577.25
440.05	612.25
440.272	645.25
440.493	627.25
440.715	569.25
440.936	545.25
441.158	555.25
441.379	529.25
441.6	531.25
441.822	575.25
442.043	602.25
442.264	701.25
442.486	709.25
442.707	619.25
442.928	565.25
443.149	583.25
443.371	596.25
443.592	654.25
443.813	725.25
444.034	785.25
444.255	651.25
444.476	589.25
444.698	569.25
444.919	562.25
445.14	651.25
445.361	592.25
445.582	594.25
445.803	692.25
446.024	766.25
446.245	750.25
446.466	706.25
446.687	587.25
446.908	586.25
447.129	546.25
447.35	532.25
447.571	539.25
447.792	540.25
448.013	516.25
448.234	535.25
448.455	602.25
448.675	719.25
448.896	787.25
449.117	700.25
449.338	691.25
449.559	775.25
449.779	828.25
450	662.25
450.221	597.25
450.442	555.25
450.662	524.25
450.883	530.25
451.104	550.25
451.324	517.25
451.545	514.25
451.766	498.25
451.986	495.25
452.207	462.25
452.428	467.25
452.648	470.25
452.869	477.25
453.089	480.25
453.31	495.25
453.53	490.25
453.751	463.25
453.971	466.25
454.192	481.25
454.412	450.25
454.633	469.25
454.853	473.25
455.073	473.25
455.294	486.25
455.514	575.25
455.734	563.25
455.955	472.25
456.175	462.25
456.395	433.25
456.616	423.25
456.836	436.25
457.056	439.25
457.276	419.25
457.497	430.25
457.717	429.25
457.937	449.25
458.157	454.25
458.377	467.25
458.598	472.25
458.818	541.25
459.038	651.25
459.258	647.25
459.478	543.25
459.698	494.25
459.918	467.25
460.138	467.25
460.358	484.25
460.578	468.25
460.798	461.25
461.018	471.25
461.238	470.25
461.458	464.25
461.678	453.25
461.898	466.25
462.118	471.25
462.338	457.25
462.558	462.25
462.777	486.25
462.997	484.25
463.217	491.25
463.437	480.25
463.657	499.25
463.876	469.25
464.096	509.25
464.316	483.25
464.536	511.25
464.755	481.25
464.975	508.25
465.195	567.25
465.414	669.25
465.634	593.25
465.854	518.25
466.073	504.25
466.293	489.25
466.512	478.25
466.732	484.25
466.951	458.25
467.171	475.25
467.391	477.25
467.61	453.25
467.829	489.25
468.049	481.25
468.268	472.25
468.488	473.25
468.707	450.25
468.927	466.25
469.146	455.25
469.365	473.25
469.585	457.25
469.804	469.25
470.023	497.25
470.243	477.25
470.462	488.25
470.681	526.25
470.901	511.25
471.12	483.25
471.339	467.25
471.558	489.25
471.777	481.25
471.997	486.25
472.216	487.25
472.435	522.25
472.654	513.25
472.873	485.25
473.092	487.25
473.311	490.25
473.53	469.25
473.749	513.25
473.968	531.25
474.187	629.25
474.406	673.25
474.625	558.25
474.844	525.25
475.063	506.25
475.282	495.25
475.501	483.25
475.72	508.25
475.939	503.25
476.158	499.25
476.377	494.25
476.596	517.25
476.814	499.25
477.033	518.25
477.252	495.25
477.471	494.25
477.69	539.25
477.908	502.25
478.127	531.25
478.346	528.25
478.564	514.25
478.783	547.25
479.002	555.25
479.22	526.25
479.439	553.25
479.658	590.25
479.876	598.25
480.095	601.25
480.313	605.25
480.532	597.25
480.751	598.25
480.969	588.25
481.188	685.25
481.406	755.25
481.624	643.25
481.843	613.25
482.061	591.25
482.28	610.25
482.498	575.25
482.717	588.25
482.935	583.25
483.153	579.25
483.372	583.25
483.59	575.25
483.808	558.25
484.027	588.25
484.245	568.25
484.463	581.25
484.681	601.25
484.9	569.25
485.118	591.25
485.336	597.25
485.554	600.25
485.772	599.25
485.99	590.25
486.209	619.25
486.427	590.25
486.645	616.25
486.863	659.25
487.081	665.25
487.299	610.25
487.517	628.25
487.735	629.25
487.953	642.25
488.171	641.25
488.389	638.25
488.607	631.25
488.825	625.25
489.043	623.25
489.261	637.25
489.479	644.25
489.696	646.25
489.914	651.25
490.132	662.25
490.35	649.25
490.568	669.25
490.786	686.25
491.003	692.25
491.221	686.25
491.439	703.25
491.657	739.25
491.874	729.25
492.092	742.25
492.31	745.25
492.527	757.25
492.745	747.25
492.963	761.25
493.18	748.25
493.398	768.25
493.615	765.25
493.833	771.25
494.05	778.25
494.268	778.25
494.485	766.25
494.703	735.25
494.92	759.25
495.138	793.25
495.355	767.25
495.573	742.25
495.79	757.25
496.008	764.25
496.225	772.25
496.442	757.25
496.66	763.25
496.877	786.25
497.094	742.25
497.312	739.25
497.529	769.25
497.746	786.25
497.963	780.25
498.181	789.25
498.398	801.25
498.615	792.25
498.832	822.25
499.049	832.25
499.267	827.25
499.484	835.25
499.701	873.25
499.918	838.25
500.135	876.25
500.352	891.25
500.569	911.25
500.786	894.25
501.003	914.25
501.22	893.25
501.437	895.25
501.654	891.25
501.871	897.25
502.088	878.25
