Data from 1970.PennyLincolnUp.Lamp.En5.5.200Scan.071719.P1._HRD10591_15-16-00-841.txt Node
Date: Thu Jul 18 15:16:00 EDT 2019
User: cochatt
Spectrometer: HR+D1059
Trigger mode: 1
Integration Time (sec): 1.000000E-1
Scans to average: 1
Electric dark correction enabled: true
Nonlinearity correction enabled: false
Boxcar width: 0
XAxis mode: Wavelengths
Number of Pixels in Spectrum: 2048
>>>>>Begin Spectral Data<<<<<
223.165	-21.38
223.4	-21.38
223.635	-21.38
223.869	-11.38
224.104	-11.38
224.338	-1.38
224.573	-14.38
224.808	-13.38
225.042	-14.38
225.277	-4.38
225.511	-4.38
225.746	0.62
225.98	6.62
226.215	5.62
226.449	9.62
226.683	17.62
226.918	28.62
227.152	27.62
227.387	38.62
227.621	43.62
227.856	25.62
228.09	40.62
228.324	67.62
228.559	47.62
228.793	56.62
229.027	100.62
229.262	123.62
229.496	129.62
229.73	145.62
229.964	169.62
230.199	155.62
230.433	130.62
230.667	124.62
230.901	123.62
231.136	117.62
231.37	119.62
231.604	121.62
231.838	127.62
232.072	116.62
232.306	120.62
232.541	104.62
232.775	115.62
233.009	120.62
233.243	114.62
233.477	125.62
233.711	125.62
233.945	125.62
234.179	123.62
234.413	132.62
234.647	114.62
234.881	124.62
235.115	127.62
235.349	106.62
235.583	139.62
235.817	132.62
236.051	129.62
236.285	135.62
236.519	126.62
236.753	132.62
236.987	155.62
237.221	197.62
237.455	271.62
237.689	215.62
237.922	170.62
238.156	156.62
238.39	138.62
238.624	129.62
238.858	129.62
239.091	130.62
239.325	129.62
239.559	132.62
239.793	131.62
240.027	149.62
240.26	153.62
240.494	177.62
240.728	163.62
240.961	148.62
241.195	147.62
241.429	163.62
241.662	160.62
241.896	142.62
242.13	131.62
242.363	147.62
242.597	139.62
242.83	123.62
243.064	149.62
243.298	159.62
243.531	146.62
243.765	157.62
243.998	131.62
244.232	139.62
244.465	142.62
244.699	141.62
244.932	146.62
245.166	161.62
245.399	161.62
245.633	149.62
245.866	151.62
246.099	153.62
246.333	149.62
246.566	165.62
246.8	161.62
247.033	155.62
247.266	175.62
247.5	167.62
247.733	187.62
247.966	181.62
248.2	180.62
248.433	200.62
248.666	205.62
248.899	206.62
249.133	220.62
249.366	232.62
249.599	240.62
249.832	211.62
250.066	222.62
250.299	205.62
250.532	226.62
250.765	230.62
250.998	263.62
251.231	264.62
251.465	233.62
251.698	257.62
251.931	235.62
252.164	229.62
252.397	220.62
252.63	225.62
252.863	239.62
253.096	240.62
253.329	245.62
253.562	260.62
253.795	254.62
254.028	237.62
254.261	249.62
254.494	260.62
254.727	297.62
254.96	320.62
255.193	327.62
255.426	266.62
255.659	259.62
255.892	258.62
256.124	285.62
256.357	278.62
256.59	244.62
256.823	232.62
257.056	259.62
257.289	230.62
257.521	243.62
257.754	222.62
257.987	219.62
258.22	236.62
258.452	231.62
258.685	230.62
258.918	253.62
259.151	244.62
259.383	243.62
259.616	239.62
259.849	243.62
260.081	261.62
260.314	285.62
260.547	272.62
260.779	262.62
261.012	253.62
261.244	255.62
261.477	244.62
261.71	240.62
261.942	253.62
262.175	260.62
262.407	252.62
262.64	233.62
262.872	224.62
263.105	243.62
263.337	226.62
263.57	215.62
263.802	232.62
264.035	220.62
264.267	236.62
264.499	215.62
264.732	214.62
264.964	232.62
265.197	235.62
265.429	226.62
265.661	236.62
265.894	231.62
266.126	213.62
266.358	235.62
266.591	219.62
266.823	225.62
267.055	231.62
267.287	237.62
267.52	243.62
267.752	228.62
267.984	236.62
268.216	234.62
268.448	256.62
268.681	250.62
268.913	255.62
269.145	280.62
269.377	304.62
269.609	320.62
269.841	289.62
270.073	290.62
270.306	313.62
270.538	343.62
270.77	342.62
271.002	325.62
271.234	344.62
271.466	343.62
271.698	361.62
271.93	351.62
272.162	367.62
272.394	338.62
272.626	336.62
272.858	312.62
273.09	311.62
273.322	304.62
273.553	293.62
273.785	281.62
274.017	286.62
274.249	287.62
274.481	267.62
274.713	281.62
274.945	271.62
275.176	288.62
275.408	264.62
275.64	283.62
275.872	285.62
276.104	261.62
276.335	269.62
276.567	287.62
276.799	319.62
277.031	327.62
277.262	355.62
277.494	348.62
277.726	328.62
277.957	309.62
278.189	308.62
278.421	269.62
278.652	292.62
278.884	297.62
279.115	293.62
279.347	284.62
279.579	272.62
279.81	267.62
280.042	274.62
280.273	274.62
280.505	274.62
280.736	266.62
280.968	253.62
281.199	270.62
281.431	275.62
281.662	282.62
281.894	267.62
282.125	287.62
282.356	303.62
282.588	319.62
282.819	316.62
283.051	296.62
283.282	272.62
283.513	275.62
283.745	291.62
283.976	292.62
284.207	290.62
284.439	299.62
284.67	269.62
284.901	291.62
285.132	291.62
285.364	277.62
285.595	282.62
285.826	279.62
286.057	270.62
286.288	266.62
286.52	278.62
286.751	284.62
286.982	259.62
287.213	275.62
287.444	287.62
287.675	276.62
287.906	297.62
288.138	301.62
288.369	312.62
288.6	299.62
288.831	307.62
289.062	301.62
289.293	292.62
289.524	290.62
289.755	292.62
289.986	275.62
290.217	272.62
290.448	289.62
290.679	282.62
290.91	304.62
291.141	299.62
291.371	307.62
291.602	305.62
291.833	282.62
292.064	285.62
292.295	297.62
292.526	287.62
292.757	273.62
292.987	288.62
293.218	288.62
293.449	286.62
293.68	293.62
293.91	295.62
294.141	301.62
294.372	271.62
294.603	279.62
294.833	290.62
295.064	293.62
295.295	300.62
295.525	288.62
295.756	312.62
295.987	298.62
296.217	339.62
296.448	340.62
296.679	323.62
296.909	287.62
297.14	301.62
297.37	321.62
297.601	303.62
297.831	302.62
298.062	298.62
298.292	292.62
298.523	299.62
298.753	310.62
298.984	305.62
299.214	315.62
299.445	312.62
299.675	313.62
299.905	313.62
300.136	308.62
300.366	313.62
300.597	314.62
300.827	331.62
301.057	331.62
301.288	316.62
301.518	324.62
301.748	317.62
301.979	311.62
302.209	323.62
302.439	338.62
302.669	319.62
302.9	331.62
303.13	313.62
303.36	318.62
303.59	345.62
303.82	362.62
304.051	329.62
304.281	326.62
304.511	346.62
304.741	324.62
304.971	330.62
305.201	321.62
305.431	333.62
305.661	324.62
305.891	324.62
306.121	328.62
306.352	343.62
306.582	342.62
306.812	317.62
307.042	308.62
307.272	329.62
307.502	333.62
307.731	333.62
307.961	333.62
308.191	336.62
308.421	326.62
308.651	329.62
308.881	324.62
309.111	337.62
309.341	356.62
309.571	369.62
309.8	360.62
310.03	380.62
310.26	396.62
310.49	398.62
310.72	397.62
310.949	414.62
311.179	411.62
311.409	408.62
311.639	400.62
311.868	387.62
312.098	401.62
312.328	418.62
312.557	452.62
312.787	426.62
313.017	426.62
313.246	381.62
313.476	407.62
313.706	392.62
313.935	393.62
314.165	414.62
314.394	429.62
314.624	411.62
314.853	401.62
315.083	408.62
315.312	411.62
315.542	375.62
315.771	382.62
316.001	391.62
316.23	385.62
316.46	384.62
316.689	391.62
316.919	394.62
317.148	393.62
317.377	397.62
317.607	393.62
317.836	392.62
318.065	400.62
318.295	401.62
318.524	413.62
318.753	386.62
318.983	369.62
319.212	379.62
319.441	373.62
319.67	410.62
319.9	409.62
320.129	400.62
320.358	392.62
320.587	392.62
320.816	410.62
321.046	417.62
321.275	442.62
321.504	419.62
321.733	428.62
321.962	433.62
322.191	465.62
322.42	467.62
322.649	489.62
322.878	538.62
323.108	517.62
323.337	537.62
323.566	569.62
323.795	623.62
324.024	685.62
324.253	849.62
324.482	1190.62
324.71	1841.62
324.939	2655.62
325.168	2255.62
325.397	1207.62
325.626	787.62
325.855	649.62
326.084	603.62
326.313	567.62
326.542	605.62
326.77	628.62
326.999	754.62
327.228	1059.62
327.457	1629.62
327.686	2003.62
327.914	1336.62
328.143	880.62
328.372	745.62
328.6	696.62
328.829	667.62
329.058	701.62
329.287	688.62
329.515	639.62
329.744	596.62
329.972	603.62
330.201	615.62
330.43	680.62
330.658	724.62
330.887	711.62
331.115	709.62
331.344	595.62
331.572	535.62
331.801	551.62
332.03	517.62
332.258	527.62
332.486	510.62
332.715	480.62
332.943	461.62
333.172	483.62
333.4	490.62
333.629	472.62
333.857	516.62
334.085	530.62
334.314	541.62
334.542	595.62
334.771	579.62
334.999	549.62
335.227	528.62
335.455	469.62
335.684	466.62
335.912	481.62
336.14	470.62
336.369	489.62
336.597	460.62
336.825	475.62
337.053	460.62
337.281	471.62
337.51	435.62
337.738	467.62
337.966	461.62
338.194	476.62
338.422	455.62
338.65	455.62
338.878	461.62
339.106	437.62
339.334	462.62
339.562	428.62
339.79	443.62
340.018	440.62
340.246	447.62
340.474	457.62
340.702	464.62
340.93	463.62
341.158	431.62
341.386	435.62
341.614	449.62
341.842	450.62
342.07	433.62
342.298	451.62
342.526	431.62
342.754	443.62
342.981	435.62
343.209	426.62
343.437	417.62
343.665	412.62
343.893	441.62
344.12	450.62
344.348	466.62
344.576	437.62
344.804	478.62
345.031	471.62
345.259	479.62
345.487	474.62
345.714	469.62
345.942	454.62
346.17	437.62
346.397	436.62
346.625	443.62
346.853	436.62
347.08	413.62
347.308	453.62
347.535	459.62
347.763	452.62
347.99	450.62
348.218	465.62
348.445	463.62
348.673	453.62
348.9	445.62
349.128	438.62
349.355	444.62
349.583	432.62
349.81	426.62
350.037	417.62
350.265	439.62
350.492	427.62
350.72	425.62
350.947	423.62
351.174	445.62
351.402	479.62
351.629	462.62
351.856	454.62
352.083	471.62
352.311	471.62
352.538	484.62
352.765	479.62
352.992	455.62
353.22	456.62
353.447	443.62
353.674	457.62
353.901	427.62
354.128	421.62
354.355	411.62
354.583	415.62
354.81	418.62
355.037	432.62
355.264	415.62
355.491	429.62
355.718	409.62
355.945	407.62
356.172	408.62
356.399	392.62
356.626	398.62
356.853	425.62
357.08	428.62
357.307	413.62
357.534	401.62
357.761	405.62
357.988	416.62
358.215	424.62
358.441	410.62
358.668	419.62
358.895	430.62
359.122	401.62
359.349	427.62
359.576	446.62
359.802	497.62
360.029	534.62
360.256	553.62
360.483	514.62
360.709	463.62
360.936	428.62
361.163	449.62
361.39	472.62
361.616	464.62
361.843	455.62
362.07	447.62
362.296	450.62
362.523	435.62
362.749	452.62
362.976	436.62
363.203	460.62
363.429	429.62
363.656	446.62
363.882	427.62
364.109	432.62
364.335	427.62
364.562	435.62
364.788	403.62
365.015	416.62
365.241	424.62
365.468	448.62
365.694	442.62
365.92	436.62
366.147	430.62
366.373	429.62
366.599	437.62
366.826	411.62
367.052	428.62
367.278	397.62
367.505	441.62
367.731	435.62
367.957	428.62
368.184	431.62
368.41	428.62
368.636	424.62
368.862	449.62
369.089	448.62
369.315	422.62
369.541	418.62
369.767	428.62
369.993	433.62
370.219	431.62
370.445	447.62
370.672	404.62
370.898	407.62
371.124	417.62
371.35	404.62
371.576	407.62
371.802	420.62
372.028	412.62
372.254	397.62
372.48	413.62
372.706	427.62
372.932	402.62
373.158	419.62
373.384	410.62
373.61	403.62
373.835	425.62
374.061	427.62
374.287	441.62
374.513	418.62
374.739	422.62
374.965	435.62
375.191	431.62
375.416	435.62
375.642	431.62
375.868	428.62
376.094	435.62
376.319	449.62
376.545	428.62
376.771	419.62
376.997	416.62
377.222	421.62
377.448	417.62
377.674	431.62
377.899	419.62
378.125	418.62
378.35	436.62
378.576	411.62
378.802	408.62
379.027	405.62
379.253	413.62
379.478	407.62
379.704	432.62
379.929	428.62
380.155	447.62
380.38	420.62
380.606	416.62
380.831	436.62
381.057	434.62
381.282	435.62
381.507	424.62
381.733	423.62
381.958	423.62
382.184	434.62
382.409	395.62
382.634	443.62
382.86	435.62
383.085	445.62
383.31	425.62
383.535	446.62
383.761	451.62
383.986	404.62
384.211	453.62
384.436	443.62
384.662	460.62
384.887	451.62
385.112	446.62
385.337	449.62
385.562	434.62
385.787	434.62
386.013	471.62
386.238	472.62
386.463	464.62
386.688	442.62
386.913	465.62
387.138	460.62
387.363	457.62
387.588	451.62
387.813	455.62
388.038	437.62
388.263	448.62
388.488	459.62
388.713	450.62
388.938	443.62
389.163	453.62
389.387	459.62
389.612	452.62
389.837	448.62
390.062	445.62
390.287	459.62
390.512	432.62
390.736	451.62
390.961	463.62
391.186	453.62
391.411	461.62
391.636	472.62
391.86	465.62
392.085	475.62
392.31	457.62
392.534	456.62
392.759	484.62
392.984	469.62
393.208	469.62
393.433	482.62
393.658	465.62
393.882	457.62
394.107	465.62
394.331	475.62
394.556	467.62
394.78	456.62
395.005	463.62
395.229	465.62
395.454	477.62
395.678	467.62
395.903	483.62
396.127	504.62
396.352	501.62
396.576	476.62
396.801	458.62
397.025	486.62
397.249	477.62
397.474	488.62
397.698	489.62
397.922	514.62
398.147	501.62
398.371	527.62
398.595	513.62
398.82	489.62
399.044	501.62
399.268	513.62
399.492	572.62
399.717	559.62
399.941	603.62
400.165	612.62
400.389	663.62
400.613	588.62
400.837	563.62
401.062	521.62
401.286	530.62
401.51	548.62
401.734	516.62
401.958	524.62
402.182	531.62
402.406	534.62
402.63	546.62
402.854	553.62
403.078	553.62
403.302	525.62
403.526	534.62
403.75	534.62
403.974	540.62
404.198	543.62
404.422	551.62
404.645	559.62
404.869	553.62
405.093	616.62
405.317	634.62
405.541	677.62
405.765	635.62
405.988	607.62
406.212	601.62
406.436	603.62
406.66	641.62
406.883	610.62
407.107	645.62
407.331	663.62
407.555	721.62
407.778	713.62
408.002	679.62
408.226	625.62
408.449	620.62
408.673	620.62
408.896	666.62
409.12	685.62
409.344	641.62
409.567	604.62
409.791	578.62
410.014	535.62
410.238	583.62
410.461	548.62
410.685	574.62
410.908	600.62
411.132	609.62
411.355	643.62
411.578	623.62
411.802	579.62
412.025	551.62
412.249	572.62
412.472	599.62
412.695	660.62
412.919	637.62
413.142	575.62
413.365	547.62
413.589	564.62
413.812	532.62
414.035	551.62
414.258	522.62
414.482	514.62
414.705	526.62
414.928	525.62
415.151	514.62
415.374	518.62
415.597	524.62
415.821	525.62
416.044	533.62
416.267	534.62
416.49	525.62
416.713	517.62
416.936	549.62
417.159	522.62
417.382	563.62
417.605	516.62
417.828	549.62
418.051	581.62
418.274	551.62
418.497	526.62
418.72	519.62
418.943	527.62
419.166	552.62
419.389	572.62
419.611	583.62
419.834	546.62
420.057	581.62
420.28	556.62
420.503	571.62
420.726	572.62
420.948	580.62
421.171	617.62
421.394	661.62
421.617	597.62
421.839	553.62
422.062	559.62
422.285	589.62
422.507	635.62
422.73	708.62
422.953	684.62
423.175	607.62
423.398	615.62
423.621	585.62
423.843	607.62
424.066	618.62
424.288	583.62
424.511	624.62
424.733	701.62
424.956	811.62
425.178	792.62
425.401	751.62
425.623	793.62
425.846	666.62
426.068	627.62
426.291	637.62
426.513	636.62
426.735	633.62
426.958	678.62
427.18	776.62
427.402	913.62
427.625	993.62
427.847	900.62
428.069	799.62
428.292	708.62
428.514	618.62
428.736	636.62
428.958	584.62
429.181	568.62
429.403	573.62
429.625	589.62
429.847	635.62
430.069	703.62
430.292	703.62
430.514	596.62
430.736	578.62
430.958	565.62
431.18	564.62
431.402	545.62
431.624	549.62
431.846	524.62
432.068	531.62
432.29	549.62
432.512	558.62
432.734	548.62
432.956	550.62
433.178	585.62
433.4	597.62
433.622	550.62
433.844	549.62
434.066	534.62
434.287	547.62
434.509	522.62
434.731	554.62
434.953	567.62
435.175	584.62
435.397	615.62
435.618	613.62
435.84	662.62
436.062	787.62
436.284	845.62
436.505	722.62
436.727	652.62
436.949	626.62
437.17	563.62
437.392	588.62
437.614	597.62
437.835	652.62
438.057	756.62
438.278	887.62
438.5	870.62
438.721	908.62
438.943	889.62
439.165	704.62
439.386	676.62
439.608	668.62
439.829	647.62
440.05	701.62
440.272	708.62
440.493	672.62
440.715	643.62
440.936	618.62
441.158	583.62
441.379	550.62
441.6	608.62
441.822	626.62
442.043	687.62
442.264	747.62
442.486	803.62
442.707	707.62
442.928	654.62
443.149	649.62
443.371	671.62
443.592	711.62
443.813	815.62
444.034	901.62
444.255	741.62
444.476	627.62
444.698	632.62
444.919	633.62
445.14	767.62
445.361	724.62
445.582	653.62
445.803	747.62
446.024	871.62
446.245	887.62
446.466	812.62
446.687	705.62
446.908	636.62
447.129	607.62
447.35	616.62
447.571	585.62
447.792	615.62
448.013	583.62
448.234	618.62
448.455	699.62
448.675	772.62
448.896	893.62
449.117	792.62
449.338	732.62
449.559	839.62
449.779	947.62
450	767.62
450.221	676.62
450.442	611.62
450.662	588.62
450.883	629.62
451.104	627.62
451.324	614.62
451.545	595.62
451.766	545.62
451.986	520.62
452.207	530.62
452.428	540.62
452.648	523.62
452.869	524.62
453.089	537.62
453.31	548.62
453.53	541.62
453.751	523.62
453.971	524.62
454.192	568.62
454.412	544.62
454.633	533.62
454.853	531.62
455.073	537.62
455.294	589.62
455.514	641.62
455.734	594.62
455.955	529.62
456.175	483.62
456.395	487.62
456.616	475.62
456.836	499.62
457.056	484.62
457.276	453.62
457.497	472.62
457.717	490.62
457.937	485.62
458.157	491.62
458.377	503.62
458.598	537.62
458.818	624.62
459.038	711.62
459.258	725.62
459.478	620.62
459.698	539.62
459.918	548.62
460.138	491.62
460.358	521.62
460.578	538.62
460.798	542.62
461.018	532.62
461.238	532.62
461.458	541.62
461.678	530.62
461.898	528.62
462.118	523.62
462.338	536.62
462.558	530.62
462.777	548.62
462.997	559.62
463.217	563.62
463.437	572.62
463.657	560.62
463.876	546.62
464.096	556.62
464.316	561.62
464.536	565.62
464.755	579.62
464.975	598.62
465.195	654.62
465.414	778.62
465.634	672.62
465.854	592.62
466.073	577.62
466.293	555.62
466.512	527.62
466.732	534.62
466.951	535.62
467.171	531.62
467.391	516.62
467.61	521.62
467.829	547.62
468.049	542.62
468.268	547.62
468.488	507.62
468.707	525.62
468.927	517.62
469.146	520.62
469.365	508.62
469.585	504.62
469.804	546.62
470.023	553.62
470.243	554.62
470.462	545.62
470.681	581.62
470.901	590.62
471.12	557.62
471.339	530.62
471.558	567.62
471.777	565.62
471.997	530.62
472.216	561.62
472.435	612.62
472.654	591.62
472.873	555.62
473.092	541.62
473.311	544.62
473.53	512.62
473.749	568.62
473.968	609.62
474.187	709.62
474.406	747.62
474.625	621.62
474.844	561.62
475.063	559.62
475.282	540.62
475.501	561.62
475.72	556.62
475.939	559.62
476.158	557.62
476.377	572.62
476.596	566.62
476.814	575.62
477.033	566.62
477.252	554.62
477.471	559.62
477.69	585.62
477.908	607.62
478.127	592.62
478.346	582.62
478.564	605.62
478.783	593.62
479.002	605.62
479.22	608.62
479.439	647.62
479.658	639.62
479.876	650.62
480.095	675.62
480.313	709.62
480.532	665.62
480.751	656.62
480.969	686.62
481.188	751.62
481.406	859.62
481.624	726.62
481.843	685.62
482.061	645.62
482.28	651.62
482.498	665.62
482.717	660.62
482.935	645.62
483.153	650.62
483.372	621.62
483.59	633.62
483.808	653.62
484.027	650.62
484.245	658.62
484.463	653.62
484.681	665.62
484.9	649.62
485.118	665.62
485.336	651.62
485.554	669.62
485.772	676.62
485.99	664.62
486.209	661.62
486.427	681.62
486.645	659.62
486.863	737.62
487.081	738.62
487.299	716.62
487.517	701.62
487.735	720.62
487.953	695.62
488.171	723.62
488.389	713.62
488.607	704.62
488.825	721.62
489.043	714.62
489.261	720.62
489.479	737.62
489.696	724.62
489.914	723.62
490.132	738.62
490.35	734.62
490.568	747.62
490.786	753.62
491.003	769.62
491.221	765.62
491.439	809.62
491.657	801.62
491.874	824.62
492.092	842.62
492.31	838.62
492.527	836.62
492.745	819.62
492.963	853.62
493.18	845.62
493.398	847.62
493.615	841.62
493.833	839.62
494.05	855.62
494.268	860.62
494.485	886.62
494.703	851.62
494.92	888.62
495.138	853.62
495.355	872.62
495.573	871.62
495.79	856.62
496.008	877.62
496.225	889.62
496.442	845.62
496.66	876.62
496.877	853.62
497.094	863.62
497.312	861.62
497.529	887.62
497.746	893.62
497.963	885.62
498.181	895.62
498.398	921.62
498.615	906.62
498.832	915.62
499.049	898.62
499.267	929.62
499.484	943.62
499.701	975.62
499.918	957.62
500.135	1025.62
500.352	1054.62
500.569	1052.62
500.786	1060.62
501.003	1041.62
501.22	1006.62
501.437	1033.62
501.654	1025.62
501.871	1016.62
