Data from 1970.PennyLincolnUp.Lamp.En5.5.200Scan.071719.P1._HRD10591_15-15-25-842.txt Node
Date: Thu Jul 18 15:15:25 EDT 2019
User: cochatt
Spectrometer: HR+D1059
Trigger mode: 1
Integration Time (sec): 1.000000E-1
Scans to average: 1
Electric dark correction enabled: true
Nonlinearity correction enabled: false
Boxcar width: 0
XAxis mode: Wavelengths
Number of Pixels in Spectrum: 2048
>>>>>Begin Spectral Data<<<<<
223.165	-8.62
223.4	-8.62
223.635	-8.62
223.869	-16.62
224.104	-17.62
224.338	-17.62
224.573	-12.62
224.808	-9.62
225.042	-5.62
225.277	-6.62
225.511	0.38
225.746	-10.62
225.98	2.38
226.215	20.38
226.449	31.38
226.683	12.38
226.918	22.38
227.152	16.38
227.387	25.38
227.621	48.38
227.856	47.38
228.09	39.38
228.324	37.38
228.559	62.38
228.793	74.38
229.027	96.38
229.262	118.38
229.496	132.38
229.73	159.38
229.964	169.38
230.199	136.38
230.433	137.38
230.667	119.38
230.901	121.38
231.136	118.38
231.37	106.38
231.604	114.38
231.838	110.38
232.072	119.38
232.306	117.38
232.541	118.38
232.775	127.38
233.009	114.38
233.243	127.38
233.477	105.38
233.711	109.38
233.945	120.38
234.179	114.38
234.413	129.38
234.647	127.38
234.881	124.38
235.115	119.38
235.349	127.38
235.583	129.38
235.817	130.38
236.051	139.38
236.285	142.38
236.519	126.38
236.753	133.38
236.987	162.38
237.221	210.38
237.455	260.38
237.689	212.38
237.922	160.38
238.156	139.38
238.39	139.38
238.624	121.38
238.858	125.38
239.091	127.38
239.325	131.38
239.559	130.38
239.793	124.38
240.027	143.38
240.26	159.38
240.494	171.38
240.728	152.38
240.961	146.38
241.195	163.38
241.429	152.38
241.662	155.38
241.896	136.38
242.13	141.38
242.363	139.38
242.597	146.38
242.83	134.38
243.064	140.38
243.298	148.38
243.531	148.38
243.765	156.38
243.998	142.38
244.232	142.38
244.465	152.38
244.699	156.38
244.932	155.38
245.166	141.38
245.399	143.38
245.633	153.38
245.866	161.38
246.099	136.38
246.333	156.38
246.566	146.38
246.8	164.38
247.033	156.38
247.266	168.38
247.5	171.38
247.733	187.38
247.966	188.38
248.2	164.38
248.433	182.38
248.666	186.38
248.899	208.38
249.133	211.38
249.366	237.38
249.599	227.38
249.832	195.38
250.066	189.38
250.299	200.38
250.532	207.38
250.765	230.38
250.998	233.38
251.231	253.38
251.465	213.38
251.698	217.38
251.931	226.38
252.164	232.38
252.397	214.38
252.63	211.38
252.863	236.38
253.096	263.38
253.329	240.38
253.562	250.38
253.795	250.38
254.028	241.38
254.261	230.38
254.494	239.38
254.727	279.38
254.96	304.38
255.193	306.38
255.426	291.38
255.659	275.38
255.892	275.38
256.124	245.38
256.357	258.38
256.59	255.38
256.823	235.38
257.056	225.38
257.289	233.38
257.521	230.38
257.754	212.38
257.987	219.38
258.22	236.38
258.452	229.38
258.685	225.38
258.918	243.38
259.151	232.38
259.383	220.38
259.616	234.38
259.849	244.38
260.081	238.38
260.314	263.38
260.547	276.38
260.779	272.38
261.012	254.38
261.244	249.38
261.477	245.38
261.71	230.38
261.942	258.38
262.175	256.38
262.407	243.38
262.64	233.38
262.872	223.38
263.105	221.38
263.337	229.38
263.57	236.38
263.802	227.38
264.035	225.38
264.267	208.38
264.499	234.38
264.732	226.38
264.964	196.38
265.197	220.38
265.429	228.38
265.661	217.38
265.894	200.38
266.126	210.38
266.358	222.38
266.591	218.38
266.823	224.38
267.055	236.38
267.287	232.38
267.52	226.38
267.752	223.38
267.984	219.38
268.216	220.38
268.448	238.38
268.681	229.38
268.913	245.38
269.145	272.38
269.377	265.38
269.609	311.38
269.841	280.38
270.073	286.38
270.306	302.38
270.538	346.38
270.77	337.38
271.002	322.38
271.234	308.38
271.466	330.38
271.698	314.38
271.93	348.38
272.162	336.38
272.394	340.38
272.626	319.38
272.858	297.38
273.09	306.38
273.322	272.38
273.553	262.38
273.785	282.38
274.017	242.38
274.249	278.38
274.481	257.38
274.713	266.38
274.945	280.38
275.176	262.38
275.408	257.38
275.64	266.38
275.872	248.38
276.104	260.38
276.335	272.38
276.567	269.38
276.799	282.38
277.031	319.38
277.262	324.38
277.494	319.38
277.726	313.38
277.957	310.38
278.189	287.38
278.421	285.38
278.652	262.38
278.884	260.38
279.115	261.38
279.347	267.38
279.579	275.38
279.81	257.38
280.042	263.38
280.273	273.38
280.505	262.38
280.736	256.38
280.968	259.38
281.199	248.38
281.431	260.38
281.662	252.38
281.894	254.38
282.125	248.38
282.356	298.38
282.588	320.38
282.819	324.38
283.051	268.38
283.282	269.38
283.513	270.38
283.745	258.38
283.976	246.38
284.207	284.38
284.439	279.38
284.67	273.38
284.901	276.38
285.132	284.38
285.364	277.38
285.595	278.38
285.826	276.38
286.057	261.38
286.288	263.38
286.52	288.38
286.751	252.38
286.982	256.38
287.213	263.38
287.444	264.38
287.675	287.38
287.906	298.38
288.138	306.38
288.369	294.38
288.6	302.38
288.831	285.38
289.062	266.38
289.293	288.38
289.524	284.38
289.755	302.38
289.986	275.38
290.217	266.38
290.448	293.38
290.679	293.38
290.91	280.38
291.141	300.38
291.371	267.38
291.602	286.38
291.833	272.38
292.064	277.38
292.295	259.38
292.526	280.38
292.757	267.38
292.987	266.38
293.218	265.38
293.449	297.38
293.68	298.38
293.91	275.38
294.141	281.38
294.372	281.38
294.603	277.38
294.833	284.38
295.064	273.38
295.295	269.38
295.525	274.38
295.756	286.38
295.987	308.38
296.217	320.38
296.448	330.38
296.679	269.38
296.909	286.38
297.14	270.38
297.37	276.38
297.601	283.38
297.831	276.38
298.062	283.38
298.292	280.38
298.523	281.38
298.753	280.38
298.984	288.38
299.214	289.38
299.445	288.38
299.675	301.38
299.905	286.38
300.136	304.38
300.366	300.38
300.597	299.38
300.827	293.38
301.057	298.38
301.288	329.38
301.518	310.38
301.748	315.38
301.979	302.38
302.209	311.38
302.439	327.38
302.669	310.38
302.9	308.38
303.13	310.38
303.36	312.38
303.59	322.38
303.82	322.38
304.051	322.38
304.281	316.38
304.511	310.38
304.741	314.38
304.971	318.38
305.201	307.38
305.431	323.38
305.661	325.38
305.891	302.38
306.121	316.38
306.352	330.38
306.582	316.38
306.812	313.38
307.042	320.38
307.272	316.38
307.502	319.38
307.731	331.38
307.961	312.38
308.191	315.38
308.421	321.38
308.651	331.38
308.881	346.38
309.111	320.38
309.341	315.38
309.571	328.38
309.8	353.38
310.03	383.38
310.26	368.38
310.49	378.38
310.72	365.38
310.949	382.38
311.179	404.38
311.409	377.38
311.639	370.38
311.868	373.38
312.098	356.38
312.328	377.38
312.557	416.38
312.787	405.38
313.017	410.38
313.246	369.38
313.476	365.38
313.706	376.38
313.935	389.38
314.165	374.38
314.394	400.38
314.624	388.38
314.853	390.38
315.083	365.38
315.312	350.38
315.542	361.38
315.771	362.38
316.001	344.38
316.23	371.38
316.46	344.38
316.689	373.38
316.919	378.38
317.148	370.38
317.377	404.38
317.607	385.38
317.836	359.38
318.065	372.38
318.295	356.38
318.524	367.38
318.753	357.38
318.983	365.38
319.212	354.38
319.441	385.38
319.67	368.38
319.9	385.38
320.129	370.38
320.358	392.38
320.587	364.38
320.816	405.38
321.046	376.38
321.275	388.38
321.504	397.38
321.733	392.38
321.962	397.38
322.191	422.38
322.42	461.38
322.649	454.38
322.878	471.38
323.108	474.38
323.337	522.38
323.566	507.38
323.795	577.38
324.024	639.38
324.253	745.38
324.482	1107.38
324.71	1660.38
324.939	2407.38
325.168	2058.38
325.397	1116.38
325.626	717.38
325.855	628.38
326.084	556.38
326.313	540.38
326.542	535.38
326.77	594.38
326.999	690.38
327.228	980.38
327.457	1496.38
327.686	1751.38
327.914	1226.38
328.143	836.38
328.372	690.38
328.6	662.38
328.829	613.38
329.058	616.38
329.287	670.38
329.515	580.38
329.744	564.38
329.972	536.38
330.201	549.38
330.43	584.38
330.658	630.38
330.887	687.38
331.115	666.38
331.344	571.38
331.572	532.38
331.801	500.38
332.03	507.38
332.258	462.38
332.486	464.38
332.715	432.38
332.943	452.38
333.172	439.38
333.4	471.38
333.629	465.38
333.857	472.38
334.085	492.38
334.314	498.38
334.542	542.38
334.771	562.38
334.999	500.38
335.227	473.38
335.455	451.38
335.684	469.38
335.912	434.38
336.14	434.38
336.369	433.38
336.597	431.38
336.825	464.38
337.053	418.38
337.281	430.38
337.51	413.38
337.738	425.38
337.966	440.38
338.194	448.38
338.422	428.38
338.65	439.38
338.878	410.38
339.106	422.38
339.334	409.38
339.562	420.38
339.79	424.38
340.018	416.38
340.246	424.38
340.474	438.38
340.702	425.38
340.93	428.38
341.158	409.38
341.386	445.38
341.614	450.38
341.842	426.38
342.07	430.38
342.298	409.38
342.526	411.38
342.754	393.38
342.981	416.38
343.209	388.38
343.437	395.38
343.665	396.38
343.893	406.38
344.12	409.38
344.348	415.38
344.576	420.38
344.804	438.38
345.031	447.38
345.259	462.38
345.487	446.38
345.714	448.38
345.942	424.38
346.17	418.38
346.397	414.38
346.625	412.38
346.853	411.38
347.08	419.38
347.308	406.38
347.535	427.38
347.763	436.38
347.99	423.38
348.218	429.38
348.445	420.38
348.673	419.38
348.9	430.38
349.128	382.38
349.355	383.38
349.583	379.38
349.81	404.38
350.037	386.38
350.265	395.38
350.492	411.38
350.72	399.38
350.947	412.38
351.174	434.38
351.402	440.38
351.629	435.38
351.856	431.38
352.083	443.38
352.311	454.38
352.538	448.38
352.765	442.38
352.992	432.38
353.22	435.38
353.447	423.38
353.674	416.38
353.901	399.38
354.128	399.38
354.355	405.38
354.583	381.38
354.81	414.38
355.037	380.38
355.264	386.38
355.491	392.38
355.718	381.38
355.945	374.38
356.172	374.38
356.399	398.38
356.626	380.38
356.853	406.38
357.08	387.38
357.307	380.38
357.534	374.38
357.761	386.38
357.988	412.38
358.215	390.38
358.441	371.38
358.668	398.38
358.895	407.38
359.122	405.38
359.349	401.38
359.576	416.38
359.802	445.38
360.029	485.38
360.256	488.38
360.483	499.38
360.709	424.38
360.936	432.38
361.163	424.38
361.39	403.38
361.616	450.38
361.843	420.38
362.07	420.38
362.296	422.38
362.523	411.38
362.749	435.38
362.976	418.38
363.203	426.38
363.429	411.38
363.656	386.38
363.882	396.38
364.109	392.38
364.335	403.38
364.562	408.38
364.788	399.38
365.015	411.38
365.241	404.38
365.468	417.38
365.694	412.38
365.92	414.38
366.147	407.38
366.373	412.38
366.599	392.38
366.826	388.38
367.052	401.38
367.278	422.38
367.505	408.38
367.731	416.38
367.957	421.38
368.184	394.38
368.41	421.38
368.636	419.38
368.862	416.38
369.089	439.38
369.315	426.38
369.541	404.38
369.767	395.38
369.993	411.38
370.219	400.38
370.445	394.38
370.672	412.38
370.898	396.38
371.124	407.38
371.35	396.38
371.576	382.38
371.802	390.38
372.028	399.38
372.254	392.38
372.48	404.38
372.706	390.38
372.932	405.38
373.158	391.38
373.384	411.38
373.61	405.38
373.835	400.38
374.061	386.38
374.287	411.38
374.513	402.38
374.739	421.38
374.965	409.38
375.191	398.38
375.416	399.38
375.642	400.38
375.868	396.38
376.094	398.38
376.319	403.38
376.545	408.38
376.771	393.38
376.997	382.38
377.222	387.38
377.448	405.38
377.674	398.38
377.899	387.38
378.125	403.38
378.35	393.38
378.576	398.38
378.802	383.38
379.027	392.38
379.253	399.38
379.478	398.38
379.704	381.38
379.929	394.38
380.155	407.38
380.38	412.38
380.606	406.38
380.831	398.38
381.057	400.38
381.282	394.38
381.507	413.38
381.733	408.38
381.958	406.38
382.184	373.38
382.409	418.38
382.634	419.38
382.86	420.38
383.085	427.38
383.31	404.38
383.535	416.38
383.761	410.38
383.986	407.38
384.211	411.38
384.436	414.38
384.662	422.38
384.887	429.38
385.112	422.38
385.337	419.38
385.562	408.38
385.787	416.38
386.013	449.38
386.238	452.38
386.463	467.38
386.688	441.38
386.913	423.38
387.138	447.38
387.363	442.38
387.588	421.38
387.813	433.38
388.038	428.38
388.263	415.38
388.488	401.38
388.713	440.38
388.938	450.38
389.163	417.38
389.387	419.38
389.612	427.38
389.837	432.38
390.062	429.38
390.287	441.38
390.512	431.38
390.736	435.38
390.961	438.38
391.186	438.38
391.411	444.38
391.636	434.38
391.86	448.38
392.085	439.38
392.31	423.38
392.534	450.38
392.759	453.38
392.984	436.38
393.208	434.38
393.433	453.38
393.658	450.38
393.882	425.38
394.107	432.38
394.331	436.38
394.556	444.38
394.78	438.38
395.005	450.38
395.229	451.38
395.454	436.38
395.678	446.38
395.903	451.38
396.127	476.38
396.352	466.38
396.576	466.38
396.801	443.38
397.025	442.38
397.249	452.38
397.474	449.38
397.698	464.38
397.922	471.38
398.147	479.38
398.371	484.38
398.595	458.38
398.82	475.38
399.044	496.38
399.268	506.38
399.492	501.38
399.717	537.38
399.941	555.38
400.165	573.38
400.389	610.38
400.613	549.38
400.837	511.38
401.062	520.38
401.286	493.38
401.51	483.38
401.734	490.38
401.958	495.38
402.182	483.38
402.406	504.38
402.63	505.38
402.854	504.38
403.078	516.38
403.302	517.38
403.526	522.38
403.75	524.38
403.974	501.38
404.198	488.38
404.422	515.38
404.645	532.38
404.869	534.38
405.093	564.38
405.317	604.38
405.541	622.38
405.765	580.38
405.988	557.38
406.212	538.38
406.436	583.38
406.66	591.38
406.883	572.38
407.107	598.38
407.331	629.38
407.555	670.38
407.778	683.38
408.002	614.38
408.226	578.38
408.449	568.38
408.673	562.38
408.896	591.38
409.12	648.38
409.344	612.38
409.567	543.38
409.791	541.38
410.014	527.38
410.238	530.38
410.461	510.38
410.685	528.38
410.908	537.38
411.132	572.38
411.355	602.38
411.578	579.38
411.802	527.38
412.025	507.38
412.249	531.38
412.472	575.38
412.695	605.38
412.919	594.38
413.142	552.38
413.365	516.38
413.589	518.38
413.812	514.38
414.035	509.38
414.258	513.38
414.482	477.38
414.705	493.38
414.928	490.38
415.151	488.38
415.374	487.38
415.597	498.38
415.821	490.38
416.044	466.38
416.267	516.38
416.49	499.38
416.713	500.38
416.936	491.38
417.159	469.38
417.382	514.38
417.605	514.38
417.828	528.38
418.051	521.38
418.274	525.38
418.497	516.38
418.72	502.38
418.943	492.38
419.166	520.38
419.389	538.38
419.611	518.38
419.834	527.38
420.057	554.38
420.28	525.38
420.503	549.38
420.726	538.38
420.948	548.38
421.171	574.38
421.394	610.38
421.617	548.38
421.839	540.38
422.062	551.38
422.285	549.38
422.507	615.38
422.73	675.38
422.953	638.38
423.175	594.38
423.398	555.38
423.621	574.38
423.843	567.38
424.066	595.38
424.288	589.38
424.511	600.38
424.733	658.38
424.956	736.38
425.178	712.38
425.401	708.38
425.623	698.38
425.846	630.38
426.068	583.38
426.291	596.38
426.513	588.38
426.735	610.38
426.958	638.38
427.18	722.38
427.402	851.38
427.625	938.38
427.847	851.38
428.069	748.38
428.292	645.38
428.514	606.38
428.736	589.38
428.958	575.38
429.181	556.38
429.403	554.38
429.625	564.38
429.847	596.38
430.069	654.38
430.292	653.38
430.514	567.38
430.736	533.38
430.958	510.38
431.18	526.38
431.402	502.38
431.624	504.38
431.846	507.38
432.068	503.38
432.29	483.38
432.512	514.38
432.734	538.38
432.956	516.38
433.178	518.38
433.4	528.38
433.622	503.38
433.844	512.38
434.066	520.38
434.287	494.38
434.509	488.38
434.731	538.38
434.953	520.38
435.175	543.38
435.397	595.38
435.618	585.38
435.84	636.38
436.062	739.38
436.284	797.38
436.505	663.38
436.727	599.38
436.949	587.38
437.17	567.38
437.392	540.38
437.614	582.38
437.835	604.38
438.057	703.38
438.278	778.38
438.5	824.38
438.721	885.38
438.943	802.38
439.165	682.38
439.386	626.38
439.608	632.38
439.829	626.38
440.05	632.38
440.272	691.38
440.493	658.38
440.715	622.38
440.936	563.38
441.158	575.38
441.379	552.38
441.6	570.38
441.822	590.38
442.043	623.38
442.264	734.38
442.486	758.38
442.707	672.38
442.928	615.38
443.149	615.38
443.371	650.38
443.592	664.38
443.813	761.38
444.034	816.38
444.255	704.38
444.476	634.38
444.698	607.38
444.919	594.38
445.14	696.38
445.361	642.38
445.582	652.38
445.803	697.38
446.024	788.38
446.245	814.38
446.466	755.38
446.687	645.38
446.908	598.38
447.129	581.38
447.35	578.38
447.571	575.38
447.792	558.38
448.013	546.38
448.234	565.38
448.455	644.38
448.675	735.38
448.896	851.38
449.117	724.38
449.338	713.38
449.559	815.38
449.779	888.38
450	725.38
450.221	621.38
450.442	585.38
450.662	548.38
450.883	578.38
451.104	578.38
451.324	569.38
451.545	565.38
451.766	503.38
451.986	506.38
452.207	493.38
452.428	504.38
452.648	491.38
452.869	512.38
453.089	504.38
453.31	507.38
453.53	529.38
453.751	498.38
453.971	510.38
454.192	551.38
454.412	528.38
454.633	493.38
454.853	472.38
455.073	488.38
455.294	544.38
455.514	601.38
455.734	576.38
455.955	497.38
456.175	476.38
456.395	459.38
456.616	463.38
456.836	451.38
457.056	463.38
457.276	467.38
457.497	466.38
457.717	446.38
457.937	441.38
458.157	464.38
458.377	478.38
458.598	498.38
458.818	570.38
459.038	671.38
459.258	707.38
459.478	562.38
459.698	516.38
459.918	488.38
460.138	490.38
460.358	508.38
460.578	500.38
460.798	497.38
461.018	511.38
461.238	511.38
461.458	476.38
461.678	484.38
461.898	498.38
462.118	479.38
462.338	515.38
462.558	530.38
462.777	501.38
462.997	498.38
463.217	523.38
463.437	531.38
463.657	539.38
463.876	517.38
464.096	523.38
464.316	530.38
464.536	544.38
464.755	519.38
464.975	538.38
465.195	614.38
465.414	708.38
465.634	609.38
465.854	574.38
466.073	547.38
466.293	522.38
466.512	485.38
466.732	498.38
466.951	502.38
467.171	499.38
467.391	503.38
467.61	526.38
467.829	531.38
468.049	514.38
468.268	514.38
468.488	500.38
468.707	480.38
468.927	488.38
469.146	488.38
469.365	501.38
469.585	469.38
469.804	492.38
470.023	511.38
470.243	513.38
470.462	512.38
470.681	542.38
470.901	535.38
471.12	522.38
471.339	522.38
471.558	517.38
471.777	494.38
471.997	502.38
472.216	518.38
472.435	564.38
472.654	562.38
472.873	518.38
473.092	491.38
473.311	498.38
473.53	505.38
473.749	526.38
473.968	568.38
474.187	679.38
474.406	702.38
474.625	577.38
474.844	539.38
475.063	529.38
475.282	501.38
475.501	519.38
475.72	523.38
475.939	523.38
476.158	528.38
476.377	509.38
476.596	534.38
476.814	539.38
477.033	536.38
477.252	565.38
477.471	542.38
477.69	540.38
477.908	560.38
478.127	557.38
478.346	564.38
478.564	553.38
478.783	567.38
479.002	578.38
479.22	568.38
479.439	590.38
479.658	638.38
479.876	613.38
480.095	620.38
480.313	636.38
480.532	655.38
480.751	619.38
480.969	630.38
481.188	731.38
481.406	794.38
481.624	674.38
481.843	638.38
482.061	628.38
482.28	613.38
482.498	604.38
482.717	595.38
482.935	587.38
483.153	600.38
483.372	602.38
483.59	606.38
483.808	616.38
484.027	599.38
484.245	599.38
484.463	612.38
484.681	650.38
484.9	640.38
485.118	618.38
485.336	626.38
485.554	621.38
485.772	624.38
485.99	633.38
486.209	626.38
486.427	623.38
486.645	657.38
486.863	664.38
487.081	681.38
487.299	657.38
487.517	655.38
487.735	654.38
487.953	664.38
488.171	677.38
488.389	656.38
488.607	687.38
488.825	668.38
489.043	644.38
489.261	674.38
489.479	682.38
489.696	670.38
489.914	709.38
490.132	693.38
490.35	681.38
490.568	718.38
490.786	720.38
491.003	727.38
491.221	704.38
491.439	754.38
491.657	744.38
491.874	808.38
492.092	768.38
492.31	791.38
492.527	800.38
492.745	815.38
492.963	788.38
493.18	789.38
493.398	782.38
493.615	810.38
493.833	788.38
494.05	806.38
494.268	814.38
494.485	807.38
494.703	816.38
494.92	805.38
495.138	803.38
495.355	802.38
495.573	776.38
495.79	813.38
496.008	788.38
496.225	790.38
496.442	824.38
496.66	818.38
496.877	814.38
497.094	832.38
497.312	802.38
497.529	773.38
497.746	778.38
497.963	820.38
498.181	850.38
498.398	840.38
498.615	831.38
498.832	866.38
499.049	885.38
499.267	864.38
499.484	888.38
499.701	918.38
499.918	930.38
500.135	926.38
500.352	969.38
500.569	960.38
500.786	982.38
501.003	961.38
501.22	975.38
501.437	949.38
501.654	925.38
501.871	942.38
