Data from 1970.PennyLincolnUp.Lamp.En5.5.200Scan.071719.P1._HRD10591_15-14-06-842.txt Node
Date: Thu Jul 18 15:14:06 EDT 2019
User: cochatt
Spectrometer: HR+D1059
Trigger mode: 1
Integration Time (sec): 1.000000E-1
Scans to average: 1
Electric dark correction enabled: true
Nonlinearity correction enabled: false
Boxcar width: 0
XAxis mode: Wavelengths
Number of Pixels in Spectrum: 2048
>>>>>Begin Spectral Data<<<<<
223.165	-26.19
223.4	-26.19
223.635	-26.19
223.869	-16.19
224.104	-17.19
224.338	-26.19
224.573	-20.19
224.808	2.81
225.042	8.81
225.277	3.81
225.511	0.81
225.746	-8.19
225.98	-9.19
226.215	12.81
226.449	13.81
226.683	22.81
226.918	29.81
227.152	27.81
227.387	30.81
227.621	37.81
227.856	55.81
228.09	46.81
228.324	45.81
228.559	68.81
228.793	72.81
229.027	104.81
229.262	116.81
229.496	148.81
229.73	145.81
229.964	178.81
230.199	134.81
230.433	126.81
230.667	122.81
230.901	130.81
231.136	109.81
231.37	109.81
231.604	130.81
231.838	128.81
232.072	122.81
232.306	130.81
232.541	134.81
232.775	111.81
233.009	106.81
233.243	122.81
233.477	109.81
233.711	100.81
233.945	123.81
234.179	109.81
234.413	114.81
234.647	106.81
234.881	121.81
235.115	126.81
235.349	137.81
235.583	120.81
235.817	136.81
236.051	133.81
236.285	132.81
236.519	136.81
236.753	143.81
236.987	158.81
237.221	188.81
237.455	260.81
237.689	204.81
237.922	160.81
238.156	139.81
238.39	147.81
238.624	128.81
238.858	125.81
239.091	122.81
239.325	131.81
239.559	127.81
239.793	146.81
240.027	153.81
240.26	150.81
240.494	163.81
240.728	168.81
240.961	170.81
241.195	152.81
241.429	140.81
241.662	146.81
241.896	118.81
242.13	141.81
242.363	132.81
242.597	134.81
242.83	142.81
243.064	159.81
243.298	165.81
243.531	129.81
243.765	133.81
243.998	142.81
244.232	150.81
244.465	146.81
244.699	153.81
244.932	140.81
245.166	150.81
245.399	140.81
245.633	158.81
245.866	135.81
246.099	148.81
246.333	153.81
246.566	173.81
246.8	152.81
247.033	156.81
247.266	168.81
247.5	178.81
247.733	183.81
247.966	191.81
248.2	202.81
248.433	189.81
248.666	184.81
248.899	204.81
249.133	225.81
249.366	214.81
249.599	227.81
249.832	199.81
250.066	216.81
250.299	177.81
250.532	192.81
250.765	229.81
250.998	245.81
251.231	250.81
251.465	241.81
251.698	238.81
251.931	231.81
252.164	211.81
252.397	217.81
252.63	215.81
252.863	230.81
253.096	231.81
253.329	241.81
253.562	229.81
253.795	239.81
254.028	239.81
254.261	245.81
254.494	270.81
254.727	275.81
254.96	297.81
255.193	291.81
255.426	268.81
255.659	258.81
255.892	245.81
256.124	248.81
256.357	243.81
256.59	236.81
256.823	241.81
257.056	228.81
257.289	227.81
257.521	212.81
257.754	226.81
257.987	226.81
258.22	238.81
258.452	209.81
258.685	213.81
258.918	212.81
259.151	238.81
259.383	237.81
259.616	260.81
259.849	233.81
260.081	248.81
260.314	268.81
260.547	273.81
260.779	260.81
261.012	282.81
261.244	251.81
261.477	218.81
261.71	224.81
261.942	229.81
262.175	240.81
262.407	248.81
262.64	234.81
262.872	234.81
263.105	213.81
263.337	209.81
263.57	217.81
263.802	222.81
264.035	199.81
264.267	233.81
264.499	229.81
264.732	192.81
264.964	206.81
265.197	220.81
265.429	236.81
265.661	215.81
265.894	228.81
266.126	208.81
266.358	220.81
266.591	233.81
266.823	210.81
267.055	231.81
267.287	227.81
267.52	232.81
267.752	234.81
267.984	226.81
268.216	229.81
268.448	235.81
268.681	244.81
268.913	243.81
269.145	276.81
269.377	288.81
269.609	283.81
269.841	277.81
270.073	282.81
270.306	292.81
270.538	350.81
270.77	330.81
271.002	314.81
271.234	308.81
271.466	309.81
271.698	323.81
271.93	345.81
272.162	323.81
272.394	325.81
272.626	327.81
272.858	310.81
273.09	289.81
273.322	292.81
273.553	276.81
273.785	256.81
274.017	273.81
274.249	262.81
274.481	262.81
274.713	267.81
274.945	265.81
275.176	274.81
275.408	257.81
275.64	244.81
275.872	268.81
276.104	266.81
276.335	270.81
276.567	272.81
276.799	277.81
277.031	301.81
277.262	313.81
277.494	325.81
277.726	304.81
277.957	284.81
278.189	271.81
278.421	264.81
278.652	287.81
278.884	273.81
279.115	268.81
279.347	254.81
279.579	287.81
279.81	260.81
280.042	267.81
280.273	251.81
280.505	253.81
280.736	270.81
280.968	271.81
281.199	244.81
281.431	269.81
281.662	257.81
281.894	264.81
282.125	273.81
282.356	274.81
282.588	292.81
282.819	301.81
283.051	283.81
283.282	254.81
283.513	293.81
283.745	282.81
283.976	270.81
284.207	262.81
284.439	278.81
284.67	263.81
284.901	268.81
285.132	268.81
285.364	258.81
285.595	258.81
285.826	267.81
286.057	265.81
286.288	264.81
286.52	263.81
286.751	260.81
286.982	285.81
287.213	254.81
287.444	278.81
287.675	285.81
287.906	271.81
288.138	285.81
288.369	283.81
288.6	296.81
288.831	284.81
289.062	288.81
289.293	292.81
289.524	294.81
289.755	293.81
289.986	274.81
290.217	292.81
290.448	288.81
290.679	270.81
290.91	265.81
291.141	289.81
291.371	274.81
291.602	281.81
291.833	269.81
292.064	292.81
292.295	269.81
292.526	286.81
292.757	268.81
292.987	282.81
293.218	280.81
293.449	258.81
293.68	270.81
293.91	289.81
294.141	266.81
294.372	245.81
294.603	285.81
294.833	284.81
295.064	295.81
295.295	269.81
295.525	268.81
295.756	282.81
295.987	298.81
296.217	300.81
296.448	321.81
296.679	304.81
296.909	286.81
297.14	310.81
297.37	288.81
297.601	274.81
297.831	278.81
298.062	291.81
298.292	304.81
298.523	278.81
298.753	286.81
298.984	288.81
299.214	283.81
299.445	316.81
299.675	289.81
299.905	296.81
300.136	301.81
300.366	291.81
300.597	304.81
300.827	313.81
301.057	284.81
301.288	298.81
301.518	316.81
301.748	316.81
301.979	310.81
302.209	320.81
302.439	317.81
302.669	305.81
302.9	321.81
303.13	310.81
303.36	318.81
303.59	295.81
303.82	328.81
304.051	345.81
304.281	327.81
304.511	323.81
304.741	305.81
304.971	332.81
305.201	304.81
305.431	310.81
305.661	316.81
305.891	315.81
306.121	323.81
306.352	330.81
306.582	317.81
306.812	303.81
307.042	317.81
307.272	330.81
307.502	309.81
307.731	332.81
307.961	336.81
308.191	314.81
308.421	326.81
308.651	332.81
308.881	319.81
309.111	312.81
309.341	333.81
309.571	366.81
309.8	343.81
310.03	346.81
310.26	374.81
310.49	388.81
310.72	379.81
310.949	391.81
311.179	407.81
311.409	386.81
311.639	388.81
311.868	373.81
312.098	382.81
312.328	387.81
312.557	416.81
312.787	404.81
313.017	401.81
313.246	398.81
313.476	374.81
313.706	370.81
313.935	378.81
314.165	392.81
314.394	394.81
314.624	410.81
314.853	381.81
315.083	357.81
315.312	378.81
315.542	346.81
315.771	347.81
316.001	372.81
316.23	358.81
316.46	378.81
316.689	390.81
316.919	410.81
317.148	359.81
317.377	375.81
317.607	369.81
317.836	381.81
318.065	358.81
318.295	366.81
318.524	373.81
318.753	362.81
318.983	363.81
319.212	370.81
319.441	400.81
319.67	395.81
319.9	360.81
320.129	366.81
320.358	381.81
320.587	385.81
320.816	406.81
321.046	387.81
321.275	390.81
321.504	413.81
321.733	398.81
321.962	402.81
322.191	408.81
322.42	436.81
322.649	430.81
322.878	474.81
323.108	455.81
323.337	514.81
323.566	548.81
323.795	552.81
324.024	631.81
324.253	764.81
324.482	1062.81
324.71	1622.81
324.939	2289.81
325.168	1981.81
325.397	1052.81
325.626	692.81
325.855	600.81
326.084	569.81
326.313	545.81
326.542	520.81
326.77	605.81
326.999	670.81
327.228	932.81
327.457	1420.81
327.686	1736.81
327.914	1177.81
328.143	776.81
328.372	684.81
328.6	642.81
328.829	592.81
329.058	614.81
329.287	628.81
329.515	573.81
329.744	527.81
329.972	542.81
330.201	576.81
330.43	607.81
330.658	662.81
330.887	656.81
331.115	649.81
331.344	548.81
331.572	522.81
331.801	484.81
332.03	510.81
332.258	474.81
332.486	450.81
332.715	444.81
332.943	433.81
333.172	422.81
333.4	448.81
333.629	476.81
333.857	485.81
334.085	493.81
334.314	491.81
334.542	541.81
334.771	559.81
334.999	517.81
335.227	452.81
335.455	445.81
335.684	436.81
335.912	437.81
336.14	427.81
336.369	434.81
336.597	432.81
336.825	436.81
337.053	434.81
337.281	431.81
337.51	441.81
337.738	447.81
337.966	428.81
338.194	439.81
338.422	441.81
338.65	446.81
338.878	425.81
339.106	420.81
339.334	410.81
339.562	416.81
339.79	417.81
340.018	416.81
340.246	433.81
340.474	454.81
340.702	423.81
340.93	424.81
341.158	429.81
341.386	423.81
341.614	442.81
341.842	440.81
342.07	432.81
342.298	412.81
342.526	424.81
342.754	408.81
342.981	395.81
343.209	408.81
343.437	422.81
343.665	403.81
343.893	414.81
344.12	426.81
344.348	421.81
344.576	440.81
344.804	447.81
345.031	434.81
345.259	450.81
345.487	441.81
345.714	437.81
345.942	431.81
346.17	398.81
346.397	394.81
346.625	411.81
346.853	417.81
347.08	415.81
347.308	425.81
347.535	426.81
347.763	419.81
347.99	429.81
348.218	444.81
348.445	445.81
348.673	430.81
348.9	428.81
349.128	417.81
349.355	402.81
349.583	418.81
349.81	410.81
350.037	417.81
350.265	404.81
350.492	406.81
350.72	414.81
350.947	430.81
351.174	429.81
351.402	423.81
351.629	455.81
351.856	428.81
352.083	432.81
352.311	431.81
352.538	455.81
352.765	468.81
352.992	438.81
353.22	421.81
353.447	429.81
353.674	406.81
353.901	409.81
354.128	395.81
354.355	400.81
354.583	383.81
354.81	394.81
355.037	381.81
355.264	390.81
355.491	375.81
355.718	395.81
355.945	390.81
356.172	392.81
356.399	383.81
356.626	384.81
356.853	403.81
357.08	392.81
357.307	381.81
357.534	377.81
357.761	388.81
357.988	401.81
358.215	390.81
358.441	402.81
358.668	395.81
358.895	418.81
359.122	383.81
359.349	411.81
359.576	422.81
359.802	429.81
360.029	489.81
360.256	478.81
360.483	483.81
360.709	434.81
360.936	411.81
361.163	429.81
361.39	426.81
361.616	407.81
361.843	421.81
362.07	430.81
362.296	445.81
362.523	413.81
362.749	416.81
362.976	401.81
363.203	388.81
363.429	417.81
363.656	406.81
363.882	420.81
364.109	408.81
364.335	398.81
364.562	416.81
364.788	426.81
365.015	406.81
365.241	408.81
365.468	430.81
365.694	425.81
365.92	415.81
366.147	403.81
366.373	402.81
366.599	409.81
366.826	408.81
367.052	391.81
367.278	392.81
367.505	401.81
367.731	421.81
367.957	404.81
368.184	418.81
368.41	380.81
368.636	408.81
368.862	430.81
369.089	430.81
369.315	411.81
369.541	415.81
369.767	411.81
369.993	413.81
370.219	419.81
370.445	395.81
370.672	388.81
370.898	425.81
371.124	400.81
371.35	406.81
371.576	396.81
371.802	422.81
372.028	393.81
372.254	388.81
372.48	414.81
372.706	396.81
372.932	400.81
373.158	394.81
373.384	402.81
373.61	407.81
373.835	399.81
374.061	381.81
374.287	386.81
374.513	407.81
374.739	412.81
374.965	406.81
375.191	379.81
375.416	411.81
375.642	431.81
375.868	400.81
376.094	410.81
376.319	398.81
376.545	400.81
376.771	412.81
376.997	397.81
377.222	415.81
377.448	391.81
377.674	398.81
377.899	414.81
378.125	416.81
378.35	403.81
378.576	401.81
378.802	398.81
379.027	423.81
379.253	399.81
379.478	403.81
379.704	402.81
379.929	409.81
380.155	412.81
380.38	386.81
380.606	416.81
380.831	418.81
381.057	401.81
381.282	419.81
381.507	410.81
381.733	418.81
381.958	403.81
382.184	392.81
382.409	386.81
382.634	416.81
382.86	400.81
383.085	396.81
383.31	421.81
383.535	408.81
383.761	408.81
383.986	417.81
384.211	426.81
384.436	414.81
384.662	437.81
384.887	425.81
385.112	428.81
385.337	442.81
385.562	431.81
385.787	425.81
386.013	446.81
386.238	429.81
386.463	434.81
386.688	442.81
386.913	436.81
387.138	432.81
387.363	448.81
387.588	433.81
387.813	425.81
388.038	426.81
388.263	446.81
388.488	440.81
388.713	445.81
388.938	424.81
389.163	426.81
389.387	433.81
389.612	431.81
389.837	443.81
390.062	441.81
390.287	418.81
390.512	429.81
390.736	453.81
390.961	446.81
391.186	461.81
391.411	433.81
391.636	442.81
391.86	457.81
392.085	448.81
392.31	452.81
392.534	456.81
392.759	458.81
392.984	447.81
393.208	440.81
393.433	457.81
393.658	464.81
393.882	441.81
394.107	459.81
394.331	464.81
394.556	439.81
394.78	434.81
395.005	457.81
395.229	446.81
395.454	468.81
395.678	451.81
395.903	467.81
396.127	486.81
396.352	496.81
396.576	465.81
396.801	451.81
397.025	472.81
397.249	474.81
397.474	462.81
397.698	488.81
397.922	470.81
398.147	507.81
398.371	508.81
398.595	485.81
398.82	486.81
399.044	495.81
399.268	515.81
399.492	520.81
399.717	564.81
399.941	570.81
400.165	613.81
400.389	618.81
400.613	564.81
400.837	514.81
401.062	518.81
401.286	530.81
401.51	515.81
401.734	518.81
401.958	480.81
402.182	518.81
402.406	524.81
402.63	497.81
402.854	511.81
403.078	525.81
403.302	523.81
403.526	516.81
403.75	526.81
403.974	535.81
404.198	528.81
404.422	541.81
404.645	541.81
404.869	548.81
405.093	566.81
405.317	599.81
405.541	634.81
405.765	597.81
405.988	566.81
406.212	556.81
406.436	578.81
406.66	598.81
406.883	584.81
407.107	575.81
407.331	648.81
407.555	700.81
407.778	694.81
408.002	640.81
408.226	594.81
408.449	618.81
408.673	597.81
408.896	618.81
409.12	672.81
409.344	619.81
409.567	553.81
409.791	544.81
410.014	528.81
410.238	520.81
410.461	539.81
410.685	541.81
410.908	541.81
411.132	611.81
411.355	644.81
411.578	604.81
411.802	543.81
412.025	530.81
412.249	564.81
412.472	582.81
412.695	598.81
412.919	573.81
413.142	556.81
413.365	514.81
413.589	548.81
413.812	508.81
414.035	525.81
414.258	491.81
414.482	508.81
414.705	502.81
414.928	516.81
415.151	471.81
415.374	506.81
415.597	491.81
415.821	472.81
416.044	504.81
416.267	514.81
416.49	510.81
416.713	507.81
416.936	501.81
417.159	477.81
417.382	497.81
417.605	518.81
417.828	523.81
418.051	533.81
418.274	528.81
418.497	508.81
418.72	508.81
418.943	519.81
419.166	526.81
419.389	555.81
419.611	549.81
419.834	527.81
420.057	544.81
420.28	538.81
420.503	557.81
420.726	538.81
420.948	562.81
421.171	596.81
421.394	613.81
421.617	564.81
421.839	551.81
422.062	558.81
422.285	538.81
422.507	624.81
422.73	682.81
422.953	644.81
423.175	598.81
423.398	561.81
423.621	573.81
423.843	589.81
424.066	579.81
424.288	596.81
424.511	597.81
424.733	679.81
424.956	753.81
425.178	718.81
425.401	719.81
425.623	722.81
425.846	636.81
426.068	572.81
426.291	583.81
426.513	589.81
426.735	628.81
426.958	645.81
427.18	716.81
427.402	860.81
427.625	933.81
427.847	845.81
428.069	746.81
428.292	651.81
428.514	617.81
428.736	584.81
428.958	577.81
429.181	589.81
429.403	576.81
429.625	567.81
429.847	593.81
430.069	688.81
430.292	662.81
430.514	585.81
430.736	560.81
430.958	547.81
431.18	526.81
431.402	537.81
431.624	529.81
431.846	489.81
432.068	510.81
432.29	524.81
432.512	517.81
432.734	524.81
432.956	520.81
433.178	523.81
433.4	545.81
433.622	531.81
433.844	530.81
434.066	516.81
434.287	522.81
434.509	521.81
434.731	534.81
434.953	538.81
435.175	559.81
435.397	598.81
435.618	599.81
435.84	632.81
436.062	736.81
436.284	808.81
436.505	675.81
436.727	615.81
436.949	593.81
437.17	551.81
437.392	558.81
437.614	564.81
437.835	596.81
438.057	732.81
438.278	832.81
438.5	808.81
438.721	870.81
438.943	828.81
439.165	693.81
439.386	632.81
439.608	626.81
439.829	621.81
440.05	650.81
440.272	684.81
440.493	670.81
440.715	601.81
440.936	581.81
441.158	572.81
441.379	553.81
441.6	577.81
441.822	608.81
442.043	651.81
442.264	718.81
442.486	778.81
442.707	685.81
442.928	624.81
443.149	634.81
443.371	652.81
443.592	679.81
443.813	799.81
444.034	811.81
444.255	688.81
444.476	652.81
444.698	605.81
444.919	588.81
445.14	728.81
445.361	669.81
445.582	636.81
445.803	713.81
446.024	817.81
446.245	822.81
446.466	752.81
446.687	642.81
446.908	600.81
447.129	580.81
447.35	578.81
447.571	572.81
447.792	553.81
448.013	575.81
448.234	590.81
448.455	649.81
448.675	764.81
448.896	866.81
449.117	732.81
449.338	698.81
449.559	790.81
449.779	876.81
450	719.81
450.221	635.81
450.442	577.81
450.662	574.81
450.883	579.81
451.104	594.81
451.324	571.81
451.545	527.81
451.766	506.81
451.986	523.81
452.207	516.81
452.428	493.81
452.648	506.81
452.869	512.81
453.089	519.81
453.31	532.81
453.53	528.81
453.751	499.81
453.971	505.81
454.192	521.81
454.412	538.81
454.633	486.81
454.853	498.81
455.073	501.81
455.294	518.81
455.514	618.81
455.734	575.81
455.955	503.81
456.175	474.81
456.395	484.81
456.616	469.81
456.836	481.81
457.056	461.81
457.276	440.81
457.497	480.81
457.717	454.81
457.937	468.81
458.157	501.81
458.377	467.81
458.598	505.81
458.818	597.81
459.038	667.81
459.258	666.81
459.478	598.81
459.698	540.81
459.918	508.81
460.138	513.81
460.358	505.81
460.578	522.81
460.798	525.81
461.018	516.81
461.238	516.81
461.458	488.81
461.678	514.81
461.898	528.81
462.118	517.81
462.338	518.81
462.558	517.81
462.777	518.81
462.997	529.81
463.217	537.81
463.437	545.81
463.657	530.81
463.876	544.81
464.096	540.81
464.316	537.81
464.536	567.81
464.755	560.81
464.975	569.81
465.195	615.81
465.414	702.81
465.634	607.81
465.854	576.81
466.073	547.81
466.293	512.81
466.512	516.81
466.732	518.81
466.951	519.81
467.171	502.81
467.391	530.81
467.61	524.81
467.829	537.81
468.049	522.81
468.268	524.81
468.488	515.81
468.707	512.81
468.927	497.81
469.146	491.81
469.365	492.81
469.585	514.81
469.804	503.81
470.023	532.81
470.243	524.81
470.462	512.81
470.681	538.81
470.901	512.81
471.12	520.81
471.339	524.81
471.558	514.81
471.777	510.81
471.997	498.81
472.216	520.81
472.435	562.81
472.654	543.81
472.873	548.81
473.092	507.81
473.311	521.81
473.53	515.81
473.749	533.81
473.968	574.81
474.187	676.81
474.406	678.81
474.625	598.81
474.844	531.81
475.063	545.81
475.282	523.81
475.501	518.81
475.72	531.81
475.939	542.81
476.158	525.81
476.377	545.81
476.596	540.81
476.814	557.81
477.033	553.81
477.252	564.81
477.471	550.81
477.69	564.81
477.908	560.81
478.127	548.81
478.346	579.81
478.564	553.81
478.783	568.81
479.002	576.81
479.22	586.81
479.439	604.81
479.658	604.81
479.876	636.81
480.095	633.81
480.313	670.81
480.532	653.81
480.751	642.81
480.969	633.81
481.188	753.81
481.406	756.81
481.624	670.81
481.843	632.81
482.061	616.81
482.28	628.81
482.498	631.81
482.717	633.81
482.935	629.81
483.153	612.81
483.372	644.81
483.59	632.81
483.808	597.81
484.027	644.81
484.245	613.81
484.463	610.81
484.681	636.81
484.9	644.81
485.118	649.81
485.336	640.81
485.554	622.81
485.772	634.81
485.99	640.81
486.209	658.81
486.427	650.81
486.645	657.81
486.863	665.81
487.081	662.81
487.299	663.81
487.517	684.81
487.735	660.81
487.953	672.81
488.171	666.81
488.389	684.81
488.607	696.81
488.825	671.81
489.043	680.81
489.261	682.81
489.479	689.81
489.696	698.81
489.914	697.81
490.132	681.81
490.35	682.81
490.568	733.81
490.786	721.81
491.003	733.81
491.221	761.81
491.439	776.81
491.657	767.81
491.874	786.81
492.092	757.81
492.31	782.81
492.527	797.81
492.745	802.81
492.963	798.81
493.18	825.81
493.398	805.81
493.615	824.81
493.833	801.81
494.05	817.81
494.268	804.81
494.485	825.81
494.703	800.81
494.92	804.81
495.138	820.81
495.355	810.81
495.573	812.81
495.79	812.81
496.008	816.81
496.225	821.81
496.442	816.81
496.66	820.81
496.877	804.81
497.094	809.81
497.312	815.81
497.529	844.81
497.746	847.81
497.963	827.81
498.181	836.81
498.398	856.81
498.615	851.81
498.832	898.81
499.049	892.81
499.267	885.81
499.484	886.81
499.701	944.81
499.918	925.81
500.135	974.81
500.352	1005.81
500.569	1009.81
500.786	1000.81
501.003	997.81
501.22	1016.81
501.437	972.81
501.654	954.81
501.871	981.81
