Data from 1970.PennyLincolnUp.Lamp.En5.5.200Scan.071719.P1._HRD10591_15-12-48-844.txt Node
Date: Thu Jul 18 15:12:48 EDT 2019
User: cochatt
Spectrometer: HR+D1059
Trigger mode: 1
Integration Time (sec): 1.000000E-1
Scans to average: 1
Electric dark correction enabled: true
Nonlinearity correction enabled: false
Boxcar width: 0
XAxis mode: Wavelengths
Number of Pixels in Spectrum: 2048
>>>>>Begin Spectral Data<<<<<
223.165	-6.5
223.4	-6.5
223.635	-6.5
223.869	-26.5
224.104	-28.5
224.338	-26.5
224.573	-5.5
224.808	-16.5
225.042	-10.5
225.277	-9.5
225.511	-16.5
225.746	12.5
225.98	11.5
226.215	14.5
226.449	17.5
226.683	20.5
226.918	33.5
227.152	36.5
227.387	25.5
227.621	49.5
227.856	66.5
228.09	47.5
228.324	44.5
228.559	70.5
228.793	69.5
229.027	72.5
229.262	83.5
229.496	83.5
229.73	85.5
229.964	86.5
230.199	72.5
230.433	79.5
230.667	79.5
230.901	82.5
231.136	89.5
231.37	88.5
231.604	89.5
231.838	97.5
232.072	85.5
232.306	83.5
232.541	88.5
232.775	94.5
233.009	97.5
233.243	90.5
233.477	84.5
233.711	98.5
233.945	81.5
234.179	84.5
234.413	89.5
234.647	95.5
234.881	98.5
235.115	90.5
235.349	89.5
235.583	86.5
235.817	89.5
236.051	88.5
236.285	77.5
236.519	89.5
236.753	98.5
236.987	92.5
237.221	89.5
237.455	113.5
237.689	107.5
237.922	109.5
238.156	83.5
238.39	87.5
238.624	90.5
238.858	77.5
239.091	89.5
239.325	82.5
239.559	71.5
239.793	89.5
240.027	73.5
240.26	91.5
240.494	89.5
240.728	95.5
240.961	96.5
241.195	82.5
241.429	74.5
241.662	94.5
241.896	86.5
242.13	92.5
242.363	78.5
242.597	87.5
242.83	93.5
243.064	89.5
243.298	94.5
243.531	88.5
243.765	86.5
243.998	77.5
244.232	91.5
244.465	77.5
244.699	85.5
244.932	86.5
245.166	77.5
245.399	85.5
245.633	96.5
245.866	91.5
246.099	82.5
246.333	97.5
246.566	95.5
246.8	93.5
247.033	82.5
247.266	95.5
247.5	101.5
247.733	99.5
247.966	94.5
248.2	96.5
248.433	91.5
248.666	105.5
248.899	101.5
249.133	97.5
249.366	111.5
249.599	97.5
249.832	92.5
250.066	103.5
250.299	85.5
250.532	97.5
250.765	111.5
250.998	121.5
251.231	99.5
251.465	106.5
251.698	102.5
251.931	100.5
252.164	90.5
252.397	104.5
252.63	102.5
252.863	99.5
253.096	105.5
253.329	91.5
253.562	90.5
253.795	115.5
254.028	107.5
254.261	95.5
254.494	109.5
254.727	109.5
254.96	110.5
255.193	117.5
255.426	108.5
255.659	97.5
255.892	113.5
256.124	95.5
256.357	116.5
256.59	97.5
256.823	104.5
257.056	101.5
257.289	105.5
257.521	110.5
257.754	103.5
257.987	99.5
258.22	113.5
258.452	99.5
258.685	99.5
258.918	97.5
259.151	98.5
259.383	94.5
259.616	109.5
259.849	115.5
260.081	105.5
260.314	120.5
260.547	125.5
260.779	102.5
261.012	103.5
261.244	99.5
261.477	108.5
261.71	93.5
261.942	115.5
262.175	111.5
262.407	117.5
262.64	108.5
262.872	94.5
263.105	100.5
263.337	109.5
263.57	114.5
263.802	104.5
264.035	109.5
264.267	94.5
264.499	116.5
264.732	94.5
264.964	119.5
265.197	101.5
265.429	89.5
265.661	94.5
265.894	114.5
266.126	114.5
266.358	102.5
266.591	109.5
266.823	104.5
267.055	106.5
267.287	106.5
267.52	113.5
267.752	126.5
267.984	108.5
268.216	116.5
268.448	101.5
268.681	86.5
268.913	102.5
269.145	93.5
269.377	101.5
269.609	118.5
269.841	112.5
270.073	108.5
270.306	107.5
270.538	117.5
270.77	118.5
271.002	113.5
271.234	115.5
271.466	134.5
271.698	122.5
271.93	119.5
272.162	114.5
272.394	101.5
272.626	125.5
272.858	111.5
273.09	119.5
273.322	124.5
273.553	108.5
273.785	114.5
274.017	108.5
274.249	112.5
274.481	109.5
274.713	113.5
274.945	123.5
275.176	118.5
275.408	128.5
275.64	113.5
275.872	113.5
276.104	129.5
276.335	118.5
276.567	109.5
276.799	133.5
277.031	140.5
277.262	119.5
277.494	132.5
277.726	116.5
277.957	119.5
278.189	119.5
278.421	112.5
278.652	124.5
278.884	119.5
279.115	138.5
279.347	154.5
279.579	158.5
279.81	186.5
280.042	178.5
280.273	147.5
280.505	147.5
280.736	151.5
280.968	128.5
281.199	123.5
281.431	113.5
281.662	107.5
281.894	137.5
282.125	113.5
282.356	130.5
282.588	122.5
282.819	129.5
283.051	119.5
283.282	116.5
283.513	116.5
283.745	119.5
283.976	125.5
284.207	123.5
284.439	116.5
284.67	108.5
284.901	104.5
285.132	126.5
285.364	131.5
285.595	117.5
285.826	127.5
286.057	122.5
286.288	118.5
286.52	123.5
286.751	117.5
286.982	128.5
287.213	100.5
287.444	117.5
287.675	137.5
287.906	129.5
288.138	136.5
288.369	137.5
288.6	105.5
288.831	107.5
289.062	131.5
289.293	119.5
289.524	115.5
289.755	128.5
289.986	93.5
290.217	125.5
290.448	125.5
290.679	108.5
290.91	113.5
291.141	106.5
291.371	116.5
291.602	119.5
291.833	119.5
292.064	119.5
292.295	126.5
292.526	116.5
292.757	126.5
292.987	133.5
293.218	118.5
293.449	115.5
293.68	123.5
293.91	119.5
294.141	117.5
294.372	111.5
294.603	117.5
294.833	129.5
295.064	113.5
295.295	124.5
295.525	126.5
295.756	129.5
295.987	115.5
296.217	126.5
296.448	126.5
296.679	127.5
296.909	129.5
297.14	115.5
297.37	118.5
297.601	98.5
297.831	122.5
298.062	132.5
298.292	128.5
298.523	123.5
298.753	109.5
298.984	112.5
299.214	131.5
299.445	110.5
299.675	125.5
299.905	135.5
300.136	125.5
300.366	127.5
300.597	123.5
300.827	129.5
301.057	122.5
301.288	130.5
301.518	143.5
301.748	129.5
301.979	128.5
302.209	140.5
302.439	125.5
302.669	124.5
302.9	129.5
303.13	131.5
303.36	147.5
303.59	125.5
303.82	133.5
304.051	144.5
304.281	129.5
304.511	133.5
304.741	126.5
304.971	121.5
305.201	119.5
305.431	117.5
305.661	127.5
305.891	133.5
306.121	144.5
306.352	126.5
306.582	128.5
306.812	124.5
307.042	125.5
307.272	126.5
307.502	132.5
307.731	127.5
307.961	121.5
308.191	121.5
308.421	123.5
308.651	126.5
308.881	128.5
309.111	131.5
309.341	127.5
309.571	126.5
309.8	152.5
310.03	128.5
310.26	125.5
310.49	133.5
310.72	155.5
310.949	152.5
311.179	142.5
311.409	134.5
311.639	140.5
311.868	141.5
312.098	146.5
312.328	142.5
312.557	157.5
312.787	156.5
313.017	161.5
313.246	127.5
313.476	127.5
313.706	125.5
313.935	126.5
314.165	145.5
314.394	133.5
314.624	149.5
314.853	141.5
315.083	131.5
315.312	135.5
315.542	134.5
315.771	139.5
316.001	148.5
316.23	151.5
316.46	145.5
316.689	137.5
316.919	147.5
317.148	143.5
317.377	141.5
317.607	146.5
317.836	157.5
318.065	151.5
318.295	150.5
318.524	151.5
318.753	146.5
318.983	142.5
319.212	136.5
319.441	134.5
319.67	133.5
319.9	133.5
320.129	143.5
320.358	148.5
320.587	136.5
320.816	143.5
321.046	143.5
321.275	140.5
321.504	146.5
321.733	129.5
321.962	139.5
322.191	144.5
322.42	150.5
322.649	168.5
322.878	163.5
323.108	179.5
323.337	174.5
323.566	171.5
323.795	198.5
324.024	219.5
324.253	262.5
324.482	380.5
324.71	526.5
324.939	656.5
325.168	497.5
325.397	302.5
325.626	223.5
325.855	183.5
326.084	163.5
326.313	199.5
326.542	170.5
326.77	223.5
326.999	246.5
327.228	326.5
327.457	460.5
327.686	495.5
327.914	338.5
328.143	228.5
328.372	230.5
328.6	195.5
328.829	187.5
329.058	196.5
329.287	206.5
329.515	191.5
329.744	175.5
329.972	180.5
330.201	177.5
330.43	181.5
330.658	186.5
330.887	212.5
331.115	219.5
331.344	181.5
331.572	159.5
331.801	172.5
332.03	163.5
332.258	155.5
332.486	144.5
332.715	147.5
332.943	150.5
333.172	148.5
333.4	151.5
333.629	146.5
333.857	165.5
334.085	161.5
334.314	149.5
334.542	182.5
334.771	169.5
334.999	161.5
335.227	176.5
335.455	156.5
335.684	133.5
335.912	138.5
336.14	168.5
336.369	150.5
336.597	143.5
336.825	156.5
337.053	159.5
337.281	155.5
337.51	152.5
337.738	149.5
337.966	149.5
338.194	149.5
338.422	153.5
338.65	151.5
338.878	148.5
339.106	136.5
339.334	149.5
339.562	132.5
339.79	142.5
340.018	150.5
340.246	159.5
340.474	143.5
340.702	147.5
340.93	151.5
341.158	150.5
341.386	154.5
341.614	136.5
341.842	147.5
342.07	135.5
342.298	138.5
342.526	126.5
342.754	136.5
342.981	134.5
343.209	135.5
343.437	139.5
343.665	153.5
343.893	139.5
344.12	134.5
344.348	146.5
344.576	159.5
344.804	146.5
345.031	146.5
345.259	149.5
345.487	154.5
345.714	135.5
345.942	147.5
346.17	134.5
346.397	141.5
346.625	125.5
346.853	150.5
347.08	151.5
347.308	152.5
347.535	152.5
347.763	163.5
347.99	149.5
348.218	139.5
348.445	142.5
348.673	130.5
348.9	124.5
349.128	137.5
349.355	137.5
349.583	135.5
349.81	143.5
350.037	129.5
350.265	148.5
350.492	140.5
350.72	126.5
350.947	143.5
351.174	136.5
351.402	151.5
351.629	152.5
351.856	143.5
352.083	161.5
352.311	155.5
352.538	149.5
352.765	142.5
352.992	159.5
353.22	149.5
353.447	129.5
353.674	142.5
353.901	132.5
354.128	139.5
354.355	144.5
354.583	142.5
354.81	130.5
355.037	126.5
355.264	127.5
355.491	139.5
355.718	134.5
355.945	141.5
356.172	136.5
356.399	137.5
356.626	135.5
356.853	151.5
357.08	142.5
357.307	142.5
357.534	123.5
357.761	150.5
357.988	132.5
358.215	136.5
358.441	133.5
358.668	131.5
358.895	134.5
359.122	139.5
359.349	141.5
359.576	156.5
359.802	155.5
360.029	173.5
360.256	168.5
360.483	149.5
360.709	144.5
360.936	149.5
361.163	147.5
361.39	164.5
361.616	137.5
361.843	132.5
362.07	157.5
362.296	149.5
362.523	139.5
362.749	147.5
362.976	149.5
363.203	147.5
363.429	145.5
363.656	145.5
363.882	148.5
364.109	151.5
364.335	149.5
364.562	137.5
364.788	145.5
365.015	139.5
365.241	139.5
365.468	138.5
365.694	131.5
365.92	134.5
366.147	147.5
366.373	124.5
366.599	145.5
366.826	117.5
367.052	145.5
367.278	124.5
367.505	147.5
367.731	155.5
367.957	146.5
368.184	139.5
368.41	145.5
368.636	166.5
368.862	155.5
369.089	150.5
369.315	140.5
369.541	131.5
369.767	133.5
369.993	141.5
370.219	134.5
370.445	160.5
370.672	137.5
370.898	125.5
371.124	133.5
371.35	154.5
371.576	133.5
371.802	127.5
372.028	124.5
372.254	135.5
372.48	131.5
372.706	126.5
372.932	123.5
373.158	132.5
373.384	124.5
373.61	150.5
373.835	149.5
374.061	134.5
374.287	151.5
374.513	142.5
374.739	131.5
374.965	135.5
375.191	155.5
375.416	143.5
375.642	142.5
375.868	142.5
376.094	143.5
376.319	138.5
376.545	132.5
376.771	113.5
376.997	149.5
377.222	138.5
377.448	128.5
377.674	124.5
377.899	140.5
378.125	123.5
378.35	121.5
378.576	134.5
378.802	138.5
379.027	133.5
379.253	141.5
379.478	124.5
379.704	140.5
379.929	124.5
380.155	140.5
380.38	132.5
380.606	135.5
380.831	147.5
381.057	138.5
381.282	126.5
381.507	134.5
381.733	121.5
381.958	145.5
382.184	137.5
382.409	140.5
382.634	144.5
382.86	143.5
383.085	158.5
383.31	154.5
383.535	149.5
383.761	133.5
383.986	141.5
384.211	139.5
384.436	153.5
384.662	136.5
384.887	159.5
385.112	144.5
385.337	143.5
385.562	151.5
385.787	143.5
386.013	157.5
386.238	162.5
386.463	154.5
386.688	150.5
386.913	138.5
387.138	140.5
387.363	150.5
387.588	157.5
387.813	152.5
388.038	145.5
388.263	159.5
388.488	140.5
388.713	141.5
388.938	136.5
389.163	135.5
389.387	139.5
389.612	130.5
389.837	138.5
390.062	152.5
390.287	143.5
390.512	151.5
390.736	145.5
390.961	147.5
391.186	142.5
391.411	146.5
391.636	163.5
391.86	165.5
392.085	154.5
392.31	145.5
392.534	179.5
392.759	163.5
392.984	200.5
393.208	279.5
393.433	399.5
393.658	364.5
393.882	221.5
394.107	191.5
394.331	158.5
394.556	149.5
394.78	161.5
395.005	152.5
395.229	151.5
395.454	143.5
395.678	142.5
395.903	155.5
396.127	181.5
396.352	185.5
396.576	213.5
396.801	264.5
397.025	303.5
397.249	248.5
397.474	162.5
397.698	155.5
397.922	147.5
398.147	146.5
398.371	145.5
398.595	160.5
398.82	144.5
399.044	152.5
399.268	184.5
399.492	169.5
399.717	166.5
399.941	182.5
400.165	169.5
400.389	169.5
400.613	163.5
400.837	151.5
401.062	139.5
401.286	168.5
401.51	157.5
401.734	157.5
401.958	159.5
402.182	151.5
402.406	156.5
402.63	158.5
402.854	149.5
403.078	157.5
403.302	154.5
403.526	171.5
403.75	175.5
403.974	172.5
404.198	165.5
404.422	153.5
404.645	164.5
404.869	166.5
405.093	184.5
405.317	181.5
405.541	171.5
405.765	177.5
405.988	179.5
406.212	163.5
406.436	197.5
406.66	185.5
406.883	171.5
407.107	192.5
407.331	190.5
407.555	201.5
407.778	192.5
408.002	177.5
408.226	172.5
408.449	163.5
408.673	178.5
408.896	179.5
409.12	178.5
409.344	176.5
409.567	171.5
409.791	157.5
410.014	163.5
410.238	158.5
410.461	149.5
410.685	155.5
410.908	149.5
411.132	160.5
411.355	168.5
411.578	167.5
411.802	156.5
412.025	154.5
412.249	142.5
412.472	164.5
412.695	154.5
412.919	159.5
413.142	178.5
413.365	162.5
413.589	159.5
413.812	152.5
414.035	152.5
414.258	153.5
414.482	150.5
414.705	150.5
414.928	160.5
415.151	146.5
415.374	157.5
415.597	152.5
415.821	161.5
416.044	155.5
416.267	149.5
416.49	161.5
416.713	154.5
416.936	163.5
417.159	161.5
417.382	143.5
417.605	153.5
417.828	155.5
418.051	169.5
418.274	161.5
418.497	155.5
418.72	156.5
418.943	166.5
419.166	167.5
419.389	177.5
419.611	154.5
419.834	160.5
420.057	163.5
420.28	155.5
420.503	153.5
420.726	150.5
420.948	170.5
421.171	165.5
421.394	193.5
421.617	156.5
421.839	144.5
422.062	158.5
422.285	165.5
422.507	185.5
422.73	228.5
422.953	218.5
423.175	174.5
423.398	160.5
423.621	155.5
423.843	164.5
424.066	176.5
424.288	169.5
424.511	174.5
424.733	179.5
424.956	189.5
425.178	190.5
425.401	198.5
425.623	193.5
425.846	190.5
426.068	166.5
426.291	174.5
426.513	177.5
426.735	170.5
426.958	185.5
427.18	197.5
427.402	221.5
427.625	253.5
427.847	231.5
428.069	204.5
428.292	165.5
428.514	161.5
428.736	162.5
428.958	159.5
429.181	159.5
429.403	155.5
429.625	144.5
429.847	181.5
430.069	175.5
430.292	182.5
430.514	187.5
430.736	189.5
430.958	155.5
431.18	154.5
431.402	157.5
431.624	143.5
431.846	143.5
432.068	152.5
432.29	143.5
432.512	149.5
432.734	150.5
432.956	166.5
433.178	150.5
433.4	169.5
433.622	169.5
433.844	180.5
434.066	157.5
434.287	161.5
434.509	153.5
434.731	180.5
434.953	159.5
435.175	162.5
435.397	166.5
435.618	168.5
435.84	179.5
436.062	193.5
436.284	201.5
436.505	169.5
436.727	171.5
436.949	174.5
437.17	173.5
437.392	162.5
437.614	166.5
437.835	182.5
438.057	195.5
438.278	203.5
438.5	192.5
438.721	214.5
438.943	220.5
439.165	189.5
439.386	169.5
439.608	170.5
439.829	181.5
440.05	189.5
440.272	184.5
440.493	205.5
440.715	178.5
440.936	159.5
441.158	144.5
441.379	163.5
441.6	164.5
441.822	188.5
442.043	181.5
442.264	192.5
442.486	186.5
442.707	168.5
442.928	165.5
443.149	181.5
443.371	181.5
443.592	200.5
443.813	212.5
444.034	228.5
444.255	183.5
444.476	179.5
444.698	180.5
444.919	189.5
445.14	294.5
445.361	233.5
445.582	203.5
445.803	216.5
446.024	233.5
446.245	228.5
446.466	202.5
446.687	198.5
446.908	171.5
447.129	170.5
447.35	156.5
447.571	155.5
447.792	161.5
448.013	159.5
448.234	173.5
448.455	177.5
448.675	194.5
448.896	205.5
449.117	180.5
449.338	184.5
449.559	215.5
449.779	230.5
450	188.5
450.221	189.5
450.442	165.5
450.662	161.5
450.883	184.5
451.104	202.5
451.324	168.5
451.545	162.5
451.766	149.5
451.986	139.5
452.207	150.5
452.428	148.5
452.648	159.5
452.869	150.5
453.089	162.5
453.31	171.5
453.53	167.5
453.751	171.5
453.971	158.5
454.192	164.5
454.412	156.5
454.633	156.5
454.853	126.5
455.073	145.5
455.294	159.5
455.514	186.5
455.734	156.5
455.955	158.5
456.175	141.5
456.395	140.5
456.616	146.5
456.836	148.5
457.056	139.5
457.276	131.5
457.497	155.5
457.717	143.5
457.937	142.5
458.157	164.5
458.377	163.5
458.598	166.5
458.818	191.5
459.038	201.5
459.258	185.5
459.478	171.5
459.698	153.5
459.918	159.5
460.138	153.5
460.358	153.5
460.578	146.5
460.798	141.5
461.018	163.5
461.238	169.5
461.458	162.5
461.678	143.5
461.898	177.5
462.118	155.5
462.338	155.5
462.558	159.5
462.777	156.5
462.997	155.5
463.217	166.5
463.437	166.5
463.657	159.5
463.876	171.5
464.096	168.5
464.316	169.5
464.536	154.5
464.755	165.5
464.975	177.5
465.195	209.5
465.414	250.5
465.634	201.5
465.854	185.5
466.073	161.5
466.293	165.5
466.512	155.5
466.732	169.5
466.951	137.5
467.171	154.5
467.391	161.5
467.61	155.5
467.829	175.5
468.049	170.5
468.268	163.5
468.488	148.5
468.707	158.5
468.927	158.5
469.146	160.5
469.365	145.5
469.585	171.5
469.804	169.5
470.023	156.5
470.243	175.5
470.462	159.5
470.681	178.5
470.901	173.5
471.12	168.5
471.339	156.5
471.558	168.5
471.777	160.5
471.997	150.5
472.216	158.5
472.435	172.5
472.654	149.5
472.873	147.5
473.092	154.5
473.311	150.5
473.53	158.5
473.749	161.5
473.968	179.5
474.187	201.5
474.406	188.5
474.625	171.5
474.844	149.5
475.063	151.5
475.282	175.5
475.501	166.5
475.72	158.5
475.939	149.5
476.158	156.5
476.377	166.5
476.596	145.5
476.814	145.5
477.033	173.5
477.252	160.5
477.471	170.5
477.69	171.5
477.908	141.5
478.127	156.5
478.346	167.5
478.564	165.5
478.783	161.5
479.002	175.5
479.22	162.5
479.439	185.5
479.658	192.5
479.876	183.5
480.095	195.5
480.313	180.5
480.532	179.5
480.751	164.5
480.969	163.5
481.188	171.5
481.406	194.5
481.624	185.5
481.843	169.5
482.061	155.5
482.28	154.5
482.498	155.5
482.717	154.5
482.935	161.5
483.153	168.5
483.372	174.5
483.59	167.5
483.808	174.5
484.027	158.5
484.245	182.5
484.463	186.5
484.681	171.5
484.9	173.5
485.118	159.5
485.336	165.5
485.554	166.5
485.772	176.5
485.99	171.5
486.209	153.5
486.427	170.5
486.645	168.5
486.863	173.5
487.081	205.5
487.299	187.5
487.517	177.5
487.735	186.5
487.953	197.5
488.171	197.5
488.389	193.5
488.607	183.5
488.825	170.5
489.043	166.5
489.261	191.5
489.479	192.5
489.696	184.5
489.914	182.5
490.132	169.5
490.35	208.5
490.568	196.5
490.786	187.5
491.003	188.5
491.221	198.5
491.439	196.5
491.657	200.5
491.874	197.5
492.092	206.5
492.31	217.5
492.527	199.5
492.745	189.5
492.963	195.5
493.18	198.5
493.398	207.5
493.615	205.5
493.833	202.5
494.05	210.5
494.268	206.5
494.485	207.5
494.703	209.5
494.92	190.5
495.138	210.5
495.355	206.5
495.573	182.5
495.79	187.5
496.008	193.5
496.225	200.5
496.442	212.5
496.66	214.5
496.877	202.5
497.094	208.5
497.312	188.5
497.529	198.5
497.746	203.5
497.963	184.5
498.181	208.5
498.398	202.5
498.615	223.5
498.832	213.5
499.049	201.5
499.267	200.5
499.484	213.5
499.701	245.5
499.918	244.5
500.135	237.5
500.352	259.5
500.569	243.5
500.786	259.5
501.003	249.5
501.22	244.5
501.437	246.5
501.654	238.5
501.871	225.5
502.088	234.5
502.305	223.5
502.522	198.5
502.739	209.5
502.956	217.5
503.172	199.5
503.389	218.5
503.606	213.5
503.823	222.5
504.04	200.5
504.256	200.5
504.473	192.5
504.69	189.5
504.907	181.5
505.123	195.5
505.34	192.5
505.557	203.5
505.773	203.5
505.99	202.5
506.207	188.5
506.423	185.5
506.64	187.5
506.856	189.5
507.073	188.5
507.289	185.5
507.506	190.5
507.722	177.5
507.939	209.5
508.155	209.5
508.372	180.5
508.588	165.5
508.805	175.5
509.021	186.5
509.238	179.5
509.454	189.5
509.67	186.5
509.887	179.5
510.103	190.5
510.319	198.5
510.536	247.5
510.752	404.5
510.968	328.5
511.184	202.5
511.401	206.5
511.617	177.5
511.833	173.5
512.049	171.5
512.265	172.5
512.481	175.5
512.698	190.5
512.914	180.5
513.13	189.5
513.346	187.5
513.562	181.5
513.778	201.5
513.994	199.5
514.21	206.5
514.426	212.5
514.642	228.5
514.858	269.5
515.074	291.5
515.29	367.5
515.506	539.5
515.721	413.5
515.937	271.5
516.153	227.5
516.369	221.5
516.585	197.5
516.801	189.5
517.016	177.5
517.232	194.5
517.448	201.5
517.664	184.5
517.879	184.5
518.095	188.5
518.311	199.5
518.527	183.5
518.742	185.5
518.958	194.5
519.173	198.5
519.389	194.5
519.605	184.5
519.82	215.5
520.036	211.5
520.251	218.5
520.467	223.5
520.682	233.5
520.898	238.5
521.113	255.5
521.329	299.5
521.544	347.5
