Data from 1970.PennyLincolnUp.Lamp.En5.5.200Scan.071719.P1._HRD10591_15-15-28-842.txt Node
Date: Thu Jul 18 15:15:28 EDT 2019
User: cochatt
Spectrometer: HR+D1059
Trigger mode: 1
Integration Time (sec): 1.000000E-1
Scans to average: 1
Electric dark correction enabled: true
Nonlinearity correction enabled: false
Boxcar width: 0
XAxis mode: Wavelengths
Number of Pixels in Spectrum: 2048
>>>>>Begin Spectral Data<<<<<
223.165	-14.38
223.4	-14.38
223.635	-14.38
223.869	-23.38
224.104	-28.38
224.338	-9.38
224.573	-13.38
224.808	-13.38
225.042	-9.38
225.277	-17.38
225.511	7.62
225.746	9.62
225.98	8.62
226.215	12.62
226.449	17.62
226.683	20.62
226.918	19.62
227.152	32.62
227.387	38.62
227.621	35.62
227.856	62.62
228.09	55.62
228.324	40.62
228.559	58.62
228.793	72.62
229.027	99.62
229.262	115.62
229.496	125.62
229.73	160.62
229.964	174.62
230.199	146.62
230.433	131.62
230.667	123.62
230.901	127.62
231.136	115.62
231.37	137.62
231.604	129.62
231.838	132.62
232.072	121.62
232.306	115.62
232.541	117.62
232.775	113.62
233.009	107.62
233.243	119.62
233.477	127.62
233.711	124.62
233.945	129.62
234.179	137.62
234.413	141.62
234.647	128.62
234.881	123.62
235.115	132.62
235.349	131.62
235.583	127.62
235.817	137.62
236.051	126.62
236.285	145.62
236.519	137.62
236.753	134.62
236.987	159.62
237.221	206.62
237.455	261.62
237.689	202.62
237.922	172.62
238.156	131.62
238.39	135.62
238.624	142.62
238.858	147.62
239.091	129.62
239.325	132.62
239.559	123.62
239.793	135.62
240.027	134.62
240.26	152.62
240.494	175.62
240.728	180.62
240.961	183.62
241.195	158.62
241.429	174.62
241.662	143.62
241.896	141.62
242.13	155.62
242.363	147.62
242.597	138.62
242.83	138.62
243.064	155.62
243.298	154.62
243.531	148.62
243.765	160.62
243.998	156.62
244.232	161.62
244.465	151.62
244.699	153.62
244.932	151.62
245.166	151.62
245.399	159.62
245.633	137.62
245.866	161.62
246.099	167.62
246.333	159.62
246.566	172.62
246.8	162.62
247.033	158.62
247.266	167.62
247.5	173.62
247.733	177.62
247.966	201.62
248.2	176.62
248.433	189.62
248.666	186.62
248.899	206.62
249.133	221.62
249.366	239.62
249.599	228.62
249.832	201.62
250.066	199.62
250.299	199.62
250.532	226.62
250.765	227.62
250.998	251.62
251.231	263.62
251.465	261.62
251.698	232.62
251.931	223.62
252.164	237.62
252.397	219.62
252.63	218.62
252.863	222.62
253.096	248.62
253.329	234.62
253.562	264.62
253.795	265.62
254.028	267.62
254.261	259.62
254.494	248.62
254.727	279.62
254.96	333.62
255.193	298.62
255.426	289.62
255.659	265.62
255.892	289.62
256.124	264.62
256.357	250.62
256.59	240.62
256.823	252.62
257.056	240.62
257.289	221.62
257.521	232.62
257.754	239.62
257.987	245.62
258.22	237.62
258.452	239.62
258.685	222.62
258.918	215.62
259.151	233.62
259.383	228.62
259.616	238.62
259.849	245.62
260.081	277.62
260.314	265.62
260.547	286.62
260.779	288.62
261.012	260.62
261.244	265.62
261.477	236.62
261.71	239.62
261.942	256.62
262.175	255.62
262.407	256.62
262.64	215.62
262.872	235.62
263.105	210.62
263.337	227.62
263.57	224.62
263.802	226.62
264.035	225.62
264.267	231.62
264.499	217.62
264.732	248.62
264.964	237.62
265.197	219.62
265.429	223.62
265.661	217.62
265.894	216.62
266.126	220.62
266.358	220.62
266.591	227.62
266.823	238.62
267.055	232.62
267.287	244.62
267.52	240.62
267.752	233.62
267.984	241.62
268.216	236.62
268.448	250.62
268.681	249.62
268.913	243.62
269.145	279.62
269.377	319.62
269.609	294.62
269.841	266.62
270.073	288.62
270.306	313.62
270.538	347.62
270.77	334.62
271.002	336.62
271.234	327.62
271.466	324.62
271.698	335.62
271.93	353.62
272.162	349.62
272.394	334.62
272.626	343.62
272.858	328.62
273.09	302.62
273.322	292.62
273.553	295.62
273.785	266.62
274.017	290.62
274.249	274.62
274.481	276.62
274.713	279.62
274.945	279.62
275.176	272.62
275.408	267.62
275.64	284.62
275.872	287.62
276.104	281.62
276.335	278.62
276.567	297.62
276.799	298.62
277.031	324.62
277.262	339.62
277.494	337.62
277.726	307.62
277.957	311.62
278.189	301.62
278.421	293.62
278.652	283.62
278.884	275.62
279.115	290.62
279.347	301.62
279.579	255.62
279.81	251.62
280.042	268.62
280.273	285.62
280.505	253.62
280.736	272.62
280.968	265.62
281.199	280.62
281.431	289.62
281.662	277.62
281.894	252.62
282.125	283.62
282.356	307.62
282.588	318.62
282.819	326.62
283.051	274.62
283.282	272.62
283.513	259.62
283.745	278.62
283.976	259.62
284.207	279.62
284.439	273.62
284.67	297.62
284.901	281.62
285.132	251.62
285.364	286.62
285.595	263.62
285.826	253.62
286.057	277.62
286.288	265.62
286.52	280.62
286.751	282.62
286.982	272.62
287.213	273.62
287.444	298.62
287.675	303.62
287.906	292.62
288.138	300.62
288.369	292.62
288.6	305.62
288.831	310.62
289.062	296.62
289.293	284.62
289.524	293.62
289.755	292.62
289.986	278.62
290.217	285.62
290.448	274.62
290.679	289.62
290.91	278.62
291.141	286.62
291.371	278.62
291.602	295.62
291.833	294.62
292.064	280.62
292.295	268.62
292.526	280.62
292.757	289.62
292.987	284.62
293.218	294.62
293.449	289.62
293.68	273.62
293.91	290.62
294.141	289.62
294.372	275.62
294.603	289.62
294.833	288.62
295.064	283.62
295.295	287.62
295.525	309.62
295.756	300.62
295.987	311.62
296.217	325.62
296.448	336.62
296.679	310.62
296.909	280.62
297.14	276.62
297.37	304.62
297.601	297.62
297.831	286.62
298.062	262.62
298.292	296.62
298.523	301.62
298.753	303.62
298.984	332.62
299.214	296.62
299.445	292.62
299.675	299.62
299.905	326.62
300.136	307.62
300.366	311.62
300.597	294.62
300.827	319.62
301.057	313.62
301.288	337.62
301.518	330.62
301.748	327.62
301.979	311.62
302.209	319.62
302.439	302.62
302.669	335.62
302.9	336.62
303.13	326.62
303.36	339.62
303.59	339.62
303.82	356.62
304.051	337.62
304.281	325.62
304.511	331.62
304.741	324.62
304.971	308.62
305.201	316.62
305.431	325.62
305.661	316.62
305.891	323.62
306.121	325.62
306.352	343.62
306.582	341.62
306.812	317.62
307.042	323.62
307.272	330.62
307.502	337.62
307.731	361.62
307.961	321.62
308.191	360.62
308.421	344.62
308.651	336.62
308.881	329.62
309.111	352.62
309.341	349.62
309.571	364.62
309.8	373.62
310.03	355.62
310.26	398.62
310.49	377.62
310.72	400.62
310.949	418.62
311.179	395.62
311.409	385.62
311.639	371.62
311.868	389.62
312.098	391.62
312.328	392.62
312.557	408.62
312.787	443.62
313.017	453.62
313.246	428.62
313.476	407.62
313.706	389.62
313.935	395.62
314.165	430.62
314.394	421.62
314.624	401.62
314.853	392.62
315.083	400.62
315.312	379.62
315.542	387.62
315.771	377.62
316.001	372.62
316.23	361.62
316.46	389.62
316.689	406.62
316.919	381.62
317.148	411.62
317.377	405.62
317.607	389.62
317.836	378.62
318.065	387.62
318.295	384.62
318.524	386.62
318.753	385.62
318.983	393.62
319.212	400.62
319.441	404.62
319.67	407.62
319.9	383.62
320.129	387.62
320.358	386.62
320.587	407.62
320.816	416.62
321.046	415.62
321.275	419.62
321.504	418.62
321.733	400.62
321.962	412.62
322.191	464.62
322.42	452.62
322.649	446.62
322.878	475.62
323.108	497.62
323.337	529.62
323.566	571.62
323.795	579.62
324.024	665.62
324.253	816.62
324.482	1155.62
324.71	1803.62
324.939	2558.62
325.168	2199.62
325.397	1184.62
325.626	793.62
325.855	630.62
326.084	587.62
326.313	578.62
326.542	560.62
326.77	638.62
326.999	745.62
327.228	1027.62
327.457	1557.62
327.686	1920.62
327.914	1298.62
328.143	856.62
328.372	732.62
328.6	693.62
328.829	652.62
329.058	640.62
329.287	693.62
329.515	648.62
329.744	575.62
329.972	569.62
330.201	600.62
330.43	643.62
330.658	669.62
330.887	692.62
331.115	654.62
331.344	585.62
331.572	538.62
331.801	541.62
332.03	504.62
332.258	501.62
332.486	491.62
332.715	465.62
332.943	469.62
333.172	477.62
333.4	468.62
333.629	467.62
333.857	479.62
334.085	494.62
334.314	547.62
334.542	575.62
334.771	591.62
334.999	530.62
335.227	489.62
335.455	482.62
335.684	471.62
335.912	450.62
336.14	432.62
336.369	440.62
336.597	471.62
336.825	470.62
337.053	454.62
337.281	429.62
337.51	451.62
337.738	437.62
337.966	451.62
338.194	449.62
338.422	440.62
338.65	443.62
338.878	447.62
339.106	436.62
339.334	431.62
339.562	427.62
339.79	447.62
340.018	436.62
340.246	454.62
340.474	452.62
340.702	441.62
340.93	456.62
341.158	438.62
341.386	448.62
341.614	445.62
341.842	431.62
342.07	427.62
342.298	448.62
342.526	431.62
342.754	443.62
342.981	420.62
343.209	415.62
343.437	440.62
343.665	433.62
343.893	429.62
344.12	453.62
344.348	439.62
344.576	455.62
344.804	468.62
345.031	457.62
345.259	468.62
345.487	471.62
345.714	453.62
345.942	432.62
346.17	426.62
346.397	441.62
346.625	421.62
346.853	433.62
347.08	438.62
347.308	448.62
347.535	425.62
347.763	461.62
347.99	439.62
348.218	446.62
348.445	450.62
348.673	484.62
348.9	426.62
349.128	434.62
349.355	416.62
349.583	432.62
349.81	415.62
350.037	417.62
350.265	422.62
350.492	411.62
350.72	442.62
350.947	429.62
351.174	439.62
351.402	440.62
351.629	454.62
351.856	447.62
352.083	455.62
352.311	449.62
352.538	447.62
352.765	479.62
352.992	454.62
353.22	443.62
353.447	443.62
353.674	430.62
353.901	423.62
354.128	409.62
354.355	406.62
354.583	418.62
354.81	422.62
355.037	407.62
355.264	421.62
355.491	411.62
355.718	404.62
355.945	401.62
356.172	389.62
356.399	397.62
356.626	391.62
356.853	398.62
357.08	380.62
357.307	395.62
357.534	384.62
357.761	407.62
357.988	382.62
358.215	408.62
358.441	413.62
358.668	411.62
358.895	415.62
359.122	409.62
359.349	441.62
359.576	449.62
359.802	483.62
360.029	518.62
360.256	536.62
360.483	484.62
360.709	455.62
360.936	454.62
361.163	429.62
361.39	437.62
361.616	445.62
361.843	446.62
362.07	441.62
362.296	444.62
362.523	453.62
362.749	443.62
362.976	440.62
363.203	450.62
363.429	435.62
363.656	437.62
363.882	405.62
364.109	419.62
364.335	407.62
364.562	424.62
364.788	411.62
365.015	417.62
365.241	430.62
365.468	436.62
365.694	419.62
365.92	439.62
366.147	427.62
366.373	435.62
366.599	413.62
366.826	417.62
367.052	398.62
367.278	427.62
367.505	413.62
367.731	438.62
367.957	422.62
368.184	423.62
368.41	430.62
368.636	453.62
368.862	455.62
369.089	426.62
369.315	427.62
369.541	424.62
369.767	422.62
369.993	399.62
370.219	420.62
370.445	402.62
370.672	415.62
370.898	427.62
371.124	392.62
371.35	427.62
371.576	422.62
371.802	411.62
372.028	392.62
372.254	416.62
372.48	425.62
372.706	393.62
372.932	418.62
373.158	401.62
373.384	408.62
373.61	401.62
373.835	447.62
374.061	406.62
374.287	423.62
374.513	412.62
374.739	415.62
374.965	441.62
375.191	416.62
375.416	422.62
375.642	422.62
375.868	427.62
376.094	420.62
376.319	420.62
376.545	428.62
376.771	419.62
376.997	423.62
377.222	408.62
377.448	410.62
377.674	437.62
377.899	421.62
378.125	423.62
378.35	420.62
378.576	395.62
378.802	398.62
379.027	435.62
379.253	417.62
379.478	428.62
379.704	422.62
379.929	401.62
380.155	411.62
380.38	422.62
380.606	435.62
380.831	407.62
381.057	429.62
381.282	396.62
381.507	430.62
381.733	416.62
381.958	436.62
382.184	425.62
382.409	422.62
382.634	419.62
382.86	414.62
383.085	415.62
383.31	431.62
383.535	417.62
383.761	427.62
383.986	449.62
384.211	439.62
384.436	445.62
384.662	433.62
384.887	426.62
385.112	423.62
385.337	439.62
385.562	434.62
385.787	461.62
386.013	480.62
386.238	449.62
386.463	445.62
386.688	464.62
386.913	460.62
387.138	445.62
387.363	435.62
387.588	461.62
387.813	451.62
388.038	441.62
388.263	436.62
388.488	448.62
388.713	434.62
388.938	429.62
389.163	467.62
389.387	433.62
389.612	457.62
389.837	447.62
390.062	459.62
390.287	443.62
390.512	447.62
390.736	431.62
390.961	449.62
391.186	430.62
391.411	439.62
391.636	451.62
391.86	442.62
392.085	449.62
392.31	464.62
392.534	454.62
392.759	459.62
392.984	445.62
393.208	458.62
393.433	450.62
393.658	459.62
393.882	433.62
394.107	446.62
394.331	447.62
394.556	447.62
394.78	442.62
395.005	463.62
395.229	449.62
395.454	469.62
395.678	470.62
395.903	467.62
396.127	491.62
396.352	486.62
396.576	475.62
396.801	456.62
397.025	484.62
397.249	470.62
397.474	491.62
397.698	479.62
397.922	504.62
398.147	517.62
398.371	505.62
398.595	512.62
398.82	483.62
399.044	517.62
399.268	505.62
399.492	551.62
399.717	571.62
399.941	597.62
400.165	624.62
400.389	621.62
400.613	563.62
400.837	539.62
401.062	531.62
401.286	493.62
401.51	503.62
401.734	511.62
401.958	519.62
402.182	503.62
402.406	526.62
402.63	518.62
402.854	536.62
403.078	528.62
403.302	534.62
403.526	554.62
403.75	527.62
403.974	530.62
404.198	511.62
404.422	563.62
404.645	549.62
404.869	552.62
405.093	591.62
405.317	635.62
405.541	650.62
405.765	584.62
405.988	571.62
406.212	587.62
406.436	617.62
406.66	634.62
406.883	609.62
407.107	621.62
407.331	647.62
407.555	718.62
407.778	696.62
408.002	630.62
408.226	603.62
408.449	573.62
408.673	589.62
408.896	599.62
409.12	652.62
409.344	639.62
409.567	590.62
409.791	535.62
410.014	557.62
410.238	537.62
410.461	574.62
410.685	560.62
410.908	556.62
411.132	611.62
411.355	637.62
411.578	603.62
411.802	551.62
412.025	538.62
412.249	571.62
412.472	591.62
412.695	616.62
412.919	616.62
413.142	576.62
413.365	548.62
413.589	528.62
413.812	501.62
414.035	513.62
414.258	520.62
414.482	521.62
414.705	497.62
414.928	524.62
415.151	529.62
415.374	500.62
415.597	515.62
415.821	524.62
416.044	530.62
416.267	528.62
416.49	515.62
416.713	513.62
416.936	517.62
417.159	499.62
417.382	515.62
417.605	541.62
417.828	550.62
418.051	529.62
418.274	545.62
418.497	505.62
418.72	519.62
418.943	528.62
419.166	516.62
419.389	543.62
419.611	536.62
419.834	538.62
420.057	563.62
420.28	573.62
420.503	550.62
420.726	567.62
420.948	571.62
421.171	605.62
421.394	675.62
421.617	579.62
421.839	557.62
422.062	581.62
422.285	575.62
422.507	628.62
422.73	720.62
422.953	697.62
423.175	594.62
423.398	591.62
423.621	556.62
423.843	612.62
424.066	586.62
424.288	620.62
424.511	624.62
424.733	665.62
424.956	765.62
425.178	737.62
425.401	751.62
425.623	733.62
425.846	672.62
426.068	623.62
426.291	611.62
426.513	607.62
426.735	631.62
426.958	671.62
427.18	743.62
427.402	842.62
427.625	965.62
427.847	878.62
428.069	789.62
428.292	672.62
428.514	653.62
428.736	604.62
428.958	601.62
429.181	558.62
429.403	560.62
429.625	556.62
429.847	635.62
430.069	673.62
430.292	668.62
430.514	590.62
430.736	567.62
430.958	579.62
431.18	537.62
431.402	556.62
431.624	521.62
431.846	535.62
432.068	525.62
432.29	509.62
432.512	515.62
432.734	525.62
432.956	534.62
433.178	549.62
433.4	550.62
433.622	547.62
433.844	557.62
434.066	518.62
434.287	537.62
434.509	527.62
434.731	560.62
434.953	558.62
435.175	563.62
435.397	592.62
435.618	606.62
435.84	641.62
436.062	782.62
436.284	820.62
436.505	703.62
436.727	640.62
436.949	604.62
437.17	582.62
437.392	594.62
437.614	589.62
437.835	635.62
438.057	749.62
438.278	860.62
438.5	868.62
438.721	890.62
438.943	867.62
439.165	711.62
439.386	662.62
439.608	635.62
439.829	644.62
440.05	670.62
440.272	723.62
440.493	679.62
440.715	596.62
440.936	584.62
441.158	598.62
441.379	590.62
441.6	594.62
441.822	618.62
442.043	663.62
442.264	751.62
442.486	789.62
442.707	706.62
442.928	622.62
443.149	646.62
443.371	651.62
443.592	696.62
443.813	788.62
444.034	849.62
444.255	708.62
444.476	657.62
444.698	601.62
444.919	614.62
445.14	740.62
445.361	654.62
445.582	679.62
445.803	724.62
446.024	844.62
446.245	868.62
446.466	776.62
446.687	670.62
446.908	628.62
447.129	585.62
447.35	595.62
447.571	590.62
447.792	581.62
448.013	592.62
448.234	617.62
448.455	656.62
448.675	779.62
448.896	862.62
449.117	793.62
449.338	771.62
449.559	843.62
449.779	887.62
450	765.62
450.221	633.62
450.442	614.62
450.662	575.62
450.883	568.62
451.104	624.62
451.324	590.62
451.545	554.62
451.766	538.62
451.986	509.62
452.207	525.62
452.428	508.62
452.648	501.62
452.869	527.62
453.089	541.62
453.31	547.62
453.53	533.62
453.751	530.62
453.971	500.62
454.192	556.62
454.412	549.62
454.633	523.62
454.853	519.62
455.073	516.62
455.294	544.62
455.514	623.62
455.734	615.62
455.955	524.62
456.175	490.62
456.395	481.62
456.616	464.62
456.836	469.62
457.056	455.62
457.276	485.62
457.497	463.62
457.717	481.62
457.937	484.62
458.157	468.62
458.377	468.62
458.598	504.62
458.818	582.62
459.038	694.62
459.258	697.62
459.478	589.62
459.698	554.62
459.918	524.62
460.138	525.62
460.358	518.62
460.578	512.62
460.798	516.62
461.018	567.62
461.238	521.62
461.458	531.62
461.678	492.62
461.898	515.62
462.118	523.62
462.338	528.62
462.558	523.62
462.777	516.62
462.997	534.62
463.217	548.62
463.437	556.62
463.657	531.62
463.876	531.62
464.096	545.62
464.316	527.62
464.536	565.62
464.755	550.62
464.975	553.62
465.195	627.62
465.414	739.62
465.634	643.62
465.854	589.62
466.073	568.62
466.293	566.62
466.512	512.62
466.732	533.62
466.951	505.62
467.171	515.62
467.391	530.62
467.61	538.62
467.829	538.62
468.049	516.62
468.268	529.62
468.488	528.62
468.707	496.62
468.927	518.62
469.146	514.62
469.365	505.62
469.585	505.62
469.804	509.62
470.023	560.62
470.243	533.62
470.462	541.62
470.681	539.62
470.901	567.62
471.12	539.62
471.339	516.62
471.558	522.62
471.777	558.62
471.997	517.62
472.216	532.62
472.435	579.62
472.654	583.62
472.873	543.62
473.092	532.62
473.311	542.62
473.53	530.62
473.749	536.62
473.968	599.62
474.187	683.62
474.406	725.62
474.625	603.62
474.844	568.62
475.063	568.62
475.282	551.62
475.501	548.62
475.72	526.62
475.939	542.62
476.158	548.62
476.377	566.62
476.596	543.62
476.814	575.62
477.033	537.62
477.252	569.62
477.471	570.62
477.69	569.62
477.908	594.62
478.127	575.62
478.346	581.62
478.564	571.62
478.783	596.62
479.002	579.62
479.22	608.62
479.439	611.62
479.658	633.62
479.876	643.62
480.095	627.62
480.313	684.62
480.532	657.62
480.751	656.62
480.969	656.62
481.188	776.62
481.406	794.62
481.624	717.62
481.843	648.62
482.061	656.62
482.28	653.62
482.498	640.62
482.717	636.62
482.935	644.62
483.153	636.62
483.372	633.62
483.59	617.62
483.808	627.62
484.027	631.62
484.245	619.62
484.463	621.62
484.681	657.62
484.9	643.62
485.118	651.62
485.336	654.62
485.554	623.62
485.772	640.62
485.99	667.62
486.209	677.62
486.427	673.62
486.645	682.62
486.863	703.62
487.081	704.62
487.299	687.62
487.517	697.62
487.735	694.62
487.953	689.62
488.171	702.62
488.389	696.62
488.607	680.62
488.825	665.62
489.043	691.62
489.261	673.62
489.479	719.62
489.696	719.62
489.914	719.62
490.132	714.62
490.35	737.62
490.568	734.62
490.786	759.62
491.003	753.62
491.221	771.62
491.439	795.62
491.657	787.62
491.874	790.62
492.092	819.62
492.31	813.62
492.527	820.62
492.745	823.62
492.963	841.62
493.18	814.62
493.398	846.62
493.615	835.62
493.833	817.62
494.05	848.62
494.268	847.62
494.485	871.62
494.703	831.62
494.92	826.62
495.138	843.62
495.355	849.62
495.573	856.62
495.79	827.62
496.008	844.62
496.225	869.62
496.442	850.62
496.66	820.62
496.877	848.62
497.094	808.62
497.312	852.62
497.529	826.62
497.746	854.62
497.963	862.62
498.181	866.62
498.398	899.62
498.615	907.62
498.832	909.62
499.049	877.62
499.267	901.62
499.484	933.62
499.701	910.62
499.918	959.62
500.135	981.62
500.352	999.62
500.569	1000.62
500.786	994.62
501.003	1009.62
501.22	960.62
501.437	1003.62
501.654	1016.62
501.871	999.62
