Data from 1970.PennyLincolnUp.Lamp.En5.5.200Scan.071719.P1._HRD10591_15-14-34-843.txt Node
Date: Thu Jul 18 15:14:34 EDT 2019
User: cochatt
Spectrometer: HR+D1059
Trigger mode: 1
Integration Time (sec): 1.000000E-1
Scans to average: 1
Electric dark correction enabled: true
Nonlinearity correction enabled: false
Boxcar width: 0
XAxis mode: Wavelengths
Number of Pixels in Spectrum: 2048
>>>>>Begin Spectral Data<<<<<
223.165	-18.31
223.4	-18.31
223.635	-18.31
223.869	-10.31
224.104	-10.31
224.338	-13.31
224.573	1.69
224.808	-7.31
225.042	-12.31
225.277	-12.31
225.511	-8.31
225.746	5.69
225.98	4.69
226.215	1.69
226.449	7.69
226.683	21.69
226.918	20.69
227.152	28.69
227.387	33.69
227.621	42.69
227.856	36.69
228.09	55.69
228.324	61.69
228.559	69.69
228.793	59.69
229.027	110.69
229.262	115.69
229.496	137.69
229.73	144.69
229.964	157.69
230.199	145.69
230.433	134.69
230.667	103.69
230.901	109.69
231.136	124.69
231.37	112.69
231.604	115.69
231.838	107.69
232.072	119.69
232.306	111.69
232.541	105.69
232.775	129.69
233.009	108.69
233.243	106.69
233.477	116.69
233.711	123.69
233.945	119.69
234.179	126.69
234.413	101.69
234.647	111.69
234.881	115.69
235.115	123.69
235.349	118.69
235.583	138.69
235.817	140.69
236.051	142.69
236.285	144.69
236.519	126.69
236.753	138.69
236.987	145.69
237.221	194.69
237.455	236.69
237.689	200.69
237.922	154.69
238.156	131.69
238.39	120.69
238.624	128.69
238.858	124.69
239.091	132.69
239.325	129.69
239.559	144.69
239.793	136.69
240.027	140.69
240.26	141.69
240.494	151.69
240.728	165.69
240.961	161.69
241.195	172.69
241.429	135.69
241.662	139.69
241.896	137.69
242.13	153.69
242.363	131.69
242.597	116.69
242.83	147.69
243.064	135.69
243.298	139.69
243.531	141.69
243.765	152.69
243.998	150.69
244.232	139.69
244.465	161.69
244.699	151.69
244.932	155.69
245.166	153.69
245.399	160.69
245.633	167.69
245.866	153.69
246.099	151.69
246.333	153.69
246.566	169.69
246.8	167.69
247.033	179.69
247.266	166.69
247.5	166.69
247.733	177.69
247.966	177.69
248.2	164.69
248.433	185.69
248.666	187.69
248.899	183.69
249.133	221.69
249.366	221.69
249.599	213.69
249.832	200.69
250.066	196.69
250.299	187.69
250.532	197.69
250.765	224.69
250.998	254.69
251.231	247.69
251.465	233.69
251.698	224.69
251.931	216.69
252.164	199.69
252.397	215.69
252.63	206.69
252.863	224.69
253.096	228.69
253.329	248.69
253.562	243.69
253.795	229.69
254.028	223.69
254.261	236.69
254.494	247.69
254.727	269.69
254.96	297.69
255.193	286.69
255.426	271.69
255.659	258.69
255.892	247.69
256.124	248.69
256.357	235.69
256.59	245.69
256.823	213.69
257.056	224.69
257.289	207.69
257.521	222.69
257.754	226.69
257.987	217.69
258.22	229.69
258.452	203.69
258.685	214.69
258.918	208.69
259.151	213.69
259.383	231.69
259.616	228.69
259.849	227.69
260.081	244.69
260.314	269.69
260.547	270.69
260.779	254.69
261.012	239.69
261.244	232.69
261.477	231.69
261.71	224.69
261.942	227.69
262.175	254.69
262.407	232.69
262.64	228.69
262.872	222.69
263.105	208.69
263.337	220.69
263.57	211.69
263.802	213.69
264.035	207.69
264.267	218.69
264.499	209.69
264.732	226.69
264.964	222.69
265.197	202.69
265.429	222.69
265.661	221.69
265.894	212.69
266.126	200.69
266.358	202.69
266.591	214.69
266.823	217.69
267.055	212.69
267.287	240.69
267.52	221.69
267.752	223.69
267.984	220.69
268.216	239.69
268.448	220.69
268.681	253.69
268.913	219.69
269.145	257.69
269.377	272.69
269.609	270.69
269.841	277.69
270.073	269.69
270.306	278.69
270.538	325.69
270.77	331.69
271.002	305.69
271.234	281.69
271.466	293.69
271.698	307.69
271.93	320.69
272.162	326.69
272.394	317.69
272.626	315.69
272.858	291.69
273.09	267.69
273.322	279.69
273.553	255.69
273.785	251.69
274.017	264.69
274.249	264.69
274.481	261.69
274.713	256.69
274.945	268.69
275.176	258.69
275.408	250.69
275.64	236.69
275.872	253.69
276.104	251.69
276.335	248.69
276.567	259.69
276.799	270.69
277.031	303.69
277.262	310.69
277.494	319.69
277.726	289.69
277.957	271.69
278.189	287.69
278.421	266.69
278.652	276.69
278.884	257.69
279.115	280.69
279.347	232.69
279.579	241.69
279.81	258.69
280.042	267.69
280.273	255.69
280.505	256.69
280.736	248.69
280.968	271.69
281.199	263.69
281.431	220.69
281.662	245.69
281.894	238.69
282.125	239.69
282.356	262.69
282.588	296.69
282.819	288.69
283.051	257.69
283.282	253.69
283.513	247.69
283.745	283.69
283.976	256.69
284.207	273.69
284.439	272.69
284.67	263.69
284.901	259.69
285.132	261.69
285.364	244.69
285.595	260.69
285.826	237.69
286.057	239.69
286.288	260.69
286.52	250.69
286.751	278.69
286.982	246.69
287.213	276.69
287.444	260.69
287.675	261.69
287.906	256.69
288.138	275.69
288.369	287.69
288.6	290.69
288.831	277.69
289.062	275.69
289.293	267.69
289.524	272.69
289.755	271.69
289.986	279.69
290.217	268.69
290.448	270.69
290.679	263.69
290.91	275.69
291.141	259.69
291.371	289.69
291.602	261.69
291.833	243.69
292.064	254.69
292.295	261.69
292.526	265.69
292.757	253.69
292.987	265.69
293.218	265.69
293.449	283.69
293.68	258.69
293.91	277.69
294.141	262.69
294.372	252.69
294.603	253.69
294.833	271.69
295.064	288.69
295.295	273.69
295.525	275.69
295.756	277.69
295.987	287.69
296.217	297.69
296.448	310.69
296.679	272.69
296.909	276.69
297.14	256.69
297.37	264.69
297.601	269.69
297.831	272.69
298.062	273.69
298.292	266.69
298.523	284.69
298.753	272.69
298.984	267.69
299.214	272.69
299.445	283.69
299.675	294.69
299.905	287.69
300.136	297.69
300.366	273.69
300.597	284.69
300.827	300.69
301.057	281.69
301.288	288.69
301.518	281.69
301.748	287.69
301.979	295.69
302.209	287.69
302.439	293.69
302.669	303.69
302.9	294.69
303.13	283.69
303.36	293.69
303.59	307.69
303.82	298.69
304.051	290.69
304.281	300.69
304.511	308.69
304.741	296.69
304.971	289.69
305.201	305.69
305.431	279.69
305.661	308.69
305.891	292.69
306.121	293.69
306.352	301.69
306.582	313.69
306.812	304.69
307.042	316.69
307.272	298.69
307.502	312.69
307.731	311.69
307.961	306.69
308.191	306.69
308.421	312.69
308.651	308.69
308.881	323.69
309.111	331.69
309.341	337.69
309.571	317.69
309.8	342.69
310.03	345.69
310.26	357.69
310.49	367.69
310.72	368.69
310.949	398.69
311.179	383.69
311.409	371.69
311.639	351.69
311.868	361.69
312.098	361.69
312.328	379.69
312.557	379.69
312.787	378.69
313.017	413.69
313.246	378.69
313.476	359.69
313.706	341.69
313.935	355.69
314.165	377.69
314.394	397.69
314.624	383.69
314.853	368.69
315.083	351.69
315.312	366.69
315.542	342.69
315.771	343.69
316.001	350.69
316.23	356.69
316.46	347.69
316.689	353.69
316.919	342.69
317.148	358.69
317.377	350.69
317.607	383.69
317.836	371.69
318.065	347.69
318.295	336.69
318.524	350.69
318.753	355.69
318.983	350.69
319.212	343.69
319.441	371.69
319.67	391.69
319.9	375.69
320.129	368.69
320.358	354.69
320.587	367.69
320.816	370.69
321.046	380.69
321.275	392.69
321.504	395.69
321.733	389.69
321.962	393.69
322.191	404.69
322.42	431.69
322.649	458.69
322.878	455.69
323.108	464.69
323.337	483.69
323.566	486.69
323.795	540.69
324.024	603.69
324.253	717.69
324.482	1048.69
324.71	1545.69
324.939	2160.69
325.168	1901.69
325.397	1072.69
325.626	694.69
325.855	571.69
326.084	499.69
326.313	501.69
326.542	512.69
326.77	550.69
326.999	664.69
327.228	892.69
327.457	1353.69
327.686	1657.69
327.914	1125.69
328.143	795.69
328.372	674.69
328.6	619.69
328.829	584.69
329.058	581.69
329.287	600.69
329.515	602.69
329.744	507.69
329.972	501.69
330.201	539.69
330.43	596.69
330.658	617.69
330.887	647.69
331.115	617.69
331.344	524.69
331.572	501.69
331.801	481.69
332.03	488.69
332.258	465.69
332.486	430.69
332.715	439.69
332.943	441.69
333.172	428.69
333.4	431.69
333.629	428.69
333.857	440.69
334.085	476.69
334.314	461.69
334.542	520.69
334.771	543.69
334.999	482.69
335.227	457.69
335.455	424.69
335.684	427.69
335.912	416.69
336.14	416.69
336.369	423.69
336.597	415.69
336.825	443.69
337.053	423.69
337.281	414.69
337.51	406.69
337.738	413.69
337.966	407.69
338.194	420.69
338.422	425.69
338.65	411.69
338.878	392.69
339.106	393.69
339.334	396.69
339.562	417.69
339.79	401.69
340.018	412.69
340.246	382.69
340.474	405.69
340.702	411.69
340.93	419.69
341.158	401.69
341.386	417.69
341.614	411.69
341.842	390.69
342.07	406.69
342.298	393.69
342.526	393.69
342.754	389.69
342.981	358.69
343.209	369.69
343.437	389.69
343.665	397.69
343.893	407.69
344.12	410.69
344.348	419.69
344.576	393.69
344.804	433.69
345.031	441.69
345.259	443.69
345.487	405.69
345.714	441.69
345.942	413.69
346.17	402.69
346.397	391.69
346.625	385.69
346.853	404.69
347.08	395.69
347.308	396.69
347.535	407.69
347.763	449.69
347.99	423.69
348.218	401.69
348.445	411.69
348.673	421.69
348.9	423.69
349.128	399.69
349.355	395.69
349.583	383.69
349.81	398.69
350.037	395.69
350.265	380.69
350.492	381.69
350.72	422.69
350.947	375.69
351.174	399.69
351.402	418.69
351.629	408.69
351.856	439.69
352.083	423.69
352.311	425.69
352.538	414.69
352.765	440.69
352.992	430.69
353.22	423.69
353.447	405.69
353.674	386.69
353.901	369.69
354.128	359.69
354.355	394.69
354.583	375.69
354.81	368.69
355.037	377.69
355.264	372.69
355.491	350.69
355.718	376.69
355.945	366.69
356.172	379.69
356.399	371.69
356.626	372.69
356.853	368.69
357.08	387.69
357.307	382.69
357.534	364.69
357.761	380.69
357.988	382.69
358.215	378.69
358.441	378.69
358.668	366.69
358.895	385.69
359.122	375.69
359.349	399.69
359.576	408.69
359.802	445.69
360.029	456.69
360.256	496.69
360.483	456.69
360.709	429.69
360.936	440.69
361.163	399.69
361.39	405.69
361.616	460.69
361.843	430.69
362.07	412.69
362.296	410.69
362.523	415.69
362.749	403.69
362.976	413.69
363.203	398.69
363.429	384.69
363.656	385.69
363.882	390.69
364.109	394.69
364.335	389.69
364.562	391.69
364.788	388.69
365.015	375.69
365.241	405.69
365.468	379.69
365.694	409.69
365.92	420.69
366.147	394.69
366.373	376.69
366.599	384.69
366.826	385.69
367.052	374.69
367.278	384.69
367.505	384.69
367.731	384.69
367.957	394.69
368.184	392.69
368.41	391.69
368.636	411.69
368.862	430.69
369.089	403.69
369.315	395.69
369.541	379.69
369.767	382.69
369.993	392.69
370.219	381.69
370.445	371.69
370.672	385.69
370.898	391.69
371.124	379.69
371.35	382.69
371.576	371.69
371.802	413.69
372.028	373.69
372.254	382.69
372.48	391.69
372.706	384.69
372.932	394.69
373.158	381.69
373.384	375.69
373.61	376.69
373.835	378.69
374.061	391.69
374.287	398.69
374.513	395.69
374.739	396.69
374.965	413.69
375.191	401.69
375.416	394.69
375.642	364.69
375.868	402.69
376.094	390.69
376.319	389.69
376.545	381.69
376.771	377.69
376.997	387.69
377.222	390.69
377.448	390.69
377.674	380.69
377.899	391.69
378.125	387.69
378.35	383.69
378.576	376.69
378.802	378.69
379.027	398.69
379.253	373.69
379.478	383.69
379.704	373.69
379.929	381.69
380.155	395.69
380.38	406.69
380.606	407.69
380.831	389.69
381.057	380.69
381.282	371.69
381.507	383.69
381.733	393.69
381.958	371.69
382.184	384.69
382.409	397.69
382.634	372.69
382.86	395.69
383.085	389.69
383.31	389.69
383.535	385.69
383.761	391.69
383.986	417.69
384.211	410.69
384.436	405.69
384.662	383.69
384.887	409.69
385.112	405.69
385.337	405.69
385.562	407.69
385.787	405.69
386.013	423.69
386.238	439.69
386.463	414.69
386.688	416.69
386.913	385.69
387.138	414.69
387.363	402.69
387.588	422.69
387.813	424.69
388.038	412.69
388.263	416.69
388.488	406.69
388.713	413.69
388.938	416.69
389.163	400.69
389.387	426.69
389.612	409.69
389.837	399.69
390.062	410.69
390.287	409.69
390.512	425.69
390.736	408.69
390.961	406.69
391.186	407.69
391.411	396.69
391.636	401.69
391.86	416.69
392.085	429.69
392.31	401.69
392.534	397.69
392.759	427.69
392.984	416.69
393.208	413.69
393.433	431.69
393.658	414.69
393.882	382.69
394.107	432.69
394.331	423.69
394.556	424.69
394.78	412.69
395.005	413.69
395.229	420.69
395.454	435.69
395.678	417.69
395.903	435.69
396.127	472.69
396.352	474.69
396.576	437.69
396.801	437.69
397.025	446.69
397.249	447.69
397.474	425.69
397.698	453.69
397.922	460.69
398.147	466.69
398.371	485.69
398.595	473.69
398.82	470.69
399.044	468.69
399.268	484.69
399.492	486.69
399.717	528.69
399.941	543.69
400.165	557.69
400.389	585.69
400.613	515.69
400.837	504.69
401.062	476.69
401.286	479.69
401.51	460.69
401.734	447.69
401.958	472.69
402.182	481.69
402.406	479.69
402.63	489.69
402.854	488.69
403.078	510.69
403.302	492.69
403.526	479.69
403.75	491.69
403.974	470.69
404.198	508.69
404.422	469.69
404.645	511.69
404.869	510.69
405.093	524.69
405.317	594.69
405.541	627.69
405.765	542.69
405.988	523.69
406.212	552.69
406.436	545.69
406.66	557.69
406.883	547.69
407.107	554.69
407.331	581.69
407.555	668.69
407.778	643.69
408.002	605.69
408.226	569.69
408.449	573.69
408.673	551.69
408.896	583.69
409.12	604.69
409.344	578.69
409.567	507.69
409.791	512.69
410.014	517.69
410.238	512.69
410.461	506.69
410.685	511.69
410.908	517.69
411.132	541.69
411.355	592.69
411.578	560.69
411.802	517.69
412.025	500.69
412.249	525.69
412.472	529.69
412.695	583.69
412.919	585.69
413.142	547.69
413.365	504.69
413.589	471.69
413.812	465.69
414.035	495.69
414.258	490.69
414.482	476.69
414.705	459.69
414.928	491.69
415.151	458.69
415.374	461.69
415.597	455.69
415.821	468.69
416.044	473.69
416.267	484.69
416.49	491.69
416.713	470.69
416.936	477.69
417.159	485.69
417.382	487.69
417.605	494.69
417.828	495.69
418.051	484.69
418.274	512.69
418.497	475.69
418.72	480.69
418.943	496.69
419.166	481.69
419.389	519.69
419.611	524.69
419.834	518.69
420.057	475.69
420.28	520.69
420.503	523.69
420.726	509.69
420.948	516.69
421.171	564.69
421.394	604.69
421.617	524.69
421.839	497.69
422.062	491.69
422.285	531.69
422.507	560.69
422.73	661.69
422.953	639.69
423.175	575.69
423.398	537.69
423.621	510.69
423.843	561.69
424.066	545.69
424.288	542.69
424.511	568.69
424.733	630.69
424.956	685.69
425.178	704.69
425.401	674.69
425.623	678.69
425.846	617.69
426.068	576.69
426.291	556.69
426.513	566.69
426.735	569.69
426.958	621.69
427.18	681.69
427.402	800.69
427.625	896.69
427.847	798.69
428.069	715.69
428.292	641.69
428.514	553.69
428.736	541.69
428.958	535.69
429.181	532.69
429.403	534.69
429.625	543.69
429.847	565.69
430.069	641.69
430.292	613.69
430.514	542.69
430.736	518.69
430.958	509.69
431.18	485.69
431.402	503.69
431.624	498.69
431.846	497.69
432.068	484.69
432.29	500.69
432.512	482.69
432.734	488.69
432.956	511.69
433.178	505.69
433.4	528.69
433.622	485.69
433.844	493.69
434.066	485.69
434.287	490.69
434.509	502.69
434.731	499.69
434.953	512.69
435.175	518.69
435.397	543.69
435.618	565.69
435.84	627.69
436.062	709.69
436.284	757.69
436.505	670.69
436.727	599.69
436.949	552.69
437.17	525.69
437.392	532.69
437.614	537.69
437.835	571.69
438.057	679.69
438.278	771.69
438.5	760.69
438.721	817.69
438.943	789.69
439.165	649.69
439.386	599.69
439.608	592.69
439.829	582.69
440.05	612.69
440.272	635.69
440.493	617.69
440.715	571.69
440.936	568.69
441.158	543.69
441.379	546.69
441.6	544.69
441.822	537.69
442.043	618.69
442.264	668.69
442.486	736.69
442.707	602.69
442.928	586.69
443.149	592.69
443.371	629.69
443.592	658.69
443.813	725.69
444.034	796.69
444.255	658.69
444.476	590.69
444.698	557.69
444.919	553.69
445.14	658.69
445.361	636.69
445.582	603.69
445.803	665.69
446.024	775.69
446.245	785.69
446.466	733.69
446.687	625.69
446.908	573.69
447.129	554.69
447.35	545.69
447.571	527.69
447.792	534.69
448.013	555.69
448.234	570.69
448.455	598.69
448.675	714.69
448.896	794.69
449.117	710.69
449.338	700.69
449.559	757.69
449.779	845.69
450	689.69
450.221	575.69
450.442	573.69
450.662	521.69
450.883	536.69
451.104	529.69
451.324	551.69
451.545	524.69
451.766	491.69
451.986	485.69
452.207	485.69
452.428	466.69
452.648	469.69
452.869	526.69
453.089	484.69
453.31	499.69
453.53	489.69
453.751	493.69
453.971	474.69
454.192	501.69
454.412	483.69
454.633	465.69
454.853	468.69
455.073	483.69
455.294	502.69
455.514	589.69
455.734	565.69
455.955	491.69
456.175	463.69
456.395	428.69
456.616	440.69
456.836	447.69
457.056	437.69
457.276	437.69
457.497	440.69
457.717	456.69
457.937	470.69
458.157	455.69
458.377	474.69
458.598	477.69
458.818	537.69
459.038	638.69
459.258	643.69
459.478	555.69
459.698	501.69
459.918	483.69
460.138	486.69
460.358	482.69
460.578	490.69
460.798	488.69
461.018	487.69
461.238	484.69
461.458	492.69
461.678	500.69
461.898	485.69
462.118	476.69
462.338	479.69
462.558	476.69
462.777	478.69
462.997	490.69
463.217	484.69
463.437	510.69
463.657	503.69
463.876	504.69
464.096	508.69
464.316	479.69
464.536	512.69
464.755	518.69
464.975	524.69
465.195	561.69
465.414	676.69
465.634	614.69
465.854	561.69
466.073	525.69
466.293	484.69
466.512	469.69
466.732	469.69
466.951	476.69
467.171	464.69
467.391	483.69
467.61	478.69
467.829	515.69
468.049	511.69
468.268	510.69
468.488	492.69
468.707	476.69
468.927	471.69
469.146	471.69
469.365	460.69
469.585	474.69
469.804	477.69
470.023	496.69
470.243	476.69
470.462	485.69
470.681	488.69
470.901	520.69
471.12	471.69
471.339	472.69
471.558	476.69
471.777	511.69
471.997	476.69
472.216	520.69
472.435	533.69
472.654	531.69
472.873	488.69
473.092	501.69
473.311	489.69
473.53	511.69
473.749	521.69
473.968	551.69
474.187	655.69
474.406	687.69
474.625	554.69
474.844	504.69
475.063	496.69
475.282	496.69
475.501	497.69
475.72	525.69
475.939	507.69
476.158	515.69
476.377	487.69
476.596	487.69
476.814	512.69
477.033	531.69
477.252	523.69
477.471	508.69
477.69	520.69
477.908	526.69
478.127	543.69
478.346	541.69
478.564	536.69
478.783	527.69
479.002	544.69
479.22	550.69
479.439	570.69
479.658	573.69
479.876	603.69
480.095	582.69
480.313	604.69
480.532	610.69
480.751	585.69
480.969	603.69
481.188	674.69
481.406	733.69
481.624	645.69
481.843	617.69
482.061	607.69
482.28	594.69
482.498	604.69
482.717	593.69
482.935	587.69
483.153	571.69
483.372	581.69
483.59	586.69
483.808	583.69
484.027	615.69
484.245	570.69
484.463	574.69
484.681	599.69
484.9	581.69
485.118	603.69
485.336	612.69
485.554	599.69
485.772	581.69
485.99	615.69
486.209	589.69
486.427	597.69
486.645	638.69
486.863	653.69
487.081	656.69
487.299	635.69
487.517	645.69
487.735	647.69
487.953	641.69
488.171	631.69
488.389	656.69
488.607	657.69
488.825	639.69
489.043	633.69
489.261	648.69
489.479	633.69
489.696	631.69
489.914	640.69
490.132	683.69
490.35	663.69
490.568	684.69
490.786	681.69
491.003	710.69
491.221	699.69
491.439	736.69
491.657	739.69
491.874	729.69
492.092	723.69
492.31	767.69
492.527	756.69
492.745	775.69
492.963	757.69
493.18	752.69
493.398	767.69
493.615	750.69
493.833	775.69
494.05	747.69
494.268	769.69
494.485	775.69
494.703	761.69
494.92	760.69
495.138	757.69
495.355	777.69
495.573	796.69
495.79	755.69
496.008	762.69
496.225	759.69
496.442	751.69
496.66	753.69
496.877	758.69
497.094	777.69
497.312	777.69
497.529	780.69
497.746	777.69
497.963	753.69
498.181	810.69
498.398	817.69
498.615	827.69
498.832	821.69
499.049	810.69
499.267	816.69
499.484	847.69
499.701	889.69
499.918	897.69
500.135	898.69
500.352	951.69
500.569	931.69
500.786	949.69
501.003	931.69
501.22	940.69
501.437	927.69
501.654	906.69
501.871	905.69
