Data from 1970.PennyLincolnUp.Lamp.En5.5.200Scan.071719.P1._HRD10591_15-16-15-842.txt Node
Date: Thu Jul 18 15:16:15 EDT 2019
User: cochatt
Spectrometer: HR+D1059
Trigger mode: 1
Integration Time (sec): 1.000000E-1
Scans to average: 1
Electric dark correction enabled: true
Nonlinearity correction enabled: false
Boxcar width: 0
XAxis mode: Wavelengths
Number of Pixels in Spectrum: 2048
>>>>>Begin Spectral Data<<<<<
223.165	-3.81
223.4	-3.81
223.635	-3.81
223.869	-16.81
224.104	-21.81
224.338	-23.81
224.573	-8.81
224.808	-3.81
225.042	-12.81
225.277	-14.81
225.511	5.19
225.746	1.19
225.98	11.19
226.215	22.19
226.449	-1.81
226.683	15.19
226.918	38.19
227.152	15.19
227.387	34.19
227.621	37.19
227.856	38.19
228.09	61.19
228.324	55.19
228.559	45.19
228.793	61.19
229.027	94.19
229.262	120.19
229.496	139.19
229.73	156.19
229.964	184.19
230.199	163.19
230.433	131.19
230.667	138.19
230.901	113.19
231.136	117.19
231.37	126.19
231.604	111.19
231.838	128.19
232.072	110.19
232.306	126.19
232.541	124.19
232.775	109.19
233.009	130.19
233.243	127.19
233.477	116.19
233.711	136.19
233.945	106.19
234.179	125.19
234.413	127.19
234.647	114.19
234.881	124.19
235.115	133.19
235.349	135.19
235.583	123.19
235.817	128.19
236.051	137.19
236.285	137.19
236.519	139.19
236.753	154.19
236.987	150.19
237.221	207.19
237.455	282.19
237.689	223.19
237.922	174.19
238.156	150.19
238.39	146.19
238.624	144.19
238.858	133.19
239.091	133.19
239.325	122.19
239.559	130.19
239.793	138.19
240.027	154.19
240.26	153.19
240.494	174.19
240.728	167.19
240.961	177.19
241.195	189.19
241.429	149.19
241.662	149.19
241.896	153.19
242.13	146.19
242.363	142.19
242.597	137.19
242.83	143.19
243.064	165.19
243.298	156.19
243.531	164.19
243.765	155.19
243.998	158.19
244.232	144.19
244.465	155.19
244.699	158.19
244.932	149.19
245.166	148.19
245.399	157.19
245.633	165.19
245.866	165.19
246.099	163.19
246.333	170.19
246.566	174.19
246.8	164.19
247.033	161.19
247.266	178.19
247.5	182.19
247.733	185.19
247.966	190.19
248.2	203.19
248.433	190.19
248.666	206.19
248.899	211.19
249.133	222.19
249.366	254.19
249.599	244.19
249.832	218.19
250.066	195.19
250.299	201.19
250.532	215.19
250.765	243.19
250.998	242.19
251.231	252.19
251.465	245.19
251.698	242.19
251.931	229.19
252.164	218.19
252.397	224.19
252.63	230.19
252.863	238.19
253.096	269.19
253.329	270.19
253.562	262.19
253.795	250.19
254.028	271.19
254.261	241.19
254.494	266.19
254.727	309.19
254.96	319.19
255.193	306.19
255.426	296.19
255.659	280.19
255.892	277.19
256.124	268.19
256.357	281.19
256.59	258.19
256.823	251.19
257.056	230.19
257.289	257.19
257.521	241.19
257.754	245.19
257.987	238.19
258.22	246.19
258.452	235.19
258.685	219.19
258.918	225.19
259.151	253.19
259.383	255.19
259.616	257.19
259.849	263.19
260.081	278.19
260.314	300.19
260.547	292.19
260.779	269.19
261.012	271.19
261.244	247.19
261.477	251.19
261.71	258.19
261.942	248.19
262.175	256.19
262.407	273.19
262.64	235.19
262.872	225.19
263.105	245.19
263.337	250.19
263.57	247.19
263.802	233.19
264.035	234.19
264.267	230.19
264.499	241.19
264.732	247.19
264.964	211.19
265.197	232.19
265.429	228.19
265.661	235.19
265.894	251.19
266.126	216.19
266.358	243.19
266.591	234.19
266.823	255.19
267.055	244.19
267.287	254.19
267.52	241.19
267.752	230.19
267.984	246.19
268.216	242.19
268.448	238.19
268.681	257.19
268.913	275.19
269.145	291.19
269.377	309.19
269.609	310.19
269.841	289.19
270.073	310.19
270.306	319.19
270.538	346.19
270.77	361.19
271.002	333.19
271.234	331.19
271.466	356.19
271.698	345.19
271.93	365.19
272.162	343.19
272.394	357.19
272.626	342.19
272.858	331.19
273.09	326.19
273.322	294.19
273.553	293.19
273.785	284.19
274.017	286.19
274.249	284.19
274.481	282.19
274.713	293.19
274.945	278.19
275.176	291.19
275.408	294.19
275.64	295.19
275.872	293.19
276.104	297.19
276.335	301.19
276.567	291.19
276.799	328.19
277.031	334.19
277.262	355.19
277.494	356.19
277.726	332.19
277.957	322.19
278.189	300.19
278.421	282.19
278.652	297.19
278.884	284.19
279.115	301.19
279.347	280.19
279.579	265.19
279.81	276.19
280.042	291.19
280.273	300.19
280.505	279.19
280.736	262.19
280.968	302.19
281.199	265.19
281.431	299.19
281.662	286.19
281.894	269.19
282.125	287.19
282.356	291.19
282.588	330.19
282.819	341.19
283.051	296.19
283.282	300.19
283.513	275.19
283.745	281.19
283.976	280.19
284.207	287.19
284.439	306.19
284.67	287.19
284.901	293.19
285.132	271.19
285.364	281.19
285.595	276.19
285.826	274.19
286.057	276.19
286.288	281.19
286.52	299.19
286.751	300.19
286.982	282.19
287.213	299.19
287.444	288.19
287.675	305.19
287.906	309.19
288.138	314.19
288.369	316.19
288.6	301.19
288.831	321.19
289.062	291.19
289.293	303.19
289.524	295.19
289.755	316.19
289.986	297.19
290.217	299.19
290.448	292.19
290.679	295.19
290.91	299.19
291.141	287.19
291.371	297.19
291.602	285.19
291.833	297.19
292.064	317.19
292.295	291.19
292.526	290.19
292.757	300.19
292.987	290.19
293.218	301.19
293.449	299.19
293.68	288.19
293.91	312.19
294.141	294.19
294.372	302.19
294.603	298.19
294.833	312.19
295.064	309.19
295.295	311.19
295.525	282.19
295.756	301.19
295.987	305.19
296.217	344.19
296.448	356.19
296.679	314.19
296.909	302.19
297.14	314.19
297.37	305.19
297.601	302.19
297.831	313.19
298.062	310.19
298.292	301.19
298.523	310.19
298.753	317.19
298.984	305.19
299.214	309.19
299.445	323.19
299.675	303.19
299.905	326.19
300.136	316.19
300.366	326.19
300.597	313.19
300.827	311.19
301.057	334.19
301.288	342.19
301.518	328.19
301.748	327.19
301.979	347.19
302.209	330.19
302.439	340.19
302.669	331.19
302.9	330.19
303.13	333.19
303.36	345.19
303.59	352.19
303.82	346.19
304.051	366.19
304.281	348.19
304.511	348.19
304.741	343.19
304.971	344.19
305.201	329.19
305.431	334.19
305.661	342.19
305.891	326.19
306.121	354.19
306.352	344.19
306.582	356.19
306.812	340.19
307.042	331.19
307.272	342.19
307.502	329.19
307.731	350.19
307.961	338.19
308.191	342.19
308.421	342.19
308.651	345.19
308.881	340.19
309.111	361.19
309.341	347.19
309.571	354.19
309.8	369.19
310.03	396.19
310.26	402.19
310.49	417.19
310.72	412.19
310.949	442.19
311.179	435.19
311.409	415.19
311.639	416.19
311.868	399.19
312.098	418.19
312.328	408.19
312.557	449.19
312.787	458.19
313.017	445.19
313.246	421.19
313.476	394.19
313.706	385.19
313.935	391.19
314.165	408.19
314.394	446.19
314.624	413.19
314.853	435.19
315.083	403.19
315.312	414.19
315.542	410.19
315.771	389.19
316.001	387.19
316.23	397.19
316.46	399.19
316.689	400.19
316.919	402.19
317.148	429.19
317.377	415.19
317.607	410.19
317.836	398.19
318.065	408.19
318.295	401.19
318.524	413.19
318.753	395.19
318.983	380.19
319.212	410.19
319.441	405.19
319.67	414.19
319.9	413.19
320.129	397.19
320.358	421.19
320.587	386.19
320.816	437.19
321.046	448.19
321.275	442.19
321.504	437.19
321.733	426.19
321.962	435.19
322.191	476.19
322.42	460.19
322.649	508.19
322.878	518.19
323.108	526.19
323.337	549.19
323.566	598.19
323.795	634.19
324.024	677.19
324.253	839.19
324.482	1221.19
324.71	1894.19
324.939	2674.19
325.168	2321.19
325.397	1201.19
325.626	815.19
325.855	671.19
326.084	598.19
326.313	590.19
326.542	591.19
326.77	660.19
326.999	777.19
327.228	1060.19
327.457	1653.19
327.686	2086.19
327.914	1366.19
328.143	897.19
328.372	797.19
328.6	716.19
328.829	665.19
329.058	700.19
329.287	705.19
329.515	674.19
329.744	602.19
329.972	603.19
330.201	635.19
330.43	680.19
330.658	726.19
330.887	747.19
331.115	721.19
331.344	618.19
331.572	563.19
331.801	566.19
332.03	550.19
332.258	531.19
332.486	469.19
332.715	510.19
332.943	486.19
333.172	510.19
333.4	490.19
333.629	501.19
333.857	508.19
334.085	546.19
334.314	536.19
334.542	601.19
334.771	657.19
334.999	571.19
335.227	521.19
335.455	503.19
335.684	488.19
335.912	476.19
336.14	486.19
336.369	470.19
336.597	479.19
336.825	487.19
337.053	472.19
337.281	478.19
337.51	481.19
337.738	462.19
337.966	463.19
338.194	458.19
338.422	485.19
338.65	476.19
338.878	485.19
339.106	436.19
339.334	471.19
339.562	481.19
339.79	461.19
340.018	442.19
340.246	474.19
340.474	491.19
340.702	477.19
340.93	460.19
341.158	433.19
341.386	470.19
341.614	475.19
341.842	467.19
342.07	457.19
342.298	451.19
342.526	465.19
342.754	454.19
342.981	455.19
343.209	429.19
343.437	433.19
343.665	433.19
343.893	458.19
344.12	454.19
344.348	462.19
344.576	438.19
344.804	474.19
345.031	478.19
345.259	493.19
345.487	487.19
345.714	473.19
345.942	479.19
346.17	476.19
346.397	457.19
346.625	455.19
346.853	464.19
347.08	468.19
347.308	454.19
347.535	459.19
347.763	482.19
347.99	454.19
348.218	477.19
348.445	439.19
348.673	483.19
348.9	470.19
349.128	457.19
349.355	454.19
349.583	437.19
349.81	436.19
350.037	459.19
350.265	448.19
350.492	443.19
350.72	444.19
350.947	427.19
351.174	476.19
351.402	458.19
351.629	464.19
351.856	479.19
352.083	479.19
352.311	490.19
352.538	477.19
352.765	483.19
352.992	490.19
353.22	480.19
353.447	461.19
353.674	472.19
353.901	446.19
354.128	431.19
354.355	418.19
354.583	421.19
354.81	428.19
355.037	413.19
355.264	409.19
355.491	414.19
355.718	434.19
355.945	438.19
356.172	414.19
356.399	427.19
356.626	415.19
356.853	429.19
357.08	423.19
357.307	414.19
357.534	417.19
357.761	415.19
357.988	433.19
358.215	426.19
358.441	400.19
358.668	433.19
358.895	438.19
359.122	441.19
359.349	458.19
359.576	477.19
359.802	470.19
360.029	529.19
360.256	579.19
360.483	521.19
360.709	495.19
360.936	481.19
361.163	468.19
361.39	474.19
361.616	491.19
361.843	493.19
362.07	464.19
362.296	446.19
362.523	474.19
362.749	463.19
362.976	468.19
363.203	462.19
363.429	461.19
363.656	458.19
363.882	465.19
364.109	439.19
364.335	457.19
364.562	435.19
364.788	432.19
365.015	441.19
365.241	442.19
365.468	432.19
365.694	451.19
365.92	458.19
366.147	465.19
366.373	449.19
366.599	436.19
366.826	433.19
367.052	428.19
367.278	427.19
367.505	440.19
367.731	449.19
367.957	445.19
368.184	458.19
368.41	455.19
368.636	484.19
368.862	485.19
369.089	461.19
369.315	441.19
369.541	436.19
369.767	450.19
369.993	450.19
370.219	439.19
370.445	429.19
370.672	445.19
370.898	440.19
371.124	431.19
371.35	437.19
371.576	440.19
371.802	442.19
372.028	449.19
372.254	435.19
372.48	438.19
372.706	433.19
372.932	426.19
373.158	437.19
373.384	466.19
373.61	414.19
373.835	467.19
374.061	449.19
374.287	443.19
374.513	463.19
374.739	434.19
374.965	447.19
375.191	431.19
375.416	447.19
375.642	442.19
375.868	434.19
376.094	431.19
376.319	444.19
376.545	428.19
376.771	435.19
376.997	422.19
377.222	443.19
377.448	437.19
377.674	432.19
377.899	422.19
378.125	429.19
378.35	429.19
378.576	442.19
378.802	428.19
379.027	443.19
379.253	439.19
379.478	420.19
379.704	433.19
379.929	452.19
380.155	429.19
380.38	435.19
380.606	433.19
380.831	445.19
381.057	431.19
381.282	453.19
381.507	428.19
381.733	460.19
381.958	441.19
382.184	414.19
382.409	470.19
382.634	451.19
382.86	438.19
383.085	455.19
383.31	460.19
383.535	444.19
383.761	446.19
383.986	452.19
384.211	439.19
384.436	461.19
384.662	462.19
384.887	473.19
385.112	453.19
385.337	470.19
385.562	468.19
385.787	485.19
386.013	493.19
386.238	477.19
386.463	492.19
386.688	482.19
386.913	438.19
387.138	472.19
387.363	472.19
387.588	480.19
387.813	481.19
388.038	462.19
388.263	471.19
388.488	469.19
388.713	466.19
388.938	469.19
389.163	456.19
389.387	497.19
389.612	484.19
389.837	463.19
390.062	475.19
390.287	477.19
390.512	454.19
390.736	464.19
390.961	467.19
391.186	459.19
391.411	479.19
391.636	473.19
391.86	463.19
392.085	482.19
392.31	471.19
392.534	471.19
392.759	472.19
392.984	462.19
393.208	455.19
393.433	483.19
393.658	483.19
393.882	461.19
394.107	482.19
394.331	473.19
394.556	450.19
394.78	459.19
395.005	477.19
395.229	474.19
395.454	497.19
395.678	479.19
395.903	502.19
396.127	519.19
396.352	545.19
396.576	501.19
396.801	482.19
397.025	504.19
397.249	477.19
397.474	508.19
397.698	507.19
397.922	499.19
398.147	540.19
398.371	527.19
398.595	519.19
398.82	532.19
399.044	531.19
399.268	536.19
399.492	554.19
399.717	596.19
399.941	629.19
400.165	645.19
400.389	647.19
400.613	611.19
400.837	552.19
401.062	585.19
401.286	561.19
401.51	536.19
401.734	547.19
401.958	555.19
402.182	532.19
402.406	584.19
402.63	568.19
402.854	576.19
403.078	560.19
403.302	558.19
403.526	569.19
403.75	572.19
403.974	572.19
404.198	561.19
404.422	566.19
404.645	581.19
404.869	590.19
405.093	598.19
405.317	657.19
405.541	693.19
405.765	637.19
405.988	619.19
406.212	589.19
406.436	650.19
406.66	657.19
406.883	617.19
407.107	647.19
407.331	687.19
407.555	759.19
407.778	771.19
408.002	683.19
408.226	631.19
408.449	629.19
408.673	614.19
408.896	661.19
409.12	686.19
409.344	702.19
409.567	622.19
409.791	573.19
410.014	561.19
410.238	572.19
410.461	600.19
410.685	582.19
410.908	611.19
411.132	647.19
411.355	697.19
411.578	661.19
411.802	609.19
412.025	579.19
412.249	579.19
412.472	632.19
412.695	641.19
412.919	642.19
413.142	598.19
413.365	584.19
413.589	571.19
413.812	572.19
414.035	536.19
414.258	570.19
414.482	538.19
414.705	539.19
414.928	543.19
415.151	523.19
415.374	541.19
415.597	519.19
415.821	536.19
416.044	539.19
416.267	571.19
416.49	529.19
416.713	527.19
416.936	542.19
417.159	547.19
417.382	550.19
417.605	580.19
417.828	555.19
418.051	561.19
418.274	561.19
418.497	556.19
418.72	556.19
418.943	550.19
419.166	555.19
419.389	599.19
419.611	582.19
419.834	558.19
420.057	574.19
420.28	601.19
420.503	599.19
420.726	573.19
420.948	577.19
421.171	653.19
421.394	668.19
421.617	600.19
421.839	579.19
422.062	569.19
422.285	595.19
422.507	653.19
422.73	737.19
422.953	723.19
423.175	658.19
423.398	626.19
423.621	604.19
423.843	637.19
424.066	637.19
424.288	635.19
424.511	650.19
424.733	718.19
424.956	824.19
425.178	789.19
425.401	787.19
425.623	809.19
425.846	675.19
426.068	644.19
426.291	634.19
426.513	635.19
426.735	647.19
426.958	700.19
427.18	797.19
427.402	934.19
427.625	1036.19
427.847	951.19
428.069	819.19
428.292	720.19
428.514	649.19
428.736	613.19
428.958	626.19
429.181	599.19
429.403	613.19
429.625	580.19
429.847	636.19
430.069	742.19
430.292	706.19
430.514	623.19
430.736	596.19
430.958	589.19
431.18	568.19
431.402	556.19
431.624	527.19
431.846	539.19
432.068	546.19
432.29	555.19
432.512	533.19
432.734	569.19
432.956	544.19
433.178	571.19
433.4	571.19
433.622	585.19
433.844	550.19
434.066	550.19
434.287	532.19
434.509	569.19
434.731	567.19
434.953	578.19
435.175	584.19
435.397	636.19
435.618	639.19
435.84	687.19
436.062	806.19
436.284	860.19
436.505	746.19
436.727	677.19
436.949	629.19
437.17	609.19
437.392	597.19
437.614	603.19
437.835	642.19
438.057	778.19
438.278	913.19
438.5	870.19
438.721	939.19
438.943	894.19
439.165	763.19
439.386	697.19
439.608	688.19
439.829	676.19
440.05	690.19
440.272	748.19
440.493	718.19
440.715	665.19
440.936	637.19
441.158	592.19
441.379	591.19
441.6	618.19
441.822	630.19
442.043	701.19
442.264	793.19
442.486	824.19
442.707	710.19
442.928	673.19
443.149	697.19
443.371	686.19
443.592	732.19
443.813	846.19
444.034	899.19
444.255	758.19
444.476	665.19
444.698	643.19
444.919	646.19
445.14	732.19
445.361	739.19
445.582	702.19
445.803	771.19
446.024	907.19
446.245	882.19
446.466	837.19
446.687	728.19
446.908	651.19
447.129	631.19
447.35	625.19
447.571	603.19
447.792	597.19
448.013	606.19
448.234	630.19
448.455	698.19
448.675	803.19
448.896	897.19
449.117	814.19
449.338	744.19
449.559	855.19
449.779	958.19
450	789.19
450.221	687.19
450.442	621.19
450.662	599.19
450.883	622.19
451.104	661.19
451.324	629.19
451.545	580.19
451.766	567.19
451.986	543.19
452.207	526.19
452.428	540.19
452.648	534.19
452.869	545.19
453.089	549.19
453.31	557.19
453.53	569.19
453.751	546.19
453.971	571.19
454.192	563.19
454.412	548.19
454.633	563.19
454.853	544.19
455.073	575.19
455.294	583.19
455.514	653.19
455.734	633.19
455.955	556.19
456.175	515.19
456.395	507.19
456.616	520.19
456.836	519.19
457.056	499.19
457.276	478.19
457.497	517.19
457.717	488.19
457.937	503.19
458.157	524.19
458.377	507.19
458.598	547.19
458.818	651.19
459.038	741.19
459.258	740.19
459.478	644.19
459.698	591.19
459.918	553.19
460.138	562.19
460.358	563.19
460.578	546.19
460.798	552.19
461.018	564.19
461.238	527.19
461.458	547.19
461.678	547.19
461.898	557.19
462.118	515.19
462.338	569.19
462.558	571.19
462.777	576.19
462.997	563.19
463.217	567.19
463.437	575.19
463.657	562.19
463.876	590.19
464.096	583.19
464.316	583.19
464.536	572.19
464.755	605.19
464.975	628.19
465.195	655.19
465.414	781.19
465.634	677.19
465.854	616.19
466.073	595.19
466.293	551.19
466.512	563.19
466.732	558.19
466.951	553.19
467.171	534.19
467.391	549.19
467.61	555.19
467.829	580.19
468.049	583.19
468.268	567.19
468.488	538.19
468.707	542.19
468.927	523.19
469.146	535.19
469.365	539.19
469.585	531.19
469.804	569.19
470.023	549.19
470.243	551.19
470.462	588.19
470.681	591.19
470.901	572.19
471.12	560.19
471.339	564.19
471.558	563.19
471.777	577.19
471.997	554.19
472.216	597.19
472.435	619.19
472.654	600.19
472.873	574.19
473.092	564.19
473.311	534.19
473.53	546.19
473.749	578.19
473.968	614.19
474.187	755.19
474.406	774.19
474.625	643.19
474.844	596.19
475.063	563.19
475.282	576.19
475.501	594.19
475.72	588.19
475.939	563.19
476.158	571.19
476.377	570.19
476.596	577.19
476.814	595.19
477.033	617.19
477.252	583.19
477.471	597.19
477.69	589.19
477.908	603.19
478.127	613.19
478.346	615.19
478.564	619.19
478.783	605.19
479.002	637.19
479.22	645.19
479.439	667.19
479.658	665.19
479.876	670.19
480.095	682.19
480.313	705.19
480.532	697.19
480.751	681.19
480.969	678.19
481.188	775.19
481.406	857.19
481.624	746.19
481.843	704.19
482.061	687.19
482.28	689.19
482.498	657.19
482.717	659.19
482.935	671.19
483.153	661.19
483.372	672.19
483.59	673.19
483.808	679.19
484.027	660.19
484.245	647.19
484.463	660.19
484.681	680.19
484.9	689.19
485.118	698.19
485.336	694.19
485.554	693.19
485.772	673.19
485.99	663.19
486.209	666.19
486.427	695.19
486.645	728.19
486.863	739.19
487.081	745.19
487.299	731.19
487.517	721.19
487.735	711.19
487.953	707.19
488.171	725.19
488.389	739.19
488.607	747.19
488.825	730.19
489.043	742.19
489.261	743.19
489.479	732.19
489.696	737.19
489.914	775.19
490.132	753.19
490.35	743.19
490.568	790.19
490.786	801.19
491.003	793.19
491.221	803.19
491.439	829.19
491.657	828.19
491.874	833.19
492.092	849.19
492.31	859.19
492.527	874.19
492.745	884.19
492.963	874.19
493.18	867.19
493.398	856.19
493.615	882.19
493.833	873.19
494.05	891.19
494.268	886.19
494.485	881.19
494.703	892.19
494.92	875.19
495.138	838.19
495.355	879.19
495.573	886.19
495.79	849.19
496.008	876.19
496.225	863.19
496.442	858.19
496.66	860.19
496.877	874.19
497.094	867.19
497.312	854.19
497.529	897.19
497.746	895.19
497.963	874.19
498.181	903.19
498.398	929.19
498.615	904.19
498.832	942.19
499.049	932.19
499.267	953.19
499.484	983.19
499.701	1011.19
499.918	1023.19
500.135	1038.19
500.352	1065.19
500.569	1090.19
500.786	1079.19
501.003	1100.19
501.22	1058.19
501.437	1055.19
501.654	1060.19
