Data from 1970.PennyLincolnUp.Lamp.En5.5.200Scan.071719.P1._HRD10591_15-13-40-842.txt Node
Date: Thu Jul 18 15:13:40 EDT 2019
User: cochatt
Spectrometer: HR+D1059
Trigger mode: 1
Integration Time (sec): 1.000000E-1
Scans to average: 1
Electric dark correction enabled: true
Nonlinearity correction enabled: false
Boxcar width: 0
XAxis mode: Wavelengths
Number of Pixels in Spectrum: 2048
>>>>>Begin Spectral Data<<<<<
223.165	-8.25
223.4	-8.25
223.635	-8.25
223.869	-15.25
224.104	-22.25
224.338	-25.25
224.573	-12.25
224.808	-1.25
225.042	-8.25
225.277	-14.25
225.511	-4.25
225.746	-0.25
225.98	-5.25
226.215	20.75
226.449	28.75
226.683	18.75
226.918	29.75
227.152	18.75
227.387	39.75
227.621	36.75
227.856	46.75
228.09	39.75
228.324	65.75
228.559	67.75
228.793	63.75
229.027	99.75
229.262	112.75
229.496	121.75
229.73	132.75
229.964	160.75
230.199	139.75
230.433	129.75
230.667	121.75
230.901	121.75
231.136	115.75
231.37	112.75
231.604	118.75
231.838	113.75
232.072	112.75
232.306	116.75
232.541	119.75
232.775	108.75
233.009	126.75
233.243	122.75
233.477	112.75
233.711	102.75
233.945	123.75
234.179	135.75
234.413	127.75
234.647	123.75
234.881	139.75
235.115	127.75
235.349	119.75
235.583	111.75
235.817	129.75
236.051	131.75
236.285	131.75
236.519	137.75
236.753	143.75
236.987	144.75
237.221	191.75
237.455	243.75
237.689	186.75
237.922	151.75
238.156	146.75
238.39	144.75
238.624	139.75
238.858	115.75
239.091	131.75
239.325	121.75
239.559	127.75
239.793	130.75
240.027	146.75
240.26	156.75
240.494	161.75
240.728	137.75
240.961	151.75
241.195	137.75
241.429	161.75
241.662	148.75
241.896	135.75
242.13	136.75
242.363	140.75
242.597	140.75
242.83	143.75
243.064	133.75
243.298	141.75
243.531	140.75
243.765	153.75
243.998	146.75
244.232	146.75
244.465	147.75
244.699	143.75
244.932	138.75
245.166	146.75
245.399	160.75
245.633	147.75
245.866	147.75
246.099	150.75
246.333	170.75
246.566	175.75
246.8	165.75
247.033	163.75
247.266	149.75
247.5	169.75
247.733	185.75
247.966	186.75
248.2	187.75
248.433	194.75
248.666	192.75
248.899	181.75
249.133	213.75
249.366	224.75
249.599	227.75
249.832	197.75
250.066	180.75
250.299	191.75
250.532	207.75
250.765	216.75
250.998	239.75
251.231	247.75
251.465	232.75
251.698	223.75
251.931	212.75
252.164	205.75
252.397	220.75
252.63	205.75
252.863	205.75
253.096	227.75
253.329	255.75
253.562	233.75
253.795	239.75
254.028	247.75
254.261	236.75
254.494	223.75
254.727	269.75
254.96	313.75
255.193	293.75
255.426	263.75
255.659	243.75
255.892	244.75
256.124	266.75
256.357	253.75
256.59	225.75
256.823	206.75
257.056	225.75
257.289	211.75
257.521	215.75
257.754	236.75
257.987	210.75
258.22	227.75
258.452	217.75
258.685	230.75
258.918	203.75
259.151	219.75
259.383	217.75
259.616	236.75
259.849	226.75
260.081	240.75
260.314	248.75
260.547	270.75
260.779	267.75
261.012	236.75
261.244	239.75
261.477	251.75
261.71	238.75
261.942	225.75
262.175	253.75
262.407	241.75
262.64	217.75
262.872	207.75
263.105	220.75
263.337	215.75
263.57	225.75
263.802	223.75
264.035	214.75
264.267	224.75
264.499	200.75
264.732	226.75
264.964	222.75
265.197	200.75
265.429	214.75
265.661	229.75
265.894	208.75
266.126	217.75
266.358	210.75
266.591	236.75
266.823	230.75
267.055	223.75
267.287	229.75
267.52	217.75
267.752	213.75
267.984	232.75
268.216	221.75
268.448	221.75
268.681	233.75
268.913	249.75
269.145	254.75
269.377	270.75
269.609	284.75
269.841	270.75
270.073	258.75
270.306	283.75
270.538	315.75
270.77	311.75
271.002	313.75
271.234	282.75
271.466	303.75
271.698	315.75
271.93	315.75
272.162	331.75
272.394	297.75
272.626	292.75
272.858	293.75
273.09	275.75
273.322	269.75
273.553	264.75
273.785	237.75
274.017	260.75
274.249	255.75
274.481	279.75
274.713	268.75
274.945	244.75
275.176	259.75
275.408	244.75
275.64	263.75
275.872	251.75
276.104	253.75
276.335	261.75
276.567	243.75
276.799	271.75
277.031	288.75
277.262	299.75
277.494	302.75
277.726	295.75
277.957	282.75
278.189	274.75
278.421	257.75
278.652	275.75
278.884	249.75
279.115	259.75
279.347	259.75
279.579	257.75
279.81	258.75
280.042	267.75
280.273	250.75
280.505	256.75
280.736	270.75
280.968	233.75
281.199	267.75
281.431	264.75
281.662	265.75
281.894	249.75
282.125	257.75
282.356	275.75
282.588	296.75
282.819	274.75
283.051	269.75
283.282	238.75
283.513	255.75
283.745	261.75
283.976	277.75
284.207	259.75
284.439	267.75
284.67	258.75
284.901	242.75
285.132	234.75
285.364	268.75
285.595	268.75
285.826	236.75
286.057	258.75
286.288	262.75
286.52	264.75
286.751	247.75
286.982	270.75
287.213	269.75
287.444	277.75
287.675	268.75
287.906	272.75
288.138	265.75
288.369	279.75
288.6	275.75
288.831	273.75
289.062	284.75
289.293	280.75
289.524	296.75
289.755	273.75
289.986	258.75
290.217	257.75
290.448	251.75
290.679	276.75
290.91	274.75
291.141	264.75
291.371	248.75
291.602	258.75
291.833	264.75
292.064	269.75
292.295	266.75
292.526	269.75
292.757	261.75
292.987	272.75
293.218	265.75
293.449	267.75
293.68	262.75
293.91	267.75
294.141	266.75
294.372	270.75
294.603	253.75
294.833	264.75
295.064	270.75
295.295	295.75
295.525	255.75
295.756	267.75
295.987	279.75
296.217	291.75
296.448	300.75
296.679	285.75
296.909	294.75
297.14	282.75
297.37	274.75
297.601	272.75
297.831	265.75
298.062	245.75
298.292	283.75
298.523	282.75
298.753	273.75
298.984	282.75
299.214	289.75
299.445	272.75
299.675	297.75
299.905	279.75
300.136	267.75
300.366	283.75
300.597	276.75
300.827	280.75
301.057	283.75
301.288	309.75
301.518	295.75
301.748	291.75
301.979	299.75
302.209	300.75
302.439	292.75
302.669	297.75
302.9	290.75
303.13	309.75
303.36	312.75
303.59	315.75
303.82	316.75
304.051	305.75
304.281	312.75
304.511	290.75
304.741	289.75
304.971	298.75
305.201	293.75
305.431	292.75
305.661	305.75
305.891	284.75
306.121	289.75
306.352	307.75
306.582	314.75
306.812	301.75
307.042	309.75
307.272	290.75
307.502	285.75
307.731	308.75
307.961	305.75
308.191	296.75
308.421	296.75
308.651	300.75
308.881	326.75
309.111	313.75
309.341	341.75
309.571	326.75
309.8	330.75
310.03	316.75
310.26	337.75
310.49	354.75
310.72	356.75
310.949	362.75
311.179	362.75
311.409	347.75
311.639	340.75
311.868	361.75
312.098	353.75
312.328	361.75
312.557	362.75
312.787	380.75
313.017	388.75
313.246	365.75
313.476	337.75
313.706	347.75
313.935	349.75
314.165	348.75
314.394	365.75
314.624	370.75
314.853	371.75
315.083	345.75
315.312	349.75
315.542	343.75
315.771	343.75
316.001	340.75
316.23	340.75
316.46	350.75
316.689	344.75
316.919	358.75
317.148	377.75
317.377	371.75
317.607	352.75
317.836	366.75
318.065	335.75
318.295	355.75
318.524	360.75
318.753	355.75
318.983	351.75
319.212	354.75
319.441	350.75
319.67	358.75
319.9	358.75
320.129	360.75
320.358	340.75
320.587	359.75
320.816	364.75
321.046	358.75
321.275	364.75
321.504	385.75
321.733	379.75
321.962	375.75
322.191	366.75
322.42	395.75
322.649	402.75
322.878	437.75
323.108	424.75
323.337	447.75
323.566	477.75
323.795	513.75
324.024	580.75
324.253	675.75
324.482	937.75
324.71	1413.75
324.939	2001.75
325.168	1781.75
325.397	987.75
325.626	658.75
325.855	539.75
326.084	497.75
326.313	462.75
326.542	487.75
326.77	507.75
326.999	625.75
327.228	827.75
327.457	1282.75
327.686	1513.75
327.914	1055.75
328.143	728.75
328.372	642.75
328.6	585.75
328.829	557.75
329.058	571.75
329.287	571.75
329.515	536.75
329.744	495.75
329.972	487.75
330.201	513.75
330.43	543.75
330.658	565.75
330.887	581.75
331.115	572.75
331.344	492.75
331.572	461.75
331.801	458.75
332.03	460.75
332.258	415.75
332.486	429.75
332.715	421.75
332.943	411.75
333.172	419.75
333.4	420.75
333.629	432.75
333.857	435.75
334.085	457.75
334.314	468.75
334.542	494.75
334.771	496.75
334.999	462.75
335.227	441.75
335.455	428.75
335.684	446.75
335.912	402.75
336.14	421.75
336.369	422.75
336.597	418.75
336.825	428.75
337.053	433.75
337.281	408.75
337.51	400.75
337.738	414.75
337.966	419.75
338.194	420.75
338.422	415.75
338.65	409.75
338.878	419.75
339.106	404.75
339.334	409.75
339.562	377.75
339.79	397.75
340.018	401.75
340.246	405.75
340.474	403.75
340.702	397.75
340.93	401.75
341.158	398.75
341.386	397.75
341.614	433.75
341.842	413.75
342.07	401.75
342.298	389.75
342.526	391.75
342.754	402.75
342.981	395.75
343.209	383.75
343.437	377.75
343.665	404.75
343.893	388.75
344.12	395.75
344.348	427.75
344.576	404.75
344.804	397.75
345.031	413.75
345.259	428.75
345.487	403.75
345.714	414.75
345.942	383.75
346.17	397.75
346.397	395.75
346.625	382.75
346.853	387.75
347.08	378.75
347.308	398.75
347.535	394.75
347.763	422.75
347.99	425.75
348.218	403.75
348.445	421.75
348.673	406.75
348.9	398.75
349.128	387.75
349.355	391.75
349.583	383.75
349.81	381.75
350.037	389.75
350.265	386.75
350.492	384.75
350.72	395.75
350.947	399.75
351.174	411.75
351.402	413.75
351.629	406.75
351.856	397.75
352.083	385.75
352.311	413.75
352.538	414.75
352.765	411.75
352.992	396.75
353.22	393.75
353.447	405.75
353.674	413.75
353.901	396.75
354.128	370.75
354.355	377.75
354.583	380.75
354.81	377.75
355.037	363.75
355.264	364.75
355.491	377.75
355.718	389.75
355.945	348.75
356.172	349.75
356.399	371.75
356.626	373.75
356.853	366.75
357.08	367.75
357.307	368.75
357.534	394.75
357.761	368.75
357.988	375.75
358.215	367.75
358.441	387.75
358.668	377.75
358.895	371.75
359.122	367.75
359.349	401.75
359.576	413.75
359.802	443.75
360.029	467.75
360.256	461.75
360.483	479.75
360.709	396.75
360.936	393.75
361.163	402.75
361.39	410.75
361.616	395.75
361.843	415.75
362.07	393.75
362.296	420.75
362.523	393.75
362.749	406.75
362.976	401.75
363.203	409.75
363.429	396.75
363.656	388.75
363.882	371.75
364.109	383.75
364.335	379.75
364.562	397.75
364.788	391.75
365.015	409.75
365.241	401.75
365.468	403.75
365.694	409.75
365.92	393.75
366.147	377.75
366.373	403.75
366.599	364.75
366.826	395.75
367.052	392.75
367.278	391.75
367.505	386.75
367.731	404.75
367.957	389.75
368.184	397.75
368.41	406.75
368.636	401.75
368.862	416.75
369.089	402.75
369.315	386.75
369.541	411.75
369.767	379.75
369.993	391.75
370.219	413.75
370.445	392.75
370.672	365.75
370.898	377.75
371.124	383.75
371.35	389.75
371.576	376.75
371.802	383.75
372.028	386.75
372.254	386.75
372.48	389.75
372.706	376.75
372.932	397.75
373.158	387.75
373.384	378.75
373.61	388.75
373.835	370.75
374.061	384.75
374.287	390.75
374.513	382.75
374.739	396.75
374.965	386.75
375.191	393.75
375.416	411.75
375.642	380.75
375.868	379.75
376.094	397.75
376.319	387.75
376.545	401.75
376.771	386.75
376.997	392.75
377.222	360.75
377.448	395.75
377.674	395.75
377.899	388.75
378.125	387.75
378.35	400.75
378.576	387.75
378.802	382.75
379.027	388.75
379.253	385.75
379.478	399.75
379.704	388.75
379.929	387.75
380.155	388.75
380.38	381.75
380.606	392.75
380.831	393.75
381.057	403.75
381.282	400.75
381.507	385.75
381.733	394.75
381.958	387.75
382.184	382.75
382.409	413.75
382.634	394.75
382.86	409.75
383.085	399.75
383.31	422.75
383.535	408.75
383.761	401.75
383.986	408.75
384.211	393.75
384.436	411.75
384.662	415.75
384.887	403.75
385.112	427.75
385.337	396.75
385.562	403.75
385.787	410.75
386.013	431.75
386.238	428.75
386.463	445.75
386.688	432.75
386.913	421.75
387.138	431.75
387.363	413.75
387.588	406.75
387.813	426.75
388.038	412.75
388.263	425.75
388.488	424.75
388.713	414.75
388.938	434.75
389.163	411.75
389.387	425.75
389.612	421.75
389.837	426.75
390.062	432.75
390.287	403.75
390.512	419.75
390.736	403.75
390.961	423.75
391.186	419.75
391.411	431.75
391.636	424.75
391.86	433.75
392.085	425.75
392.31	428.75
392.534	431.75
392.759	425.75
392.984	449.75
393.208	427.75
393.433	448.75
393.658	433.75
393.882	412.75
394.107	431.75
394.331	429.75
394.556	407.75
394.78	430.75
395.005	447.75
395.229	420.75
395.454	431.75
395.678	435.75
395.903	456.75
396.127	505.75
396.352	468.75
396.576	445.75
396.801	428.75
397.025	451.75
397.249	445.75
397.474	458.75
397.698	463.75
397.922	452.75
398.147	461.75
398.371	498.75
398.595	455.75
398.82	463.75
399.044	483.75
399.268	470.75
399.492	509.75
399.717	512.75
399.941	538.75
400.165	556.75
400.389	572.75
400.613	527.75
400.837	521.75
401.062	513.75
401.286	480.75
401.51	468.75
401.734	473.75
401.958	482.75
402.182	476.75
402.406	497.75
402.63	501.75
402.854	503.75
403.078	512.75
403.302	516.75
403.526	485.75
403.75	508.75
403.974	489.75
404.198	521.75
404.422	513.75
404.645	508.75
404.869	530.75
405.093	548.75
405.317	571.75
405.541	594.75
405.765	581.75
405.988	523.75
406.212	510.75
406.436	580.75
406.66	565.75
406.883	532.75
407.107	556.75
407.331	602.75
407.555	658.75
407.778	651.75
408.002	624.75
408.226	561.75
408.449	554.75
408.673	550.75
408.896	566.75
409.12	601.75
409.344	575.75
409.567	552.75
409.791	523.75
410.014	519.75
410.238	506.75
410.461	509.75
410.685	518.75
410.908	525.75
411.132	570.75
411.355	592.75
411.578	567.75
411.802	539.75
412.025	506.75
412.249	527.75
412.472	529.75
412.695	575.75
412.919	554.75
413.142	532.75
413.365	518.75
413.589	472.75
413.812	492.75
414.035	480.75
414.258	486.75
414.482	477.75
414.705	476.75
414.928	480.75
415.151	489.75
415.374	484.75
415.597	481.75
415.821	464.75
416.044	473.75
416.267	497.75
416.49	473.75
416.713	475.75
416.936	489.75
417.159	474.75
417.382	499.75
417.605	493.75
417.828	495.75
418.051	532.75
418.274	500.75
418.497	483.75
418.72	484.75
418.943	489.75
419.166	472.75
419.389	510.75
419.611	523.75
419.834	516.75
420.057	508.75
420.28	518.75
420.503	511.75
420.726	510.75
420.948	532.75
421.171	579.75
421.394	603.75
421.617	562.75
421.839	519.75
422.062	501.75
422.285	541.75
422.507	571.75
422.73	684.75
422.953	651.75
423.175	592.75
423.398	541.75
423.621	539.75
423.843	554.75
424.066	574.75
424.288	550.75
424.511	578.75
424.733	631.75
424.956	690.75
425.178	663.75
425.401	673.75
425.623	697.75
425.846	612.75
426.068	573.75
426.291	550.75
426.513	547.75
426.735	576.75
426.958	606.75
427.18	683.75
427.402	828.75
427.625	861.75
427.847	794.75
428.069	683.75
428.292	627.75
428.514	587.75
428.736	546.75
428.958	561.75
429.181	511.75
429.403	523.75
429.625	532.75
429.847	601.75
430.069	633.75
430.292	626.75
430.514	562.75
430.736	528.75
430.958	522.75
431.18	524.75
431.402	483.75
431.624	488.75
431.846	500.75
432.068	478.75
432.29	493.75
432.512	500.75
432.734	492.75
432.956	481.75
433.178	512.75
433.4	525.75
433.622	482.75
433.844	497.75
434.066	494.75
434.287	484.75
434.509	493.75
434.731	505.75
434.953	523.75
435.175	528.75
435.397	533.75
435.618	578.75
435.84	626.75
436.062	684.75
436.284	745.75
436.505	641.75
436.727	580.75
436.949	555.75
437.17	533.75
437.392	528.75
437.614	559.75
437.835	569.75
438.057	698.75
438.278	786.75
438.5	795.75
438.721	824.75
438.943	770.75
439.165	661.75
439.386	615.75
439.608	612.75
439.829	587.75
440.05	603.75
440.272	660.75
440.493	617.75
440.715	569.75
440.936	545.75
441.158	548.75
441.379	538.75
441.6	544.75
441.822	566.75
442.043	587.75
442.264	675.75
442.486	738.75
442.707	636.75
442.928	596.75
443.149	603.75
443.371	603.75
443.592	660.75
443.813	721.75
444.034	791.75
444.255	660.75
444.476	577.75
444.698	583.75
444.919	591.75
445.14	699.75
445.361	634.75
445.582	612.75
445.803	656.75
446.024	736.75
446.245	768.75
446.466	675.75
446.687	591.75
446.908	571.75
447.129	553.75
447.35	529.75
447.571	523.75
447.792	543.75
448.013	540.75
448.234	549.75
448.455	593.75
448.675	723.75
448.896	802.75
449.117	702.75
449.338	661.75
449.559	760.75
449.779	851.75
450	709.75
450.221	576.75
450.442	563.75
450.662	512.75
450.883	521.75
451.104	545.75
451.324	542.75
451.545	504.75
451.766	483.75
451.986	485.75
452.207	462.75
452.428	476.75
452.648	469.75
452.869	477.75
453.089	483.75
453.31	496.75
453.53	497.75
453.751	482.75
453.971	479.75
454.192	483.75
454.412	484.75
454.633	477.75
454.853	481.75
455.073	455.75
455.294	509.75
455.514	555.75
455.734	578.75
455.955	468.75
456.175	453.75
456.395	456.75
456.616	455.75
456.836	452.75
457.056	447.75
457.276	412.75
457.497	455.75
457.717	445.75
457.937	449.75
458.157	461.75
458.377	466.75
458.598	470.75
458.818	546.75
459.038	611.75
459.258	635.75
459.478	549.75
459.698	487.75
459.918	498.75
460.138	505.75
460.358	509.75
460.578	489.75
460.798	515.75
461.018	489.75
461.238	483.75
461.458	473.75
461.678	476.75
461.898	485.75
462.118	479.75
462.338	485.75
462.558	500.75
462.777	505.75
462.997	505.75
463.217	526.75
463.437	509.75
463.657	510.75
463.876	519.75
464.096	511.75
464.316	532.75
464.536	555.75
464.755	530.75
464.975	533.75
465.195	564.75
465.414	655.75
465.634	588.75
465.854	553.75
466.073	501.75
466.293	488.75
466.512	467.75
466.732	501.75
466.951	490.75
467.171	478.75
467.391	486.75
467.61	499.75
467.829	498.75
468.049	489.75
468.268	470.75
468.488	492.75
468.707	470.75
468.927	498.75
469.146	470.75
469.365	472.75
469.585	460.75
469.804	487.75
470.023	500.75
470.243	493.75
470.462	497.75
470.681	511.75
470.901	489.75
471.12	485.75
471.339	480.75
471.558	489.75
471.777	503.75
471.997	494.75
472.216	489.75
472.435	530.75
472.654	519.75
472.873	485.75
473.092	495.75
473.311	495.75
473.53	466.75
473.749	507.75
473.968	529.75
474.187	650.75
474.406	659.75
474.625	559.75
474.844	516.75
475.063	517.75
475.282	511.75
475.501	482.75
475.72	505.75
475.939	499.75
476.158	482.75
476.377	528.75
476.596	498.75
476.814	550.75
477.033	523.75
477.252	509.75
477.471	499.75
477.69	543.75
477.908	535.75
478.127	517.75
478.346	548.75
478.564	545.75
478.783	539.75
479.002	540.75
479.22	558.75
479.439	567.75
479.658	609.75
479.876	605.75
480.095	602.75
480.313	618.75
480.532	627.75
480.751	596.75
480.969	611.75
481.188	647.75
481.406	739.75
481.624	664.75
481.843	620.75
482.061	606.75
482.28	597.75
482.498	587.75
482.717	585.75
482.935	561.75
483.153	560.75
483.372	596.75
483.59	595.75
483.808	589.75
484.027	582.75
484.245	589.75
484.463	596.75
484.681	601.75
484.9	597.75
485.118	585.75
485.336	595.75
485.554	600.75
485.772	608.75
485.99	616.75
486.209	621.75
486.427	595.75
486.645	619.75
486.863	643.75
487.081	662.75
487.299	629.75
487.517	635.75
487.735	657.75
487.953	619.75
488.171	652.75
488.389	649.75
488.607	627.75
488.825	653.75
489.043	651.75
489.261	658.75
489.479	662.75
489.696	648.75
489.914	652.75
490.132	648.75
490.35	654.75
490.568	688.75
490.786	728.75
491.003	687.75
491.221	703.75
491.439	715.75
491.657	733.75
491.874	738.75
492.092	744.75
492.31	730.75
492.527	727.75
492.745	761.75
492.963	750.75
493.18	762.75
493.398	761.75
493.615	763.75
493.833	765.75
494.05	755.75
494.268	767.75
494.485	741.75
494.703	783.75
494.92	755.75
495.138	784.75
495.355	785.75
495.573	777.75
495.79	755.75
496.008	790.75
496.225	757.75
496.442	777.75
496.66	790.75
496.877	763.75
497.094	796.75
497.312	787.75
497.529	803.75
497.746	786.75
497.963	812.75
498.181	799.75
498.398	807.75
498.615	850.75
498.832	845.75
499.049	810.75
499.267	842.75
499.484	880.75
499.701	888.75
499.918	878.75
500.135	915.75
500.352	943.75
500.569	971.75
500.786	951.75
501.003	943.75
501.22	939.75
501.437	957.75
501.654	905.75
501.871	910.75
