Data from 1970.PennyLincolnUp.Lamp.En5.5.200Scan.071719.P1._HRD10591_15-14-15-842.txt Node
Date: Thu Jul 18 15:14:15 EDT 2019
User: cochatt
Spectrometer: HR+D1059
Trigger mode: 1
Integration Time (sec): 1.000000E-1
Scans to average: 1
Electric dark correction enabled: true
Nonlinearity correction enabled: false
Boxcar width: 0
XAxis mode: Wavelengths
Number of Pixels in Spectrum: 2048
>>>>>Begin Spectral Data<<<<<
223.165	-9.69
223.4	-9.69
223.635	-9.69
223.869	-20.69
224.104	-21.69
224.338	-18.69
224.573	-8.69
224.808	-0.69
225.042	0.31
225.277	-3.69
225.511	-5.69
225.746	2.31
225.98	3.31
226.215	24.31
226.449	3.31
226.683	9.31
226.918	27.31
227.152	19.31
227.387	44.31
227.621	50.31
227.856	36.31
228.09	47.31
228.324	53.31
228.559	48.31
228.793	69.31
229.027	107.31
229.262	108.31
229.496	119.31
229.73	151.31
229.964	163.31
230.199	143.31
230.433	119.31
230.667	114.31
230.901	123.31
231.136	113.31
231.37	104.31
231.604	102.31
231.838	118.31
232.072	115.31
232.306	106.31
232.541	99.31
232.775	130.31
233.009	113.31
233.243	115.31
233.477	115.31
233.711	118.31
233.945	110.31
234.179	117.31
234.413	117.31
234.647	116.31
234.881	122.31
235.115	119.31
235.349	115.31
235.583	130.31
235.817	130.31
236.051	127.31
236.285	129.31
236.519	140.31
236.753	147.31
236.987	159.31
237.221	181.31
237.455	236.31
237.689	205.31
237.922	151.31
238.156	149.31
238.39	120.31
238.624	118.31
238.858	131.31
239.091	129.31
239.325	126.31
239.559	127.31
239.793	137.31
240.027	135.31
240.26	143.31
240.494	165.31
240.728	170.31
240.961	157.31
241.195	154.31
241.429	138.31
241.662	132.31
241.896	126.31
242.13	126.31
242.363	138.31
242.597	145.31
242.83	137.31
243.064	152.31
243.298	153.31
243.531	131.31
243.765	157.31
243.998	151.31
244.232	153.31
244.465	160.31
244.699	134.31
244.932	151.31
245.166	152.31
245.399	154.31
245.633	147.31
245.866	154.31
246.099	142.31
246.333	160.31
246.566	169.31
246.8	150.31
247.033	160.31
247.266	162.31
247.5	156.31
247.733	181.31
247.966	172.31
248.2	163.31
248.433	175.31
248.666	175.31
248.899	198.31
249.133	224.31
249.366	227.31
249.599	205.31
249.832	192.31
250.066	195.31
250.299	193.31
250.532	198.31
250.765	203.31
250.998	233.31
251.231	255.31
251.465	224.31
251.698	227.31
251.931	221.31
252.164	200.31
252.397	219.31
252.63	216.31
252.863	218.31
253.096	234.31
253.329	252.31
253.562	231.31
253.795	228.31
254.028	223.31
254.261	231.31
254.494	239.31
254.727	269.31
254.96	298.31
255.193	293.31
255.426	269.31
255.659	256.31
255.892	249.31
256.124	261.31
256.357	237.31
256.59	232.31
256.823	243.31
257.056	226.31
257.289	223.31
257.521	214.31
257.754	215.31
257.987	217.31
258.22	219.31
258.452	223.31
258.685	234.31
258.918	204.31
259.151	236.31
259.383	221.31
259.616	232.31
259.849	241.31
260.081	223.31
260.314	268.31
260.547	264.31
260.779	257.31
261.012	248.31
261.244	234.31
261.477	240.31
261.71	248.31
261.942	236.31
262.175	233.31
262.407	229.31
262.64	222.31
262.872	201.31
263.105	239.31
263.337	216.31
263.57	219.31
263.802	219.31
264.035	209.31
264.267	215.31
264.499	222.31
264.732	205.31
264.964	217.31
265.197	199.31
265.429	212.31
265.661	214.31
265.894	212.31
266.126	210.31
266.358	209.31
266.591	210.31
266.823	213.31
267.055	228.31
267.287	232.31
267.52	205.31
267.752	224.31
267.984	218.31
268.216	212.31
268.448	217.31
268.681	241.31
268.913	240.31
269.145	250.31
269.377	253.31
269.609	265.31
269.841	277.31
270.073	278.31
270.306	306.31
270.538	316.31
270.77	301.31
271.002	312.31
271.234	303.31
271.466	300.31
271.698	316.31
271.93	315.31
272.162	311.31
272.394	333.31
272.626	319.31
272.858	300.31
273.09	293.31
273.322	261.31
273.553	276.31
273.785	273.31
274.017	266.31
274.249	259.31
274.481	257.31
274.713	263.31
274.945	265.31
275.176	270.31
275.408	274.31
275.64	264.31
275.872	259.31
276.104	265.31
276.335	262.31
276.567	259.31
276.799	288.31
277.031	298.31
277.262	309.31
277.494	309.31
277.726	310.31
277.957	295.31
278.189	264.31
278.421	279.31
278.652	281.31
278.884	263.31
279.115	270.31
279.347	274.31
279.579	269.31
279.81	259.31
280.042	255.31
280.273	256.31
280.505	264.31
280.736	250.31
280.968	259.31
281.199	259.31
281.431	262.31
281.662	243.31
281.894	264.31
282.125	250.31
282.356	284.31
282.588	301.31
282.819	303.31
283.051	263.31
283.282	270.31
283.513	284.31
283.745	267.31
283.976	266.31
284.207	258.31
284.439	271.31
284.67	278.31
284.901	249.31
285.132	248.31
285.364	253.31
285.595	268.31
285.826	242.31
286.057	274.31
286.288	281.31
286.52	259.31
286.751	251.31
286.982	265.31
287.213	263.31
287.444	280.31
287.675	253.31
287.906	263.31
288.138	282.31
288.369	294.31
288.6	285.31
288.831	281.31
289.062	283.31
289.293	275.31
289.524	265.31
289.755	283.31
289.986	278.31
290.217	283.31
290.448	272.31
290.679	268.31
290.91	277.31
291.141	291.31
291.371	281.31
291.602	272.31
291.833	279.31
292.064	255.31
292.295	290.31
292.526	283.31
292.757	269.31
292.987	284.31
293.218	267.31
293.449	277.31
293.68	279.31
293.91	281.31
294.141	292.31
294.372	278.31
294.603	271.31
294.833	289.31
295.064	262.31
295.295	275.31
295.525	281.31
295.756	286.31
295.987	284.31
296.217	303.31
296.448	317.31
296.679	299.31
296.909	267.31
297.14	292.31
297.37	296.31
297.601	295.31
297.831	301.31
298.062	268.31
298.292	286.31
298.523	278.31
298.753	292.31
298.984	291.31
299.214	303.31
299.445	297.31
299.675	288.31
299.905	283.31
300.136	268.31
300.366	305.31
300.597	293.31
300.827	294.31
301.057	299.31
301.288	300.31
301.518	313.31
301.748	297.31
301.979	312.31
302.209	304.31
302.439	310.31
302.669	306.31
302.9	314.31
303.13	297.31
303.36	312.31
303.59	327.31
303.82	304.31
304.051	329.31
304.281	320.31
304.511	307.31
304.741	298.31
304.971	295.31
305.201	301.31
305.431	306.31
305.661	297.31
305.891	307.31
306.121	301.31
306.352	317.31
306.582	317.31
306.812	300.31
307.042	310.31
307.272	315.31
307.502	309.31
307.731	323.31
307.961	322.31
308.191	320.31
308.421	299.31
308.651	307.31
308.881	320.31
309.111	339.31
309.341	328.31
309.571	341.31
309.8	367.31
310.03	351.31
310.26	359.31
310.49	374.31
310.72	373.31
310.949	390.31
311.179	401.31
311.409	367.31
311.639	364.31
311.868	366.31
312.098	380.31
312.328	376.31
312.557	408.31
312.787	403.31
313.017	413.31
313.246	378.31
313.476	379.31
313.706	365.31
313.935	378.31
314.165	378.31
314.394	403.31
314.624	390.31
314.853	373.31
315.083	379.31
315.312	367.31
315.542	373.31
315.771	352.31
316.001	349.31
316.23	360.31
316.46	333.31
316.689	345.31
316.919	363.31
317.148	375.31
317.377	361.31
317.607	369.31
317.836	389.31
318.065	372.31
318.295	373.31
318.524	362.31
318.753	383.31
318.983	348.31
319.212	346.31
319.441	359.31
319.67	383.31
319.9	384.31
320.129	361.31
320.358	377.31
320.587	388.31
320.816	377.31
321.046	377.31
321.275	407.31
321.504	403.31
321.733	397.31
321.962	381.31
322.191	420.31
322.42	437.31
322.649	483.31
322.878	467.31
323.108	465.31
323.337	493.31
323.566	524.31
323.795	547.31
324.024	605.31
324.253	751.31
324.482	1048.31
324.71	1592.31
324.939	2252.31
325.168	1986.31
325.397	1060.31
325.626	712.31
325.855	579.31
326.084	540.31
326.313	512.31
326.542	521.31
326.77	592.31
326.999	676.31
327.228	909.31
327.457	1415.31
327.686	1723.31
327.914	1164.31
328.143	797.31
328.372	667.31
328.6	626.31
328.829	612.31
329.058	616.31
329.287	624.31
329.515	576.31
329.744	516.31
329.972	537.31
330.201	553.31
330.43	601.31
330.658	631.31
330.887	663.31
331.115	637.31
331.344	552.31
331.572	517.31
331.801	522.31
332.03	509.31
332.258	468.31
332.486	443.31
332.715	426.31
332.943	447.31
333.172	454.31
333.4	421.31
333.629	474.31
333.857	460.31
334.085	477.31
334.314	498.31
334.542	525.31
334.771	552.31
334.999	505.31
335.227	464.31
335.455	439.31
335.684	432.31
335.912	435.31
336.14	414.31
336.369	449.31
336.597	447.31
336.825	436.31
337.053	421.31
337.281	428.31
337.51	436.31
337.738	447.31
337.966	435.31
338.194	441.31
338.422	438.31
338.65	419.31
338.878	412.31
339.106	411.31
339.334	433.31
339.562	447.31
339.79	415.31
340.018	398.31
340.246	419.31
340.474	428.31
340.702	436.31
340.93	421.31
341.158	407.31
341.386	419.31
341.614	424.31
341.842	412.31
342.07	423.31
342.298	423.31
342.526	393.31
342.754	417.31
342.981	408.31
343.209	403.31
343.437	410.31
343.665	416.31
343.893	407.31
344.12	415.31
344.348	403.31
344.576	418.31
344.804	431.31
345.031	430.31
345.259	450.31
345.487	433.31
345.714	428.31
345.942	419.31
346.17	412.31
346.397	423.31
346.625	424.31
346.853	428.31
347.08	412.31
347.308	432.31
347.535	444.31
347.763	421.31
347.99	437.31
348.218	431.31
348.445	423.31
348.673	419.31
348.9	437.31
349.128	416.31
349.355	415.31
349.583	397.31
349.81	393.31
350.037	391.31
350.265	391.31
350.492	405.31
350.72	397.31
350.947	418.31
351.174	424.31
351.402	443.31
351.629	434.31
351.856	403.31
352.083	446.31
352.311	452.31
352.538	421.31
352.765	435.31
352.992	433.31
353.22	429.31
353.447	419.31
353.674	405.31
353.901	383.31
354.128	388.31
354.355	381.31
354.583	414.31
354.81	379.31
355.037	393.31
355.264	377.31
355.491	376.31
355.718	391.31
355.945	365.31
356.172	364.31
356.399	390.31
356.626	392.31
356.853	379.31
357.08	381.31
357.307	396.31
357.534	379.31
357.761	362.31
357.988	385.31
358.215	398.31
358.441	398.31
358.668	393.31
358.895	392.31
359.122	397.31
359.349	418.31
359.576	437.31
359.802	443.31
360.029	491.31
360.256	487.31
360.483	465.31
360.709	433.31
360.936	424.31
361.163	419.31
361.39	407.31
361.616	449.31
361.843	411.31
362.07	423.31
362.296	403.31
362.523	445.31
362.749	408.31
362.976	429.31
363.203	427.31
363.429	422.31
363.656	404.31
363.882	413.31
364.109	418.31
364.335	435.31
364.562	401.31
364.788	409.31
365.015	415.31
365.241	411.31
365.468	438.31
365.694	411.31
365.92	421.31
366.147	395.31
366.373	411.31
366.599	380.31
366.826	404.31
367.052	397.31
367.278	406.31
367.505	395.31
367.731	407.31
367.957	415.31
368.184	406.31
368.41	383.31
368.636	420.31
368.862	429.31
369.089	420.31
369.315	420.31
369.541	385.31
369.767	411.31
369.993	409.31
370.219	415.31
370.445	409.31
370.672	396.31
370.898	401.31
371.124	401.31
371.35	384.31
371.576	409.31
371.802	397.31
372.028	395.31
372.254	389.31
372.48	385.31
372.706	388.31
372.932	400.31
373.158	388.31
373.384	401.31
373.61	386.31
373.835	405.31
374.061	402.31
374.287	412.31
374.513	411.31
374.739	421.31
374.965	406.31
375.191	391.31
375.416	433.31
375.642	404.31
375.868	414.31
376.094	412.31
376.319	416.31
376.545	411.31
376.771	401.31
376.997	408.31
377.222	408.31
377.448	408.31
377.674	400.31
377.899	412.31
378.125	419.31
378.35	377.31
378.576	383.31
378.802	378.31
379.027	391.31
379.253	394.31
379.478	398.31
379.704	400.31
379.929	376.31
380.155	393.31
380.38	382.31
380.606	401.31
380.831	419.31
381.057	416.31
381.282	401.31
381.507	391.31
381.733	398.31
381.958	413.31
382.184	409.31
382.409	411.31
382.634	404.31
382.86	383.31
383.085	397.31
383.31	409.31
383.535	422.31
383.761	394.31
383.986	414.31
384.211	417.31
384.436	422.31
384.662	421.31
384.887	422.31
385.112	427.31
385.337	431.31
385.562	408.31
385.787	422.31
386.013	457.31
386.238	442.31
386.463	451.31
386.688	451.31
386.913	433.31
387.138	416.31
387.363	434.31
387.588	421.31
387.813	422.31
388.038	428.31
388.263	428.31
388.488	443.31
388.713	433.31
388.938	425.31
389.163	459.31
389.387	449.31
389.612	435.31
389.837	454.31
390.062	436.31
390.287	417.31
390.512	443.31
390.736	423.31
390.961	425.31
391.186	426.31
391.411	416.31
391.636	440.31
391.86	447.31
392.085	442.31
392.31	442.31
392.534	451.31
392.759	441.31
392.984	443.31
393.208	446.31
393.433	442.31
393.658	464.31
393.882	445.31
394.107	456.31
394.331	426.31
394.556	446.31
394.78	444.31
395.005	453.31
395.229	429.31
395.454	444.31
395.678	454.31
395.903	462.31
396.127	503.31
396.352	500.31
396.576	457.31
396.801	451.31
397.025	436.31
397.249	460.31
397.474	467.31
397.698	466.31
397.922	477.31
398.147	477.31
398.371	493.31
398.595	484.31
398.82	460.31
399.044	499.31
399.268	497.31
399.492	525.31
399.717	518.31
399.941	583.31
400.165	623.31
400.389	616.31
400.613	552.31
400.837	534.31
401.062	515.31
401.286	497.31
401.51	497.31
401.734	496.31
401.958	493.31
402.182	467.31
402.406	515.31
402.63	536.31
402.854	536.31
403.078	544.31
403.302	511.31
403.526	534.31
403.75	499.31
403.974	511.31
404.198	514.31
404.422	537.31
404.645	527.31
404.869	539.31
405.093	581.31
405.317	609.31
405.541	618.31
405.765	606.31
405.988	559.31
406.212	580.31
406.436	575.31
406.66	594.31
406.883	570.31
407.107	582.31
407.331	627.31
407.555	714.31
407.778	691.31
408.002	661.31
408.226	596.31
408.449	585.31
408.673	556.31
408.896	639.31
409.12	652.31
409.344	616.31
409.567	541.31
409.791	545.31
410.014	539.31
410.238	544.31
410.461	553.31
410.685	524.31
410.908	550.31
411.132	566.31
411.355	602.31
411.578	594.31
411.802	555.31
412.025	522.31
412.249	566.31
412.472	572.31
412.695	584.31
412.919	587.31
413.142	522.31
413.365	523.31
413.589	529.31
413.812	522.31
414.035	521.31
414.258	490.31
414.482	483.31
414.705	505.31
414.928	483.31
415.151	500.31
415.374	497.31
415.597	485.31
415.821	515.31
416.044	496.31
416.267	505.31
416.49	490.31
416.713	517.31
416.936	488.31
417.159	476.31
417.382	498.31
417.605	514.31
417.828	503.31
418.051	543.31
418.274	509.31
418.497	486.31
418.72	527.31
418.943	508.31
419.166	540.31
419.389	539.31
419.611	543.31
419.834	527.31
420.057	534.31
420.28	537.31
420.503	555.31
420.726	533.31
420.948	554.31
421.171	577.31
421.394	628.31
421.617	571.31
421.839	532.31
422.062	559.31
422.285	548.31
422.507	601.31
422.73	704.31
422.953	661.31
423.175	599.31
423.398	576.31
423.621	578.31
423.843	590.31
424.066	575.31
424.288	579.31
424.511	630.31
424.733	644.31
424.956	734.31
425.178	696.31
425.401	727.31
425.623	731.31
425.846	645.31
426.068	599.31
426.291	610.31
426.513	597.31
426.735	620.31
426.958	651.31
427.18	718.31
427.402	846.31
427.625	919.31
427.847	852.31
428.069	753.31
428.292	670.31
428.514	613.31
428.736	582.31
428.958	559.31
429.181	553.31
429.403	564.31
429.625	563.31
429.847	565.31
430.069	665.31
430.292	666.31
430.514	569.31
430.736	555.31
430.958	545.31
431.18	508.31
431.402	522.31
431.624	488.31
431.846	509.31
432.068	515.31
432.29	516.31
432.512	505.31
432.734	539.31
432.956	536.31
433.178	521.31
433.4	549.31
433.622	529.31
433.844	488.31
434.066	519.31
434.287	497.31
434.509	512.31
434.731	524.31
434.953	549.31
435.175	566.31
435.397	561.31
435.618	609.31
435.84	642.31
436.062	717.31
436.284	788.31
436.505	677.31
436.727	617.31
436.949	584.31
437.17	581.31
437.392	568.31
437.614	562.31
437.835	608.31
438.057	710.31
438.278	799.31
438.5	805.31
438.721	880.31
438.943	851.31
439.165	684.31
439.386	630.31
439.608	615.31
439.829	628.31
440.05	645.31
440.272	678.31
440.493	649.31
440.715	593.31
440.936	569.31
441.158	561.31
441.379	559.31
441.6	562.31
441.822	582.31
442.043	619.31
442.264	735.31
442.486	776.31
442.707	638.31
442.928	608.31
443.149	616.31
443.371	636.31
443.592	694.31
443.813	761.31
444.034	815.31
444.255	697.31
444.476	624.31
444.698	579.31
444.919	608.31
445.14	713.31
445.361	662.31
445.582	643.31
445.803	711.31
446.024	787.31
446.245	810.31
446.466	743.31
446.687	646.31
446.908	616.31
447.129	587.31
447.35	550.31
447.571	563.31
447.792	545.31
448.013	563.31
448.234	601.31
448.455	636.31
448.675	757.31
448.896	861.31
449.117	735.31
449.338	691.31
449.559	785.31
449.779	893.31
450	723.31
450.221	623.31
450.442	603.31
450.662	567.31
450.883	577.31
451.104	589.31
451.324	563.31
451.545	554.31
451.766	526.31
451.986	499.31
452.207	499.31
452.428	499.31
452.648	482.31
452.869	501.31
453.089	515.31
453.31	518.31
453.53	492.31
453.751	483.31
453.971	506.31
454.192	525.31
454.412	515.31
454.633	505.31
454.853	492.31
455.073	485.31
455.294	520.31
455.514	572.31
455.734	564.31
455.955	524.31
456.175	483.31
456.395	450.31
456.616	461.31
456.836	466.31
457.056	459.31
457.276	452.31
457.497	474.31
457.717	471.31
457.937	470.31
458.157	437.31
458.377	474.31
458.598	513.31
458.818	587.31
459.038	655.31
459.258	637.31
459.478	571.31
459.698	508.31
459.918	490.31
460.138	496.31
460.358	489.31
460.578	504.31
460.798	502.31
461.018	531.31
461.238	493.31
461.458	497.31
461.678	511.31
461.898	534.31
462.118	520.31
462.338	529.31
462.558	518.31
462.777	506.31
462.997	531.31
463.217	540.31
463.437	559.31
463.657	547.31
463.876	552.31
464.096	523.31
464.316	502.31
464.536	547.31
464.755	531.31
464.975	567.31
465.195	594.31
465.414	689.31
465.634	627.31
465.854	571.31
466.073	549.31
466.293	530.31
466.512	513.31
466.732	509.31
466.951	520.31
467.171	514.31
467.391	522.31
467.61	504.31
467.829	521.31
468.049	533.31
468.268	546.31
468.488	540.31
468.707	510.31
468.927	508.31
469.146	484.31
469.365	495.31
469.585	500.31
469.804	511.31
470.023	532.31
470.243	509.31
470.462	485.31
470.681	515.31
470.901	525.31
471.12	518.31
471.339	507.31
471.558	515.31
471.777	519.31
471.997	509.31
472.216	503.31
472.435	558.31
472.654	545.31
472.873	499.31
473.092	517.31
473.311	505.31
473.53	527.31
473.749	517.31
473.968	576.31
474.187	667.31
474.406	711.31
474.625	597.31
474.844	527.31
475.063	543.31
475.282	511.31
475.501	547.31
475.72	559.31
475.939	547.31
476.158	525.31
476.377	547.31
476.596	519.31
476.814	551.31
477.033	547.31
477.252	559.31
477.471	537.31
477.69	562.31
477.908	554.31
478.127	548.31
478.346	579.31
478.564	566.31
478.783	568.31
479.002	571.31
479.22	596.31
479.439	582.31
479.658	638.31
479.876	625.31
480.095	644.31
480.313	649.31
480.532	649.31
480.751	636.31
480.969	654.31
481.188	731.31
481.406	757.31
481.624	679.31
481.843	657.31
482.061	620.31
482.28	623.31
482.498	627.31
482.717	613.31
482.935	611.31
483.153	611.31
483.372	625.31
483.59	620.31
483.808	600.31
484.027	580.31
484.245	631.31
484.463	645.31
484.681	635.31
484.9	624.31
485.118	633.31
485.336	616.31
485.554	654.31
485.772	626.31
485.99	637.31
486.209	639.31
486.427	647.31
486.645	673.31
486.863	683.31
487.081	696.31
487.299	667.31
487.517	675.31
487.735	674.31
487.953	671.31
488.171	653.31
488.389	661.31
488.607	671.31
488.825	675.31
489.043	671.31
489.261	670.31
489.479	681.31
489.696	692.31
489.914	680.31
490.132	680.31
490.35	707.31
490.568	681.31
490.786	741.31
491.003	732.31
491.221	740.31
491.439	753.31
491.657	756.31
491.874	767.31
492.092	791.31
492.31	789.31
492.527	775.31
492.745	809.31
492.963	782.31
493.18	797.31
493.398	822.31
493.615	795.31
493.833	835.31
494.05	800.31
494.268	796.31
494.485	819.31
494.703	815.31
494.92	812.31
495.138	809.31
495.355	787.31
495.573	819.31
495.79	804.31
496.008	801.31
496.225	795.31
496.442	785.31
496.66	792.31
496.877	818.31
497.094	828.31
497.312	809.31
497.529	823.31
497.746	833.31
497.963	847.31
498.181	865.31
498.398	841.31
498.615	872.31
498.832	880.31
499.049	892.31
499.267	901.31
499.484	907.31
499.701	919.31
499.918	965.31
500.135	953.31
500.352	981.31
500.569	979.31
500.786	1011.31
501.003	1015.31
501.22	1023.31
501.437	968.31
501.654	947.31
501.871	940.31
