Data from 1970.PennyLincolnUp.Lamp.En5.5.200Scan.071719.P1._HRD10591_15-15-00-841.txt Node
Date: Thu Jul 18 15:15:00 EDT 2019
User: cochatt
Spectrometer: HR+D1059
Trigger mode: 1
Integration Time (sec): 1.000000E-1
Scans to average: 1
Electric dark correction enabled: true
Nonlinearity correction enabled: false
Boxcar width: 0
XAxis mode: Wavelengths
Number of Pixels in Spectrum: 2048
>>>>>Begin Spectral Data<<<<<
223.165	-17.19
223.4	-17.19
223.635	-17.19
223.869	-15.19
224.104	-19.19
224.338	-16.19
224.573	-17.19
224.808	5.81
225.042	0.81
225.277	-5.19
225.511	-7.19
225.746	-0.19
225.98	6.81
226.215	9.81
226.449	13.81
226.683	22.81
226.918	11.81
227.152	25.81
227.387	38.81
227.621	37.81
227.856	47.81
228.09	22.81
228.324	52.81
228.559	61.81
228.793	70.81
229.027	111.81
229.262	117.81
229.496	137.81
229.73	151.81
229.964	161.81
230.199	161.81
230.433	122.81
230.667	119.81
230.901	121.81
231.136	112.81
231.37	106.81
231.604	121.81
231.838	119.81
232.072	119.81
232.306	116.81
232.541	112.81
232.775	116.81
233.009	100.81
233.243	115.81
233.477	119.81
233.711	124.81
233.945	119.81
234.179	124.81
234.413	121.81
234.647	104.81
234.881	121.81
235.115	113.81
235.349	117.81
235.583	127.81
235.817	125.81
236.051	131.81
236.285	141.81
236.519	139.81
236.753	141.81
236.987	155.81
237.221	210.81
237.455	265.81
237.689	196.81
237.922	161.81
238.156	159.81
238.39	133.81
238.624	140.81
238.858	137.81
239.091	140.81
239.325	131.81
239.559	132.81
239.793	143.81
240.027	131.81
240.26	158.81
240.494	171.81
240.728	185.81
240.961	174.81
241.195	168.81
241.429	153.81
241.662	139.81
241.896	133.81
242.13	141.81
242.363	145.81
242.597	158.81
242.83	142.81
243.064	137.81
243.298	162.81
243.531	143.81
243.765	148.81
243.998	146.81
244.232	148.81
244.465	165.81
244.699	147.81
244.932	160.81
245.166	161.81
245.399	148.81
245.633	154.81
245.866	147.81
246.099	164.81
246.333	166.81
246.566	140.81
246.8	160.81
247.033	162.81
247.266	167.81
247.5	182.81
247.733	195.81
247.966	191.81
248.2	191.81
248.433	184.81
248.666	195.81
248.899	199.81
249.133	219.81
249.366	243.81
249.599	239.81
249.832	216.81
250.066	215.81
250.299	214.81
250.532	224.81
250.765	232.81
250.998	258.81
251.231	256.81
251.465	236.81
251.698	228.81
251.931	216.81
252.164	212.81
252.397	222.81
252.63	216.81
252.863	235.81
253.096	248.81
253.329	253.81
253.562	249.81
253.795	231.81
254.028	226.81
254.261	232.81
254.494	244.81
254.727	277.81
254.96	316.81
255.193	318.81
255.426	294.81
255.659	263.81
255.892	243.81
256.124	261.81
256.357	276.81
256.59	250.81
256.823	248.81
257.056	245.81
257.289	216.81
257.521	232.81
257.754	222.81
257.987	219.81
258.22	211.81
258.452	212.81
258.685	210.81
258.918	227.81
259.151	214.81
259.383	241.81
259.616	232.81
259.849	239.81
260.081	261.81
260.314	272.81
260.547	281.81
260.779	272.81
261.012	263.81
261.244	228.81
261.477	259.81
261.71	258.81
261.942	236.81
262.175	247.81
262.407	257.81
262.64	239.81
262.872	237.81
263.105	240.81
263.337	220.81
263.57	221.81
263.802	236.81
264.035	233.81
264.267	209.81
264.499	209.81
264.732	232.81
264.964	232.81
265.197	235.81
265.429	229.81
265.661	240.81
265.894	224.81
266.126	224.81
266.358	222.81
266.591	224.81
266.823	235.81
267.055	249.81
267.287	231.81
267.52	221.81
267.752	225.81
267.984	264.81
268.216	236.81
268.448	235.81
268.681	246.81
268.913	257.81
269.145	268.81
269.377	284.81
269.609	279.81
269.841	292.81
270.073	299.81
270.306	315.81
270.538	333.81
270.77	338.81
271.002	343.81
271.234	324.81
271.466	337.81
271.698	344.81
271.93	363.81
272.162	349.81
272.394	348.81
272.626	307.81
272.858	314.81
273.09	310.81
273.322	293.81
273.553	293.81
273.785	289.81
274.017	265.81
274.249	283.81
274.481	279.81
274.713	287.81
274.945	275.81
275.176	298.81
275.408	303.81
275.64	286.81
275.872	287.81
276.104	274.81
276.335	289.81
276.567	291.81
276.799	300.81
277.031	327.81
277.262	327.81
277.494	344.81
277.726	316.81
277.957	305.81
278.189	325.81
278.421	290.81
278.652	283.81
278.884	282.81
279.115	292.81
279.347	287.81
279.579	286.81
279.81	284.81
280.042	264.81
280.273	274.81
280.505	275.81
280.736	256.81
280.968	244.81
281.199	269.81
281.431	275.81
281.662	289.81
281.894	256.81
282.125	283.81
282.356	293.81
282.588	325.81
282.819	306.81
283.051	273.81
283.282	268.81
283.513	305.81
283.745	281.81
283.976	282.81
284.207	283.81
284.439	285.81
284.67	281.81
284.901	269.81
285.132	284.81
285.364	278.81
285.595	284.81
285.826	284.81
286.057	296.81
286.288	270.81
286.52	266.81
286.751	270.81
286.982	296.81
287.213	287.81
287.444	270.81
287.675	295.81
287.906	299.81
288.138	300.81
288.369	295.81
288.6	320.81
288.831	290.81
289.062	283.81
289.293	301.81
289.524	294.81
289.755	295.81
289.986	288.81
290.217	280.81
290.448	298.81
290.679	293.81
290.91	287.81
291.141	294.81
291.371	284.81
291.602	302.81
291.833	286.81
292.064	272.81
292.295	281.81
292.526	263.81
292.757	279.81
292.987	303.81
293.218	285.81
293.449	296.81
293.68	281.81
293.91	294.81
294.141	280.81
294.372	291.81
294.603	268.81
294.833	303.81
295.064	291.81
295.295	296.81
295.525	299.81
295.756	300.81
295.987	307.81
296.217	332.81
296.448	342.81
296.679	315.81
296.909	306.81
297.14	310.81
297.37	301.81
297.601	311.81
297.831	292.81
298.062	291.81
298.292	306.81
298.523	298.81
298.753	307.81
298.984	303.81
299.214	298.81
299.445	295.81
299.675	293.81
299.905	296.81
300.136	317.81
300.366	324.81
300.597	344.81
300.827	314.81
301.057	313.81
301.288	350.81
301.518	342.81
301.748	323.81
301.979	345.81
302.209	336.81
302.439	340.81
302.669	336.81
302.9	327.81
303.13	327.81
303.36	333.81
303.59	316.81
303.82	332.81
304.051	345.81
304.281	331.81
304.511	345.81
304.741	341.81
304.971	337.81
305.201	328.81
305.431	351.81
305.661	325.81
305.891	327.81
306.121	353.81
306.352	356.81
306.582	335.81
306.812	322.81
307.042	344.81
307.272	351.81
307.502	359.81
307.731	340.81
307.961	351.81
308.191	330.81
308.421	331.81
308.651	326.81
308.881	349.81
309.111	354.81
309.341	357.81
309.571	375.81
309.8	387.81
310.03	376.81
310.26	377.81
310.49	396.81
310.72	383.81
310.949	435.81
311.179	428.81
311.409	403.81
311.639	383.81
311.868	380.81
312.098	394.81
312.328	384.81
312.557	429.81
312.787	433.81
313.017	437.81
313.246	408.81
313.476	393.81
313.706	391.81
313.935	415.81
314.165	395.81
314.394	421.81
314.624	415.81
314.853	407.81
315.083	400.81
315.312	398.81
315.542	404.81
315.771	383.81
316.001	403.81
316.23	368.81
316.46	404.81
316.689	381.81
316.919	404.81
317.148	393.81
317.377	407.81
317.607	413.81
317.836	395.81
318.065	399.81
318.295	407.81
318.524	394.81
318.753	391.81
318.983	369.81
319.212	376.81
319.441	406.81
319.67	403.81
319.9	393.81
320.129	387.81
320.358	409.81
320.587	389.81
320.816	417.81
321.046	417.81
321.275	437.81
321.504	442.81
321.733	433.81
321.962	436.81
322.191	457.81
322.42	476.81
322.649	471.81
322.878	503.81
323.108	529.81
323.337	530.81
323.566	550.81
323.795	601.81
324.024	651.81
324.253	823.81
324.482	1140.81
324.71	1761.81
324.939	2503.81
325.168	2209.81
325.397	1156.81
325.626	788.81
325.855	647.81
326.084	577.81
326.313	553.81
326.542	569.81
326.77	608.81
326.999	712.81
327.228	1017.81
327.457	1539.81
327.686	1879.81
327.914	1279.81
328.143	880.81
328.372	755.81
328.6	680.81
328.829	631.81
329.058	672.81
329.287	665.81
329.515	613.81
329.744	590.81
329.972	570.81
330.201	600.81
330.43	653.81
330.658	671.81
330.887	699.81
331.115	666.81
331.344	598.81
331.572	539.81
331.801	550.81
332.03	544.81
332.258	521.81
332.486	476.81
332.715	457.81
332.943	485.81
333.172	467.81
333.4	465.81
333.629	482.81
333.857	500.81
334.085	525.81
334.314	548.81
334.542	588.81
334.771	602.81
334.999	530.81
335.227	490.81
335.455	476.81
335.684	471.81
335.912	480.81
336.14	447.81
336.369	451.81
336.597	460.81
336.825	482.81
337.053	459.81
337.281	456.81
337.51	472.81
337.738	452.81
337.966	458.81
338.194	451.81
338.422	446.81
338.65	460.81
338.878	450.81
339.106	463.81
339.334	434.81
339.562	454.81
339.79	437.81
340.018	464.81
340.246	449.81
340.474	448.81
340.702	458.81
340.93	470.81
341.158	463.81
341.386	444.81
341.614	438.81
341.842	467.81
342.07	441.81
342.298	428.81
342.526	448.81
342.754	434.81
342.981	439.81
343.209	420.81
343.437	426.81
343.665	427.81
343.893	439.81
344.12	431.81
344.348	445.81
344.576	456.81
344.804	460.81
345.031	443.81
345.259	480.81
345.487	466.81
345.714	469.81
345.942	445.81
346.17	443.81
346.397	457.81
346.625	444.81
346.853	441.81
347.08	446.81
347.308	433.81
347.535	474.81
347.763	462.81
347.99	481.81
348.218	462.81
348.445	482.81
348.673	480.81
348.9	456.81
349.128	450.81
349.355	429.81
349.583	451.81
349.81	419.81
350.037	417.81
350.265	424.81
350.492	438.81
350.72	449.81
350.947	451.81
351.174	443.81
351.402	468.81
351.629	448.81
351.856	447.81
352.083	455.81
352.311	470.81
352.538	484.81
352.765	511.81
352.992	469.81
353.22	472.81
353.447	438.81
353.674	427.81
353.901	434.81
354.128	411.81
354.355	429.81
354.583	430.81
354.81	410.81
355.037	425.81
355.264	427.81
355.491	418.81
355.718	409.81
355.945	428.81
356.172	414.81
356.399	400.81
356.626	425.81
356.853	401.81
357.08	408.81
357.307	418.81
357.534	410.81
357.761	420.81
357.988	407.81
358.215	436.81
358.441	415.81
358.668	431.81
358.895	432.81
359.122	438.81
359.349	439.81
359.576	463.81
359.802	479.81
360.029	522.81
360.256	540.81
360.483	511.81
360.709	481.81
360.936	464.81
361.163	465.81
361.39	465.81
361.616	455.81
361.843	471.81
362.07	467.81
362.296	472.81
362.523	452.81
362.749	456.81
362.976	453.81
363.203	454.81
363.429	440.81
363.656	441.81
363.882	426.81
364.109	432.81
364.335	434.81
364.562	429.81
364.788	412.81
365.015	429.81
365.241	434.81
365.468	418.81
365.694	456.81
365.92	471.81
366.147	463.81
366.373	444.81
366.599	445.81
366.826	439.81
367.052	427.81
367.278	445.81
367.505	436.81
367.731	429.81
367.957	435.81
368.184	419.81
368.41	433.81
368.636	470.81
368.862	479.81
369.089	465.81
369.315	421.81
369.541	411.81
369.767	429.81
369.993	423.81
370.219	438.81
370.445	440.81
370.672	417.81
370.898	429.81
371.124	428.81
371.35	436.81
371.576	435.81
371.802	414.81
372.028	439.81
372.254	403.81
372.48	422.81
372.706	426.81
372.932	443.81
373.158	444.81
373.384	435.81
373.61	413.81
373.835	441.81
374.061	422.81
374.287	435.81
374.513	428.81
374.739	426.81
374.965	443.81
375.191	447.81
375.416	461.81
375.642	442.81
375.868	431.81
376.094	426.81
376.319	433.81
376.545	433.81
376.771	424.81
376.997	430.81
377.222	435.81
377.448	430.81
377.674	421.81
377.899	440.81
378.125	433.81
378.35	403.81
378.576	427.81
378.802	438.81
379.027	435.81
379.253	433.81
379.478	439.81
379.704	432.81
379.929	415.81
380.155	429.81
380.38	456.81
380.606	440.81
380.831	430.81
381.057	427.81
381.282	445.81
381.507	425.81
381.733	431.81
381.958	432.81
382.184	437.81
382.409	452.81
382.634	438.81
382.86	450.81
383.085	435.81
383.31	459.81
383.535	455.81
383.761	436.81
383.986	450.81
384.211	424.81
384.436	467.81
384.662	449.81
384.887	471.81
385.112	461.81
385.337	445.81
385.562	444.81
385.787	458.81
386.013	486.81
386.238	485.81
386.463	475.81
386.688	461.81
386.913	472.81
387.138	472.81
387.363	441.81
387.588	467.81
387.813	447.81
388.038	461.81
388.263	442.81
388.488	454.81
388.713	484.81
388.938	479.81
389.163	459.81
389.387	480.81
389.612	461.81
389.837	472.81
390.062	454.81
390.287	465.81
390.512	460.81
390.736	474.81
390.961	481.81
391.186	449.81
391.411	471.81
391.636	456.81
391.86	457.81
392.085	481.81
392.31	477.81
392.534	479.81
392.759	484.81
392.984	466.81
393.208	479.81
393.433	463.81
393.658	480.81
393.882	464.81
394.107	460.81
394.331	495.81
394.556	463.81
394.78	492.81
395.005	471.81
395.229	467.81
395.454	473.81
395.678	497.81
395.903	514.81
396.127	529.81
396.352	513.81
396.576	474.81
396.801	509.81
397.025	504.81
397.249	505.81
397.474	512.81
397.698	484.81
397.922	521.81
398.147	525.81
398.371	520.81
398.595	542.81
398.82	503.81
399.044	523.81
399.268	533.81
399.492	549.81
399.717	599.81
399.941	635.81
400.165	662.81
400.389	629.81
400.613	604.81
400.837	569.81
401.062	566.81
401.286	545.81
401.51	548.81
401.734	543.81
401.958	561.81
402.182	555.81
402.406	559.81
402.63	565.81
402.854	539.81
403.078	537.81
403.302	543.81
403.526	560.81
403.75	552.81
403.974	563.81
404.198	546.81
404.422	553.81
404.645	568.81
404.869	585.81
405.093	597.81
405.317	647.81
405.541	665.81
405.765	635.81
405.988	624.81
406.212	620.81
406.436	667.81
406.66	673.81
406.883	624.81
407.107	639.81
407.331	662.81
407.555	719.81
407.778	752.81
408.002	705.81
408.226	653.81
408.449	627.81
408.673	618.81
408.896	676.81
409.12	712.81
409.344	679.81
409.567	610.81
409.791	581.81
410.014	582.81
410.238	572.81
410.461	579.81
410.685	568.81
410.908	611.81
411.132	616.81
411.355	669.81
411.578	653.81
411.802	579.81
412.025	570.81
412.249	603.81
412.472	614.81
412.695	660.81
412.919	638.81
413.142	603.81
413.365	555.81
413.589	576.81
413.812	568.81
414.035	560.81
414.258	570.81
414.482	539.81
414.705	539.81
414.928	508.81
415.151	551.81
415.374	563.81
415.597	531.81
415.821	535.81
416.044	542.81
416.267	533.81
416.49	548.81
416.713	538.81
416.936	541.81
417.159	522.81
417.382	545.81
417.605	553.81
417.828	552.81
418.051	567.81
418.274	553.81
418.497	554.81
418.72	552.81
418.943	531.81
419.166	539.81
419.389	580.81
419.611	586.81
419.834	568.81
420.057	589.81
420.28	584.81
420.503	579.81
420.726	589.81
420.948	593.81
421.171	627.81
421.394	661.81
421.617	601.81
421.839	557.81
422.062	566.81
422.285	581.81
422.507	649.81
422.73	738.81
422.953	708.81
423.175	641.81
423.398	632.81
423.621	615.81
423.843	644.81
424.066	614.81
424.288	606.81
424.511	637.81
424.733	713.81
424.956	800.81
425.178	795.81
425.401	758.81
425.623	783.81
425.846	667.81
426.068	665.81
426.291	633.81
426.513	648.81
426.735	643.81
426.958	695.81
427.18	797.81
427.402	915.81
427.625	1004.81
427.847	910.81
428.069	797.81
428.292	721.81
428.514	659.81
428.736	618.81
428.958	626.81
429.181	593.81
429.403	587.81
429.625	591.81
429.847	644.81
430.069	705.81
430.292	715.81
430.514	637.81
430.736	604.81
430.958	581.81
431.18	563.81
431.402	543.81
431.624	548.81
431.846	553.81
432.068	536.81
432.29	563.81
432.512	541.81
432.734	546.81
432.956	563.81
433.178	573.81
433.4	588.81
433.622	552.81
433.844	573.81
434.066	557.81
434.287	562.81
434.509	555.81
434.731	574.81
434.953	562.81
435.175	575.81
435.397	633.81
435.618	634.81
435.84	701.81
436.062	791.81
436.284	860.81
436.505	745.81
436.727	667.81
436.949	597.81
437.17	618.81
437.392	613.81
437.614	600.81
437.835	644.81
438.057	748.81
438.278	875.81
438.5	862.81
438.721	939.81
438.943	893.81
439.165	730.81
439.386	678.81
439.608	677.81
439.829	671.81
440.05	691.81
440.272	744.81
440.493	712.81
440.715	643.81
440.936	597.81
441.158	598.81
441.379	591.81
441.6	609.81
441.822	626.81
442.043	662.81
442.264	778.81
442.486	835.81
442.707	681.81
442.928	657.81
443.149	663.81
443.371	699.81
443.592	732.81
443.813	827.81
444.034	876.81
444.255	751.81
444.476	683.81
444.698	645.81
444.919	640.81
445.14	741.81
445.361	672.81
445.582	698.81
445.803	781.81
446.024	867.81
446.245	885.81
446.466	815.81
446.687	701.81
446.908	650.81
447.129	616.81
447.35	617.81
447.571	593.81
447.792	592.81
448.013	582.81
448.234	628.81
448.455	687.81
448.675	809.81
448.896	953.81
449.117	806.81
449.338	751.81
449.559	885.81
449.779	959.81
450	801.81
450.221	653.81
450.442	591.81
450.662	586.81
450.883	597.81
451.104	627.81
451.324	618.81
451.545	580.81
451.766	559.81
451.986	560.81
452.207	552.81
452.428	527.81
452.648	519.81
452.869	535.81
453.089	525.81
453.31	578.81
453.53	526.81
453.751	527.81
453.971	556.81
454.192	550.81
454.412	528.81
454.633	547.81
454.853	530.81
455.073	528.81
455.294	559.81
455.514	634.81
455.734	625.81
455.955	527.81
456.175	505.81
456.395	507.81
456.616	503.81
456.836	515.81
457.056	491.81
457.276	486.81
457.497	499.81
457.717	497.81
457.937	485.81
458.157	520.81
458.377	511.81
458.598	552.81
458.818	604.81
459.038	723.81
459.258	714.81
459.478	591.81
459.698	588.81
459.918	549.81
460.138	542.81
460.358	554.81
460.578	531.81
460.798	557.81
461.018	544.81
461.238	551.81
461.458	522.81
461.678	533.81
461.898	550.81
462.118	543.81
462.338	576.81
462.558	565.81
462.777	568.81
462.997	574.81
463.217	601.81
463.437	563.81
463.657	556.81
463.876	576.81
464.096	559.81
464.316	583.81
464.536	606.81
464.755	598.81
464.975	601.81
465.195	642.81
465.414	755.81
465.634	661.81
465.854	631.81
466.073	587.81
466.293	571.81
466.512	534.81
466.732	525.81
466.951	531.81
467.171	541.81
467.391	535.81
467.61	559.81
467.829	565.81
468.049	576.81
468.268	580.81
468.488	521.81
468.707	533.81
468.927	523.81
469.146	531.81
469.365	523.81
469.585	519.81
469.804	525.81
470.023	562.81
470.243	570.81
470.462	553.81
470.681	583.81
470.901	581.81
471.12	556.81
471.339	567.81
471.558	544.81
471.777	533.81
471.997	533.81
472.216	562.81
472.435	603.81
472.654	605.81
472.873	556.81
473.092	543.81
473.311	558.81
473.53	548.81
473.749	579.81
473.968	612.81
474.187	756.81
474.406	762.81
474.625	627.81
474.844	580.81
475.063	549.81
475.282	549.81
475.501	586.81
475.72	577.81
475.939	536.81
476.158	598.81
476.377	543.81
476.596	554.81
476.814	544.81
477.033	590.81
477.252	600.81
477.471	595.81
477.69	594.81
477.908	594.81
478.127	603.81
478.346	608.81
478.564	599.81
478.783	600.81
479.002	635.81
479.22	597.81
479.439	642.81
479.658	649.81
479.876	667.81
480.095	678.81
480.313	718.81
480.532	697.81
480.751	685.81
480.969	695.81
481.188	777.81
481.406	835.81
481.624	717.81
481.843	697.81
482.061	697.81
482.28	662.81
482.498	655.81
482.717	629.81
482.935	654.81
483.153	671.81
483.372	654.81
483.59	688.81
483.808	659.81
484.027	651.81
484.245	653.81
484.463	673.81
484.681	663.81
484.9	683.81
485.118	675.81
485.336	679.81
485.554	683.81
485.772	681.81
485.99	678.81
486.209	703.81
486.427	716.81
486.645	705.81
486.863	734.81
487.081	700.81
487.299	755.81
487.517	710.81
487.735	723.81
487.953	732.81
488.171	749.81
488.389	708.81
488.607	703.81
488.825	704.81
489.043	714.81
489.261	713.81
489.479	744.81
489.696	719.81
489.914	762.81
490.132	767.81
490.35	736.81
490.568	799.81
490.786	780.81
491.003	785.81
491.221	795.81
491.439	834.81
491.657	813.81
491.874	850.81
492.092	851.81
492.31	836.81
492.527	872.81
492.745	871.81
492.963	868.81
493.18	875.81
493.398	864.81
493.615	902.81
493.833	883.81
494.05	869.81
494.268	841.81
494.485	865.81
494.703	851.81
494.92	876.81
495.138	858.81
495.355	867.81
495.573	875.81
495.79	864.81
496.008	858.81
496.225	823.81
496.442	861.81
496.66	870.81
496.877	866.81
497.094	859.81
497.312	870.81
497.529	886.81
497.746	885.81
497.963	908.81
498.181	934.81
498.398	945.81
498.615	938.81
498.832	956.81
499.049	935.81
499.267	959.81
499.484	988.81
499.701	996.81
499.918	1020.81
500.135	1033.81
500.352	1079.81
500.569	1108.81
500.786	1095.81
501.003	1087.81
501.22	1066.81
501.437	1081.81
501.654	1033.81
