Data from 1970.PennyLincolnUp.Lamp.En5.5.200Scan.071719.P1._HRD10591_15-13-57-842.txt Node
Date: Thu Jul 18 15:13:57 EDT 2019
User: cochatt
Spectrometer: HR+D1059
Trigger mode: 1
Integration Time (sec): 1.000000E-1
Scans to average: 1
Electric dark correction enabled: true
Nonlinearity correction enabled: false
Boxcar width: 0
XAxis mode: Wavelengths
Number of Pixels in Spectrum: 2048
>>>>>Begin Spectral Data<<<<<
223.165	-18.81
223.4	-18.81
223.635	-18.81
223.869	-19.81
224.104	-20.81
224.338	-8.81
224.573	-13.81
224.808	-23.81
225.042	-5.81
225.277	0.19
225.511	10.19
225.746	-2.81
225.98	9.19
226.215	16.19
226.449	14.19
226.683	25.19
226.918	11.19
227.152	28.19
227.387	35.19
227.621	31.19
227.856	48.19
228.09	37.19
228.324	52.19
228.559	52.19
228.793	69.19
229.027	103.19
229.262	112.19
229.496	114.19
229.73	149.19
229.964	161.19
230.199	142.19
230.433	123.19
230.667	112.19
230.901	104.19
231.136	123.19
231.37	118.19
231.604	104.19
231.838	124.19
232.072	120.19
232.306	123.19
232.541	124.19
232.775	123.19
233.009	109.19
233.243	123.19
233.477	127.19
233.711	116.19
233.945	120.19
234.179	119.19
234.413	119.19
234.647	119.19
234.881	116.19
235.115	124.19
235.349	112.19
235.583	123.19
235.817	122.19
236.051	120.19
236.285	142.19
236.519	118.19
236.753	128.19
236.987	150.19
237.221	195.19
237.455	253.19
237.689	186.19
237.922	146.19
238.156	135.19
238.39	140.19
238.624	123.19
238.858	124.19
239.091	140.19
239.325	132.19
239.559	138.19
239.793	137.19
240.027	138.19
240.26	152.19
240.494	154.19
240.728	167.19
240.961	176.19
241.195	145.19
241.429	145.19
241.662	150.19
241.896	149.19
242.13	149.19
242.363	130.19
242.597	145.19
242.83	141.19
243.064	162.19
243.298	139.19
243.531	140.19
243.765	147.19
243.998	152.19
244.232	150.19
244.465	162.19
244.699	152.19
244.932	176.19
245.166	155.19
245.399	154.19
245.633	153.19
245.866	152.19
246.099	156.19
246.333	162.19
246.566	140.19
246.8	166.19
247.033	173.19
247.266	169.19
247.5	161.19
247.733	170.19
247.966	192.19
248.2	165.19
248.433	181.19
248.666	194.19
248.899	201.19
249.133	217.19
249.366	224.19
249.599	219.19
249.832	197.19
250.066	194.19
250.299	197.19
250.532	197.19
250.765	210.19
250.998	240.19
251.231	254.19
251.465	249.19
251.698	221.19
251.931	192.19
252.164	219.19
252.397	217.19
252.63	222.19
252.863	229.19
253.096	252.19
253.329	229.19
253.562	228.19
253.795	217.19
254.028	228.19
254.261	224.19
254.494	242.19
254.727	276.19
254.96	293.19
255.193	315.19
255.426	273.19
255.659	235.19
255.892	246.19
256.124	234.19
256.357	260.19
256.59	235.19
256.823	208.19
257.056	220.19
257.289	225.19
257.521	230.19
257.754	217.19
257.987	212.19
258.22	224.19
258.452	218.19
258.685	214.19
258.918	221.19
259.151	220.19
259.383	227.19
259.616	231.19
259.849	223.19
260.081	248.19
260.314	268.19
260.547	277.19
260.779	259.19
261.012	247.19
261.244	244.19
261.477	229.19
261.71	231.19
261.942	226.19
262.175	264.19
262.407	248.19
262.64	211.19
262.872	218.19
263.105	215.19
263.337	212.19
263.57	211.19
263.802	217.19
264.035	216.19
264.267	205.19
264.499	207.19
264.732	212.19
264.964	208.19
265.197	207.19
265.429	205.19
265.661	211.19
265.894	205.19
266.126	213.19
266.358	227.19
266.591	211.19
266.823	215.19
267.055	232.19
267.287	227.19
267.52	209.19
267.752	217.19
267.984	244.19
268.216	210.19
268.448	216.19
268.681	242.19
268.913	236.19
269.145	264.19
269.377	269.19
269.609	272.19
269.841	266.19
270.073	274.19
270.306	290.19
270.538	298.19
270.77	329.19
271.002	307.19
271.234	298.19
271.466	313.19
271.698	301.19
271.93	314.19
272.162	322.19
272.394	329.19
272.626	326.19
272.858	301.19
273.09	286.19
273.322	279.19
273.553	278.19
273.785	248.19
274.017	271.19
274.249	272.19
274.481	268.19
274.713	260.19
274.945	258.19
275.176	256.19
275.408	245.19
275.64	257.19
275.872	260.19
276.104	262.19
276.335	281.19
276.567	253.19
276.799	279.19
277.031	303.19
277.262	316.19
277.494	327.19
277.726	320.19
277.957	300.19
278.189	269.19
278.421	284.19
278.652	262.19
278.884	245.19
279.115	250.19
279.347	266.19
279.579	262.19
279.81	262.19
280.042	276.19
280.273	266.19
280.505	265.19
280.736	255.19
280.968	259.19
281.199	259.19
281.431	261.19
281.662	260.19
281.894	262.19
282.125	266.19
282.356	271.19
282.588	310.19
282.819	288.19
283.051	290.19
283.282	270.19
283.513	267.19
283.745	274.19
283.976	265.19
284.207	277.19
284.439	265.19
284.67	282.19
284.901	266.19
285.132	271.19
285.364	252.19
285.595	256.19
285.826	259.19
286.057	256.19
286.288	270.19
286.52	261.19
286.751	274.19
286.982	270.19
287.213	257.19
287.444	276.19
287.675	276.19
287.906	289.19
288.138	300.19
288.369	286.19
288.6	279.19
288.831	271.19
289.062	271.19
289.293	275.19
289.524	280.19
289.755	289.19
289.986	266.19
290.217	280.19
290.448	274.19
290.679	288.19
290.91	269.19
291.141	270.19
291.371	256.19
291.602	293.19
291.833	296.19
292.064	258.19
292.295	302.19
292.526	268.19
292.757	261.19
292.987	281.19
293.218	283.19
293.449	289.19
293.68	280.19
293.91	266.19
294.141	270.19
294.372	267.19
294.603	268.19
294.833	284.19
295.064	276.19
295.295	276.19
295.525	285.19
295.756	266.19
295.987	285.19
296.217	295.19
296.448	325.19
296.679	280.19
296.909	286.19
297.14	284.19
297.37	283.19
297.601	286.19
297.831	274.19
298.062	283.19
298.292	301.19
298.523	293.19
298.753	301.19
298.984	274.19
299.214	296.19
299.445	283.19
299.675	294.19
299.905	307.19
300.136	297.19
300.366	293.19
300.597	297.19
300.827	293.19
301.057	315.19
301.288	296.19
301.518	310.19
301.748	278.19
301.979	305.19
302.209	283.19
302.439	305.19
302.669	300.19
302.9	290.19
303.13	301.19
303.36	335.19
303.59	332.19
303.82	328.19
304.051	312.19
304.281	338.19
304.511	280.19
304.741	284.19
304.971	296.19
305.201	294.19
305.431	319.19
305.661	324.19
305.891	305.19
306.121	312.19
306.352	299.19
306.582	312.19
306.812	297.19
307.042	304.19
307.272	301.19
307.502	320.19
307.731	317.19
307.961	306.19
308.191	310.19
308.421	311.19
308.651	332.19
308.881	318.19
309.111	342.19
309.341	342.19
309.571	345.19
309.8	348.19
310.03	348.19
310.26	370.19
310.49	363.19
310.72	363.19
310.949	383.19
311.179	394.19
311.409	365.19
311.639	376.19
311.868	340.19
312.098	364.19
312.328	376.19
312.557	380.19
312.787	407.19
313.017	398.19
313.246	382.19
313.476	355.19
313.706	355.19
313.935	357.19
314.165	374.19
314.394	394.19
314.624	398.19
314.853	371.19
315.083	370.19
315.312	349.19
315.542	365.19
315.771	354.19
316.001	361.19
316.23	345.19
316.46	344.19
316.689	356.19
316.919	364.19
317.148	377.19
317.377	381.19
317.607	377.19
317.836	365.19
318.065	364.19
318.295	376.19
318.524	360.19
318.753	354.19
318.983	352.19
319.212	342.19
319.441	392.19
319.67	386.19
319.9	377.19
320.129	370.19
320.358	361.19
320.587	374.19
320.816	384.19
321.046	375.19
321.275	401.19
321.504	373.19
321.733	401.19
321.962	416.19
322.191	421.19
322.42	428.19
322.649	456.19
322.878	457.19
323.108	483.19
323.337	461.19
323.566	515.19
323.795	537.19
324.024	609.19
324.253	722.19
324.482	1042.19
324.71	1580.19
324.939	2249.19
325.168	1927.19
325.397	1034.19
325.626	689.19
325.855	580.19
326.084	506.19
326.313	527.19
326.542	525.19
326.77	558.19
326.999	688.19
327.228	904.19
327.457	1389.19
327.686	1697.19
327.914	1172.19
328.143	754.19
328.372	695.19
328.6	601.19
328.829	585.19
329.058	617.19
329.287	594.19
329.515	577.19
329.744	536.19
329.972	516.19
330.201	537.19
330.43	616.19
330.658	616.19
330.887	653.19
331.115	617.19
331.344	550.19
331.572	488.19
331.801	484.19
332.03	473.19
332.258	460.19
332.486	445.19
332.715	457.19
332.943	429.19
333.172	451.19
333.4	442.19
333.629	452.19
333.857	480.19
334.085	484.19
334.314	517.19
334.542	536.19
334.771	538.19
334.999	478.19
335.227	469.19
335.455	437.19
335.684	457.19
335.912	438.19
336.14	445.19
336.369	426.19
336.597	450.19
336.825	452.19
337.053	428.19
337.281	411.19
337.51	410.19
337.738	418.19
337.966	408.19
338.194	450.19
338.422	458.19
338.65	411.19
338.878	440.19
339.106	434.19
339.334	421.19
339.562	415.19
339.79	421.19
340.018	422.19
340.246	413.19
340.474	401.19
340.702	422.19
340.93	440.19
341.158	425.19
341.386	405.19
341.614	420.19
341.842	423.19
342.07	417.19
342.298	428.19
342.526	393.19
342.754	404.19
342.981	404.19
343.209	398.19
343.437	427.19
343.665	377.19
343.893	412.19
344.12	416.19
344.348	432.19
344.576	409.19
344.804	436.19
345.031	443.19
345.259	453.19
345.487	446.19
345.714	425.19
345.942	420.19
346.17	414.19
346.397	413.19
346.625	396.19
346.853	402.19
347.08	402.19
347.308	413.19
347.535	429.19
347.763	427.19
347.99	428.19
348.218	410.19
348.445	432.19
348.673	420.19
348.9	404.19
349.128	404.19
349.355	397.19
349.583	401.19
349.81	395.19
350.037	394.19
350.265	399.19
350.492	404.19
350.72	391.19
350.947	423.19
351.174	426.19
351.402	423.19
351.629	437.19
351.856	410.19
352.083	420.19
352.311	466.19
352.538	457.19
352.765	454.19
352.992	428.19
353.22	428.19
353.447	425.19
353.674	416.19
353.901	403.19
354.128	407.19
354.355	379.19
354.583	372.19
354.81	384.19
355.037	392.19
355.264	388.19
355.491	390.19
355.718	375.19
355.945	381.19
356.172	391.19
356.399	388.19
356.626	377.19
356.853	393.19
357.08	377.19
357.307	390.19
357.534	396.19
357.761	406.19
357.988	396.19
358.215	381.19
358.441	393.19
358.668	368.19
358.895	401.19
359.122	393.19
359.349	396.19
359.576	406.19
359.802	434.19
360.029	473.19
360.256	497.19
360.483	476.19
360.709	441.19
360.936	418.19
361.163	418.19
361.39	420.19
361.616	434.19
361.843	419.19
362.07	433.19
362.296	424.19
362.523	424.19
362.749	405.19
362.976	421.19
363.203	413.19
363.429	387.19
363.656	414.19
363.882	422.19
364.109	402.19
364.335	401.19
364.562	417.19
364.788	388.19
365.015	420.19
365.241	426.19
365.468	416.19
365.694	406.19
365.92	418.19
366.147	412.19
366.373	422.19
366.599	434.19
366.826	404.19
367.052	408.19
367.278	414.19
367.505	421.19
367.731	405.19
367.957	392.19
368.184	403.19
368.41	418.19
368.636	420.19
368.862	422.19
369.089	406.19
369.315	418.19
369.541	409.19
369.767	383.19
369.993	387.19
370.219	387.19
370.445	396.19
370.672	415.19
370.898	407.19
371.124	388.19
371.35	401.19
371.576	388.19
371.802	396.19
372.028	404.19
372.254	409.19
372.48	393.19
372.706	387.19
372.932	404.19
373.158	419.19
373.384	380.19
373.61	400.19
373.835	406.19
374.061	419.19
374.287	397.19
374.513	402.19
374.739	407.19
374.965	420.19
375.191	404.19
375.416	420.19
375.642	408.19
375.868	409.19
376.094	425.19
376.319	406.19
376.545	405.19
376.771	408.19
376.997	398.19
377.222	386.19
377.448	395.19
377.674	410.19
377.899	390.19
378.125	384.19
378.35	389.19
378.576	396.19
378.802	407.19
379.027	408.19
379.253	404.19
379.478	411.19
379.704	412.19
379.929	398.19
380.155	420.19
380.38	411.19
380.606	393.19
380.831	403.19
381.057	416.19
381.282	400.19
381.507	407.19
381.733	416.19
381.958	401.19
382.184	404.19
382.409	412.19
382.634	417.19
382.86	410.19
383.085	418.19
383.31	432.19
383.535	412.19
383.761	424.19
383.986	419.19
384.211	402.19
384.436	436.19
384.662	414.19
384.887	432.19
385.112	418.19
385.337	419.19
385.562	424.19
385.787	417.19
386.013	433.19
386.238	441.19
386.463	466.19
386.688	429.19
386.913	437.19
387.138	443.19
387.363	405.19
387.588	437.19
387.813	424.19
388.038	423.19
388.263	444.19
388.488	435.19
388.713	438.19
388.938	451.19
389.163	443.19
389.387	419.19
389.612	424.19
389.837	403.19
390.062	424.19
390.287	422.19
390.512	433.19
390.736	432.19
390.961	440.19
391.186	427.19
391.411	419.19
391.636	442.19
391.86	428.19
392.085	463.19
392.31	455.19
392.534	454.19
392.759	455.19
392.984	434.19
393.208	429.19
393.433	452.19
393.658	461.19
393.882	431.19
394.107	424.19
394.331	445.19
394.556	422.19
394.78	444.19
395.005	451.19
395.229	440.19
395.454	438.19
395.678	449.19
395.903	480.19
396.127	488.19
396.352	493.19
396.576	484.19
396.801	454.19
397.025	448.19
397.249	472.19
397.474	482.19
397.698	452.19
397.922	476.19
398.147	470.19
398.371	497.19
398.595	484.19
398.82	478.19
399.044	509.19
399.268	497.19
399.492	523.19
399.717	534.19
399.941	570.19
400.165	608.19
400.389	629.19
400.613	585.19
400.837	529.19
401.062	540.19
401.286	493.19
401.51	489.19
401.734	510.19
401.958	509.19
402.182	509.19
402.406	507.19
402.63	548.19
402.854	506.19
403.078	519.19
403.302	508.19
403.526	516.19
403.75	521.19
403.974	515.19
404.198	529.19
404.422	529.19
404.645	525.19
404.869	564.19
405.093	569.19
405.317	585.19
405.541	650.19
405.765	587.19
405.988	560.19
406.212	566.19
406.436	598.19
406.66	617.19
406.883	564.19
407.107	616.19
407.331	652.19
407.555	706.19
407.778	700.19
408.002	629.19
408.226	577.19
408.449	598.19
408.673	584.19
408.896	609.19
409.12	663.19
409.344	629.19
409.567	572.19
409.791	546.19
410.014	523.19
410.238	521.19
410.461	534.19
410.685	541.19
410.908	542.19
411.132	577.19
411.355	621.19
411.578	608.19
411.802	538.19
412.025	541.19
412.249	534.19
412.472	540.19
412.695	603.19
412.919	575.19
413.142	538.19
413.365	524.19
413.589	520.19
413.812	500.19
414.035	509.19
414.258	534.19
414.482	510.19
414.705	502.19
414.928	517.19
415.151	508.19
415.374	496.19
415.597	501.19
415.821	503.19
416.044	509.19
416.267	500.19
416.49	499.19
416.713	500.19
416.936	508.19
417.159	487.19
417.382	525.19
417.605	499.19
417.828	508.19
418.051	552.19
418.274	534.19
418.497	509.19
418.72	506.19
418.943	482.19
419.166	497.19
419.389	552.19
419.611	537.19
419.834	532.19
420.057	544.19
420.28	548.19
420.503	529.19
420.726	550.19
420.948	556.19
421.171	576.19
421.394	603.19
421.617	544.19
421.839	522.19
422.062	553.19
422.285	546.19
422.507	640.19
422.73	675.19
422.953	658.19
423.175	589.19
423.398	551.19
423.621	574.19
423.843	578.19
424.066	554.19
424.288	579.19
424.511	596.19
424.733	673.19
424.956	765.19
425.178	725.19
425.401	727.19
425.623	707.19
425.846	637.19
426.068	608.19
426.291	568.19
426.513	588.19
426.735	580.19
426.958	637.19
427.18	764.19
427.402	854.19
427.625	917.19
427.847	872.19
428.069	743.19
428.292	628.19
428.514	602.19
428.736	578.19
428.958	586.19
429.181	561.19
429.403	551.19
429.625	556.19
429.847	605.19
430.069	669.19
430.292	681.19
430.514	565.19
430.736	548.19
430.958	540.19
431.18	516.19
431.402	512.19
431.624	492.19
431.846	504.19
432.068	506.19
432.29	497.19
432.512	512.19
432.734	528.19
432.956	531.19
433.178	538.19
433.4	534.19
433.622	526.19
433.844	526.19
434.066	503.19
434.287	489.19
434.509	516.19
434.731	536.19
434.953	520.19
435.175	534.19
435.397	591.19
435.618	584.19
435.84	636.19
436.062	734.19
436.284	767.19
436.505	672.19
436.727	636.19
436.949	596.19
437.17	550.19
437.392	540.19
437.614	571.19
437.835	600.19
438.057	736.19
438.278	820.19
438.5	821.19
438.721	852.19
438.943	828.19
439.165	686.19
439.386	614.19
439.608	588.19
439.829	612.19
440.05	660.19
440.272	667.19
440.493	633.19
440.715	600.19
440.936	579.19
441.158	553.19
441.379	553.19
441.6	594.19
441.822	581.19
442.043	636.19
442.264	690.19
442.486	749.19
442.707	637.19
442.928	602.19
443.149	613.19
443.371	644.19
443.592	677.19
443.813	754.19
444.034	812.19
444.255	695.19
444.476	621.19
444.698	590.19
444.919	586.19
445.14	692.19
445.361	646.19
445.582	646.19
445.803	697.19
446.024	798.19
446.245	800.19
446.466	747.19
446.687	634.19
446.908	602.19
447.129	562.19
447.35	553.19
447.571	562.19
447.792	556.19
448.013	554.19
448.234	591.19
448.455	656.19
448.675	743.19
448.896	843.19
449.117	754.19
449.338	712.19
449.559	794.19
449.779	867.19
450	748.19
450.221	621.19
450.442	564.19
450.662	555.19
450.883	566.19
451.104	587.19
451.324	567.19
451.545	526.19
451.766	503.19
451.986	500.19
452.207	517.19
452.428	473.19
452.648	486.19
452.869	502.19
453.089	528.19
453.31	504.19
453.53	515.19
453.751	499.19
453.971	490.19
454.192	532.19
454.412	508.19
454.633	504.19
454.853	493.19
455.073	474.19
455.294	520.19
455.514	604.19
455.734	567.19
455.955	497.19
456.175	472.19
456.395	459.19
456.616	452.19
456.836	461.19
457.056	459.19
457.276	447.19
457.497	456.19
457.717	443.19
457.937	453.19
458.157	474.19
458.377	484.19
458.598	496.19
458.818	551.19
459.038	648.19
459.258	665.19
459.478	560.19
459.698	522.19
459.918	498.19
460.138	498.19
460.358	520.19
460.578	491.19
460.798	532.19
461.018	493.19
461.238	510.19
461.458	517.19
461.678	498.19
461.898	512.19
462.118	485.19
462.338	541.19
462.558	520.19
462.777	524.19
462.997	554.19
463.217	534.19
463.437	548.19
463.657	531.19
463.876	531.19
464.096	527.19
464.316	540.19
464.536	530.19
464.755	529.19
464.975	540.19
465.195	601.19
465.414	704.19
465.634	608.19
465.854	552.19
466.073	542.19
466.293	537.19
466.512	503.19
466.732	517.19
466.951	496.19
467.171	506.19
467.391	510.19
467.61	510.19
467.829	520.19
468.049	521.19
468.268	536.19
468.488	497.19
468.707	508.19
468.927	505.19
469.146	502.19
469.365	477.19
469.585	487.19
469.804	519.19
470.023	521.19
470.243	498.19
470.462	510.19
470.681	565.19
470.901	546.19
471.12	516.19
471.339	498.19
471.558	520.19
471.777	492.19
471.997	487.19
472.216	503.19
472.435	548.19
472.654	533.19
472.873	524.19
473.092	520.19
473.311	501.19
473.53	479.19
473.749	524.19
473.968	557.19
474.187	653.19
474.406	709.19
474.625	586.19
474.844	569.19
475.063	537.19
475.282	536.19
475.501	538.19
475.72	533.19
475.939	539.19
476.158	538.19
476.377	531.19
476.596	528.19
476.814	572.19
477.033	538.19
477.252	547.19
477.471	560.19
477.69	532.19
477.908	542.19
478.127	570.19
478.346	551.19
478.564	540.19
478.783	575.19
479.002	567.19
479.22	592.19
479.439	605.19
479.658	626.19
479.876	615.19
480.095	613.19
480.313	654.19
480.532	637.19
480.751	625.19
480.969	647.19
481.188	709.19
481.406	783.19
481.624	662.19
481.843	630.19
482.061	609.19
482.28	633.19
482.498	610.19
482.717	605.19
482.935	618.19
483.153	627.19
483.372	612.19
483.59	613.19
483.808	638.19
484.027	614.19
484.245	619.19
484.463	618.19
484.681	622.19
484.9	610.19
485.118	658.19
485.336	634.19
485.554	630.19
485.772	678.19
485.99	640.19
486.209	650.19
486.427	653.19
486.645	665.19
486.863	668.19
487.081	689.19
487.299	675.19
487.517	678.19
487.735	654.19
487.953	663.19
488.171	666.19
488.389	675.19
488.607	660.19
488.825	660.19
489.043	640.19
489.261	677.19
489.479	673.19
489.696	666.19
489.914	690.19
490.132	692.19
490.35	709.19
490.568	706.19
490.786	731.19
491.003	715.19
491.221	736.19
491.439	748.19
491.657	764.19
491.874	806.19
492.092	798.19
492.31	794.19
492.527	787.19
492.745	803.19
492.963	795.19
493.18	793.19
493.398	808.19
493.615	790.19
493.833	836.19
494.05	818.19
494.268	808.19
494.485	791.19
494.703	811.19
494.92	796.19
495.138	807.19
495.355	800.19
495.573	809.19
495.79	797.19
496.008	810.19
496.225	786.19
496.442	789.19
496.66	806.19
496.877	779.19
497.094	820.19
497.312	821.19
497.529	814.19
497.746	797.19
497.963	820.19
498.181	860.19
498.398	827.19
498.615	860.19
498.832	902.19
499.049	867.19
499.267	884.19
499.484	910.19
499.701	909.19
499.918	939.19
500.135	954.19
500.352	988.19
500.569	996.19
500.786	1006.19
501.003	1000.19
501.22	989.19
501.437	967.19
501.654	964.19
501.871	958.19
