Data from 1970.PennyLincolnUp.Lamp.En5.5.200Scan.071719.P1._HRD10591_15-15-57-843.txt Node
Date: Thu Jul 18 15:15:57 EDT 2019
User: cochatt
Spectrometer: HR+D1059
Trigger mode: 1
Integration Time (sec): 1.000000E-1
Scans to average: 1
Electric dark correction enabled: true
Nonlinearity correction enabled: false
Boxcar width: 0
XAxis mode: Wavelengths
Number of Pixels in Spectrum: 2048
>>>>>Begin Spectral Data<<<<<
223.165	-5.62
223.4	-5.62
223.635	-5.62
223.869	-12.62
224.104	-6.62
224.338	-26.62
224.573	-22.62
224.808	-11.62
225.042	-14.62
225.277	-5.62
225.511	-6.62
225.746	-2.62
225.98	7.38
226.215	12.38
226.449	24.38
226.683	19.38
226.918	10.38
227.152	41.38
227.387	28.38
227.621	33.38
227.856	39.38
228.09	23.38
228.324	35.38
228.559	60.38
228.793	68.38
229.027	114.38
229.262	113.38
229.496	125.38
229.73	138.38
229.964	172.38
230.199	130.38
230.433	130.38
230.667	114.38
230.901	124.38
231.136	125.38
231.37	104.38
231.604	121.38
231.838	120.38
232.072	120.38
232.306	128.38
232.541	130.38
232.775	120.38
233.009	125.38
233.243	120.38
233.477	121.38
233.711	120.38
233.945	124.38
234.179	129.38
234.413	113.38
234.647	131.38
234.881	94.38
235.115	124.38
235.349	135.38
235.583	127.38
235.817	125.38
236.051	149.38
236.285	142.38
236.519	154.38
236.753	146.38
236.987	163.38
237.221	210.38
237.455	273.38
237.689	214.38
237.922	147.38
238.156	145.38
238.39	142.38
238.624	145.38
238.858	124.38
239.091	132.38
239.325	124.38
239.559	139.38
239.793	147.38
240.027	152.38
240.26	168.38
240.494	188.38
240.728	152.38
240.961	155.38
241.195	156.38
241.429	145.38
241.662	146.38
241.896	137.38
242.13	142.38
242.363	149.38
242.597	150.38
242.83	159.38
243.064	154.38
243.298	157.38
243.531	150.38
243.765	139.38
243.998	159.38
244.232	170.38
244.465	146.38
244.699	168.38
244.932	158.38
245.166	162.38
245.399	161.38
245.633	154.38
245.866	163.38
246.099	151.38
246.333	158.38
246.566	160.38
246.8	155.38
247.033	162.38
247.266	184.38
247.5	176.38
247.733	191.38
247.966	204.38
248.2	190.38
248.433	191.38
248.666	184.38
248.899	192.38
249.133	232.38
249.366	228.38
249.599	221.38
249.832	204.38
250.066	216.38
250.299	215.38
250.532	218.38
250.765	231.38
250.998	221.38
251.231	271.38
251.465	239.38
251.698	225.38
251.931	226.38
252.164	215.38
252.397	229.38
252.63	235.38
252.863	230.38
253.096	235.38
253.329	276.38
253.562	250.38
253.795	238.38
254.028	247.38
254.261	244.38
254.494	246.38
254.727	281.38
254.96	309.38
255.193	304.38
255.426	308.38
255.659	252.38
255.892	277.38
256.124	266.38
256.357	264.38
256.59	271.38
256.823	236.38
257.056	245.38
257.289	232.38
257.521	244.38
257.754	247.38
257.987	224.38
258.22	222.38
258.452	233.38
258.685	246.38
258.918	244.38
259.151	220.38
259.383	224.38
259.616	226.38
259.849	226.38
260.081	252.38
260.314	267.38
260.547	277.38
260.779	270.38
261.012	257.38
261.244	254.38
261.477	257.38
261.71	241.38
261.942	250.38
262.175	262.38
262.407	254.38
262.64	244.38
262.872	246.38
263.105	229.38
263.337	226.38
263.57	243.38
263.802	240.38
264.035	230.38
264.267	223.38
264.499	216.38
264.732	235.38
264.964	224.38
265.197	224.38
265.429	205.38
265.661	230.38
265.894	223.38
266.126	224.38
266.358	227.38
266.591	225.38
266.823	233.38
267.055	230.38
267.287	253.38
267.52	235.38
267.752	234.38
267.984	230.38
268.216	247.38
268.448	236.38
268.681	253.38
268.913	232.38
269.145	260.38
269.377	296.38
269.609	274.38
269.841	282.38
270.073	289.38
270.306	314.38
270.538	346.38
270.77	348.38
271.002	308.38
271.234	312.38
271.466	328.38
271.698	342.38
271.93	348.38
272.162	318.38
272.394	357.38
272.626	337.38
272.858	325.38
273.09	307.38
273.322	293.38
273.553	284.38
273.785	293.38
274.017	298.38
274.249	289.38
274.481	273.38
274.713	279.38
274.945	276.38
275.176	286.38
275.408	278.38
275.64	264.38
275.872	278.38
276.104	281.38
276.335	266.38
276.567	274.38
276.799	297.38
277.031	325.38
277.262	332.38
277.494	346.38
277.726	327.38
277.957	310.38
278.189	316.38
278.421	281.38
278.652	280.38
278.884	278.38
279.115	294.38
279.347	271.38
279.579	264.38
279.81	285.38
280.042	269.38
280.273	263.38
280.505	272.38
280.736	274.38
280.968	269.38
281.199	262.38
281.431	266.38
281.662	265.38
281.894	257.38
282.125	279.38
282.356	292.38
282.588	316.38
282.819	329.38
283.051	283.38
283.282	276.38
283.513	274.38
283.745	275.38
283.976	297.38
284.207	272.38
284.439	281.38
284.67	274.38
284.901	271.38
285.132	275.38
285.364	252.38
285.595	270.38
285.826	286.38
286.057	287.38
286.288	298.38
286.52	287.38
286.751	275.38
286.982	271.38
287.213	271.38
287.444	301.38
287.675	302.38
287.906	295.38
288.138	326.38
288.369	295.38
288.6	322.38
288.831	310.38
289.062	290.38
289.293	289.38
289.524	287.38
289.755	278.38
289.986	289.38
290.217	280.38
290.448	284.38
290.679	288.38
290.91	297.38
291.141	300.38
291.371	278.38
291.602	293.38
291.833	304.38
292.064	276.38
292.295	294.38
292.526	292.38
292.757	282.38
292.987	282.38
293.218	290.38
293.449	306.38
293.68	289.38
293.91	301.38
294.141	280.38
294.372	274.38
294.603	280.38
294.833	273.38
295.064	303.38
295.295	292.38
295.525	282.38
295.756	309.38
295.987	334.38
296.217	333.38
296.448	350.38
296.679	314.38
296.909	308.38
297.14	305.38
297.37	308.38
297.601	304.38
297.831	316.38
298.062	314.38
298.292	308.38
298.523	319.38
298.753	300.38
298.984	305.38
299.214	305.38
299.445	309.38
299.675	311.38
299.905	310.38
300.136	324.38
300.366	301.38
300.597	303.38
300.827	321.38
301.057	314.38
301.288	342.38
301.518	309.38
301.748	336.38
301.979	309.38
302.209	331.38
302.439	317.38
302.669	330.38
302.9	330.38
303.13	340.38
303.36	345.38
303.59	348.38
303.82	341.38
304.051	339.38
304.281	335.38
304.511	332.38
304.741	316.38
304.971	328.38
305.201	314.38
305.431	321.38
305.661	337.38
305.891	320.38
306.121	353.38
306.352	322.38
306.582	344.38
306.812	338.38
307.042	322.38
307.272	328.38
307.502	324.38
307.731	333.38
307.961	348.38
308.191	342.38
308.421	357.38
308.651	317.38
308.881	338.38
309.111	354.38
309.341	366.38
309.571	366.38
309.8	383.38
310.03	382.38
310.26	406.38
310.49	392.38
310.72	389.38
310.949	422.38
311.179	414.38
311.409	401.38
311.639	377.38
311.868	395.38
312.098	403.38
312.328	402.38
312.557	406.38
312.787	429.38
313.017	440.38
313.246	417.38
313.476	412.38
313.706	387.38
313.935	416.38
314.165	415.38
314.394	413.38
314.624	420.38
314.853	398.38
315.083	404.38
315.312	384.38
315.542	369.38
315.771	386.38
316.001	382.38
316.23	375.38
316.46	378.38
316.689	384.38
316.919	395.38
317.148	407.38
317.377	409.38
317.607	409.38
317.836	408.38
318.065	383.38
318.295	398.38
318.524	380.38
318.753	399.38
318.983	400.38
319.212	386.38
319.441	387.38
319.67	411.38
319.9	377.38
320.129	377.38
320.358	395.38
320.587	401.38
320.816	414.38
321.046	439.38
321.275	406.38
321.504	428.38
321.733	430.38
321.962	443.38
322.191	452.38
322.42	467.38
322.649	474.38
322.878	500.38
323.108	485.38
323.337	530.38
323.566	560.38
323.795	610.38
324.024	646.38
324.253	785.38
324.482	1128.38
324.71	1758.38
324.939	2500.38
325.168	2135.38
325.397	1171.38
325.626	778.38
325.855	633.38
326.084	589.38
326.313	547.38
326.542	556.38
326.77	624.38
326.999	722.38
327.228	998.38
327.457	1545.38
327.686	1874.38
327.914	1251.38
328.143	860.38
328.372	726.38
328.6	686.38
328.829	653.38
329.058	670.38
329.287	688.38
329.515	634.38
329.744	581.38
329.972	578.38
330.201	609.38
330.43	662.38
330.658	687.38
330.887	708.38
331.115	685.38
331.344	578.38
331.572	529.38
331.801	543.38
332.03	543.38
332.258	501.38
332.486	469.38
332.715	472.38
332.943	479.38
333.172	482.38
333.4	474.38
333.629	484.38
333.857	490.38
334.085	515.38
334.314	534.38
334.542	590.38
334.771	620.38
334.999	522.38
335.227	484.38
335.455	475.38
335.684	471.38
335.912	453.38
336.14	447.38
336.369	456.38
336.597	465.38
336.825	466.38
337.053	453.38
337.281	468.38
337.51	440.38
337.738	457.38
337.966	453.38
338.194	452.38
338.422	478.38
338.65	452.38
338.878	442.38
339.106	444.38
339.334	445.38
339.562	455.38
339.79	440.38
340.018	448.38
340.246	454.38
340.474	456.38
340.702	454.38
340.93	459.38
341.158	433.38
341.386	426.38
341.614	448.38
341.842	428.38
342.07	443.38
342.298	422.38
342.526	458.38
342.754	418.38
342.981	423.38
343.209	424.38
343.437	450.38
343.665	438.38
343.893	425.38
344.12	438.38
344.348	452.38
344.576	440.38
344.804	426.38
345.031	464.38
345.259	484.38
345.487	465.38
345.714	458.38
345.942	446.38
346.17	433.38
346.397	427.38
346.625	447.38
346.853	441.38
347.08	438.38
347.308	449.38
347.535	450.38
347.763	461.38
347.99	452.38
348.218	463.38
348.445	465.38
348.673	465.38
348.9	441.38
349.128	452.38
349.355	423.38
349.583	421.38
349.81	426.38
350.037	426.38
350.265	441.38
350.492	436.38
350.72	417.38
350.947	430.38
351.174	447.38
351.402	445.38
351.629	467.38
351.856	455.38
352.083	468.38
352.311	448.38
352.538	483.38
352.765	463.38
352.992	450.38
353.22	442.38
353.447	437.38
353.674	441.38
353.901	419.38
354.128	413.38
354.355	423.38
354.583	425.38
354.81	401.38
355.037	398.38
355.264	408.38
355.491	401.38
355.718	413.38
355.945	416.38
356.172	417.38
356.399	393.38
356.626	384.38
356.853	394.38
357.08	397.38
357.307	388.38
357.534	415.38
357.761	406.38
357.988	376.38
358.215	407.38
358.441	405.38
358.668	406.38
358.895	409.38
359.122	426.38
359.349	437.38
359.576	464.38
359.802	479.38
360.029	540.38
360.256	538.38
360.483	508.38
360.709	454.38
360.936	442.38
361.163	430.38
361.39	440.38
361.616	430.38
361.843	458.38
362.07	449.38
362.296	453.38
362.523	437.38
362.749	458.38
362.976	432.38
363.203	435.38
363.429	433.38
363.656	436.38
363.882	414.38
364.109	432.38
364.335	444.38
364.562	412.38
364.788	418.38
365.015	428.38
365.241	405.38
365.468	419.38
365.694	433.38
365.92	422.38
366.147	436.38
366.373	413.38
366.599	426.38
366.826	427.38
367.052	385.38
367.278	426.38
367.505	441.38
367.731	434.38
367.957	438.38
368.184	410.38
368.41	422.38
368.636	442.38
368.862	448.38
369.089	435.38
369.315	461.38
369.541	425.38
369.767	418.38
369.993	425.38
370.219	421.38
370.445	418.38
370.672	410.38
370.898	434.38
371.124	425.38
371.35	407.38
371.576	439.38
371.802	421.38
372.028	414.38
372.254	402.38
372.48	412.38
372.706	406.38
372.932	418.38
373.158	424.38
373.384	427.38
373.61	432.38
373.835	403.38
374.061	418.38
374.287	424.38
374.513	430.38
374.739	438.38
374.965	427.38
375.191	438.38
375.416	442.38
375.642	424.38
375.868	421.38
376.094	438.38
376.319	419.38
376.545	393.38
376.771	405.38
376.997	423.38
377.222	434.38
377.448	405.38
377.674	427.38
377.899	413.38
378.125	397.38
378.35	419.38
378.576	409.38
378.802	415.38
379.027	430.38
379.253	394.38
379.478	422.38
379.704	421.38
379.929	430.38
380.155	423.38
380.38	438.38
380.606	427.38
380.831	430.38
381.057	430.38
381.282	429.38
381.507	423.38
381.733	450.38
381.958	416.38
382.184	445.38
382.409	416.38
382.634	438.38
382.86	426.38
383.085	449.38
383.31	425.38
383.535	429.38
383.761	436.38
383.986	421.38
384.211	461.38
384.436	440.38
384.662	434.38
384.887	440.38
385.112	421.38
385.337	446.38
385.562	444.38
385.787	451.38
386.013	467.38
386.238	462.38
386.463	460.38
386.688	456.38
386.913	452.38
387.138	447.38
387.363	451.38
387.588	461.38
387.813	449.38
388.038	465.38
388.263	466.38
388.488	468.38
388.713	457.38
388.938	452.38
389.163	471.38
389.387	462.38
389.612	452.38
389.837	475.38
390.062	460.38
390.287	461.38
390.512	462.38
390.736	454.38
390.961	440.38
391.186	445.38
391.411	449.38
391.636	433.38
391.86	445.38
392.085	433.38
392.31	446.38
392.534	459.38
392.759	488.38
392.984	465.38
393.208	462.38
393.433	459.38
393.658	453.38
393.882	471.38
394.107	445.38
394.331	484.38
394.556	466.38
394.78	480.38
395.005	469.38
395.229	469.38
395.454	458.38
395.678	468.38
395.903	488.38
396.127	513.38
396.352	528.38
396.576	470.38
396.801	482.38
397.025	479.38
397.249	472.38
397.474	486.38
397.698	482.38
397.922	500.38
398.147	512.38
398.371	519.38
398.595	514.38
398.82	520.38
399.044	506.38
399.268	522.38
399.492	543.38
399.717	570.38
399.941	576.38
400.165	604.38
400.389	629.38
400.613	596.38
400.837	556.38
401.062	537.38
401.286	522.38
401.51	519.38
401.734	520.38
401.958	534.38
402.182	542.38
402.406	551.38
402.63	544.38
402.854	554.38
403.078	526.38
403.302	559.38
403.526	558.38
403.75	559.38
403.974	548.38
404.198	560.38
404.422	562.38
404.645	553.38
404.869	562.38
405.093	600.38
405.317	634.38
405.541	661.38
405.765	625.38
405.988	602.38
406.212	599.38
406.436	643.38
406.66	648.38
406.883	607.38
407.107	600.38
407.331	642.38
407.555	723.38
407.778	721.38
408.002	671.38
408.226	617.38
408.449	597.38
408.673	582.38
408.896	633.38
409.12	702.38
409.344	657.38
409.567	592.38
409.791	564.38
410.014	555.38
410.238	560.38
410.461	574.38
410.685	552.38
410.908	574.38
411.132	610.38
411.355	641.38
411.578	622.38
411.802	572.38
412.025	555.38
412.249	564.38
412.472	587.38
412.695	640.38
412.919	621.38
413.142	582.38
413.365	553.38
413.589	550.38
413.812	531.38
414.035	520.38
414.258	534.38
414.482	515.38
414.705	540.38
414.928	530.38
415.151	513.38
415.374	513.38
415.597	525.38
415.821	525.38
416.044	524.38
416.267	529.38
416.49	528.38
416.713	530.38
416.936	530.38
417.159	536.38
417.382	531.38
417.605	522.38
417.828	554.38
418.051	571.38
418.274	582.38
418.497	538.38
418.72	540.38
418.943	541.38
419.166	545.38
419.389	572.38
419.611	568.38
419.834	551.38
420.057	545.38
420.28	557.38
420.503	572.38
420.726	567.38
420.948	581.38
421.171	648.38
421.394	651.38
421.617	606.38
421.839	570.38
422.062	554.38
422.285	570.38
422.507	623.38
422.73	708.38
422.953	696.38
423.175	618.38
423.398	592.38
423.621	602.38
423.843	598.38
424.066	618.38
424.288	619.38
424.511	625.38
424.733	684.38
424.956	745.38
425.178	750.38
425.401	739.38
425.623	745.38
425.846	657.38
426.068	639.38
426.291	613.38
426.513	603.38
426.735	638.38
426.958	652.38
427.18	767.38
427.402	881.38
427.625	975.38
427.847	881.38
428.069	793.38
428.292	709.38
428.514	648.38
428.736	610.38
428.958	595.38
429.181	574.38
429.403	572.38
429.625	580.38
429.847	621.38
430.069	723.38
430.292	685.38
430.514	602.38
430.736	584.38
430.958	549.38
431.18	527.38
431.402	523.38
431.624	548.38
431.846	526.38
432.068	514.38
432.29	524.38
432.512	532.38
432.734	550.38
432.956	526.38
433.178	557.38
433.4	560.38
433.622	556.38
433.844	552.38
434.066	535.38
434.287	545.38
434.509	574.38
434.731	547.38
434.953	557.38
435.175	560.38
435.397	609.38
435.618	617.38
435.84	671.38
436.062	786.38
436.284	836.38
436.505	726.38
436.727	642.38
436.949	596.38
437.17	582.38
437.392	554.38
437.614	598.38
437.835	630.38
438.057	740.38
438.278	878.38
438.5	830.38
438.721	921.38
438.943	862.38
439.165	721.38
439.386	654.38
439.608	674.38
439.829	643.38
440.05	684.38
440.272	723.38
440.493	676.38
440.715	663.38
440.936	607.38
441.158	584.38
441.379	590.38
441.6	615.38
441.822	614.38
442.043	654.38
442.264	734.38
442.486	827.38
442.707	678.38
442.928	642.38
443.149	674.38
443.371	688.38
443.592	695.38
443.813	831.38
444.034	854.38
444.255	726.38
444.476	642.38
444.698	616.38
444.919	616.38
445.14	753.38
445.361	684.38
445.582	665.38
445.803	762.38
446.024	860.38
446.245	866.38
446.466	776.38
446.687	692.38
446.908	648.38
447.129	603.38
447.35	588.38
447.571	601.38
447.792	579.38
448.013	584.38
448.234	585.38
448.455	666.38
448.675	795.38
448.896	885.38
449.117	785.38
449.338	718.38
449.559	841.38
449.779	913.38
450	778.38
450.221	647.38
450.442	606.38
450.662	584.38
450.883	580.38
451.104	605.38
451.324	602.38
451.545	566.38
451.766	553.38
451.986	524.38
452.207	540.38
452.428	512.38
452.648	505.38
452.869	515.38
453.089	526.38
453.31	548.38
453.53	520.38
453.751	516.38
453.971	519.38
454.192	551.38
454.412	544.38
454.633	539.38
454.853	527.38
455.073	510.38
455.294	550.38
455.514	612.38
455.734	620.38
455.955	537.38
456.175	498.38
456.395	500.38
456.616	509.38
456.836	479.38
457.056	501.38
457.276	472.38
457.497	493.38
457.717	489.38
457.937	477.38
458.157	479.38
458.377	485.38
458.598	537.38
458.818	576.38
459.038	729.38
459.258	710.38
459.478	607.38
459.698	556.38
459.918	520.38
460.138	529.38
460.358	538.38
460.578	520.38
460.798	524.38
461.018	537.38
461.238	512.38
461.458	528.38
461.678	522.38
461.898	543.38
462.118	543.38
462.338	531.38
462.558	548.38
462.777	554.38
462.997	539.38
463.217	535.38
463.437	566.38
463.657	577.38
463.876	554.38
464.096	556.38
464.316	540.38
464.536	543.38
464.755	549.38
464.975	593.38
465.195	642.38
465.414	719.38
465.634	650.38
465.854	602.38
466.073	569.38
466.293	554.38
466.512	550.38
466.732	523.38
466.951	541.38
467.171	523.38
467.391	527.38
467.61	542.38
467.829	572.38
468.049	552.38
468.268	546.38
468.488	508.38
468.707	528.38
468.927	531.38
469.146	518.38
469.365	507.38
469.585	516.38
469.804	535.38
470.023	550.38
470.243	540.38
470.462	558.38
470.681	584.38
470.901	566.38
471.12	558.38
471.339	531.38
471.558	554.38
471.777	552.38
471.997	529.38
472.216	552.38
472.435	603.38
472.654	602.38
472.873	536.38
473.092	525.38
473.311	525.38
473.53	559.38
473.749	564.38
473.968	607.38
474.187	712.38
474.406	742.38
474.625	614.38
474.844	551.38
475.063	537.38
475.282	539.38
475.501	528.38
475.72	541.38
475.939	564.38
476.158	545.38
476.377	548.38
476.596	547.38
476.814	552.38
477.033	584.38
477.252	566.38
477.471	574.38
477.69	565.38
477.908	573.38
478.127	582.38
478.346	590.38
478.564	590.38
478.783	602.38
479.002	618.38
479.22	632.38
479.439	635.38
479.658	662.38
479.876	662.38
480.095	653.38
480.313	676.38
480.532	666.38
480.751	669.38
480.969	690.38
481.188	772.38
481.406	812.38
481.624	732.38
481.843	684.38
482.061	655.38
482.28	650.38
482.498	655.38
482.717	638.38
482.935	654.38
483.153	647.38
483.372	672.38
483.59	648.38
483.808	652.38
484.027	646.38
484.245	674.38
484.463	664.38
484.681	678.38
484.9	673.38
485.118	652.38
485.336	663.38
485.554	672.38
485.772	656.38
485.99	655.38
486.209	688.38
486.427	672.38
486.645	678.38
486.863	715.38
487.081	710.38
487.299	712.38
487.517	726.38
487.735	673.38
487.953	684.38
488.171	684.38
488.389	710.38
488.607	716.38
488.825	708.38
489.043	701.38
489.261	697.38
489.479	689.38
489.696	737.38
489.914	734.38
490.132	696.38
490.35	732.38
490.568	730.38
490.786	752.38
491.003	781.38
491.221	784.38
491.439	803.38
491.657	772.38
491.874	781.38
492.092	807.38
492.31	824.38
492.527	837.38
492.745	841.38
492.963	830.38
493.18	849.38
493.398	817.38
493.615	874.38
493.833	848.38
494.05	865.38
494.268	873.38
494.485	842.38
494.703	836.38
494.92	843.38
495.138	844.38
495.355	842.38
495.573	837.38
495.79	834.38
496.008	858.38
496.225	854.38
496.442	828.38
496.66	826.38
496.877	858.38
497.094	857.38
497.312	863.38
497.529	858.38
497.746	885.38
497.963	858.38
498.181	888.38
498.398	920.38
498.615	902.38
498.832	926.38
499.049	898.38
499.267	940.38
499.484	927.38
499.701	964.38
499.918	956.38
500.135	1008.38
500.352	1020.38
500.569	1009.38
500.786	1028.38
501.003	1038.38
501.22	1037.38
501.437	1016.38
501.654	1024.38
501.871	1011.38
