Data from 1970.PennyLincolnUp.Lamp.En5.5.200Scan.071719.P1._HRD10591_15-15-33-842.txt Node
Date: Thu Jul 18 15:15:33 EDT 2019
User: cochatt
Spectrometer: HR+D1059
Trigger mode: 1
Integration Time (sec): 1.000000E-1
Scans to average: 1
Electric dark correction enabled: true
Nonlinearity correction enabled: false
Boxcar width: 0
XAxis mode: Wavelengths
Number of Pixels in Spectrum: 2048
>>>>>Begin Spectral Data<<<<<
223.165	-22.88
223.4	-22.88
223.635	-22.88
223.869	-4.88
224.104	-14.88
224.338	-17.88
224.573	-6.88
224.808	-29.88
225.042	0.12
225.277	-20.88
225.511	-7.88
225.746	17.12
225.98	10.12
226.215	16.12
226.449	12.12
226.683	35.12
226.918	4.12
227.152	31.12
227.387	35.12
227.621	38.12
227.856	44.12
228.09	48.12
228.324	63.12
228.559	56.12
228.793	77.12
229.027	109.12
229.262	124.12
229.496	138.12
229.73	153.12
229.964	179.12
230.199	139.12
230.433	129.12
230.667	121.12
230.901	132.12
231.136	124.12
231.37	122.12
231.604	130.12
231.838	139.12
232.072	128.12
232.306	136.12
232.541	121.12
232.775	126.12
233.009	130.12
233.243	119.12
233.477	129.12
233.711	127.12
233.945	141.12
234.179	126.12
234.413	126.12
234.647	123.12
234.881	124.12
235.115	114.12
235.349	126.12
235.583	128.12
235.817	133.12
236.051	133.12
236.285	140.12
236.519	122.12
236.753	142.12
236.987	158.12
237.221	210.12
237.455	274.12
237.689	213.12
237.922	148.12
238.156	145.12
238.39	168.12
238.624	158.12
238.858	130.12
239.091	143.12
239.325	142.12
239.559	141.12
239.793	141.12
240.027	159.12
240.26	156.12
240.494	161.12
240.728	158.12
240.961	174.12
241.195	146.12
241.429	160.12
241.662	132.12
241.896	144.12
242.13	145.12
242.363	136.12
242.597	149.12
242.83	164.12
243.064	168.12
243.298	161.12
243.531	149.12
243.765	145.12
243.998	166.12
244.232	153.12
244.465	164.12
244.699	151.12
244.932	161.12
245.166	168.12
245.399	164.12
245.633	177.12
245.866	166.12
246.099	167.12
246.333	169.12
246.566	164.12
246.8	167.12
247.033	169.12
247.266	174.12
247.5	179.12
247.733	188.12
247.966	196.12
248.2	189.12
248.433	189.12
248.666	188.12
248.899	204.12
249.133	226.12
249.366	225.12
249.599	233.12
249.832	208.12
250.066	201.12
250.299	205.12
250.532	212.12
250.765	239.12
250.998	264.12
251.231	268.12
251.465	264.12
251.698	240.12
251.931	232.12
252.164	228.12
252.397	223.12
252.63	232.12
252.863	247.12
253.096	248.12
253.329	264.12
253.562	274.12
253.795	261.12
254.028	240.12
254.261	250.12
254.494	254.12
254.727	306.12
254.96	334.12
255.193	313.12
255.426	277.12
255.659	277.12
255.892	280.12
256.124	265.12
256.357	268.12
256.59	274.12
256.823	238.12
257.056	242.12
257.289	232.12
257.521	230.12
257.754	246.12
257.987	228.12
258.22	234.12
258.452	214.12
258.685	232.12
258.918	229.12
259.151	233.12
259.383	237.12
259.616	227.12
259.849	261.12
260.081	273.12
260.314	287.12
260.547	303.12
260.779	272.12
261.012	275.12
261.244	246.12
261.477	245.12
261.71	253.12
261.942	271.12
262.175	252.12
262.407	262.12
262.64	228.12
262.872	228.12
263.105	233.12
263.337	252.12
263.57	224.12
263.802	233.12
264.035	231.12
264.267	234.12
264.499	215.12
264.732	214.12
264.964	224.12
265.197	229.12
265.429	226.12
265.661	228.12
265.894	212.12
266.126	220.12
266.358	216.12
266.591	230.12
266.823	252.12
267.055	233.12
267.287	237.12
267.52	242.12
267.752	262.12
267.984	244.12
268.216	238.12
268.448	258.12
268.681	253.12
268.913	249.12
269.145	295.12
269.377	290.12
269.609	297.12
269.841	301.12
270.073	261.12
270.306	316.12
270.538	331.12
270.77	337.12
271.002	335.12
271.234	338.12
271.466	346.12
271.698	336.12
271.93	359.12
272.162	353.12
272.394	338.12
272.626	335.12
272.858	316.12
273.09	302.12
273.322	297.12
273.553	287.12
273.785	288.12
274.017	288.12
274.249	295.12
274.481	284.12
274.713	283.12
274.945	298.12
275.176	289.12
275.408	293.12
275.64	286.12
275.872	275.12
276.104	268.12
276.335	279.12
276.567	288.12
276.799	286.12
277.031	337.12
277.262	346.12
277.494	326.12
277.726	326.12
277.957	308.12
278.189	286.12
278.421	289.12
278.652	286.12
278.884	284.12
279.115	278.12
279.347	290.12
279.579	280.12
279.81	271.12
280.042	277.12
280.273	298.12
280.505	291.12
280.736	289.12
280.968	280.12
281.199	293.12
281.431	281.12
281.662	279.12
281.894	273.12
282.125	272.12
282.356	305.12
282.588	323.12
282.819	319.12
283.051	290.12
283.282	266.12
283.513	279.12
283.745	272.12
283.976	275.12
284.207	308.12
284.439	305.12
284.67	294.12
284.901	283.12
285.132	301.12
285.364	278.12
285.595	284.12
285.826	282.12
286.057	273.12
286.288	285.12
286.52	290.12
286.751	280.12
286.982	291.12
287.213	272.12
287.444	297.12
287.675	303.12
287.906	314.12
288.138	313.12
288.369	300.12
288.6	297.12
288.831	312.12
289.062	301.12
289.293	304.12
289.524	285.12
289.755	290.12
289.986	292.12
290.217	287.12
290.448	294.12
290.679	293.12
290.91	297.12
291.141	284.12
291.371	291.12
291.602	274.12
291.833	285.12
292.064	308.12
292.295	282.12
292.526	272.12
292.757	284.12
292.987	304.12
293.218	301.12
293.449	289.12
293.68	299.12
293.91	285.12
294.141	269.12
294.372	302.12
294.603	287.12
294.833	280.12
295.064	293.12
295.295	287.12
295.525	298.12
295.756	301.12
295.987	316.12
296.217	338.12
296.448	348.12
296.679	313.12
296.909	304.12
297.14	286.12
297.37	320.12
297.601	294.12
297.831	301.12
298.062	304.12
298.292	313.12
298.523	294.12
298.753	324.12
298.984	314.12
299.214	280.12
299.445	320.12
299.675	327.12
299.905	324.12
300.136	316.12
300.366	298.12
300.597	307.12
300.827	324.12
301.057	329.12
301.288	323.12
301.518	316.12
301.748	328.12
301.979	317.12
302.209	319.12
302.439	345.12
302.669	323.12
302.9	348.12
303.13	318.12
303.36	328.12
303.59	353.12
303.82	338.12
304.051	343.12
304.281	322.12
304.511	322.12
304.741	327.12
304.971	321.12
305.201	329.12
305.431	325.12
305.661	314.12
305.891	344.12
306.121	331.12
306.352	330.12
306.582	349.12
306.812	331.12
307.042	329.12
307.272	326.12
307.502	333.12
307.731	322.12
307.961	330.12
308.191	343.12
308.421	343.12
308.651	353.12
308.881	341.12
309.111	354.12
309.341	360.12
309.571	349.12
309.8	366.12
310.03	392.12
310.26	399.12
310.49	393.12
310.72	394.12
310.949	421.12
311.179	379.12
311.409	404.12
311.639	383.12
311.868	393.12
312.098	384.12
312.328	408.12
312.557	420.12
312.787	445.12
313.017	438.12
313.246	406.12
313.476	389.12
313.706	378.12
313.935	406.12
314.165	396.12
314.394	425.12
314.624	431.12
314.853	409.12
315.083	401.12
315.312	381.12
315.542	389.12
315.771	365.12
316.001	377.12
316.23	391.12
316.46	364.12
316.689	397.12
316.919	408.12
317.148	419.12
317.377	406.12
317.607	381.12
317.836	422.12
318.065	406.12
318.295	387.12
318.524	387.12
318.753	376.12
318.983	395.12
319.212	403.12
319.441	423.12
319.67	413.12
319.9	406.12
320.129	400.12
320.358	397.12
320.587	392.12
320.816	418.12
321.046	417.12
321.275	432.12
321.504	406.12
321.733	419.12
321.962	423.12
322.191	454.12
322.42	439.12
322.649	484.12
322.878	477.12
323.108	505.12
323.337	548.12
323.566	567.12
323.795	608.12
324.024	695.12
324.253	805.12
324.482	1176.12
324.71	1808.12
324.939	2520.12
325.168	2209.12
325.397	1154.12
325.626	752.12
325.855	615.12
326.084	575.12
326.313	550.12
326.542	575.12
326.77	612.12
326.999	738.12
327.228	1044.12
327.457	1522.12
327.686	1906.12
327.914	1273.12
328.143	837.12
328.372	734.12
328.6	716.12
328.829	657.12
329.058	675.12
329.287	688.12
329.515	635.12
329.744	568.12
329.972	580.12
330.201	628.12
330.43	670.12
330.658	681.12
330.887	705.12
331.115	686.12
331.344	583.12
331.572	542.12
331.801	534.12
332.03	560.12
332.258	503.12
332.486	511.12
332.715	477.12
332.943	477.12
333.172	492.12
333.4	472.12
333.629	466.12
333.857	516.12
334.085	487.12
334.314	532.12
334.542	582.12
334.771	604.12
334.999	549.12
335.227	527.12
335.455	493.12
335.684	472.12
335.912	473.12
336.14	426.12
336.369	460.12
336.597	490.12
336.825	491.12
337.053	469.12
337.281	466.12
337.51	461.12
337.738	455.12
337.966	461.12
338.194	466.12
338.422	473.12
338.65	454.12
338.878	447.12
339.106	429.12
339.334	441.12
339.562	446.12
339.79	449.12
340.018	436.12
340.246	454.12
340.474	437.12
340.702	428.12
340.93	450.12
341.158	446.12
341.386	439.12
341.614	456.12
341.842	443.12
342.07	442.12
342.298	449.12
342.526	442.12
342.754	431.12
342.981	425.12
343.209	420.12
343.437	430.12
343.665	445.12
343.893	426.12
344.12	439.12
344.348	464.12
344.576	462.12
344.804	451.12
345.031	482.12
345.259	473.12
345.487	464.12
345.714	463.12
345.942	441.12
346.17	442.12
346.397	437.12
346.625	444.12
346.853	448.12
347.08	431.12
347.308	443.12
347.535	450.12
347.763	474.12
347.99	469.12
348.218	473.12
348.445	474.12
348.673	489.12
348.9	471.12
349.128	442.12
349.355	428.12
349.583	439.12
349.81	407.12
350.037	428.12
350.265	433.12
350.492	430.12
350.72	447.12
350.947	446.12
351.174	459.12
351.402	482.12
351.629	455.12
351.856	450.12
352.083	460.12
352.311	466.12
352.538	462.12
352.765	450.12
352.992	434.12
353.22	454.12
353.447	453.12
353.674	416.12
353.901	444.12
354.128	417.12
354.355	408.12
354.583	419.12
354.81	397.12
355.037	428.12
355.264	407.12
355.491	394.12
355.718	382.12
355.945	427.12
356.172	398.12
356.399	412.12
356.626	396.12
356.853	426.12
357.08	418.12
357.307	419.12
357.534	417.12
357.761	425.12
357.988	417.12
358.215	407.12
358.441	414.12
358.668	419.12
358.895	418.12
359.122	444.12
359.349	426.12
359.576	471.12
359.802	462.12
360.029	516.12
360.256	538.12
360.483	489.12
360.709	455.12
360.936	437.12
361.163	462.12
361.39	460.12
361.616	476.12
361.843	460.12
362.07	456.12
362.296	462.12
362.523	461.12
362.749	427.12
362.976	438.12
363.203	438.12
363.429	423.12
363.656	433.12
363.882	419.12
364.109	408.12
364.335	437.12
364.562	437.12
364.788	431.12
365.015	435.12
365.241	454.12
365.468	426.12
365.694	423.12
365.92	438.12
366.147	418.12
366.373	405.12
366.599	425.12
366.826	423.12
367.052	416.12
367.278	448.12
367.505	420.12
367.731	429.12
367.957	422.12
368.184	437.12
368.41	436.12
368.636	425.12
368.862	436.12
369.089	443.12
369.315	428.12
369.541	425.12
369.767	444.12
369.993	441.12
370.219	424.12
370.445	418.12
370.672	426.12
370.898	406.12
371.124	400.12
371.35	423.12
371.576	414.12
371.802	408.12
372.028	433.12
372.254	410.12
372.48	420.12
372.706	422.12
372.932	419.12
373.158	425.12
373.384	459.12
373.61	435.12
373.835	444.12
374.061	414.12
374.287	418.12
374.513	417.12
374.739	433.12
374.965	432.12
375.191	427.12
375.416	428.12
375.642	419.12
375.868	409.12
376.094	430.12
376.319	421.12
376.545	410.12
376.771	413.12
376.997	412.12
377.222	409.12
377.448	444.12
377.674	420.12
377.899	418.12
378.125	417.12
378.35	440.12
378.576	416.12
378.802	412.12
379.027	402.12
379.253	422.12
379.478	425.12
379.704	427.12
379.929	416.12
380.155	415.12
380.38	418.12
380.606	430.12
380.831	444.12
381.057	440.12
381.282	421.12
381.507	421.12
381.733	433.12
381.958	428.12
382.184	422.12
382.409	434.12
382.634	430.12
382.86	431.12
383.085	417.12
383.31	428.12
383.535	430.12
383.761	443.12
383.986	426.12
384.211	463.12
384.436	441.12
384.662	446.12
384.887	436.12
385.112	448.12
385.337	465.12
385.562	459.12
385.787	444.12
386.013	457.12
386.238	470.12
386.463	466.12
386.688	474.12
386.913	436.12
387.138	428.12
387.363	469.12
387.588	462.12
387.813	445.12
388.038	452.12
388.263	473.12
388.488	460.12
388.713	466.12
388.938	444.12
389.163	468.12
389.387	496.12
389.612	453.12
389.837	472.12
390.062	461.12
390.287	450.12
390.512	444.12
390.736	458.12
390.961	438.12
391.186	454.12
391.411	468.12
391.636	456.12
391.86	455.12
392.085	440.12
392.31	473.12
392.534	462.12
392.759	456.12
392.984	464.12
393.208	447.12
393.433	467.12
393.658	465.12
393.882	450.12
394.107	459.12
394.331	466.12
394.556	450.12
394.78	461.12
395.005	452.12
395.229	446.12
395.454	452.12
395.678	473.12
395.903	492.12
396.127	517.12
396.352	524.12
396.576	520.12
396.801	477.12
397.025	469.12
397.249	484.12
397.474	482.12
397.698	476.12
397.922	504.12
398.147	522.12
398.371	526.12
398.595	506.12
398.82	518.12
399.044	494.12
399.268	530.12
399.492	555.12
399.717	584.12
399.941	590.12
400.165	641.12
400.389	645.12
400.613	587.12
400.837	552.12
401.062	533.12
401.286	524.12
401.51	535.12
401.734	524.12
401.958	550.12
402.182	543.12
402.406	549.12
402.63	538.12
402.854	554.12
403.078	520.12
403.302	552.12
403.526	543.12
403.75	532.12
403.974	548.12
404.198	542.12
404.422	533.12
404.645	550.12
404.869	569.12
405.093	581.12
405.317	617.12
405.541	672.12
405.765	632.12
405.988	584.12
406.212	584.12
406.436	614.12
406.66	625.12
406.883	587.12
407.107	615.12
407.331	666.12
407.555	754.12
407.778	724.12
408.002	652.12
408.226	610.12
408.449	578.12
408.673	616.12
408.896	644.12
409.12	677.12
409.344	637.12
409.567	597.12
409.791	576.12
410.014	566.12
410.238	555.12
410.461	553.12
410.685	587.12
410.908	580.12
411.132	620.12
411.355	642.12
411.578	618.12
411.802	604.12
412.025	540.12
412.249	580.12
412.472	580.12
412.695	642.12
412.919	638.12
413.142	593.12
413.365	571.12
413.589	544.12
413.812	541.12
414.035	530.12
414.258	537.12
414.482	529.12
414.705	526.12
414.928	535.12
415.151	523.12
415.374	539.12
415.597	516.12
415.821	516.12
416.044	497.12
416.267	528.12
416.49	532.12
416.713	517.12
416.936	528.12
417.159	546.12
417.382	526.12
417.605	556.12
417.828	539.12
418.051	556.12
418.274	540.12
418.497	541.12
418.72	534.12
418.943	538.12
419.166	553.12
419.389	580.12
419.611	572.12
419.834	560.12
420.057	592.12
420.28	562.12
420.503	556.12
420.726	586.12
420.948	573.12
421.171	664.12
421.394	648.12
421.617	591.12
421.839	557.12
422.062	561.12
422.285	590.12
422.507	625.12
422.73	714.12
422.953	671.12
423.175	633.12
423.398	616.12
423.621	588.12
423.843	610.12
424.066	614.12
424.288	630.12
424.511	614.12
424.733	690.12
424.956	771.12
425.178	760.12
425.401	767.12
425.623	782.12
425.846	674.12
426.068	640.12
426.291	638.12
426.513	630.12
426.735	640.12
426.958	704.12
427.18	773.12
427.402	904.12
427.625	999.12
427.847	900.12
428.069	786.12
428.292	706.12
428.514	638.12
428.736	604.12
428.958	606.12
429.181	592.12
429.403	572.12
429.625	602.12
429.847	629.12
430.069	730.12
430.292	694.12
430.514	591.12
430.736	588.12
430.958	590.12
431.18	565.12
431.402	566.12
431.624	539.12
431.846	546.12
432.068	546.12
432.29	543.12
432.512	545.12
432.734	551.12
432.956	556.12
433.178	561.12
433.4	574.12
433.622	555.12
433.844	552.12
434.066	509.12
434.287	544.12
434.509	551.12
434.731	554.12
434.953	566.12
435.175	560.12
435.397	625.12
435.618	634.12
435.84	644.12
436.062	785.12
436.284	840.12
436.505	709.12
436.727	628.12
436.949	601.12
437.17	575.12
437.392	573.12
437.614	615.12
437.835	641.12
438.057	748.12
438.278	852.12
438.5	857.12
438.721	925.12
438.943	857.12
439.165	708.12
439.386	657.12
439.608	638.12
439.829	644.12
440.05	681.12
440.272	728.12
440.493	679.12
440.715	608.12
440.936	601.12
441.158	599.12
441.379	583.12
441.6	605.12
441.822	629.12
442.043	668.12
442.264	745.12
442.486	768.12
442.707	677.12
442.928	674.12
443.149	652.12
443.371	672.12
443.592	696.12
443.813	814.12
444.034	854.12
444.255	732.12
444.476	632.12
444.698	612.12
444.919	624.12
445.14	751.12
445.361	678.12
445.582	665.12
445.803	752.12
446.024	854.12
446.245	863.12
446.466	799.12
446.687	715.12
446.908	644.12
447.129	614.12
447.35	599.12
447.571	600.12
447.792	598.12
448.013	590.12
448.234	612.12
448.455	674.12
448.675	780.12
448.896	900.12
449.117	798.12
449.338	743.12
449.559	812.12
449.779	916.12
450	793.12
450.221	666.12
450.442	622.12
450.662	575.12
450.883	603.12
451.104	594.12
451.324	569.12
451.545	578.12
451.766	550.12
451.986	534.12
452.207	526.12
452.428	537.12
452.648	525.12
452.869	520.12
453.089	534.12
453.31	558.12
453.53	546.12
453.751	538.12
453.971	524.12
454.192	563.12
454.412	555.12
454.633	534.12
454.853	518.12
455.073	525.12
455.294	545.12
455.514	637.12
455.734	636.12
455.955	536.12
456.175	512.12
456.395	494.12
456.616	493.12
456.836	488.12
457.056	475.12
457.276	454.12
457.497	490.12
457.717	497.12
457.937	488.12
458.157	496.12
458.377	499.12
458.598	547.12
458.818	621.12
459.038	721.12
459.258	750.12
459.478	624.12
459.698	538.12
459.918	566.12
460.138	527.12
460.358	536.12
460.578	526.12
460.798	534.12
461.018	538.12
461.238	521.12
461.458	534.12
461.678	518.12
461.898	507.12
462.118	529.12
462.338	530.12
462.558	542.12
462.777	537.12
462.997	565.12
463.217	565.12
463.437	549.12
463.657	556.12
463.876	540.12
464.096	579.12
464.316	582.12
464.536	571.12
464.755	568.12
464.975	567.12
465.195	657.12
465.414	753.12
465.634	648.12
465.854	588.12
466.073	580.12
466.293	549.12
466.512	552.12
466.732	535.12
466.951	530.12
467.171	529.12
467.391	531.12
467.61	551.12
467.829	568.12
468.049	568.12
468.268	535.12
468.488	551.12
468.707	518.12
468.927	508.12
469.146	506.12
469.365	520.12
469.585	511.12
469.804	537.12
470.023	547.12
470.243	538.12
470.462	557.12
470.681	578.12
470.901	551.12
471.12	550.12
471.339	559.12
471.558	542.12
471.777	554.12
471.997	546.12
472.216	541.12
472.435	600.12
472.654	595.12
472.873	564.12
473.092	535.12
473.311	522.12
473.53	548.12
473.749	560.12
473.968	601.12
474.187	730.12
474.406	745.12
474.625	630.12
474.844	592.12
475.063	560.12
475.282	552.12
475.501	543.12
475.72	556.12
475.939	541.12
476.158	553.12
476.377	564.12
476.596	561.12
476.814	556.12
477.033	580.12
477.252	581.12
477.471	569.12
477.69	567.12
477.908	577.12
478.127	592.12
478.346	586.12
478.564	586.12
478.783	614.12
479.002	596.12
479.22	605.12
479.439	612.12
479.658	631.12
479.876	629.12
480.095	648.12
480.313	720.12
480.532	669.12
480.751	668.12
480.969	710.12
481.188	762.12
481.406	839.12
481.624	719.12
481.843	673.12
482.061	664.12
482.28	658.12
482.498	631.12
482.717	663.12
482.935	658.12
483.153	650.12
483.372	632.12
483.59	639.12
483.808	654.12
484.027	650.12
484.245	653.12
484.463	632.12
484.681	655.12
484.9	653.12
485.118	679.12
485.336	673.12
485.554	662.12
485.772	657.12
485.99	664.12
486.209	658.12
486.427	677.12
486.645	692.12
486.863	726.12
487.081	728.12
487.299	703.12
487.517	698.12
487.735	700.12
487.953	709.12
488.171	710.12
488.389	710.12
488.607	696.12
488.825	705.12
489.043	689.12
489.261	729.12
489.479	710.12
489.696	703.12
489.914	724.12
490.132	696.12
490.35	734.12
490.568	759.12
490.786	779.12
491.003	786.12
491.221	785.12
491.439	805.12
491.657	839.12
491.874	822.12
492.092	815.12
492.31	838.12
492.527	831.12
492.745	850.12
492.963	851.12
493.18	857.12
493.398	842.12
493.615	819.12
493.833	843.12
494.05	854.12
494.268	858.12
494.485	864.12
494.703	841.12
494.92	867.12
495.138	834.12
495.355	840.12
495.573	847.12
495.79	860.12
496.008	829.12
496.225	855.12
496.442	840.12
496.66	847.12
496.877	838.12
497.094	870.12
497.312	868.12
497.529	862.12
497.746	861.12
497.963	864.12
498.181	878.12
498.398	903.12
498.615	912.12
498.832	923.12
499.049	901.12
499.267	942.12
499.484	963.12
499.701	978.12
499.918	969.12
500.135	1000.12
500.352	1047.12
500.569	1053.12
500.786	1034.12
501.003	1034.12
501.22	1015.12
501.437	1005.12
501.654	1025.12
