Data from 1970.PennyLincolnUp.Lamp.En5.5.200Scan.071719.P1._HRD10591_15-13-36-843.txt Node
Date: Thu Jul 18 15:13:36 EDT 2019
User: cochatt
Spectrometer: HR+D1059
Trigger mode: 1
Integration Time (sec): 1.000000E-1
Scans to average: 1
Electric dark correction enabled: true
Nonlinearity correction enabled: false
Boxcar width: 0
XAxis mode: Wavelengths
Number of Pixels in Spectrum: 2048
>>>>>Begin Spectral Data<<<<<
223.165	-12.06
223.4	-12.06
223.635	-12.06
223.869	-22.06
224.104	-17.06
224.338	-10.06
224.573	-7.06
224.808	-16.06
225.042	-12.06
225.277	-3.06
225.511	4.94
225.746	12.94
225.98	-2.06
226.215	13.94
226.449	4.94
226.683	18.94
226.918	21.94
227.152	23.94
227.387	24.94
227.621	37.94
227.856	44.94
228.09	40.94
228.324	32.94
228.559	50.94
228.793	54.94
229.027	84.94
229.262	95.94
229.496	99.94
229.73	129.94
229.964	170.94
230.199	126.94
230.433	134.94
230.667	115.94
230.901	119.94
231.136	104.94
231.37	111.94
231.604	116.94
231.838	116.94
232.072	104.94
232.306	117.94
232.541	111.94
232.775	111.94
233.009	104.94
233.243	109.94
233.477	104.94
233.711	105.94
233.945	119.94
234.179	119.94
234.413	100.94
234.647	115.94
234.881	115.94
235.115	114.94
235.349	119.94
235.583	135.94
235.817	109.94
236.051	111.94
236.285	116.94
236.519	122.94
236.753	129.94
236.987	128.94
237.221	186.94
237.455	241.94
237.689	192.94
237.922	139.94
238.156	124.94
238.39	122.94
238.624	127.94
238.858	117.94
239.091	121.94
239.325	129.94
239.559	112.94
239.793	117.94
240.027	124.94
240.26	130.94
240.494	145.94
240.728	157.94
240.961	151.94
241.195	143.94
241.429	151.94
241.662	134.94
241.896	142.94
242.13	136.94
242.363	135.94
242.597	116.94
242.83	138.94
243.064	140.94
243.298	128.94
243.531	132.94
243.765	140.94
243.998	120.94
244.232	142.94
244.465	140.94
244.699	150.94
244.932	129.94
245.166	136.94
245.399	152.94
245.633	142.94
245.866	141.94
246.099	155.94
246.333	153.94
246.566	152.94
246.8	162.94
247.033	164.94
247.266	155.94
247.5	166.94
247.733	165.94
247.966	173.94
248.2	147.94
248.433	169.94
248.666	172.94
248.899	197.94
249.133	188.94
249.366	209.94
249.599	193.94
249.832	178.94
250.066	181.94
250.299	199.94
250.532	194.94
250.765	197.94
250.998	218.94
251.231	220.94
251.465	214.94
251.698	221.94
251.931	215.94
252.164	187.94
252.397	216.94
252.63	211.94
252.863	209.94
253.096	219.94
253.329	232.94
253.562	196.94
253.795	216.94
254.028	219.94
254.261	233.94
254.494	232.94
254.727	276.94
254.96	278.94
255.193	263.94
255.426	253.94
255.659	228.94
255.892	221.94
256.124	237.94
256.357	245.94
256.59	218.94
256.823	214.94
257.056	205.94
257.289	220.94
257.521	217.94
257.754	225.94
257.987	216.94
258.22	214.94
258.452	202.94
258.685	207.94
258.918	200.94
259.151	195.94
259.383	210.94
259.616	225.94
259.849	242.94
260.081	227.94
260.314	237.94
260.547	254.94
260.779	235.94
261.012	247.94
261.244	229.94
261.477	230.94
261.71	230.94
261.942	229.94
262.175	224.94
262.407	217.94
262.64	225.94
262.872	218.94
263.105	205.94
263.337	202.94
263.57	204.94
263.802	195.94
264.035	208.94
264.267	217.94
264.499	208.94
264.732	194.94
264.964	198.94
265.197	205.94
265.429	210.94
265.661	183.94
265.894	199.94
266.126	205.94
266.358	195.94
266.591	190.94
266.823	207.94
267.055	215.94
267.287	211.94
267.52	225.94
267.752	211.94
267.984	219.94
268.216	226.94
268.448	236.94
268.681	223.94
268.913	228.94
269.145	219.94
269.377	249.94
269.609	259.94
269.841	260.94
270.073	270.94
270.306	275.94
270.538	300.94
270.77	298.94
271.002	293.94
271.234	280.94
271.466	287.94
271.698	287.94
271.93	297.94
272.162	282.94
272.394	301.94
272.626	281.94
272.858	274.94
273.09	263.94
273.322	264.94
273.553	258.94
273.785	246.94
274.017	247.94
274.249	269.94
274.481	239.94
274.713	250.94
274.945	239.94
275.176	232.94
275.408	239.94
275.64	235.94
275.872	241.94
276.104	232.94
276.335	267.94
276.567	244.94
276.799	261.94
277.031	284.94
277.262	282.94
277.494	284.94
277.726	280.94
277.957	268.94
278.189	257.94
278.421	251.94
278.652	258.94
278.884	248.94
279.115	242.94
279.347	231.94
279.579	243.94
279.81	236.94
280.042	241.94
280.273	240.94
280.505	242.94
280.736	253.94
280.968	235.94
281.199	218.94
281.431	237.94
281.662	232.94
281.894	250.94
282.125	253.94
282.356	270.94
282.588	287.94
282.819	298.94
283.051	232.94
283.282	261.94
283.513	228.94
283.745	241.94
283.976	255.94
284.207	234.94
284.439	236.94
284.67	237.94
284.901	241.94
285.132	243.94
285.364	241.94
285.595	243.94
285.826	235.94
286.057	257.94
286.288	255.94
286.52	269.94
286.751	238.94
286.982	232.94
287.213	249.94
287.444	267.94
287.675	264.94
287.906	262.94
288.138	272.94
288.369	268.94
288.6	263.94
288.831	256.94
289.062	268.94
289.293	272.94
289.524	242.94
289.755	253.94
289.986	250.94
290.217	252.94
290.448	247.94
290.679	259.94
290.91	261.94
291.141	229.94
291.371	255.94
291.602	258.94
291.833	249.94
292.064	260.94
292.295	245.94
292.526	259.94
292.757	266.94
292.987	267.94
293.218	246.94
293.449	263.94
293.68	257.94
293.91	261.94
294.141	253.94
294.372	246.94
294.603	237.94
294.833	258.94
295.064	255.94
295.295	263.94
295.525	263.94
295.756	283.94
295.987	262.94
296.217	283.94
296.448	304.94
296.679	284.94
296.909	260.94
297.14	253.94
297.37	243.94
297.601	266.94
297.831	264.94
298.062	260.94
298.292	271.94
298.523	254.94
298.753	272.94
298.984	259.94
299.214	279.94
299.445	283.94
299.675	276.94
299.905	282.94
300.136	278.94
300.366	248.94
300.597	283.94
300.827	298.94
301.057	275.94
301.288	291.94
301.518	280.94
301.748	277.94
301.979	288.94
302.209	284.94
302.439	284.94
302.669	287.94
302.9	282.94
303.13	286.94
303.36	294.94
303.59	291.94
303.82	308.94
304.051	292.94
304.281	300.94
304.511	271.94
304.741	263.94
304.971	291.94
305.201	291.94
305.431	285.94
305.661	298.94
305.891	295.94
306.121	304.94
306.352	297.94
306.582	309.94
306.812	292.94
307.042	299.94
307.272	287.94
307.502	307.94
307.731	295.94
307.961	291.94
308.191	288.94
308.421	301.94
308.651	298.94
308.881	307.94
309.111	314.94
309.341	304.94
309.571	324.94
309.8	323.94
310.03	315.94
310.26	332.94
310.49	330.94
310.72	344.94
310.949	354.94
311.179	349.94
311.409	329.94
311.639	335.94
311.868	333.94
312.098	324.94
312.328	345.94
312.557	371.94
312.787	356.94
313.017	355.94
313.246	360.94
313.476	331.94
313.706	333.94
313.935	331.94
314.165	347.94
314.394	369.94
314.624	357.94
314.853	356.94
315.083	345.94
315.312	334.94
315.542	358.94
315.771	307.94
316.001	325.94
316.23	316.94
316.46	325.94
316.689	336.94
316.919	330.94
317.148	356.94
317.377	350.94
317.607	337.94
317.836	328.94
318.065	323.94
318.295	327.94
318.524	351.94
318.753	321.94
318.983	338.94
319.212	342.94
319.441	342.94
319.67	364.94
319.9	346.94
320.129	334.94
320.358	349.94
320.587	334.94
320.816	351.94
321.046	374.94
321.275	363.94
321.504	348.94
321.733	353.94
321.962	360.94
322.191	383.94
322.42	409.94
322.649	417.94
322.878	406.94
323.108	416.94
323.337	440.94
323.566	461.94
323.795	504.94
324.024	521.94
324.253	643.94
324.482	947.94
324.71	1377.94
324.939	1975.94
325.168	1707.94
325.397	943.94
325.626	626.94
325.855	531.94
326.084	495.94
326.313	465.94
326.542	457.94
326.77	533.94
326.999	581.94
327.228	818.94
327.457	1209.94
327.686	1467.94
327.914	994.94
328.143	694.94
328.372	625.94
328.6	584.94
328.829	521.94
329.058	548.94
329.287	561.94
329.515	499.94
329.744	472.94
329.972	465.94
330.201	511.94
330.43	533.94
330.658	545.94
330.887	572.94
331.115	581.94
331.344	509.94
331.572	449.94
331.801	448.94
332.03	442.94
332.258	430.94
332.486	405.94
332.715	407.94
332.943	401.94
333.172	408.94
333.4	386.94
333.629	418.94
333.857	424.94
334.085	438.94
334.314	451.94
334.542	471.94
334.771	488.94
334.999	450.94
335.227	431.94
335.455	407.94
335.684	412.94
335.912	383.94
336.14	400.94
336.369	394.94
336.597	403.94
336.825	390.94
337.053	425.94
337.281	405.94
337.51	402.94
337.738	394.94
337.966	383.94
338.194	412.94
338.422	388.94
338.65	386.94
338.878	374.94
339.106	371.94
339.334	378.94
339.562	377.94
339.79	375.94
340.018	371.94
340.246	360.94
340.474	397.94
340.702	402.94
340.93	392.94
341.158	377.94
341.386	381.94
341.614	410.94
341.842	381.94
342.07	390.94
342.298	407.94
342.526	371.94
342.754	367.94
342.981	373.94
343.209	362.94
343.437	369.94
343.665	359.94
343.893	403.94
344.12	391.94
344.348	388.94
344.576	377.94
344.804	413.94
345.031	405.94
345.259	393.94
345.487	392.94
345.714	400.94
345.942	387.94
346.17	377.94
346.397	387.94
346.625	382.94
346.853	390.94
347.08	386.94
347.308	389.94
347.535	391.94
347.763	393.94
347.99	384.94
348.218	394.94
348.445	406.94
348.673	399.94
348.9	387.94
349.128	383.94
349.355	380.94
349.583	371.94
349.81	378.94
350.037	386.94
350.265	372.94
350.492	382.94
350.72	386.94
350.947	372.94
351.174	380.94
351.402	390.94
351.629	393.94
351.856	415.94
352.083	403.94
352.311	396.94
352.538	420.94
352.765	388.94
352.992	390.94
353.22	388.94
353.447	391.94
353.674	383.94
353.901	396.94
354.128	390.94
354.355	367.94
354.583	383.94
354.81	360.94
355.037	361.94
355.264	361.94
355.491	375.94
355.718	357.94
355.945	364.94
356.172	342.94
356.399	342.94
356.626	349.94
356.853	343.94
357.08	353.94
357.307	363.94
357.534	379.94
357.761	343.94
357.988	381.94
358.215	385.94
358.441	358.94
358.668	370.94
358.895	368.94
359.122	368.94
359.349	386.94
359.576	390.94
359.802	431.94
360.029	436.94
360.256	445.94
360.483	432.94
360.709	377.94
360.936	394.94
361.163	379.94
361.39	390.94
361.616	398.94
361.843	397.94
362.07	384.94
362.296	402.94
362.523	389.94
362.749	381.94
362.976	395.94
363.203	372.94
363.429	361.94
363.656	367.94
363.882	373.94
364.109	368.94
364.335	395.94
364.562	364.94
364.788	357.94
365.015	375.94
365.241	371.94
365.468	380.94
365.694	375.94
365.92	391.94
366.147	382.94
366.373	387.94
366.599	367.94
366.826	353.94
367.052	389.94
367.278	384.94
367.505	381.94
367.731	395.94
367.957	379.94
368.184	383.94
368.41	381.94
368.636	391.94
368.862	389.94
369.089	391.94
369.315	400.94
369.541	393.94
369.767	396.94
369.993	380.94
370.219	375.94
370.445	380.94
370.672	401.94
370.898	363.94
371.124	376.94
371.35	385.94
371.576	372.94
371.802	379.94
372.028	365.94
372.254	395.94
372.48	359.94
372.706	376.94
372.932	383.94
373.158	377.94
373.384	377.94
373.61	376.94
373.835	383.94
374.061	384.94
374.287	387.94
374.513	381.94
374.739	398.94
374.965	381.94
375.191	403.94
375.416	381.94
375.642	375.94
375.868	396.94
376.094	388.94
376.319	372.94
376.545	377.94
376.771	386.94
376.997	372.94
377.222	377.94
377.448	383.94
377.674	389.94
377.899	366.94
378.125	361.94
378.35	381.94
378.576	375.94
378.802	362.94
379.027	379.94
379.253	367.94
379.478	392.94
379.704	375.94
379.929	384.94
380.155	381.94
380.38	382.94
380.606	387.94
380.831	380.94
381.057	396.94
381.282	376.94
381.507	371.94
381.733	401.94
381.958	383.94
382.184	365.94
382.409	390.94
382.634	387.94
382.86	387.94
383.085	392.94
383.31	377.94
383.535	386.94
383.761	406.94
383.986	410.94
384.211	406.94
384.436	381.94
384.662	378.94
384.887	396.94
385.112	383.94
385.337	391.94
385.562	394.94
385.787	391.94
386.013	401.94
386.238	407.94
386.463	417.94
386.688	406.94
386.913	389.94
387.138	385.94
387.363	410.94
387.588	419.94
387.813	400.94
388.038	413.94
388.263	411.94
388.488	408.94
388.713	390.94
388.938	414.94
389.163	409.94
389.387	396.94
389.612	398.94
389.837	411.94
390.062	423.94
390.287	410.94
390.512	397.94
390.736	413.94
390.961	407.94
391.186	406.94
391.411	396.94
391.636	431.94
391.86	433.94
392.085	424.94
392.31	412.94
392.534	411.94
392.759	411.94
392.984	421.94
393.208	425.94
393.433	444.94
393.658	426.94
393.882	414.94
394.107	399.94
394.331	418.94
394.556	408.94
394.78	402.94
395.005	418.94
395.229	423.94
395.454	431.94
395.678	419.94
395.903	434.94
396.127	433.94
396.352	464.94
396.576	449.94
396.801	436.94
397.025	435.94
397.249	456.94
397.474	453.94
397.698	438.94
397.922	447.94
398.147	459.94
398.371	467.94
398.595	450.94
398.82	468.94
399.044	461.94
399.268	482.94
399.492	487.94
399.717	509.94
399.941	529.94
400.165	559.94
400.389	566.94
400.613	510.94
400.837	483.94
401.062	472.94
401.286	469.94
401.51	470.94
401.734	478.94
401.958	461.94
402.182	467.94
402.406	492.94
402.63	491.94
402.854	488.94
403.078	462.94
403.302	487.94
403.526	483.94
403.75	490.94
403.974	476.94
404.198	470.94
404.422	487.94
404.645	500.94
404.869	511.94
405.093	546.94
405.317	554.94
405.541	569.94
405.765	555.94
405.988	496.94
406.212	531.94
406.436	556.94
406.66	544.94
406.883	535.94
407.107	541.94
407.331	602.94
407.555	636.94
407.778	645.94
408.002	592.94
408.226	537.94
408.449	563.94
408.673	544.94
408.896	577.94
409.12	589.94
409.344	597.94
409.567	529.94
409.791	511.94
410.014	495.94
410.238	508.94
410.461	502.94
410.685	508.94
410.908	500.94
411.132	531.94
411.355	582.94
411.578	545.94
411.802	536.94
412.025	515.94
412.249	520.94
412.472	533.94
412.695	549.94
412.919	557.94
413.142	512.94
413.365	496.94
413.589	486.94
413.812	482.94
414.035	483.94
414.258	481.94
414.482	492.94
414.705	473.94
414.928	463.94
415.151	471.94
415.374	471.94
415.597	475.94
415.821	449.94
416.044	458.94
416.267	462.94
416.49	470.94
416.713	456.94
416.936	466.94
417.159	467.94
417.382	475.94
417.605	468.94
417.828	511.94
418.051	503.94
418.274	516.94
418.497	467.94
418.72	467.94
418.943	481.94
419.166	493.94
419.389	513.94
419.611	509.94
419.834	498.94
420.057	498.94
420.28	491.94
420.503	502.94
420.726	502.94
420.948	521.94
421.171	556.94
421.394	578.94
421.617	500.94
421.839	483.94
422.062	509.94
422.285	537.94
422.507	576.94
422.73	623.94
422.953	631.94
423.175	545.94
423.398	546.94
423.621	515.94
423.843	546.94
424.066	531.94
424.288	547.94
424.511	561.94
424.733	632.94
424.956	693.94
425.178	673.94
425.401	650.94
425.623	692.94
425.846	599.94
426.068	572.94
426.291	549.94
426.513	563.94
426.735	568.94
426.958	592.94
427.18	674.94
427.402	791.94
427.625	859.94
427.847	772.94
428.069	666.94
428.292	609.94
428.514	547.94
428.736	540.94
428.958	545.94
429.181	488.94
429.403	518.94
429.625	517.94
429.847	575.94
430.069	628.94
430.292	601.94
430.514	526.94
430.736	515.94
430.958	512.94
431.18	483.94
431.402	479.94
431.624	475.94
431.846	496.94
432.068	471.94
432.29	488.94
432.512	499.94
432.734	482.94
432.956	480.94
433.178	481.94
433.4	504.94
433.622	487.94
433.844	499.94
434.066	460.94
434.287	472.94
434.509	462.94
434.731	495.94
434.953	504.94
435.175	527.94
435.397	547.94
435.618	566.94
435.84	573.94
436.062	677.94
436.284	746.94
436.505	623.94
436.727	571.94
436.949	535.94
437.17	512.94
437.392	521.94
437.614	551.94
437.835	586.94
438.057	667.94
438.278	732.94
438.5	748.94
438.721	787.94
438.943	775.94
439.165	634.94
439.386	580.94
439.608	562.94
439.829	587.94
440.05	604.94
440.272	644.94
440.493	588.94
440.715	568.94
440.936	531.94
441.158	545.94
441.379	516.94
441.6	530.94
441.822	564.94
442.043	583.94
442.264	671.94
442.486	707.94
442.707	630.94
442.928	574.94
443.149	575.94
443.371	586.94
443.592	632.94
443.813	707.94
444.034	785.94
444.255	665.94
444.476	596.94
444.698	552.94
444.919	533.94
445.14	648.94
445.361	607.94
445.582	590.94
445.803	649.94
446.024	741.94
446.245	736.94
446.466	689.94
446.687	595.94
446.908	570.94
447.129	521.94
447.35	513.94
447.571	520.94
447.792	498.94
448.013	509.94
448.234	534.94
448.455	580.94
448.675	698.94
448.896	786.94
449.117	691.94
449.338	659.94
449.559	728.94
449.779	824.94
450	693.94
450.221	597.94
450.442	545.94
450.662	516.94
450.883	537.94
451.104	535.94
451.324	509.94
451.545	485.94
451.766	475.94
451.986	472.94
452.207	456.94
452.428	465.94
452.648	469.94
452.869	459.94
453.089	469.94
453.31	470.94
453.53	471.94
453.751	464.94
453.971	455.94
454.192	486.94
454.412	456.94
454.633	462.94
454.853	455.94
455.073	453.94
455.294	481.94
455.514	544.94
455.734	544.94
455.955	457.94
456.175	458.94
456.395	450.94
456.616	426.94
456.836	442.94
457.056	409.94
457.276	427.94
457.497	405.94
457.717	422.94
457.937	430.94
458.157	443.94
458.377	464.94
458.598	463.94
458.818	530.94
459.038	618.94
459.258	638.94
459.478	538.94
459.698	513.94
459.918	490.94
460.138	476.94
460.358	500.94
460.578	476.94
460.798	474.94
461.018	468.94
461.238	462.94
461.458	476.94
461.678	469.94
461.898	465.94
462.118	461.94
462.338	497.94
462.558	468.94
462.777	488.94
462.997	495.94
463.217	515.94
463.437	503.94
463.657	480.94
463.876	513.94
464.096	504.94
464.316	500.94
464.536	489.94
464.755	530.94
464.975	500.94
465.195	535.94
465.414	657.94
465.634	572.94
465.854	505.94
466.073	520.94
466.293	453.94
466.512	467.94
466.732	461.94
466.951	445.94
467.171	472.94
467.391	464.94
467.61	486.94
467.829	490.94
468.049	501.94
468.268	514.94
468.488	464.94
468.707	444.94
468.927	471.94
469.146	461.94
469.365	484.94
469.585	420.94
469.804	445.94
470.023	465.94
470.243	457.94
470.462	489.94
470.681	489.94
470.901	495.94
471.12	476.94
471.339	455.94
471.558	503.94
471.777	475.94
471.997	476.94
472.216	488.94
472.435	512.94
472.654	509.94
472.873	476.94
473.092	473.94
473.311	471.94
473.53	458.94
473.749	501.94
473.968	497.94
474.187	625.94
474.406	644.94
474.625	546.94
474.844	472.94
475.063	496.94
475.282	503.94
475.501	490.94
475.72	493.94
475.939	499.94
476.158	496.94
476.377	490.94
476.596	499.94
476.814	485.94
477.033	518.94
477.252	509.94
477.471	513.94
477.69	512.94
477.908	520.94
478.127	515.94
478.346	496.94
478.564	535.94
478.783	541.94
479.002	536.94
479.22	554.94
479.439	569.94
479.658	589.94
479.876	599.94
480.095	579.94
480.313	589.94
480.532	595.94
480.751	554.94
480.969	582.94
481.188	655.94
481.406	691.94
481.624	626.94
481.843	614.94
482.061	586.94
482.28	589.94
482.498	568.94
482.717	559.94
482.935	564.94
483.153	574.94
483.372	557.94
483.59	603.94
483.808	571.94
484.027	584.94
484.245	565.94
484.463	573.94
484.681	588.94
484.9	588.94
485.118	588.94
485.336	573.94
485.554	601.94
485.772	589.94
485.99	615.94
486.209	570.94
486.427	587.94
486.645	629.94
486.863	624.94
487.081	635.94
487.299	617.94
487.517	615.94
487.735	606.94
487.953	626.94
488.171	642.94
488.389	627.94
488.607	626.94
488.825	642.94
489.043	608.94
489.261	641.94
489.479	647.94
489.696	613.94
489.914	649.94
490.132	643.94
490.35	653.94
490.568	661.94
490.786	651.94
491.003	669.94
491.221	687.94
491.439	690.94
491.657	735.94
491.874	719.94
492.092	723.94
492.31	713.94
492.527	714.94
492.745	715.94
492.963	731.94
493.18	736.94
493.398	707.94
493.615	755.94
493.833	742.94
494.05	757.94
494.268	770.94
494.485	755.94
494.703	740.94
494.92	759.94
495.138	743.94
495.355	782.94
495.573	757.94
495.79	735.94
496.008	755.94
496.225	753.94
496.442	735.94
496.66	745.94
496.877	755.94
497.094	748.94
497.312	763.94
497.529	782.94
497.746	754.94
497.963	748.94
498.181	773.94
498.398	803.94
498.615	805.94
498.832	796.94
499.049	815.94
499.267	830.94
499.484	843.94
499.701	862.94
499.918	867.94
500.135	922.94
500.352	917.94
500.569	908.94
500.786	957.94
501.003	940.94
501.22	918.94
501.437	942.94
501.654	870.94
501.871	897.94
