Data from 1970.PennyLincolnUp.Lamp.En5.5.200Scan.071719.P1._HRD10591_15-13-24-843.txt Node
Date: Thu Jul 18 15:13:24 EDT 2019
User: cochatt
Spectrometer: HR+D1059
Trigger mode: 1
Integration Time (sec): 1.000000E-1
Scans to average: 1
Electric dark correction enabled: true
Nonlinearity correction enabled: false
Boxcar width: 0
XAxis mode: Wavelengths
Number of Pixels in Spectrum: 2048
>>>>>Begin Spectral Data<<<<<
223.165	-8.62
223.4	-8.62
223.635	-8.62
223.869	-21.62
224.104	-22.62
224.338	-10.62
224.573	-31.62
224.808	-7.62
225.042	-11.62
225.277	-17.62
225.511	3.38
225.746	2.38
225.98	6.38
226.215	7.38
226.449	27.38
226.683	26.38
226.918	27.38
227.152	31.38
227.387	33.38
227.621	39.38
227.856	38.38
228.09	47.38
228.324	53.38
228.559	63.38
228.793	78.38
229.027	99.38
229.262	106.38
229.496	111.38
229.73	135.38
229.964	153.38
230.199	127.38
230.433	129.38
230.667	118.38
230.901	108.38
231.136	106.38
231.37	100.38
231.604	100.38
231.838	124.38
232.072	99.38
232.306	127.38
232.541	114.38
232.775	109.38
233.009	120.38
233.243	113.38
233.477	113.38
233.711	123.38
233.945	121.38
234.179	126.38
234.413	118.38
234.647	119.38
234.881	109.38
235.115	110.38
235.349	111.38
235.583	97.38
235.817	125.38
236.051	105.38
236.285	117.38
236.519	118.38
236.753	118.38
236.987	131.38
237.221	183.38
237.455	217.38
237.689	195.38
237.922	138.38
238.156	150.38
238.39	120.38
238.624	136.38
238.858	119.38
239.091	130.38
239.325	127.38
239.559	124.38
239.793	113.38
240.027	123.38
240.26	127.38
240.494	156.38
240.728	136.38
240.961	152.38
241.195	155.38
241.429	132.38
241.662	135.38
241.896	128.38
242.13	123.38
242.363	128.38
242.597	137.38
242.83	128.38
243.064	135.38
243.298	129.38
243.531	138.38
243.765	133.38
243.998	130.38
244.232	129.38
244.465	154.38
244.699	152.38
244.932	158.38
245.166	151.38
245.399	141.38
245.633	160.38
245.866	146.38
246.099	157.38
246.333	147.38
246.566	152.38
246.8	145.38
247.033	160.38
247.266	157.38
247.5	158.38
247.733	158.38
247.966	172.38
248.2	168.38
248.433	170.38
248.666	186.38
248.899	181.38
249.133	196.38
249.366	195.38
249.599	194.38
249.832	171.38
250.066	176.38
250.299	189.38
250.532	185.38
250.765	210.38
250.998	211.38
251.231	207.38
251.465	211.38
251.698	203.38
251.931	202.38
252.164	207.38
252.397	202.38
252.63	199.38
252.863	206.38
253.096	215.38
253.329	218.38
253.562	227.38
253.795	230.38
254.028	197.38
254.261	212.38
254.494	225.38
254.727	235.38
254.96	264.38
255.193	279.38
255.426	231.38
255.659	231.38
255.892	227.38
256.124	220.38
256.357	230.38
256.59	224.38
256.823	216.38
257.056	212.38
257.289	199.38
257.521	204.38
257.754	202.38
257.987	206.38
258.22	188.38
258.452	212.38
258.685	217.38
258.918	215.38
259.151	196.38
259.383	223.38
259.616	209.38
259.849	213.38
260.081	216.38
260.314	236.38
260.547	246.38
260.779	241.38
261.012	221.38
261.244	217.38
261.477	207.38
261.71	216.38
261.942	213.38
262.175	228.38
262.407	229.38
262.64	192.38
262.872	189.38
263.105	198.38
263.337	215.38
263.57	181.38
263.802	202.38
264.035	192.38
264.267	188.38
264.499	204.38
264.732	215.38
264.964	200.38
265.197	181.38
265.429	189.38
265.661	198.38
265.894	215.38
266.126	205.38
266.358	205.38
266.591	198.38
266.823	205.38
267.055	187.38
267.287	210.38
267.52	208.38
267.752	211.38
267.984	202.38
268.216	204.38
268.448	213.38
268.681	215.38
268.913	220.38
269.145	237.38
269.377	250.38
269.609	243.38
269.841	245.38
270.073	250.38
270.306	264.38
270.538	283.38
270.77	266.38
271.002	257.38
271.234	264.38
271.466	268.38
271.698	292.38
271.93	301.38
272.162	289.38
272.394	282.38
272.626	265.38
272.858	253.38
273.09	264.38
273.322	243.38
273.553	238.38
273.785	237.38
274.017	235.38
274.249	244.38
274.481	240.38
274.713	233.38
274.945	239.38
275.176	231.38
275.408	225.38
275.64	229.38
275.872	230.38
276.104	233.38
276.335	254.38
276.567	240.38
276.799	246.38
277.031	271.38
277.262	267.38
277.494	291.38
277.726	267.38
277.957	276.38
278.189	259.38
278.421	225.38
278.652	228.38
278.884	219.38
279.115	229.38
279.347	223.38
279.579	239.38
279.81	254.38
280.042	235.38
280.273	240.38
280.505	256.38
280.736	235.38
280.968	232.38
281.199	219.38
281.431	223.38
281.662	220.38
281.894	237.38
282.125	234.38
282.356	265.38
282.588	272.38
282.819	264.38
283.051	243.38
283.282	224.38
283.513	234.38
283.745	236.38
283.976	227.38
284.207	234.38
284.439	244.38
284.67	253.38
284.901	245.38
285.132	229.38
285.364	239.38
285.595	226.38
285.826	240.38
286.057	228.38
286.288	229.38
286.52	235.38
286.751	242.38
286.982	239.38
287.213	235.38
287.444	243.38
287.675	260.38
287.906	256.38
288.138	262.38
288.369	262.38
288.6	271.38
288.831	239.38
289.062	238.38
289.293	247.38
289.524	231.38
289.755	267.38
289.986	239.38
290.217	240.38
290.448	256.38
290.679	240.38
290.91	239.38
291.141	251.38
291.371	243.38
291.602	252.38
291.833	246.38
292.064	239.38
292.295	246.38
292.526	247.38
292.757	263.38
292.987	245.38
293.218	240.38
293.449	250.38
293.68	240.38
293.91	235.38
294.141	251.38
294.372	232.38
294.603	238.38
294.833	250.38
295.064	236.38
295.295	251.38
295.525	235.38
295.756	256.38
295.987	266.38
296.217	273.38
296.448	273.38
296.679	268.38
296.909	248.38
297.14	257.38
297.37	256.38
297.601	255.38
297.831	266.38
298.062	253.38
298.292	255.38
298.523	244.38
298.753	265.38
298.984	254.38
299.214	255.38
299.445	270.38
299.675	269.38
299.905	260.38
300.136	277.38
300.366	251.38
300.597	255.38
300.827	277.38
301.057	276.38
301.288	276.38
301.518	280.38
301.748	284.38
301.979	265.38
302.209	263.38
302.439	278.38
302.669	252.38
302.9	265.38
303.13	279.38
303.36	281.38
303.59	290.38
303.82	272.38
304.051	273.38
304.281	277.38
304.511	281.38
304.741	277.38
304.971	273.38
305.201	264.38
305.431	266.38
305.661	277.38
305.891	270.38
306.121	277.38
306.352	279.38
306.582	274.38
306.812	303.38
307.042	288.38
307.272	272.38
307.502	288.38
307.731	289.38
307.961	292.38
308.191	290.38
308.421	279.38
308.651	274.38
308.881	279.38
309.111	302.38
309.341	285.38
309.571	298.38
309.8	295.38
310.03	314.38
310.26	295.38
310.49	316.38
310.72	326.38
310.949	333.38
311.179	334.38
311.409	316.38
311.639	313.38
311.868	338.38
312.098	328.38
312.328	334.38
312.557	330.38
312.787	348.38
313.017	346.38
313.246	324.38
313.476	336.38
313.706	311.38
313.935	323.38
314.165	329.38
314.394	349.38
314.624	334.38
314.853	330.38
315.083	336.38
315.312	332.38
315.542	304.38
315.771	310.38
316.001	321.38
316.23	311.38
316.46	334.38
316.689	314.38
316.919	332.38
317.148	323.38
317.377	326.38
317.607	328.38
317.836	319.38
318.065	328.38
318.295	310.38
318.524	308.38
318.753	347.38
318.983	315.38
319.212	324.38
319.441	333.38
319.67	333.38
319.9	314.38
320.129	345.38
320.358	320.38
320.587	351.38
320.816	320.38
321.046	335.38
321.275	352.38
321.504	359.38
321.733	349.38
321.962	364.38
322.191	347.38
322.42	371.38
322.649	376.38
322.878	396.38
323.108	393.38
323.337	421.38
323.566	433.38
323.795	451.38
324.024	494.38
324.253	593.38
324.482	824.38
324.71	1279.38
324.939	1759.38
325.168	1558.38
325.397	855.38
325.626	591.38
325.855	484.38
326.084	447.38
326.313	408.38
326.542	415.38
326.77	468.38
326.999	542.38
327.228	756.38
327.457	1091.38
327.686	1364.38
327.914	942.38
328.143	622.38
328.372	555.38
328.6	513.38
328.829	461.38
329.058	480.38
329.287	516.38
329.515	462.38
329.744	437.38
329.972	457.38
330.201	458.38
330.43	489.38
330.658	494.38
330.887	543.38
331.115	528.38
331.344	445.38
331.572	420.38
331.801	428.38
332.03	418.38
332.258	388.38
332.486	383.38
332.715	384.38
332.943	385.38
333.172	383.38
333.4	383.38
333.629	403.38
333.857	404.38
334.085	410.38
334.314	429.38
334.542	460.38
334.771	453.38
334.999	415.38
335.227	376.38
335.455	406.38
335.684	372.38
335.912	390.38
336.14	366.38
336.369	377.38
336.597	391.38
336.825	376.38
337.053	366.38
337.281	362.38
337.51	343.38
337.738	375.38
337.966	366.38
338.194	376.38
338.422	390.38
338.65	375.38
338.878	375.38
339.106	375.38
339.334	382.38
339.562	356.38
339.79	354.38
340.018	379.38
340.246	367.38
340.474	379.38
340.702	381.38
340.93	358.38
341.158	373.38
341.386	367.38
341.614	353.38
341.842	380.38
342.07	365.38
342.298	362.38
342.526	375.38
342.754	348.38
342.981	357.38
343.209	345.38
343.437	364.38
343.665	357.38
343.893	379.38
344.12	381.38
344.348	367.38
344.576	372.38
344.804	377.38
345.031	393.38
345.259	399.38
345.487	381.38
345.714	369.38
345.942	366.38
346.17	351.38
346.397	359.38
346.625	385.38
346.853	357.38
347.08	359.38
347.308	351.38
347.535	358.38
347.763	366.38
347.99	367.38
348.218	371.38
348.445	379.38
348.673	365.38
348.9	372.38
349.128	365.38
349.355	353.38
349.583	361.38
349.81	344.38
350.037	374.38
350.265	361.38
350.492	357.38
350.72	340.38
350.947	359.38
351.174	378.38
351.402	364.38
351.629	355.38
351.856	384.38
352.083	367.38
352.311	392.38
352.538	383.38
352.765	381.38
352.992	379.38
353.22	359.38
353.447	381.38
353.674	391.38
353.901	355.38
354.128	337.38
354.355	353.38
354.583	354.38
354.81	343.38
355.037	357.38
355.264	354.38
355.491	345.38
355.718	363.38
355.945	345.38
356.172	349.38
356.399	341.38
356.626	352.38
356.853	330.38
357.08	342.38
357.307	332.38
357.534	351.38
357.761	359.38
357.988	359.38
358.215	351.38
358.441	353.38
358.668	346.38
358.895	360.38
359.122	360.38
359.349	377.38
359.576	366.38
359.802	382.38
360.029	404.38
360.256	439.38
360.483	405.38
360.709	390.38
360.936	364.38
361.163	379.38
361.39	387.38
361.616	377.38
361.843	380.38
362.07	373.38
362.296	380.38
362.523	375.38
362.749	368.38
362.976	355.38
363.203	366.38
363.429	371.38
363.656	363.38
363.882	373.38
364.109	369.38
364.335	351.38
364.562	361.38
364.788	380.38
365.015	371.38
365.241	359.38
365.468	361.38
365.694	363.38
365.92	372.38
366.147	355.38
366.373	368.38
366.599	366.38
366.826	359.38
367.052	350.38
367.278	375.38
367.505	357.38
367.731	365.38
367.957	370.38
368.184	363.38
368.41	371.38
368.636	363.38
368.862	386.38
369.089	373.38
369.315	394.38
369.541	359.38
369.767	355.38
369.993	357.38
370.219	348.38
370.445	359.38
370.672	350.38
370.898	360.38
371.124	368.38
371.35	384.38
371.576	352.38
371.802	363.38
372.028	349.38
372.254	368.38
372.48	366.38
372.706	361.38
372.932	372.38
373.158	352.38
373.384	363.38
373.61	361.38
373.835	358.38
374.061	357.38
374.287	358.38
374.513	356.38
374.739	364.38
374.965	376.38
375.191	351.38
375.416	351.38
375.642	368.38
375.868	367.38
376.094	369.38
376.319	366.38
376.545	357.38
376.771	358.38
376.997	350.38
377.222	365.38
377.448	367.38
377.674	376.38
377.899	381.38
378.125	373.38
378.35	371.38
378.576	339.38
378.802	344.38
379.027	375.38
379.253	364.38
379.478	362.38
379.704	356.38
379.929	374.38
380.155	385.38
380.38	382.38
380.606	368.38
380.831	366.38
381.057	371.38
381.282	359.38
381.507	391.38
381.733	368.38
381.958	369.38
382.184	356.38
382.409	382.38
382.634	383.38
382.86	363.38
383.085	359.38
383.31	388.38
383.535	391.38
383.761	390.38
383.986	381.38
384.211	373.38
384.436	380.38
384.662	407.38
384.887	383.38
385.112	366.38
385.337	393.38
385.562	393.38
385.787	380.38
386.013	401.38
386.238	407.38
386.463	399.38
386.688	394.38
386.913	399.38
387.138	407.38
387.363	384.38
387.588	399.38
387.813	403.38
388.038	388.38
388.263	397.38
388.488	413.38
388.713	399.38
388.938	404.38
389.163	391.38
389.387	383.38
389.612	402.38
389.837	420.38
390.062	385.38
390.287	378.38
390.512	380.38
390.736	404.38
390.961	413.38
391.186	398.38
391.411	387.38
391.636	396.38
391.86	390.38
392.085	413.38
392.31	416.38
392.534	406.38
392.759	410.38
392.984	400.38
393.208	412.38
393.433	433.38
393.658	412.38
393.882	397.38
394.107	416.38
394.331	389.38
394.556	400.38
394.78	409.38
395.005	410.38
395.229	402.38
395.454	402.38
395.678	414.38
395.903	425.38
396.127	443.38
396.352	431.38
396.576	435.38
396.801	407.38
397.025	432.38
397.249	425.38
397.474	418.38
397.698	417.38
397.922	438.38
398.147	451.38
398.371	448.38
398.595	460.38
398.82	438.38
399.044	456.38
399.268	452.38
399.492	481.38
399.717	485.38
399.941	526.38
400.165	541.38
400.389	539.38
400.613	502.38
400.837	478.38
401.062	452.38
401.286	461.38
401.51	451.38
401.734	448.38
401.958	439.38
402.182	460.38
402.406	473.38
402.63	481.38
402.854	444.38
403.078	462.38
403.302	474.38
403.526	448.38
403.75	443.38
403.974	454.38
404.198	458.38
404.422	487.38
404.645	503.38
404.869	490.38
405.093	515.38
405.317	533.38
405.541	563.38
405.765	516.38
405.988	504.38
406.212	499.38
406.436	502.38
406.66	534.38
406.883	518.38
407.107	549.38
407.331	553.38
407.555	599.38
407.778	592.38
408.002	581.38
408.226	517.38
408.449	513.38
408.673	517.38
408.896	529.38
409.12	564.38
409.344	552.38
409.567	491.38
409.791	478.38
410.014	486.38
410.238	453.38
410.461	480.38
410.685	484.38
410.908	480.38
411.132	521.38
411.355	527.38
411.578	539.38
411.802	477.38
412.025	482.38
412.249	488.38
412.472	489.38
412.695	529.38
412.919	509.38
413.142	476.38
413.365	480.38
413.589	482.38
413.812	460.38
414.035	457.38
414.258	452.38
414.482	462.38
414.705	455.38
414.928	448.38
415.151	447.38
415.374	448.38
415.597	460.38
415.821	453.38
416.044	445.38
416.267	464.38
416.49	460.38
416.713	464.38
416.936	462.38
417.159	459.38
417.382	479.38
417.605	476.38
417.828	465.38
418.051	475.38
418.274	469.38
418.497	453.38
418.72	460.38
418.943	459.38
419.166	475.38
419.389	489.38
419.611	484.38
419.834	483.38
420.057	512.38
420.28	489.38
420.503	493.38
420.726	478.38
420.948	475.38
421.171	515.38
421.394	541.38
421.617	518.38
421.839	490.38
422.062	484.38
422.285	512.38
422.507	542.38
422.73	630.38
422.953	602.38
423.175	524.38
423.398	488.38
423.621	498.38
423.843	539.38
424.066	523.38
424.288	530.38
424.511	539.38
424.733	585.38
424.956	636.38
425.178	634.38
425.401	645.38
425.623	651.38
425.846	578.38
426.068	545.38
426.291	508.38
426.513	511.38
426.735	548.38
426.958	575.38
427.18	650.38
427.402	752.38
427.625	821.38
427.847	745.38
428.069	643.38
428.292	558.38
428.514	553.38
428.736	501.38
428.958	506.38
429.181	495.38
429.403	479.38
429.625	500.38
429.847	549.38
430.069	582.38
430.292	608.38
430.514	515.38
430.736	477.38
430.958	493.38
431.18	473.38
431.402	473.38
431.624	446.38
431.846	463.38
432.068	461.38
432.29	452.38
432.512	445.38
432.734	476.38
432.956	469.38
433.178	506.38
433.4	470.38
433.622	463.38
433.844	455.38
434.066	493.38
434.287	445.38
434.509	443.38
434.731	460.38
434.953	472.38
435.175	470.38
435.397	529.38
435.618	541.38
435.84	589.38
436.062	633.38
436.284	710.38
436.505	597.38
436.727	560.38
436.949	511.38
437.17	501.38
437.392	493.38
437.614	501.38
437.835	567.38
438.057	629.38
438.278	710.38
438.5	698.38
438.721	784.38
438.943	743.38
439.165	609.38
439.386	553.38
439.608	549.38
439.829	563.38
440.05	553.38
440.272	597.38
440.493	572.38
440.715	525.38
440.936	513.38
441.158	501.38
441.379	496.38
441.6	512.38
441.822	537.38
442.043	557.38
442.264	639.38
442.486	645.38
442.707	590.38
442.928	555.38
443.149	538.38
443.371	581.38
443.592	610.38
443.813	665.38
444.034	729.38
444.255	606.38
444.476	563.38
444.698	521.38
444.919	523.38
445.14	643.38
445.361	574.38
445.582	551.38
445.803	615.38
446.024	700.38
446.245	697.38
446.466	658.38
446.687	552.38
446.908	530.38
447.129	529.38
447.35	490.38
447.571	502.38
447.792	460.38
448.013	502.38
448.234	519.38
448.455	567.38
448.675	660.38
448.896	774.38
449.117	655.38
449.338	643.38
449.559	704.38
449.779	803.38
450	649.38
450.221	543.38
450.442	512.38
450.662	484.38
450.883	507.38
451.104	503.38
451.324	516.38
451.545	463.38
451.766	463.38
451.986	452.38
452.207	440.38
452.428	436.38
452.648	455.38
452.869	427.38
453.089	454.38
453.31	455.38
453.53	440.38
453.751	436.38
453.971	435.38
454.192	456.38
454.412	469.38
454.633	440.38
454.853	431.38
455.073	435.38
455.294	461.38
455.514	532.38
455.734	503.38
455.955	439.38
456.175	442.38
456.395	429.38
456.616	431.38
456.836	405.38
457.056	407.38
457.276	384.38
457.497	417.38
457.717	428.38
457.937	420.38
458.157	435.38
458.377	427.38
458.598	436.38
458.818	523.38
459.038	559.38
459.258	568.38
459.478	517.38
459.698	470.38
459.918	463.38
460.138	465.38
460.358	456.38
460.578	432.38
460.798	451.38
461.018	454.38
461.238	441.38
461.458	440.38
461.678	445.38
461.898	480.38
462.118	478.38
462.338	444.38
462.558	468.38
462.777	473.38
462.997	476.38
463.217	478.38
463.437	505.38
463.657	489.38
463.876	495.38
464.096	474.38
464.316	460.38
464.536	486.38
464.755	503.38
464.975	519.38
465.195	536.38
465.414	596.38
465.634	542.38
465.854	496.38
466.073	466.38
466.293	461.38
466.512	464.38
466.732	466.38
466.951	439.38
467.171	438.38
467.391	476.38
467.61	466.38
467.829	468.38
468.049	447.38
468.268	470.38
468.488	451.38
468.707	445.38
468.927	434.38
469.146	431.38
469.365	442.38
469.585	437.38
469.804	469.38
470.023	469.38
470.243	467.38
470.462	461.38
470.681	469.38
470.901	452.38
471.12	457.38
471.339	443.38
471.558	465.38
471.777	446.38
471.997	457.38
472.216	461.38
472.435	500.38
472.654	473.38
472.873	461.38
473.092	442.38
473.311	428.38
473.53	468.38
473.749	456.38
473.968	506.38
474.187	594.38
474.406	611.38
474.625	527.38
474.844	478.38
475.063	455.38
475.282	472.38
475.501	466.38
475.72	488.38
475.939	477.38
476.158	476.38
476.377	475.38
476.596	469.38
476.814	480.38
477.033	492.38
477.252	483.38
477.471	491.38
477.69	482.38
477.908	490.38
478.127	522.38
478.346	504.38
478.564	513.38
478.783	522.38
479.002	527.38
479.22	527.38
479.439	527.38
479.658	525.38
479.876	570.38
480.095	515.38
480.313	565.38
480.532	565.38
480.751	539.38
480.969	564.38
481.188	603.38
481.406	647.38
481.624	592.38
481.843	551.38
482.061	559.38
482.28	568.38
482.498	547.38
482.717	533.38
482.935	547.38
483.153	553.38
483.372	552.38
483.59	556.38
483.808	524.38
484.027	557.38
484.245	532.38
484.463	553.38
484.681	567.38
484.9	538.38
485.118	569.38
485.336	564.38
485.554	560.38
485.772	563.38
485.99	574.38
486.209	575.38
486.427	585.38
486.645	599.38
486.863	585.38
487.081	584.38
487.299	605.38
487.517	585.38
487.735	578.38
487.953	579.38
488.171	617.38
488.389	605.38
488.607	590.38
488.825	617.38
489.043	612.38
489.261	604.38
489.479	607.38
489.696	608.38
489.914	619.38
490.132	611.38
490.35	625.38
490.568	624.38
490.786	662.38
491.003	619.38
491.221	656.38
491.439	661.38
491.657	658.38
491.874	693.38
492.092	700.38
492.31	685.38
492.527	689.38
492.745	697.38
492.963	699.38
493.18	701.38
493.398	710.38
493.615	715.38
493.833	697.38
494.05	722.38
494.268	733.38
494.485	698.38
494.703	688.38
494.92	717.38
495.138	728.38
495.355	735.38
495.573	707.38
495.79	728.38
496.008	734.38
496.225	726.38
496.442	701.38
496.66	693.38
496.877	719.38
497.094	712.38
497.312	724.38
497.529	731.38
497.746	744.38
497.963	728.38
498.181	757.38
498.398	750.38
498.615	755.38
498.832	781.38
499.049	781.38
499.267	794.38
499.484	805.38
499.701	823.38
499.918	855.38
500.135	851.38
500.352	907.38
500.569	883.38
500.786	924.38
501.003	903.38
501.22	884.38
501.437	867.38
501.654	869.38
501.871	857.38
502.088	852.38
