Data from 1970.PennyLincolnUp.Lamp.En5.5.200Scan.071719.P1._HRD10591_15-14-26-842.txt Node
Date: Thu Jul 18 15:14:26 EDT 2019
User: cochatt
Spectrometer: HR+D1059
Trigger mode: 1
Integration Time (sec): 1.000000E-1
Scans to average: 1
Electric dark correction enabled: true
Nonlinearity correction enabled: false
Boxcar width: 0
XAxis mode: Wavelengths
Number of Pixels in Spectrum: 2048
>>>>>Begin Spectral Data<<<<<
223.165	-15.06
223.4	-15.06
223.635	-15.06
223.869	-13.06
224.104	-18.06
224.338	-16.06
224.573	-12.06
224.808	-12.06
225.042	-1.06
225.277	-8.06
225.511	11.94
225.746	4.94
225.98	7.94
226.215	8.94
226.449	12.94
226.683	15.94
226.918	9.94
227.152	22.94
227.387	37.94
227.621	37.94
227.856	40.94
228.09	32.94
228.324	56.94
228.559	62.94
228.793	64.94
229.027	104.94
229.262	123.94
229.496	135.94
229.73	148.94
229.964	178.94
230.199	135.94
230.433	122.94
230.667	120.94
230.901	129.94
231.136	111.94
231.37	116.94
231.604	110.94
231.838	117.94
232.072	120.94
232.306	108.94
232.541	111.94
232.775	96.94
233.009	105.94
233.243	109.94
233.477	120.94
233.711	126.94
233.945	128.94
234.179	124.94
234.413	131.94
234.647	136.94
234.881	126.94
235.115	111.94
235.349	145.94
235.583	131.94
235.817	136.94
236.051	130.94
236.285	132.94
236.519	135.94
236.753	152.94
236.987	151.94
237.221	205.94
237.455	268.94
237.689	199.94
237.922	163.94
238.156	151.94
238.39	143.94
238.624	145.94
238.858	148.94
239.091	137.94
239.325	131.94
239.559	121.94
239.793	146.94
240.027	157.94
240.26	158.94
240.494	160.94
240.728	165.94
240.961	165.94
241.195	155.94
241.429	171.94
241.662	136.94
241.896	143.94
242.13	152.94
242.363	144.94
242.597	147.94
242.83	144.94
243.064	151.94
243.298	150.94
243.531	138.94
243.765	147.94
243.998	138.94
244.232	151.94
244.465	158.94
244.699	158.94
244.932	158.94
245.166	138.94
245.399	152.94
245.633	166.94
245.866	146.94
246.099	148.94
246.333	175.94
246.566	151.94
246.8	158.94
247.033	172.94
247.266	141.94
247.5	167.94
247.733	183.94
247.966	189.94
248.2	184.94
248.433	176.94
248.666	174.94
248.899	206.94
249.133	227.94
249.366	248.94
249.599	213.94
249.832	216.94
250.066	196.94
250.299	205.94
250.532	212.94
250.765	243.94
250.998	260.94
251.231	270.94
251.465	246.94
251.698	241.94
251.931	232.94
252.164	212.94
252.397	232.94
252.63	223.94
252.863	248.94
253.096	233.94
253.329	251.94
253.562	270.94
253.795	239.94
254.028	252.94
254.261	245.94
254.494	239.94
254.727	295.94
254.96	308.94
255.193	307.94
255.426	276.94
255.659	279.94
255.892	252.94
256.124	252.94
256.357	260.94
256.59	248.94
256.823	249.94
257.056	231.94
257.289	232.94
257.521	234.94
257.754	233.94
257.987	249.94
258.22	231.94
258.452	237.94
258.685	234.94
258.918	213.94
259.151	243.94
259.383	240.94
259.616	228.94
259.849	247.94
260.081	249.94
260.314	272.94
260.547	274.94
260.779	250.94
261.012	264.94
261.244	230.94
261.477	257.94
261.71	233.94
261.942	243.94
262.175	262.94
262.407	259.94
262.64	223.94
262.872	233.94
263.105	240.94
263.337	216.94
263.57	218.94
263.802	232.94
264.035	226.94
264.267	229.94
264.499	226.94
264.732	214.94
264.964	243.94
265.197	229.94
265.429	223.94
265.661	228.94
265.894	218.94
266.126	209.94
266.358	227.94
266.591	245.94
266.823	223.94
267.055	236.94
267.287	233.94
267.52	225.94
267.752	221.94
267.984	216.94
268.216	239.94
268.448	247.94
268.681	227.94
268.913	262.94
269.145	262.94
269.377	308.94
269.609	287.94
269.841	293.94
270.073	294.94
270.306	299.94
270.538	334.94
270.77	321.94
271.002	323.94
271.234	319.94
271.466	296.94
271.698	316.94
271.93	340.94
272.162	335.94
272.394	337.94
272.626	308.94
272.858	315.94
273.09	295.94
273.322	281.94
273.553	270.94
273.785	275.94
274.017	272.94
274.249	279.94
274.481	279.94
274.713	268.94
274.945	301.94
275.176	283.94
275.408	268.94
275.64	269.94
275.872	277.94
276.104	276.94
276.335	298.94
276.567	281.94
276.799	304.94
277.031	328.94
277.262	332.94
277.494	326.94
277.726	331.94
277.957	302.94
278.189	275.94
278.421	283.94
278.652	294.94
278.884	289.94
279.115	268.94
279.347	263.94
279.579	287.94
279.81	272.94
280.042	279.94
280.273	281.94
280.505	288.94
280.736	273.94
280.968	268.94
281.199	283.94
281.431	273.94
281.662	253.94
281.894	269.94
282.125	269.94
282.356	287.94
282.588	303.94
282.819	332.94
283.051	287.94
283.282	273.94
283.513	278.94
283.745	269.94
283.976	287.94
284.207	303.94
284.439	276.94
284.67	281.94
284.901	256.94
285.132	284.94
285.364	285.94
285.595	304.94
285.826	253.94
286.057	296.94
286.288	276.94
286.52	279.94
286.751	285.94
286.982	286.94
287.213	273.94
287.444	270.94
287.675	297.94
287.906	295.94
288.138	272.94
288.369	299.94
288.6	284.94
288.831	284.94
289.062	290.94
289.293	295.94
289.524	297.94
289.755	272.94
289.986	295.94
290.217	281.94
290.448	268.94
290.679	294.94
290.91	295.94
291.141	279.94
291.371	282.94
291.602	280.94
291.833	290.94
292.064	290.94
292.295	278.94
292.526	271.94
292.757	270.94
292.987	279.94
293.218	286.94
293.449	279.94
293.68	286.94
293.91	293.94
294.141	274.94
294.372	288.94
294.603	296.94
294.833	281.94
295.064	289.94
295.295	295.94
295.525	288.94
295.756	292.94
295.987	329.94
296.217	323.94
296.448	343.94
296.679	303.94
296.909	264.94
297.14	281.94
297.37	312.94
297.601	298.94
297.831	293.94
298.062	307.94
298.292	309.94
298.523	305.94
298.753	307.94
298.984	288.94
299.214	288.94
299.445	297.94
299.675	317.94
299.905	307.94
300.136	316.94
300.366	316.94
300.597	318.94
300.827	311.94
301.057	319.94
301.288	319.94
301.518	315.94
301.748	298.94
301.979	309.94
302.209	331.94
302.439	336.94
302.669	319.94
302.9	330.94
303.13	311.94
303.36	335.94
303.59	330.94
303.82	336.94
304.051	314.94
304.281	327.94
304.511	328.94
304.741	314.94
304.971	291.94
305.201	328.94
305.431	329.94
305.661	331.94
305.891	320.94
306.121	306.94
306.352	333.94
306.582	327.94
306.812	344.94
307.042	347.94
307.272	318.94
307.502	326.94
307.731	336.94
307.961	340.94
308.191	331.94
308.421	323.94
308.651	334.94
308.881	327.94
309.111	344.94
309.341	354.94
309.571	363.94
309.8	336.94
310.03	377.94
310.26	388.94
310.49	381.94
310.72	408.94
310.949	397.94
311.179	403.94
311.409	401.94
311.639	383.94
311.868	404.94
312.098	407.94
312.328	398.94
312.557	404.94
312.787	416.94
313.017	419.94
313.246	372.94
313.476	389.94
313.706	376.94
313.935	395.94
314.165	401.94
314.394	386.94
314.624	410.94
314.853	398.94
315.083	372.94
315.312	386.94
315.542	367.94
315.771	367.94
316.001	376.94
316.23	369.94
316.46	382.94
316.689	377.94
316.919	376.94
317.148	395.94
317.377	415.94
317.607	401.94
317.836	387.94
318.065	398.94
318.295	363.94
318.524	379.94
318.753	377.94
318.983	392.94
319.212	391.94
319.441	385.94
319.67	411.94
319.9	402.94
320.129	392.94
320.358	381.94
320.587	398.94
320.816	417.94
321.046	423.94
321.275	405.94
321.504	411.94
321.733	398.94
321.962	423.94
322.191	421.94
322.42	440.94
322.649	469.94
322.878	477.94
323.108	489.94
323.337	500.94
323.566	524.94
323.795	571.94
324.024	616.94
324.253	774.94
324.482	1107.94
324.71	1718.94
324.939	2333.94
325.168	2040.94
325.397	1121.94
325.626	767.94
325.855	615.94
326.084	554.94
326.313	544.94
326.542	552.94
326.77	612.94
326.999	692.94
327.228	965.94
327.457	1445.94
327.686	1792.94
327.914	1237.94
328.143	798.94
328.372	717.94
328.6	667.94
328.829	615.94
329.058	640.94
329.287	640.94
329.515	593.94
329.744	556.94
329.972	565.94
330.201	561.94
330.43	624.94
330.658	644.94
330.887	677.94
331.115	630.94
331.344	567.94
331.572	529.94
331.801	522.94
332.03	524.94
332.258	517.94
332.486	468.94
332.715	467.94
332.943	471.94
333.172	462.94
333.4	457.94
333.629	479.94
333.857	473.94
334.085	501.94
334.314	547.94
334.542	547.94
334.771	583.94
334.999	538.94
335.227	491.94
335.455	484.94
335.684	480.94
335.912	459.94
336.14	463.94
336.369	452.94
336.597	469.94
336.825	480.94
337.053	461.94
337.281	448.94
337.51	438.94
337.738	447.94
337.966	448.94
338.194	442.94
338.422	470.94
338.65	447.94
338.878	453.94
339.106	435.94
339.334	442.94
339.562	436.94
339.79	429.94
340.018	447.94
340.246	429.94
340.474	442.94
340.702	446.94
340.93	425.94
341.158	456.94
341.386	452.94
341.614	446.94
341.842	439.94
342.07	432.94
342.298	433.94
342.526	419.94
342.754	421.94
342.981	407.94
343.209	420.94
343.437	430.94
343.665	425.94
343.893	432.94
344.12	439.94
344.348	446.94
344.576	458.94
344.804	450.94
345.031	453.94
345.259	464.94
345.487	460.94
345.714	442.94
345.942	439.94
346.17	431.94
346.397	441.94
346.625	425.94
346.853	420.94
347.08	416.94
347.308	448.94
347.535	429.94
347.763	451.94
347.99	443.94
348.218	431.94
348.445	447.94
348.673	451.94
348.9	419.94
349.128	420.94
349.355	419.94
349.583	420.94
349.81	406.94
350.037	424.94
350.265	400.94
350.492	394.94
350.72	429.94
350.947	433.94
351.174	444.94
351.402	452.94
351.629	443.94
351.856	438.94
352.083	445.94
352.311	452.94
352.538	449.94
352.765	463.94
352.992	450.94
353.22	435.94
353.447	412.94
353.674	426.94
353.901	407.94
354.128	407.94
354.355	388.94
354.583	415.94
354.81	410.94
355.037	419.94
355.264	406.94
355.491	380.94
355.718	394.94
355.945	390.94
356.172	390.94
356.399	399.94
356.626	393.94
356.853	400.94
357.08	387.94
357.307	412.94
357.534	404.94
357.761	420.94
357.988	395.94
358.215	395.94
358.441	419.94
358.668	421.94
358.895	404.94
359.122	423.94
359.349	452.94
359.576	444.94
359.802	469.94
360.029	488.94
360.256	526.94
360.483	495.94
360.709	444.94
360.936	437.94
361.163	444.94
361.39	457.94
361.616	455.94
361.843	427.94
362.07	437.94
362.296	437.94
362.523	443.94
362.749	438.94
362.976	444.94
363.203	435.94
363.429	397.94
363.656	412.94
363.882	422.94
364.109	423.94
364.335	427.94
364.562	423.94
364.788	413.94
365.015	405.94
365.241	432.94
365.468	397.94
365.694	409.94
365.92	433.94
366.147	448.94
366.373	425.94
366.599	415.94
366.826	404.94
367.052	407.94
367.278	415.94
367.505	416.94
367.731	435.94
367.957	430.94
368.184	420.94
368.41	427.94
368.636	447.94
368.862	446.94
369.089	433.94
369.315	417.94
369.541	405.94
369.767	406.94
369.993	414.94
370.219	426.94
370.445	419.94
370.672	431.94
370.898	418.94
371.124	413.94
371.35	432.94
371.576	384.94
371.802	415.94
372.028	421.94
372.254	419.94
372.48	416.94
372.706	419.94
372.932	414.94
373.158	407.94
373.384	417.94
373.61	430.94
373.835	419.94
374.061	403.94
374.287	409.94
374.513	429.94
374.739	429.94
374.965	416.94
375.191	407.94
375.416	428.94
375.642	414.94
375.868	414.94
376.094	437.94
376.319	422.94
376.545	398.94
376.771	414.94
376.997	412.94
377.222	416.94
377.448	415.94
377.674	420.94
377.899	419.94
378.125	421.94
378.35	422.94
378.576	409.94
378.802	403.94
379.027	406.94
379.253	421.94
379.478	397.94
379.704	420.94
379.929	438.94
380.155	405.94
380.38	427.94
380.606	420.94
380.831	430.94
381.057	443.94
381.282	443.94
381.507	414.94
381.733	430.94
381.958	428.94
382.184	415.94
382.409	415.94
382.634	458.94
382.86	416.94
383.085	415.94
383.31	427.94
383.535	428.94
383.761	428.94
383.986	442.94
384.211	440.94
384.436	433.94
384.662	427.94
384.887	447.94
385.112	430.94
385.337	437.94
385.562	450.94
385.787	437.94
386.013	461.94
386.238	472.94
386.463	463.94
386.688	471.94
386.913	443.94
387.138	458.94
387.363	446.94
387.588	441.94
387.813	473.94
388.038	444.94
388.263	456.94
388.488	459.94
388.713	438.94
388.938	451.94
389.163	462.94
389.387	442.94
389.612	445.94
389.837	453.94
390.062	472.94
390.287	449.94
390.512	455.94
390.736	449.94
390.961	457.94
391.186	465.94
391.411	454.94
391.636	439.94
391.86	448.94
392.085	436.94
392.31	478.94
392.534	466.94
392.759	462.94
392.984	475.94
393.208	459.94
393.433	464.94
393.658	470.94
393.882	458.94
394.107	457.94
394.331	458.94
394.556	435.94
394.78	468.94
395.005	451.94
395.229	446.94
395.454	449.94
395.678	475.94
395.903	484.94
396.127	511.94
396.352	485.94
396.576	474.94
396.801	462.94
397.025	461.94
397.249	484.94
397.474	473.94
397.698	494.94
397.922	495.94
398.147	478.94
398.371	535.94
398.595	505.94
398.82	502.94
399.044	520.94
399.268	510.94
399.492	543.94
399.717	577.94
399.941	594.94
400.165	600.94
400.389	610.94
400.613	564.94
400.837	543.94
401.062	526.94
401.286	533.94
401.51	507.94
401.734	527.94
401.958	516.94
402.182	520.94
402.406	525.94
402.63	550.94
402.854	546.94
403.078	529.94
403.302	528.94
403.526	544.94
403.75	528.94
403.974	537.94
404.198	523.94
404.422	532.94
404.645	559.94
404.869	557.94
405.093	591.94
405.317	622.94
405.541	646.94
405.765	607.94
405.988	583.94
406.212	591.94
406.436	618.94
406.66	628.94
406.883	600.94
407.107	608.94
407.331	651.94
407.555	700.94
407.778	711.94
408.002	628.94
408.226	609.94
408.449	608.94
408.673	597.94
408.896	674.94
409.12	643.94
409.344	637.94
409.567	594.94
409.791	567.94
410.014	557.94
410.238	558.94
410.461	568.94
410.685	554.94
410.908	577.94
411.132	623.94
411.355	655.94
411.578	609.94
411.802	582.94
412.025	561.94
412.249	573.94
412.472	588.94
412.695	639.94
412.919	627.94
413.142	544.94
413.365	547.94
413.589	561.94
413.812	534.94
414.035	530.94
414.258	521.94
414.482	506.94
414.705	505.94
414.928	511.94
415.151	533.94
415.374	524.94
415.597	519.94
415.821	507.94
416.044	527.94
416.267	523.94
416.49	528.94
416.713	513.94
416.936	535.94
417.159	535.94
417.382	524.94
417.605	523.94
417.828	544.94
418.051	553.94
418.274	547.94
418.497	530.94
418.72	528.94
418.943	500.94
419.166	536.94
419.389	554.94
419.611	550.94
419.834	547.94
420.057	554.94
420.28	571.94
420.503	574.94
420.726	553.94
420.948	549.94
421.171	598.94
421.394	623.94
421.617	594.94
421.839	551.94
422.062	597.94
422.285	569.94
422.507	642.94
422.73	707.94
422.953	704.94
423.175	614.94
423.398	547.94
423.621	606.94
423.843	620.94
424.066	611.94
424.288	585.94
424.511	623.94
424.733	678.94
424.956	750.94
425.178	757.94
425.401	763.94
425.623	755.94
425.846	669.94
426.068	608.94
426.291	621.94
426.513	609.94
426.735	614.94
426.958	677.94
427.18	751.94
427.402	885.94
427.625	973.94
427.847	899.94
428.069	779.94
428.292	694.94
428.514	632.94
428.736	607.94
428.958	606.94
429.181	564.94
429.403	561.94
429.625	567.94
429.847	619.94
430.069	671.94
430.292	695.94
430.514	583.94
430.736	587.94
430.958	550.94
431.18	543.94
431.402	533.94
431.624	521.94
431.846	545.94
432.068	523.94
432.29	541.94
432.512	532.94
432.734	534.94
432.956	545.94
433.178	553.94
433.4	535.94
433.622	547.94
433.844	532.94
434.066	518.94
434.287	499.94
434.509	549.94
434.731	542.94
434.953	543.94
435.175	584.94
435.397	614.94
435.618	596.94
435.84	665.94
436.062	771.94
436.284	824.94
436.505	691.94
436.727	672.94
436.949	588.94
437.17	585.94
437.392	595.94
437.614	605.94
437.835	642.94
438.057	745.94
438.278	850.94
438.5	827.94
438.721	913.94
438.943	864.94
439.165	713.94
439.386	654.94
439.608	632.94
439.829	651.94
440.05	675.94
440.272	696.94
440.493	683.94
440.715	622.94
440.936	595.94
441.158	575.94
441.379	585.94
441.6	607.94
441.822	619.94
442.043	652.94
442.264	741.94
442.486	778.94
442.707	671.94
442.928	645.94
443.149	647.94
443.371	666.94
443.592	711.94
443.813	792.94
444.034	864.94
444.255	720.94
444.476	646.94
444.698	632.94
444.919	623.94
445.14	775.94
445.361	672.94
445.582	670.94
445.803	731.94
446.024	833.94
446.245	847.94
446.466	792.94
446.687	667.94
446.908	633.94
447.129	616.94
447.35	553.94
447.571	559.94
447.792	574.94
448.013	594.94
448.234	600.94
448.455	681.94
448.675	788.94
448.896	867.94
449.117	760.94
449.338	729.94
449.559	828.94
449.779	901.94
450	755.94
450.221	641.94
450.442	603.94
450.662	583.94
450.883	573.94
451.104	636.94
451.324	572.94
451.545	565.94
451.766	573.94
451.986	522.94
452.207	517.94
452.428	527.94
452.648	518.94
452.869	519.94
453.089	515.94
453.31	551.94
453.53	529.94
453.751	511.94
453.971	517.94
454.192	542.94
454.412	519.94
454.633	503.94
454.853	507.94
455.073	510.94
455.294	568.94
455.514	632.94
455.734	614.94
455.955	523.94
456.175	470.94
456.395	491.94
456.616	474.94
456.836	464.94
457.056	484.94
457.276	465.94
457.497	475.94
457.717	473.94
457.937	490.94
458.157	472.94
458.377	469.94
458.598	552.94
458.818	628.94
459.038	691.94
459.258	710.94
459.478	595.94
459.698	542.94
459.918	534.94
460.138	517.94
460.358	528.94
460.578	528.94
460.798	551.94
461.018	539.94
461.238	526.94
461.458	512.94
461.678	489.94
461.898	515.94
462.118	520.94
462.338	550.94
462.558	525.94
462.777	550.94
462.997	549.94
463.217	550.94
463.437	574.94
463.657	558.94
463.876	555.94
464.096	548.94
464.316	560.94
464.536	559.94
464.755	542.94
464.975	567.94
465.195	618.94
465.414	720.94
465.634	632.94
465.854	585.94
466.073	567.94
466.293	532.94
466.512	523.94
466.732	523.94
466.951	528.94
467.171	553.94
467.391	516.94
467.61	537.94
467.829	549.94
468.049	551.94
468.268	536.94
468.488	525.94
468.707	505.94
468.927	517.94
469.146	507.94
469.365	524.94
469.585	501.94
469.804	528.94
470.023	542.94
470.243	536.94
470.462	535.94
470.681	597.94
470.901	573.94
471.12	561.94
471.339	529.94
471.558	524.94
471.777	524.94
471.997	522.94
472.216	559.94
472.435	597.94
472.654	573.94
472.873	527.94
473.092	533.94
473.311	541.94
473.53	520.94
473.749	559.94
473.968	584.94
474.187	715.94
474.406	725.94
474.625	619.94
474.844	568.94
475.063	514.94
475.282	549.94
475.501	555.94
475.72	552.94
475.939	575.94
476.158	564.94
476.377	540.94
476.596	547.94
476.814	557.94
477.033	587.94
477.252	550.94
477.471	584.94
477.69	578.94
477.908	549.94
478.127	579.94
478.346	574.94
478.564	581.94
478.783	595.94
479.002	576.94
479.22	600.94
479.439	645.94
479.658	653.94
479.876	645.94
480.095	645.94
480.313	665.94
480.532	657.94
480.751	671.94
480.969	655.94
481.188	734.94
481.406	805.94
481.624	728.94
481.843	665.94
482.061	643.94
482.28	627.94
482.498	635.94
482.717	640.94
482.935	647.94
483.153	611.94
483.372	645.94
483.59	629.94
483.808	621.94
484.027	638.94
484.245	651.94
484.463	615.94
484.681	667.94
484.9	635.94
485.118	638.94
485.336	647.94
485.554	649.94
485.772	658.94
485.99	672.94
486.209	638.94
486.427	643.94
486.645	668.94
486.863	714.94
487.081	703.94
487.299	696.94
487.517	692.94
487.735	692.94
487.953	710.94
488.171	690.94
488.389	683.94
488.607	695.94
488.825	703.94
489.043	688.94
489.261	707.94
489.479	710.94
489.696	706.94
489.914	715.94
490.132	719.94
490.35	714.94
490.568	723.94
490.786	716.94
491.003	729.94
491.221	781.94
491.439	787.94
491.657	796.94
491.874	798.94
492.092	832.94
492.31	801.94
492.527	817.94
492.745	832.94
492.963	801.94
493.18	855.94
493.398	830.94
493.615	852.94
493.833	861.94
494.05	848.94
494.268	840.94
494.485	840.94
494.703	824.94
494.92	840.94
495.138	866.94
495.355	841.94
495.573	840.94
495.79	827.94
496.008	836.94
496.225	845.94
496.442	862.94
496.66	835.94
496.877	838.94
497.094	835.94
497.312	832.94
497.529	857.94
497.746	865.94
497.963	841.94
498.181	878.94
498.398	869.94
498.615	879.94
498.832	923.94
499.049	923.94
499.267	915.94
499.484	933.94
499.701	931.94
499.918	984.94
500.135	1019.94
500.352	1001.94
500.569	1027.94
500.786	1044.94
501.003	1019.94
501.22	1002.94
501.437	1014.94
501.654	985.94
501.871	1001.94
