Data from 1970.PennyLincolnUp.Lamp.En5.5.200Scan.071719.P1._HRD10591_15-14-01-842.txt Node
Date: Thu Jul 18 15:14:01 EDT 2019
User: cochatt
Spectrometer: HR+D1059
Trigger mode: 1
Integration Time (sec): 1.000000E-1
Scans to average: 1
Electric dark correction enabled: true
Nonlinearity correction enabled: false
Boxcar width: 0
XAxis mode: Wavelengths
Number of Pixels in Spectrum: 2048
>>>>>Begin Spectral Data<<<<<
223.165	-17.81
223.4	-17.81
223.635	-17.81
223.869	-8.81
224.104	-13.81
224.338	-12.81
224.573	-25.81
224.808	-11.81
225.042	-3.81
225.277	-16.81
225.511	0.19
225.746	-11.81
225.98	6.19
226.215	6.19
226.449	28.19
226.683	34.19
226.918	30.19
227.152	18.19
227.387	40.19
227.621	37.19
227.856	28.19
228.09	48.19
228.324	38.19
228.559	65.19
228.793	80.19
229.027	106.19
229.262	104.19
229.496	125.19
229.73	147.19
229.964	164.19
230.199	130.19
230.433	115.19
230.667	133.19
230.901	123.19
231.136	122.19
231.37	120.19
231.604	116.19
231.838	120.19
232.072	107.19
232.306	92.19
232.541	114.19
232.775	112.19
233.009	119.19
233.243	122.19
233.477	107.19
233.711	109.19
233.945	92.19
234.179	103.19
234.413	110.19
234.647	120.19
234.881	111.19
235.115	124.19
235.349	124.19
235.583	119.19
235.817	133.19
236.051	137.19
236.285	128.19
236.519	138.19
236.753	130.19
236.987	144.19
237.221	179.19
237.455	238.19
237.689	194.19
237.922	157.19
238.156	144.19
238.39	144.19
238.624	115.19
238.858	122.19
239.091	117.19
239.325	110.19
239.559	120.19
239.793	122.19
240.027	141.19
240.26	146.19
240.494	165.19
240.728	162.19
240.961	151.19
241.195	166.19
241.429	152.19
241.662	144.19
241.896	139.19
242.13	149.19
242.363	127.19
242.597	130.19
242.83	154.19
243.064	126.19
243.298	158.19
243.531	145.19
243.765	143.19
243.998	159.19
244.232	158.19
244.465	153.19
244.699	162.19
244.932	140.19
245.166	140.19
245.399	147.19
245.633	158.19
245.866	153.19
246.099	152.19
246.333	157.19
246.566	148.19
246.8	157.19
247.033	166.19
247.266	178.19
247.5	159.19
247.733	166.19
247.966	189.19
248.2	203.19
248.433	171.19
248.666	181.19
248.899	188.19
249.133	214.19
249.366	220.19
249.599	200.19
249.832	207.19
250.066	205.19
250.299	189.19
250.532	191.19
250.765	209.19
250.998	224.19
251.231	237.19
251.465	232.19
251.698	218.19
251.931	202.19
252.164	210.19
252.397	206.19
252.63	233.19
252.863	203.19
253.096	226.19
253.329	235.19
253.562	242.19
253.795	223.19
254.028	230.19
254.261	219.19
254.494	237.19
254.727	294.19
254.96	321.19
255.193	302.19
255.426	280.19
255.659	256.19
255.892	247.19
256.124	247.19
256.357	269.19
256.59	235.19
256.823	232.19
257.056	235.19
257.289	223.19
257.521	234.19
257.754	226.19
257.987	215.19
258.22	205.19
258.452	225.19
258.685	197.19
258.918	209.19
259.151	208.19
259.383	239.19
259.616	231.19
259.849	230.19
260.081	239.19
260.314	272.19
260.547	258.19
260.779	260.19
261.012	247.19
261.244	242.19
261.477	237.19
261.71	236.19
261.942	223.19
262.175	236.19
262.407	230.19
262.64	217.19
262.872	216.19
263.105	220.19
263.337	213.19
263.57	230.19
263.802	207.19
264.035	223.19
264.267	211.19
264.499	206.19
264.732	222.19
264.964	216.19
265.197	207.19
265.429	213.19
265.661	203.19
265.894	224.19
266.126	232.19
266.358	231.19
266.591	215.19
266.823	226.19
267.055	215.19
267.287	221.19
267.52	211.19
267.752	234.19
267.984	220.19
268.216	223.19
268.448	226.19
268.681	233.19
268.913	235.19
269.145	237.19
269.377	271.19
269.609	281.19
269.841	258.19
270.073	284.19
270.306	302.19
270.538	317.19
270.77	322.19
271.002	303.19
271.234	291.19
271.466	287.19
271.698	302.19
271.93	327.19
272.162	328.19
272.394	329.19
272.626	308.19
272.858	301.19
273.09	271.19
273.322	270.19
273.553	270.19
273.785	249.19
274.017	272.19
274.249	272.19
274.481	268.19
274.713	275.19
274.945	263.19
275.176	252.19
275.408	243.19
275.64	271.19
275.872	255.19
276.104	260.19
276.335	260.19
276.567	294.19
276.799	271.19
277.031	301.19
277.262	314.19
277.494	319.19
277.726	294.19
277.957	279.19
278.189	276.19
278.421	262.19
278.652	269.19
278.884	271.19
279.115	257.19
279.347	251.19
279.579	269.19
279.81	255.19
280.042	262.19
280.273	244.19
280.505	260.19
280.736	245.19
280.968	235.19
281.199	246.19
281.431	248.19
281.662	263.19
281.894	259.19
282.125	263.19
282.356	259.19
282.588	293.19
282.819	298.19
283.051	262.19
283.282	265.19
283.513	276.19
283.745	268.19
283.976	264.19
284.207	270.19
284.439	247.19
284.67	257.19
284.901	267.19
285.132	263.19
285.364	260.19
285.595	261.19
285.826	264.19
286.057	270.19
286.288	261.19
286.52	235.19
286.751	267.19
286.982	266.19
287.213	261.19
287.444	268.19
287.675	262.19
287.906	285.19
288.138	281.19
288.369	290.19
288.6	291.19
288.831	288.19
289.062	286.19
289.293	263.19
289.524	280.19
289.755	253.19
289.986	276.19
290.217	264.19
290.448	280.19
290.679	277.19
290.91	261.19
291.141	260.19
291.371	256.19
291.602	270.19
291.833	250.19
292.064	274.19
292.295	279.19
292.526	246.19
292.757	273.19
292.987	262.19
293.218	268.19
293.449	266.19
293.68	264.19
293.91	268.19
294.141	261.19
294.372	252.19
294.603	286.19
294.833	253.19
295.064	265.19
295.295	278.19
295.525	273.19
295.756	268.19
295.987	298.19
296.217	288.19
296.448	304.19
296.679	308.19
296.909	281.19
297.14	279.19
297.37	292.19
297.601	282.19
297.831	259.19
298.062	285.19
298.292	270.19
298.523	286.19
298.753	270.19
298.984	279.19
299.214	288.19
299.445	271.19
299.675	281.19
299.905	303.19
300.136	288.19
300.366	282.19
300.597	282.19
300.827	272.19
301.057	303.19
301.288	326.19
301.518	306.19
301.748	301.19
301.979	312.19
302.209	306.19
302.439	326.19
302.669	335.19
302.9	309.19
303.13	288.19
303.36	313.19
303.59	305.19
303.82	317.19
304.051	312.19
304.281	298.19
304.511	303.19
304.741	309.19
304.971	299.19
305.201	318.19
305.431	309.19
305.661	298.19
305.891	290.19
306.121	308.19
306.352	326.19
306.582	311.19
306.812	306.19
307.042	316.19
307.272	320.19
307.502	325.19
307.731	326.19
307.961	298.19
308.191	312.19
308.421	330.19
308.651	319.19
308.881	327.19
309.111	335.19
309.341	332.19
309.571	322.19
309.8	332.19
310.03	354.19
310.26	341.19
310.49	348.19
310.72	365.19
310.949	367.19
311.179	373.19
311.409	363.19
311.639	366.19
311.868	375.19
312.098	370.19
312.328	358.19
312.557	377.19
312.787	402.19
313.017	384.19
313.246	376.19
313.476	366.19
313.706	388.19
313.935	384.19
314.165	396.19
314.394	402.19
314.624	381.19
314.853	365.19
315.083	359.19
315.312	351.19
315.542	347.19
315.771	359.19
316.001	333.19
316.23	344.19
316.46	367.19
316.689	356.19
316.919	371.19
317.148	388.19
317.377	373.19
317.607	377.19
317.836	375.19
318.065	367.19
318.295	347.19
318.524	356.19
318.753	357.19
318.983	368.19
319.212	379.19
319.441	374.19
319.67	401.19
319.9	387.19
320.129	372.19
320.358	370.19
320.587	370.19
320.816	382.19
321.046	399.19
321.275	383.19
321.504	379.19
321.733	403.19
321.962	404.19
322.191	407.19
322.42	429.19
322.649	454.19
322.878	447.19
323.108	459.19
323.337	475.19
323.566	502.19
323.795	543.19
324.024	580.19
324.253	721.19
324.482	1010.19
324.71	1524.19
324.939	2198.19
325.168	1913.19
325.397	1014.19
325.626	720.19
325.855	584.19
326.084	518.19
326.313	493.19
326.542	510.19
326.77	576.19
326.999	667.19
327.228	922.19
327.457	1381.19
327.686	1638.19
327.914	1127.19
328.143	744.19
328.372	674.19
328.6	604.19
328.829	555.19
329.058	587.19
329.287	579.19
329.515	555.19
329.744	503.19
329.972	525.19
330.201	534.19
330.43	575.19
330.658	621.19
330.887	643.19
331.115	644.19
331.344	520.19
331.572	475.19
331.801	478.19
332.03	465.19
332.258	472.19
332.486	445.19
332.715	450.19
332.943	424.19
333.172	441.19
333.4	423.19
333.629	450.19
333.857	474.19
334.085	466.19
334.314	499.19
334.542	518.19
334.771	551.19
334.999	501.19
335.227	460.19
335.455	431.19
335.684	449.19
335.912	434.19
336.14	429.19
336.369	416.19
336.597	416.19
336.825	447.19
337.053	428.19
337.281	406.19
337.51	412.19
337.738	432.19
337.966	412.19
338.194	426.19
338.422	429.19
338.65	442.19
338.878	416.19
339.106	412.19
339.334	411.19
339.562	391.19
339.79	408.19
340.018	402.19
340.246	413.19
340.474	409.19
340.702	412.19
340.93	405.19
341.158	408.19
341.386	403.19
341.614	443.19
341.842	424.19
342.07	421.19
342.298	415.19
342.526	390.19
342.754	384.19
342.981	390.19
343.209	399.19
343.437	398.19
343.665	406.19
343.893	411.19
344.12	406.19
344.348	418.19
344.576	418.19
344.804	429.19
345.031	450.19
345.259	450.19
345.487	436.19
345.714	422.19
345.942	412.19
346.17	402.19
346.397	417.19
346.625	400.19
346.853	405.19
347.08	399.19
347.308	395.19
347.535	441.19
347.763	417.19
347.99	412.19
348.218	442.19
348.445	422.19
348.673	423.19
348.9	417.19
349.128	392.19
349.355	390.19
349.583	392.19
349.81	406.19
350.037	394.19
350.265	398.19
350.492	400.19
350.72	414.19
350.947	402.19
351.174	414.19
351.402	411.19
351.629	415.19
351.856	425.19
352.083	442.19
352.311	422.19
352.538	424.19
352.765	425.19
352.992	418.19
353.22	418.19
353.447	405.19
353.674	418.19
353.901	376.19
354.128	395.19
354.355	382.19
354.583	392.19
354.81	376.19
355.037	395.19
355.264	390.19
355.491	374.19
355.718	373.19
355.945	360.19
356.172	382.19
356.399	386.19
356.626	378.19
356.853	365.19
357.08	384.19
357.307	376.19
357.534	396.19
357.761	396.19
357.988	381.19
358.215	385.19
358.441	394.19
358.668	376.19
358.895	400.19
359.122	384.19
359.349	416.19
359.576	417.19
359.802	465.19
360.029	480.19
360.256	484.19
360.483	445.19
360.709	428.19
360.936	445.19
361.163	419.19
361.39	415.19
361.616	429.19
361.843	415.19
362.07	420.19
362.296	432.19
362.523	394.19
362.749	413.19
362.976	413.19
363.203	407.19
363.429	403.19
363.656	409.19
363.882	412.19
364.109	400.19
364.335	391.19
364.562	390.19
364.788	390.19
365.015	403.19
365.241	406.19
365.468	416.19
365.694	418.19
365.92	405.19
366.147	415.19
366.373	397.19
366.599	402.19
366.826	394.19
367.052	405.19
367.278	410.19
367.505	399.19
367.731	394.19
367.957	394.19
368.184	410.19
368.41	409.19
368.636	415.19
368.862	424.19
369.089	430.19
369.315	421.19
369.541	393.19
369.767	404.19
369.993	416.19
370.219	405.19
370.445	403.19
370.672	380.19
370.898	377.19
371.124	394.19
371.35	391.19
371.576	378.19
371.802	388.19
372.028	405.19
372.254	404.19
372.48	394.19
372.706	413.19
372.932	396.19
373.158	408.19
373.384	405.19
373.61	403.19
373.835	399.19
374.061	397.19
374.287	409.19
374.513	398.19
374.739	403.19
374.965	404.19
375.191	382.19
375.416	405.19
375.642	394.19
375.868	404.19
376.094	388.19
376.319	401.19
376.545	388.19
376.771	391.19
376.997	384.19
377.222	386.19
377.448	400.19
377.674	389.19
377.899	409.19
378.125	396.19
378.35	399.19
378.576	400.19
378.802	406.19
379.027	395.19
379.253	399.19
379.478	391.19
379.704	390.19
379.929	407.19
380.155	396.19
380.38	388.19
380.606	392.19
380.831	387.19
381.057	417.19
381.282	404.19
381.507	390.19
381.733	402.19
381.958	405.19
382.184	415.19
382.409	406.19
382.634	409.19
382.86	398.19
383.085	398.19
383.31	394.19
383.535	423.19
383.761	414.19
383.986	415.19
384.211	417.19
384.436	398.19
384.662	414.19
384.887	429.19
385.112	422.19
385.337	415.19
385.562	424.19
385.787	442.19
386.013	446.19
386.238	461.19
386.463	414.19
386.688	434.19
386.913	438.19
387.138	421.19
387.363	429.19
387.588	419.19
387.813	430.19
388.038	436.19
388.263	418.19
388.488	438.19
388.713	422.19
388.938	447.19
389.163	435.19
389.387	452.19
389.612	427.19
389.837	428.19
390.062	439.19
390.287	448.19
390.512	443.19
390.736	430.19
390.961	460.19
391.186	445.19
391.411	435.19
391.636	429.19
391.86	424.19
392.085	476.19
392.31	449.19
392.534	445.19
392.759	427.19
392.984	461.19
393.208	445.19
393.433	462.19
393.658	470.19
393.882	479.19
394.107	428.19
394.331	427.19
394.556	448.19
394.78	443.19
395.005	458.19
395.229	444.19
395.454	462.19
395.678	456.19
395.903	463.19
396.127	478.19
396.352	489.19
396.576	467.19
396.801	442.19
397.025	454.19
397.249	463.19
397.474	464.19
397.698	461.19
397.922	475.19
398.147	488.19
398.371	477.19
398.595	501.19
398.82	489.19
399.044	489.19
399.268	498.19
399.492	514.19
399.717	552.19
399.941	556.19
400.165	611.19
400.389	609.19
400.613	548.19
400.837	536.19
401.062	492.19
401.286	510.19
401.51	500.19
401.734	493.19
401.958	502.19
402.182	493.19
402.406	512.19
402.63	520.19
402.854	515.19
403.078	519.19
403.302	491.19
403.526	513.19
403.75	528.19
403.974	504.19
404.198	505.19
404.422	515.19
404.645	536.19
404.869	537.19
405.093	562.19
405.317	612.19
405.541	628.19
405.765	557.19
405.988	560.19
406.212	559.19
406.436	591.19
406.66	603.19
406.883	578.19
407.107	596.19
407.331	630.19
407.555	661.19
407.778	662.19
408.002	612.19
408.226	602.19
408.449	573.19
408.673	582.19
408.896	606.19
409.12	668.19
409.344	626.19
409.567	551.19
409.791	536.19
410.014	518.19
410.238	513.19
410.461	548.19
410.685	529.19
410.908	540.19
411.132	573.19
411.355	616.19
411.578	600.19
411.802	537.19
412.025	520.19
412.249	534.19
412.472	550.19
412.695	597.19
412.919	616.19
413.142	557.19
413.365	528.19
413.589	512.19
413.812	507.19
414.035	494.19
414.258	502.19
414.482	516.19
414.705	494.19
414.928	480.19
415.151	489.19
415.374	494.19
415.597	493.19
415.821	478.19
416.044	518.19
416.267	499.19
416.49	510.19
416.713	476.19
416.936	485.19
417.159	503.19
417.382	511.19
417.605	499.19
417.828	512.19
418.051	526.19
418.274	515.19
418.497	524.19
418.72	507.19
418.943	490.19
419.166	518.19
419.389	525.19
419.611	542.19
419.834	514.19
420.057	527.19
420.28	550.19
420.503	518.19
420.726	525.19
420.948	531.19
421.171	574.19
421.394	600.19
421.617	554.19
421.839	538.19
422.062	548.19
422.285	548.19
422.507	608.19
422.73	661.19
422.953	639.19
423.175	591.19
423.398	562.19
423.621	551.19
423.843	570.19
424.066	603.19
424.288	543.19
424.511	595.19
424.733	647.19
424.956	742.19
425.178	710.19
425.401	703.19
425.623	704.19
425.846	622.19
426.068	605.19
426.291	593.19
426.513	590.19
426.735	585.19
426.958	607.19
427.18	715.19
427.402	829.19
427.625	916.19
427.847	861.19
428.069	727.19
428.292	659.19
428.514	592.19
428.736	563.19
428.958	549.19
429.181	566.19
429.403	551.19
429.625	560.19
429.847	574.19
430.069	640.19
430.292	628.19
430.514	567.19
430.736	548.19
430.958	535.19
431.18	515.19
431.402	526.19
431.624	488.19
431.846	509.19
432.068	517.19
432.29	503.19
432.512	529.19
432.734	507.19
432.956	508.19
433.178	533.19
433.4	536.19
433.622	528.19
433.844	514.19
434.066	496.19
434.287	490.19
434.509	526.19
434.731	532.19
434.953	538.19
435.175	527.19
435.397	588.19
435.618	581.19
435.84	628.19
436.062	714.19
436.284	777.19
436.505	680.19
436.727	602.19
436.949	568.19
437.17	576.19
437.392	543.19
437.614	574.19
437.835	608.19
438.057	691.19
438.278	815.19
438.5	789.19
438.721	883.19
438.943	812.19
439.165	689.19
439.386	614.19
439.608	609.19
439.829	626.19
440.05	637.19
440.272	659.19
440.493	626.19
440.715	586.19
440.936	576.19
441.158	547.19
441.379	554.19
441.6	559.19
441.822	591.19
442.043	623.19
442.264	725.19
442.486	731.19
442.707	658.19
442.928	622.19
443.149	612.19
443.371	613.19
443.592	702.19
443.813	776.19
444.034	811.19
444.255	675.19
444.476	638.19
444.698	584.19
444.919	580.19
445.14	700.19
445.361	633.19
445.582	629.19
445.803	696.19
446.024	778.19
446.245	778.19
446.466	734.19
446.687	642.19
446.908	591.19
447.129	559.19
447.35	544.19
447.571	565.19
447.792	546.19
448.013	570.19
448.234	589.19
448.455	640.19
448.675	754.19
448.896	827.19
449.117	701.19
449.338	680.19
449.559	780.19
449.779	855.19
450	716.19
450.221	601.19
450.442	568.19
450.662	548.19
450.883	543.19
451.104	571.19
451.324	555.19
451.545	519.19
451.766	516.19
451.986	499.19
452.207	488.19
452.428	479.19
452.648	492.19
452.869	492.19
453.089	490.19
453.31	507.19
453.53	496.19
453.751	491.19
453.971	496.19
454.192	522.19
454.412	504.19
454.633	494.19
454.853	480.19
455.073	473.19
455.294	527.19
455.514	585.19
455.734	572.19
455.955	491.19
456.175	459.19
456.395	442.19
456.616	465.19
456.836	442.19
457.056	456.19
457.276	448.19
457.497	454.19
457.717	439.19
457.937	469.19
458.157	465.19
458.377	455.19
458.598	490.19
458.818	574.19
459.038	647.19
459.258	648.19
459.478	551.19
459.698	524.19
459.918	501.19
460.138	502.19
460.358	484.19
460.578	498.19
460.798	479.19
461.018	509.19
461.238	505.19
461.458	480.19
461.678	490.19
461.898	490.19
462.118	493.19
462.338	506.19
462.558	505.19
462.777	512.19
462.997	534.19
463.217	538.19
463.437	543.19
463.657	534.19
463.876	547.19
464.096	523.19
464.316	534.19
464.536	522.19
464.755	570.19
464.975	533.19
465.195	593.19
465.414	676.19
465.634	591.19
465.854	548.19
466.073	522.19
466.293	521.19
466.512	503.19
466.732	500.19
466.951	507.19
467.171	478.19
467.391	510.19
467.61	492.19
467.829	520.19
468.049	494.19
468.268	491.19
468.488	495.19
468.707	500.19
468.927	479.19
469.146	487.19
469.365	490.19
469.585	501.19
469.804	475.19
470.023	498.19
470.243	513.19
470.462	512.19
470.681	529.19
470.901	526.19
471.12	498.19
471.339	509.19
471.558	502.19
471.777	532.19
471.997	488.19
472.216	524.19
472.435	547.19
472.654	540.19
472.873	515.19
473.092	515.19
473.311	519.19
473.53	518.19
473.749	517.19
473.968	558.19
474.187	663.19
474.406	678.19
474.625	571.19
474.844	528.19
475.063	522.19
475.282	511.19
475.501	504.19
475.72	524.19
475.939	522.19
476.158	527.19
476.377	537.19
476.596	527.19
476.814	519.19
477.033	543.19
477.252	534.19
477.471	558.19
477.69	543.19
477.908	542.19
478.127	552.19
478.346	566.19
478.564	536.19
478.783	551.19
479.002	573.19
479.22	589.19
479.439	598.19
479.658	611.19
479.876	621.19
480.095	620.19
480.313	654.19
480.532	643.19
480.751	628.19
480.969	642.19
481.188	719.19
481.406	759.19
481.624	665.19
481.843	608.19
482.061	607.19
482.28	590.19
482.498	599.19
482.717	602.19
482.935	605.19
483.153	613.19
483.372	596.19
483.59	599.19
483.808	587.19
484.027	625.19
484.245	624.19
484.463	612.19
484.681	633.19
484.9	609.19
485.118	621.19
485.336	597.19
485.554	615.19
485.772	628.19
485.99	626.19
486.209	634.19
486.427	629.19
486.645	638.19
486.863	665.19
487.081	674.19
487.299	671.19
487.517	663.19
487.735	646.19
487.953	633.19
488.171	666.19
488.389	664.19
488.607	667.19
488.825	662.19
489.043	675.19
489.261	685.19
489.479	644.19
489.696	649.19
489.914	672.19
490.132	700.19
490.35	692.19
490.568	693.19
490.786	704.19
491.003	707.19
491.221	722.19
491.439	727.19
491.657	736.19
491.874	775.19
492.092	747.19
492.31	774.19
492.527	790.19
492.745	790.19
492.963	778.19
493.18	788.19
493.398	798.19
493.615	788.19
493.833	766.19
494.05	804.19
494.268	785.19
494.485	790.19
494.703	791.19
494.92	786.19
495.138	790.19
495.355	807.19
495.573	823.19
495.79	811.19
496.008	801.19
496.225	794.19
496.442	784.19
496.66	805.19
496.877	778.19
497.094	808.19
497.312	791.19
497.529	839.19
497.746	806.19
497.963	842.19
498.181	857.19
498.398	850.19
498.615	846.19
498.832	852.19
499.049	867.19
499.267	890.19
499.484	898.19
499.701	911.19
499.918	933.19
500.135	958.19
500.352	958.19
500.569	966.19
500.786	996.19
501.003	986.19
501.22	962.19
501.437	958.19
501.654	942.19
501.871	966.19
