Data from 1970.PennyLincolnUp.Lamp.En5.5.200Scan.071719.P1._HRD10591_15-15-05-841.txt Node
Date: Thu Jul 18 15:15:05 EDT 2019
User: cochatt
Spectrometer: HR+D1059
Trigger mode: 1
Integration Time (sec): 1.000000E-1
Scans to average: 1
Electric dark correction enabled: true
Nonlinearity correction enabled: false
Boxcar width: 0
XAxis mode: Wavelengths
Number of Pixels in Spectrum: 2048
>>>>>Begin Spectral Data<<<<<
223.165	-5.25
223.4	-5.25
223.635	-5.25
223.869	-12.25
224.104	-17.25
224.338	-11.25
224.573	-17.25
224.808	-19.25
225.042	-2.25
225.277	-3.25
225.511	4.75
225.746	5.75
225.98	7.75
226.215	-6.25
226.449	15.75
226.683	12.75
226.918	21.75
227.152	25.75
227.387	24.75
227.621	37.75
227.856	52.75
228.09	43.75
228.324	57.75
228.559	56.75
228.793	57.75
229.027	118.75
229.262	115.75
229.496	133.75
229.73	144.75
229.964	185.75
230.199	139.75
230.433	125.75
230.667	134.75
230.901	107.75
231.136	113.75
231.37	118.75
231.604	115.75
231.838	117.75
232.072	131.75
232.306	131.75
232.541	130.75
232.775	104.75
233.009	114.75
233.243	124.75
233.477	121.75
233.711	121.75
233.945	127.75
234.179	137.75
234.413	123.75
234.647	137.75
234.881	111.75
235.115	123.75
235.349	115.75
235.583	129.75
235.817	115.75
236.051	127.75
236.285	141.75
236.519	131.75
236.753	154.75
236.987	162.75
237.221	198.75
237.455	257.75
237.689	215.75
237.922	154.75
238.156	151.75
238.39	135.75
238.624	138.75
238.858	131.75
239.091	131.75
239.325	132.75
239.559	134.75
239.793	149.75
240.027	147.75
240.26	154.75
240.494	164.75
240.728	165.75
240.961	173.75
241.195	157.75
241.429	151.75
241.662	148.75
241.896	137.75
242.13	125.75
242.363	154.75
242.597	155.75
242.83	141.75
243.064	161.75
243.298	146.75
243.531	141.75
243.765	169.75
243.998	159.75
244.232	161.75
244.465	159.75
244.699	171.75
244.932	146.75
245.166	153.75
245.399	164.75
245.633	155.75
245.866	150.75
246.099	172.75
246.333	160.75
246.566	167.75
246.8	156.75
247.033	164.75
247.266	164.75
247.5	164.75
247.733	186.75
247.966	174.75
248.2	177.75
248.433	204.75
248.666	190.75
248.899	191.75
249.133	223.75
249.366	231.75
249.599	235.75
249.832	220.75
250.066	211.75
250.299	210.75
250.532	213.75
250.765	222.75
250.998	259.75
251.231	268.75
251.465	250.75
251.698	235.75
251.931	210.75
252.164	212.75
252.397	212.75
252.63	227.75
252.863	229.75
253.096	238.75
253.329	261.75
253.562	248.75
253.795	244.75
254.028	236.75
254.261	266.75
254.494	255.75
254.727	273.75
254.96	323.75
255.193	319.75
255.426	289.75
255.659	269.75
255.892	264.75
256.124	264.75
256.357	271.75
256.59	259.75
256.823	241.75
257.056	247.75
257.289	223.75
257.521	217.75
257.754	223.75
257.987	219.75
258.22	219.75
258.452	230.75
258.685	223.75
258.918	242.75
259.151	261.75
259.383	251.75
259.616	241.75
259.849	238.75
260.081	265.75
260.314	276.75
260.547	291.75
260.779	276.75
261.012	272.75
261.244	252.75
261.477	245.75
261.71	230.75
261.942	263.75
262.175	275.75
262.407	256.75
262.64	235.75
262.872	218.75
263.105	242.75
263.337	259.75
263.57	215.75
263.802	241.75
264.035	239.75
264.267	216.75
264.499	216.75
264.732	230.75
264.964	226.75
265.197	226.75
265.429	222.75
265.661	215.75
265.894	210.75
266.126	203.75
266.358	227.75
266.591	230.75
266.823	244.75
267.055	247.75
267.287	251.75
267.52	232.75
267.752	234.75
267.984	242.75
268.216	248.75
268.448	255.75
268.681	234.75
268.913	263.75
269.145	296.75
269.377	292.75
269.609	289.75
269.841	310.75
270.073	289.75
270.306	315.75
270.538	344.75
270.77	350.75
271.002	323.75
271.234	328.75
271.466	314.75
271.698	344.75
271.93	358.75
272.162	335.75
272.394	340.75
272.626	338.75
272.858	311.75
273.09	309.75
273.322	282.75
273.553	294.75
273.785	289.75
274.017	276.75
274.249	289.75
274.481	273.75
274.713	292.75
274.945	282.75
275.176	290.75
275.408	271.75
275.64	269.75
275.872	272.75
276.104	289.75
276.335	296.75
276.567	293.75
276.799	305.75
277.031	341.75
277.262	328.75
277.494	328.75
277.726	311.75
277.957	310.75
278.189	299.75
278.421	297.75
278.652	293.75
278.884	293.75
279.115	305.75
279.347	273.75
279.579	262.75
279.81	285.75
280.042	280.75
280.273	278.75
280.505	260.75
280.736	267.75
280.968	271.75
281.199	276.75
281.431	284.75
281.662	263.75
281.894	277.75
282.125	283.75
282.356	296.75
282.588	320.75
282.819	326.75
283.051	299.75
283.282	279.75
283.513	285.75
283.745	269.75
283.976	291.75
284.207	305.75
284.439	287.75
284.67	281.75
284.901	269.75
285.132	278.75
285.364	292.75
285.595	274.75
285.826	273.75
286.057	284.75
286.288	279.75
286.52	283.75
286.751	270.75
286.982	272.75
287.213	287.75
287.444	303.75
287.675	285.75
287.906	298.75
288.138	318.75
288.369	302.75
288.6	317.75
288.831	289.75
289.062	311.75
289.293	309.75
289.524	295.75
289.755	314.75
289.986	293.75
290.217	269.75
290.448	290.75
290.679	286.75
290.91	290.75
291.141	301.75
291.371	293.75
291.602	304.75
291.833	286.75
292.064	282.75
292.295	314.75
292.526	297.75
292.757	294.75
292.987	284.75
293.218	298.75
293.449	303.75
293.68	292.75
293.91	296.75
294.141	284.75
294.372	289.75
294.603	296.75
294.833	298.75
295.064	306.75
295.295	305.75
295.525	278.75
295.756	290.75
295.987	317.75
296.217	338.75
296.448	358.75
296.679	312.75
296.909	294.75
297.14	296.75
297.37	301.75
297.601	295.75
297.831	292.75
298.062	305.75
298.292	319.75
298.523	308.75
298.753	321.75
298.984	300.75
299.214	321.75
299.445	298.75
299.675	312.75
299.905	331.75
300.136	327.75
300.366	318.75
300.597	308.75
300.827	333.75
301.057	312.75
301.288	329.75
301.518	325.75
301.748	323.75
301.979	319.75
302.209	317.75
302.439	330.75
302.669	323.75
302.9	330.75
303.13	318.75
303.36	342.75
303.59	337.75
303.82	327.75
304.051	348.75
304.281	332.75
304.511	326.75
304.741	336.75
304.971	315.75
305.201	322.75
305.431	322.75
305.661	349.75
305.891	321.75
306.121	325.75
306.352	323.75
306.582	346.75
306.812	319.75
307.042	328.75
307.272	337.75
307.502	357.75
307.731	359.75
307.961	332.75
308.191	334.75
308.421	333.75
308.651	330.75
308.881	347.75
309.111	357.75
309.341	338.75
309.571	342.75
309.8	382.75
310.03	387.75
310.26	402.75
310.49	379.75
310.72	417.75
310.949	408.75
311.179	422.75
311.409	407.75
311.639	386.75
311.868	388.75
312.098	395.75
312.328	405.75
312.557	419.75
312.787	438.75
313.017	431.75
313.246	416.75
313.476	393.75
313.706	392.75
313.935	392.75
314.165	390.75
314.394	431.75
314.624	389.75
314.853	423.75
315.083	379.75
315.312	392.75
315.542	393.75
315.771	381.75
316.001	379.75
316.23	386.75
316.46	374.75
316.689	405.75
316.919	401.75
317.148	402.75
317.377	423.75
317.607	414.75
317.836	396.75
318.065	410.75
318.295	377.75
318.524	395.75
318.753	374.75
318.983	376.75
319.212	399.75
319.441	398.75
319.67	425.75
319.9	419.75
320.129	414.75
320.358	406.75
320.587	398.75
320.816	425.75
321.046	434.75
321.275	401.75
321.504	414.75
321.733	461.75
321.962	437.75
322.191	443.75
322.42	469.75
322.649	487.75
322.878	498.75
323.108	492.75
323.337	527.75
323.566	565.75
323.795	597.75
324.024	661.75
324.253	808.75
324.482	1125.75
324.71	1788.75
324.939	2538.75
325.168	2185.75
325.397	1145.75
325.626	768.75
325.855	611.75
326.084	586.75
326.313	564.75
326.542	567.75
326.77	590.75
326.999	717.75
327.228	1013.75
327.457	1604.75
327.686	1875.75
327.914	1318.75
328.143	851.75
328.372	747.75
328.6	703.75
328.829	678.75
329.058	654.75
329.287	660.75
329.515	636.75
329.744	586.75
329.972	559.75
330.201	582.75
330.43	660.75
330.658	681.75
330.887	689.75
331.115	672.75
331.344	570.75
331.572	540.75
331.801	534.75
332.03	526.75
332.258	513.75
332.486	481.75
332.715	481.75
332.943	462.75
333.172	487.75
333.4	487.75
333.629	485.75
333.857	511.75
334.085	509.75
334.314	525.75
334.542	566.75
334.771	606.75
334.999	534.75
335.227	510.75
335.455	482.75
335.684	469.75
335.912	484.75
336.14	448.75
336.369	448.75
336.597	470.75
336.825	476.75
337.053	463.75
337.281	477.75
337.51	447.75
337.738	439.75
337.966	454.75
338.194	468.75
338.422	472.75
338.65	473.75
338.878	469.75
339.106	443.75
339.334	461.75
339.562	444.75
339.79	427.75
340.018	451.75
340.246	423.75
340.474	462.75
340.702	481.75
340.93	445.75
341.158	471.75
341.386	434.75
341.614	453.75
341.842	457.75
342.07	458.75
342.298	435.75
342.526	455.75
342.754	425.75
342.981	430.75
343.209	420.75
343.437	444.75
343.665	426.75
343.893	435.75
344.12	455.75
344.348	439.75
344.576	453.75
344.804	453.75
345.031	467.75
345.259	472.75
345.487	455.75
345.714	467.75
345.942	441.75
346.17	446.75
346.397	453.75
346.625	445.75
346.853	471.75
347.08	437.75
347.308	461.75
347.535	452.75
347.763	468.75
347.99	452.75
348.218	437.75
348.445	451.75
348.673	472.75
348.9	451.75
349.128	456.75
349.355	425.75
349.583	428.75
349.81	421.75
350.037	422.75
350.265	437.75
350.492	451.75
350.72	423.75
350.947	447.75
351.174	439.75
351.402	452.75
351.629	459.75
351.856	456.75
352.083	444.75
352.311	475.75
352.538	455.75
352.765	483.75
352.992	451.75
353.22	461.75
353.447	448.75
353.674	443.75
353.901	403.75
354.128	415.75
354.355	412.75
354.583	409.75
354.81	421.75
355.037	400.75
355.264	413.75
355.491	417.75
355.718	397.75
355.945	380.75
356.172	413.75
356.399	389.75
356.626	417.75
356.853	427.75
357.08	407.75
357.307	409.75
357.534	423.75
357.761	398.75
357.988	435.75
358.215	415.75
358.441	407.75
358.668	407.75
358.895	412.75
359.122	423.75
359.349	427.75
359.576	469.75
359.802	475.75
360.029	522.75
360.256	534.75
360.483	511.75
360.709	461.75
360.936	450.75
361.163	468.75
361.39	460.75
361.616	475.75
361.843	438.75
362.07	450.75
362.296	445.75
362.523	461.75
362.749	435.75
362.976	471.75
363.203	449.75
363.429	427.75
363.656	442.75
363.882	449.75
364.109	430.75
364.335	418.75
364.562	427.75
364.788	438.75
365.015	423.75
365.241	439.75
365.468	450.75
365.694	430.75
365.92	442.75
366.147	428.75
366.373	427.75
366.599	430.75
366.826	427.75
367.052	425.75
367.278	428.75
367.505	430.75
367.731	418.75
367.957	430.75
368.184	428.75
368.41	415.75
368.636	451.75
368.862	445.75
369.089	445.75
369.315	438.75
369.541	434.75
369.767	444.75
369.993	444.75
370.219	419.75
370.445	429.75
370.672	404.75
370.898	440.75
371.124	418.75
371.35	427.75
371.576	434.75
371.802	441.75
372.028	421.75
372.254	423.75
372.48	401.75
372.706	415.75
372.932	423.75
373.158	405.75
373.384	419.75
373.61	421.75
373.835	441.75
374.061	417.75
374.287	433.75
374.513	416.75
374.739	415.75
374.965	417.75
375.191	414.75
375.416	428.75
375.642	412.75
375.868	430.75
376.094	430.75
376.319	438.75
376.545	431.75
376.771	429.75
376.997	437.75
377.222	430.75
377.448	431.75
377.674	431.75
377.899	424.75
378.125	419.75
378.35	430.75
378.576	423.75
378.802	419.75
379.027	430.75
379.253	426.75
379.478	405.75
379.704	439.75
379.929	437.75
380.155	421.75
380.38	417.75
380.606	442.75
380.831	418.75
381.057	422.75
381.282	421.75
381.507	428.75
381.733	420.75
381.958	413.75
382.184	423.75
382.409	449.75
382.634	423.75
382.86	449.75
383.085	439.75
383.31	437.75
383.535	457.75
383.761	441.75
383.986	445.75
384.211	436.75
384.436	437.75
384.662	465.75
384.887	458.75
385.112	451.75
385.337	463.75
385.562	453.75
385.787	452.75
386.013	471.75
386.238	471.75
386.463	475.75
386.688	460.75
386.913	469.75
387.138	468.75
387.363	458.75
387.588	450.75
387.813	460.75
388.038	448.75
388.263	455.75
388.488	455.75
388.713	461.75
388.938	465.75
389.163	467.75
389.387	454.75
389.612	453.75
389.837	436.75
390.062	461.75
390.287	456.75
390.512	450.75
390.736	470.75
390.961	456.75
391.186	446.75
391.411	482.75
391.636	477.75
391.86	468.75
392.085	442.75
392.31	456.75
392.534	501.75
392.759	461.75
392.984	482.75
393.208	475.75
393.433	479.75
393.658	500.75
393.882	466.75
394.107	471.75
394.331	482.75
394.556	467.75
394.78	447.75
395.005	470.75
395.229	474.75
395.454	471.75
395.678	475.75
395.903	482.75
396.127	514.75
396.352	520.75
396.576	483.75
396.801	468.75
397.025	465.75
397.249	476.75
397.474	505.75
397.698	477.75
397.922	508.75
398.147	523.75
398.371	542.75
398.595	517.75
398.82	511.75
399.044	510.75
399.268	533.75
399.492	568.75
399.717	579.75
399.941	606.75
400.165	629.75
400.389	649.75
400.613	579.75
400.837	549.75
401.062	544.75
401.286	538.75
401.51	524.75
401.734	535.75
401.958	543.75
402.182	551.75
402.406	561.75
402.63	561.75
402.854	549.75
403.078	540.75
403.302	564.75
403.526	551.75
403.75	541.75
403.974	531.75
404.198	520.75
404.422	560.75
404.645	555.75
404.869	575.75
405.093	617.75
405.317	621.75
405.541	677.75
405.765	643.75
405.988	605.75
406.212	590.75
406.436	596.75
406.66	629.75
406.883	603.75
407.107	629.75
407.331	661.75
407.555	748.75
407.778	733.75
408.002	671.75
408.226	622.75
408.449	606.75
408.673	605.75
408.896	632.75
409.12	700.75
409.344	645.75
409.567	599.75
409.791	594.75
410.014	562.75
410.238	542.75
410.461	550.75
410.685	586.75
410.908	586.75
411.132	625.75
411.355	677.75
411.578	645.75
411.802	583.75
412.025	583.75
412.249	561.75
412.472	615.75
412.695	636.75
412.919	610.75
413.142	597.75
413.365	569.75
413.589	565.75
413.812	558.75
414.035	553.75
414.258	521.75
414.482	539.75
414.705	540.75
414.928	542.75
415.151	522.75
415.374	536.75
415.597	546.75
415.821	536.75
416.044	554.75
416.267	535.75
416.49	537.75
416.713	521.75
416.936	526.75
417.159	527.75
417.382	557.75
417.605	546.75
417.828	576.75
418.051	575.75
418.274	575.75
418.497	539.75
418.72	539.75
418.943	540.75
419.166	546.75
419.389	566.75
419.611	584.75
419.834	579.75
420.057	558.75
420.28	568.75
420.503	559.75
420.726	592.75
420.948	598.75
421.171	638.75
421.394	660.75
421.617	601.75
421.839	563.75
422.062	576.75
422.285	588.75
422.507	632.75
422.73	742.75
422.953	726.75
423.175	633.75
423.398	581.75
423.621	592.75
423.843	627.75
424.066	603.75
424.288	618.75
424.511	641.75
424.733	697.75
424.956	784.75
425.178	753.75
425.401	789.75
425.623	771.75
425.846	659.75
426.068	639.75
426.291	628.75
426.513	633.75
426.735	641.75
426.958	713.75
427.18	797.75
427.402	937.75
427.625	982.75
427.847	881.75
428.069	771.75
428.292	702.75
428.514	645.75
428.736	636.75
428.958	622.75
429.181	584.75
429.403	601.75
429.625	622.75
429.847	638.75
430.069	706.75
430.292	681.75
430.514	597.75
430.736	575.75
430.958	585.75
431.18	546.75
431.402	565.75
431.624	539.75
431.846	525.75
432.068	561.75
432.29	537.75
432.512	529.75
432.734	544.75
432.956	564.75
433.178	571.75
433.4	549.75
433.622	573.75
433.844	545.75
434.066	547.75
434.287	528.75
434.509	540.75
434.731	543.75
434.953	563.75
435.175	578.75
435.397	602.75
435.618	613.75
435.84	673.75
436.062	769.75
436.284	829.75
436.505	738.75
436.727	645.75
436.949	575.75
437.17	576.75
437.392	583.75
437.614	620.75
437.835	665.75
438.057	757.75
438.278	868.75
438.5	887.75
438.721	926.75
438.943	891.75
439.165	742.75
439.386	703.75
439.608	659.75
439.829	649.75
440.05	695.75
440.272	732.75
440.493	700.75
440.715	607.75
440.936	614.75
441.158	573.75
441.379	578.75
441.6	589.75
441.822	630.75
442.043	679.75
442.264	775.75
442.486	838.75
442.707	685.75
442.928	670.75
443.149	657.75
443.371	683.75
443.592	726.75
443.813	850.75
444.034	883.75
444.255	759.75
444.476	645.75
444.698	625.75
444.919	630.75
445.14	727.75
445.361	683.75
445.582	678.75
445.803	755.75
446.024	862.75
446.245	882.75
446.466	801.75
446.687	702.75
446.908	651.75
447.129	618.75
447.35	603.75
447.571	592.75
447.792	592.75
448.013	601.75
448.234	596.75
448.455	669.75
448.675	812.75
448.896	895.75
449.117	781.75
449.338	759.75
449.559	854.75
449.779	923.75
450	807.75
450.221	679.75
450.442	613.75
450.662	631.75
450.883	621.75
451.104	589.75
451.324	618.75
451.545	575.75
451.766	539.75
451.986	538.75
452.207	517.75
452.428	490.75
452.648	539.75
452.869	510.75
453.089	547.75
453.31	564.75
453.53	539.75
453.751	533.75
453.971	549.75
454.192	548.75
454.412	564.75
454.633	535.75
454.853	522.75
455.073	511.75
455.294	551.75
455.514	618.75
455.734	627.75
455.955	527.75
456.175	516.75
456.395	487.75
456.616	482.75
456.836	502.75
457.056	477.75
457.276	478.75
457.497	492.75
457.717	498.75
457.937	493.75
458.157	503.75
458.377	500.75
458.598	542.75
458.818	595.75
459.038	695.75
459.258	735.75
459.478	623.75
459.698	570.75
459.918	529.75
460.138	531.75
460.358	532.75
460.578	556.75
460.798	534.75
461.018	526.75
461.238	537.75
461.458	533.75
461.678	541.75
461.898	526.75
462.118	524.75
462.338	533.75
462.558	545.75
462.777	549.75
462.997	573.75
463.217	571.75
463.437	563.75
463.657	580.75
463.876	565.75
464.096	557.75
464.316	549.75
464.536	572.75
464.755	583.75
464.975	588.75
465.195	659.75
465.414	739.75
465.634	675.75
465.854	611.75
466.073	589.75
466.293	551.75
466.512	549.75
466.732	520.75
466.951	522.75
467.171	539.75
467.391	532.75
467.61	549.75
467.829	550.75
468.049	556.75
468.268	550.75
468.488	527.75
468.707	510.75
468.927	541.75
469.146	515.75
469.365	529.75
469.585	498.75
469.804	527.75
470.023	543.75
470.243	540.75
470.462	560.75
470.681	577.75
470.901	561.75
471.12	535.75
471.339	538.75
471.558	538.75
471.777	551.75
471.997	521.75
472.216	547.75
472.435	600.75
472.654	601.75
472.873	529.75
473.092	537.75
473.311	546.75
473.53	555.75
473.749	549.75
473.968	601.75
474.187	707.75
474.406	748.75
474.625	627.75
474.844	574.75
475.063	540.75
475.282	562.75
475.501	549.75
475.72	550.75
475.939	544.75
476.158	553.75
476.377	547.75
476.596	570.75
476.814	574.75
477.033	553.75
477.252	595.75
477.471	592.75
477.69	583.75
477.908	616.75
478.127	589.75
478.346	597.75
478.564	603.75
478.783	599.75
479.002	615.75
479.22	608.75
479.439	639.75
479.658	668.75
479.876	642.75
480.095	659.75
480.313	711.75
480.532	667.75
480.751	649.75
480.969	681.75
481.188	759.75
481.406	851.75
481.624	727.75
481.843	682.75
482.061	681.75
482.28	670.75
482.498	661.75
482.717	643.75
482.935	652.75
483.153	647.75
483.372	652.75
483.59	659.75
483.808	636.75
484.027	627.75
484.245	659.75
484.463	648.75
484.681	647.75
484.9	655.75
485.118	676.75
485.336	673.75
485.554	666.75
485.772	678.75
485.99	672.75
486.209	645.75
486.427	686.75
486.645	696.75
486.863	712.75
487.081	719.75
487.299	708.75
487.517	701.75
487.735	716.75
487.953	702.75
488.171	735.75
488.389	721.75
488.607	746.75
488.825	714.75
489.043	715.75
489.261	701.75
489.479	711.75
489.696	710.75
489.914	731.75
490.132	723.75
490.35	738.75
490.568	743.75
490.786	756.75
491.003	769.75
491.221	796.75
491.439	801.75
491.657	826.75
491.874	838.75
492.092	830.75
492.31	860.75
492.527	828.75
492.745	838.75
492.963	824.75
493.18	839.75
493.398	874.75
493.615	839.75
493.833	870.75
494.05	885.75
494.268	873.75
494.485	872.75
494.703	827.75
494.92	870.75
495.138	876.75
495.355	865.75
495.573	891.75
495.79	860.75
496.008	845.75
496.225	844.75
496.442	854.75
496.66	856.75
496.877	873.75
497.094	883.75
497.312	872.75
497.529	861.75
497.746	889.75
497.963	873.75
498.181	937.75
498.398	869.75
498.615	918.75
498.832	918.75
499.049	935.75
499.267	925.75
499.484	950.75
499.701	987.75
499.918	1016.75
500.135	1009.75
500.352	1061.75
500.569	1051.75
500.786	1091.75
501.003	1079.75
501.22	1034.75
501.437	1028.75
501.654	1001.75
501.871	1029.75
