Data from 1970.PennyLincolnUp.Lamp.En5.5.200Scan.071719.P1._HRD10591_15-13-48-843.txt Node
Date: Thu Jul 18 15:13:48 EDT 2019
User: cochatt
Spectrometer: HR+D1059
Trigger mode: 1
Integration Time (sec): 1.000000E-1
Scans to average: 1
Electric dark correction enabled: true
Nonlinearity correction enabled: false
Boxcar width: 0
XAxis mode: Wavelengths
Number of Pixels in Spectrum: 2048
>>>>>Begin Spectral Data<<<<<
223.165	-8.88
223.4	-8.88
223.635	-8.88
223.869	-9.88
224.104	-12.88
224.338	-17.88
224.573	-13.88
224.808	-17.88
225.042	-7.88
225.277	-16.88
225.511	-3.88
225.746	-13.88
225.98	7.12
226.215	8.12
226.449	23.12
226.683	27.12
226.918	26.12
227.152	32.12
227.387	22.12
227.621	50.12
227.856	50.12
228.09	53.12
228.324	55.12
228.559	58.12
228.793	64.12
229.027	106.12
229.262	109.12
229.496	95.12
229.73	137.12
229.964	156.12
230.199	145.12
230.433	110.12
230.667	120.12
230.901	117.12
231.136	124.12
231.37	120.12
231.604	117.12
231.838	108.12
232.072	107.12
232.306	110.12
232.541	108.12
232.775	124.12
233.009	120.12
233.243	110.12
233.477	107.12
233.711	105.12
233.945	120.12
234.179	125.12
234.413	128.12
234.647	108.12
234.881	126.12
235.115	114.12
235.349	123.12
235.583	119.12
235.817	124.12
236.051	141.12
236.285	125.12
236.519	119.12
236.753	145.12
236.987	160.12
237.221	197.12
237.455	267.12
237.689	191.12
237.922	142.12
238.156	149.12
238.39	146.12
238.624	131.12
238.858	119.12
239.091	123.12
239.325	126.12
239.559	123.12
239.793	130.12
240.027	142.12
240.26	133.12
240.494	186.12
240.728	164.12
240.961	155.12
241.195	149.12
241.429	158.12
241.662	130.12
241.896	146.12
242.13	131.12
242.363	140.12
242.597	151.12
242.83	148.12
243.064	144.12
243.298	130.12
243.531	128.12
243.765	163.12
243.998	151.12
244.232	148.12
244.465	160.12
244.699	155.12
244.932	152.12
245.166	151.12
245.399	156.12
245.633	143.12
245.866	163.12
246.099	155.12
246.333	158.12
246.566	160.12
246.8	167.12
247.033	141.12
247.266	160.12
247.5	180.12
247.733	169.12
247.966	194.12
248.2	188.12
248.433	179.12
248.666	169.12
248.899	194.12
249.133	216.12
249.366	241.12
249.599	212.12
249.832	214.12
250.066	202.12
250.299	194.12
250.532	211.12
250.765	211.12
250.998	236.12
251.231	240.12
251.465	249.12
251.698	228.12
251.931	207.12
252.164	207.12
252.397	210.12
252.63	208.12
252.863	226.12
253.096	233.12
253.329	224.12
253.562	230.12
253.795	237.12
254.028	242.12
254.261	236.12
254.494	270.12
254.727	265.12
254.96	311.12
255.193	277.12
255.426	259.12
255.659	234.12
255.892	251.12
256.124	235.12
256.357	231.12
256.59	236.12
256.823	232.12
257.056	228.12
257.289	207.12
257.521	222.12
257.754	227.12
257.987	218.12
258.22	221.12
258.452	215.12
258.685	225.12
258.918	216.12
259.151	200.12
259.383	225.12
259.616	251.12
259.849	254.12
260.081	236.12
260.314	262.12
260.547	266.12
260.779	247.12
261.012	242.12
261.244	249.12
261.477	233.12
261.71	212.12
261.942	232.12
262.175	243.12
262.407	246.12
262.64	227.12
262.872	213.12
263.105	204.12
263.337	231.12
263.57	240.12
263.802	222.12
264.035	214.12
264.267	186.12
264.499	211.12
264.732	219.12
264.964	209.12
265.197	212.12
265.429	214.12
265.661	201.12
265.894	212.12
266.126	220.12
266.358	215.12
266.591	211.12
266.823	234.12
267.055	231.12
267.287	232.12
267.52	238.12
267.752	253.12
267.984	241.12
268.216	249.12
268.448	245.12
268.681	246.12
268.913	250.12
269.145	252.12
269.377	275.12
269.609	276.12
269.841	266.12
270.073	264.12
270.306	300.12
270.538	318.12
270.77	292.12
271.002	318.12
271.234	292.12
271.466	321.12
271.698	312.12
271.93	312.12
272.162	315.12
272.394	319.12
272.626	312.12
272.858	281.12
273.09	292.12
273.322	284.12
273.553	256.12
273.785	270.12
274.017	239.12
274.249	274.12
274.481	277.12
274.713	276.12
274.945	264.12
275.176	273.12
275.408	276.12
275.64	266.12
275.872	274.12
276.104	268.12
276.335	270.12
276.567	259.12
276.799	290.12
277.031	312.12
277.262	328.12
277.494	329.12
277.726	301.12
277.957	292.12
278.189	278.12
278.421	269.12
278.652	262.12
278.884	265.12
279.115	258.12
279.347	252.12
279.579	258.12
279.81	265.12
280.042	274.12
280.273	260.12
280.505	276.12
280.736	236.12
280.968	251.12
281.199	259.12
281.431	257.12
281.662	257.12
281.894	245.12
282.125	264.12
282.356	268.12
282.588	303.12
282.819	313.12
283.051	289.12
283.282	244.12
283.513	266.12
283.745	268.12
283.976	262.12
284.207	279.12
284.439	272.12
284.67	291.12
284.901	260.12
285.132	254.12
285.364	266.12
285.595	254.12
285.826	270.12
286.057	262.12
286.288	269.12
286.52	284.12
286.751	286.12
286.982	266.12
287.213	274.12
287.444	270.12
287.675	270.12
287.906	291.12
288.138	288.12
288.369	301.12
288.6	307.12
288.831	271.12
289.062	290.12
289.293	280.12
289.524	274.12
289.755	276.12
289.986	281.12
290.217	277.12
290.448	280.12
290.679	270.12
290.91	274.12
291.141	272.12
291.371	270.12
291.602	272.12
291.833	281.12
292.064	285.12
292.295	282.12
292.526	288.12
292.757	260.12
292.987	280.12
293.218	271.12
293.449	289.12
293.68	285.12
293.91	272.12
294.141	287.12
294.372	291.12
294.603	292.12
294.833	278.12
295.064	271.12
295.295	298.12
295.525	297.12
295.756	286.12
295.987	290.12
296.217	319.12
296.448	329.12
296.679	296.12
296.909	278.12
297.14	267.12
297.37	276.12
297.601	279.12
297.831	287.12
298.062	283.12
298.292	290.12
298.523	287.12
298.753	300.12
298.984	293.12
299.214	285.12
299.445	297.12
299.675	292.12
299.905	290.12
300.136	291.12
300.366	280.12
300.597	289.12
300.827	308.12
301.057	325.12
301.288	320.12
301.518	330.12
301.748	312.12
301.979	286.12
302.209	314.12
302.439	327.12
302.669	318.12
302.9	300.12
303.13	307.12
303.36	318.12
303.59	317.12
303.82	313.12
304.051	335.12
304.281	316.12
304.511	318.12
304.741	314.12
304.971	293.12
305.201	304.12
305.431	298.12
305.661	322.12
305.891	310.12
306.121	304.12
306.352	328.12
306.582	334.12
306.812	327.12
307.042	342.12
307.272	349.12
307.502	314.12
307.731	323.12
307.961	310.12
308.191	328.12
308.421	310.12
308.651	335.12
308.881	334.12
309.111	332.12
309.341	345.12
309.571	325.12
309.8	343.12
310.03	355.12
310.26	367.12
310.49	360.12
310.72	365.12
310.949	393.12
311.179	408.12
311.409	390.12
311.639	376.12
311.868	377.12
312.098	382.12
312.328	376.12
312.557	380.12
312.787	383.12
313.017	396.12
313.246	376.12
313.476	364.12
313.706	374.12
313.935	383.12
314.165	372.12
314.394	384.12
314.624	375.12
314.853	379.12
315.083	367.12
315.312	381.12
315.542	363.12
315.771	355.12
316.001	356.12
316.23	362.12
316.46	370.12
316.689	373.12
316.919	386.12
317.148	374.12
317.377	400.12
317.607	389.12
317.836	373.12
318.065	385.12
318.295	375.12
318.524	348.12
318.753	364.12
318.983	365.12
319.212	364.12
319.441	365.12
319.67	382.12
319.9	378.12
320.129	372.12
320.358	382.12
320.587	380.12
320.816	393.12
321.046	372.12
321.275	385.12
321.504	394.12
321.733	378.12
321.962	392.12
322.191	409.12
322.42	408.12
322.649	432.12
322.878	440.12
323.108	466.12
323.337	495.12
323.566	540.12
323.795	547.12
324.024	577.12
324.253	715.12
324.482	1005.12
324.71	1519.12
324.939	2153.12
325.168	1891.12
325.397	1009.12
325.626	687.12
325.855	542.12
326.084	502.12
326.313	499.12
326.542	522.12
326.77	569.12
326.999	652.12
327.228	924.12
327.457	1359.12
327.686	1658.12
327.914	1127.12
328.143	734.12
328.372	648.12
328.6	598.12
328.829	589.12
329.058	583.12
329.287	603.12
329.515	581.12
329.744	520.12
329.972	538.12
330.201	528.12
330.43	568.12
330.658	602.12
330.887	633.12
331.115	618.12
331.344	542.12
331.572	497.12
331.801	492.12
332.03	486.12
332.258	476.12
332.486	450.12
332.715	448.12
332.943	433.12
333.172	437.12
333.4	457.12
333.629	440.12
333.857	460.12
334.085	467.12
334.314	501.12
334.542	537.12
334.771	531.12
334.999	498.12
335.227	451.12
335.455	435.12
335.684	401.12
335.912	459.12
336.14	435.12
336.369	453.12
336.597	431.12
336.825	444.12
337.053	445.12
337.281	442.12
337.51	420.12
337.738	418.12
337.966	439.12
338.194	427.12
338.422	430.12
338.65	427.12
338.878	434.12
339.106	396.12
339.334	422.12
339.562	407.12
339.79	405.12
340.018	421.12
340.246	409.12
340.474	436.12
340.702	434.12
340.93	415.12
341.158	419.12
341.386	419.12
341.614	432.12
341.842	424.12
342.07	412.12
342.298	421.12
342.526	403.12
342.754	397.12
342.981	408.12
343.209	405.12
343.437	420.12
343.665	410.12
343.893	428.12
344.12	434.12
344.348	427.12
344.576	421.12
344.804	445.12
345.031	444.12
345.259	450.12
345.487	430.12
345.714	425.12
345.942	419.12
346.17	423.12
346.397	404.12
346.625	409.12
346.853	402.12
347.08	408.12
347.308	422.12
347.535	435.12
347.763	427.12
347.99	444.12
348.218	428.12
348.445	453.12
348.673	450.12
348.9	426.12
349.128	415.12
349.355	390.12
349.583	395.12
349.81	418.12
350.037	396.12
350.265	424.12
350.492	410.12
350.72	397.12
350.947	430.12
351.174	420.12
351.402	407.12
351.629	436.12
351.856	415.12
352.083	427.12
352.311	427.12
352.538	425.12
352.765	439.12
352.992	440.12
353.22	424.12
353.447	431.12
353.674	413.12
353.901	402.12
354.128	396.12
354.355	400.12
354.583	387.12
354.81	392.12
355.037	391.12
355.264	378.12
355.491	390.12
355.718	382.12
355.945	403.12
356.172	380.12
356.399	378.12
356.626	381.12
356.853	388.12
357.08	390.12
357.307	382.12
357.534	390.12
357.761	397.12
357.988	368.12
358.215	396.12
358.441	380.12
358.668	403.12
358.895	384.12
359.122	401.12
359.349	394.12
359.576	441.12
359.802	431.12
360.029	494.12
360.256	491.12
360.483	462.12
360.709	434.12
360.936	417.12
361.163	414.12
361.39	410.12
361.616	438.12
361.843	413.12
362.07	425.12
362.296	428.12
362.523	419.12
362.749	407.12
362.976	428.12
363.203	406.12
363.429	413.12
363.656	412.12
363.882	400.12
364.109	387.12
364.335	405.12
364.562	412.12
364.788	384.12
365.015	404.12
365.241	427.12
365.468	410.12
365.694	417.12
365.92	413.12
366.147	404.12
366.373	403.12
366.599	406.12
366.826	409.12
367.052	386.12
367.278	428.12
367.505	399.12
367.731	401.12
367.957	408.12
368.184	411.12
368.41	408.12
368.636	435.12
368.862	438.12
369.089	416.12
369.315	405.12
369.541	413.12
369.767	413.12
369.993	404.12
370.219	408.12
370.445	416.12
370.672	399.12
370.898	404.12
371.124	398.12
371.35	412.12
371.576	420.12
371.802	416.12
372.028	405.12
372.254	434.12
372.48	408.12
372.706	419.12
372.932	390.12
373.158	420.12
373.384	404.12
373.61	414.12
373.835	438.12
374.061	404.12
374.287	423.12
374.513	422.12
374.739	420.12
374.965	408.12
375.191	425.12
375.416	405.12
375.642	409.12
375.868	430.12
376.094	426.12
376.319	397.12
376.545	406.12
376.771	392.12
376.997	428.12
377.222	402.12
377.448	415.12
377.674	402.12
377.899	393.12
378.125	400.12
378.35	397.12
378.576	395.12
378.802	399.12
379.027	397.12
379.253	406.12
379.478	423.12
379.704	412.12
379.929	406.12
380.155	391.12
380.38	403.12
380.606	427.12
380.831	403.12
381.057	429.12
381.282	427.12
381.507	421.12
381.733	403.12
381.958	404.12
382.184	418.12
382.409	425.12
382.634	430.12
382.86	418.12
383.085	404.12
383.31	405.12
383.535	447.12
383.761	408.12
383.986	440.12
384.211	434.12
384.436	435.12
384.662	434.12
384.887	431.12
385.112	442.12
385.337	425.12
385.562	442.12
385.787	450.12
386.013	479.12
386.238	461.12
386.463	455.12
386.688	439.12
386.913	421.12
387.138	447.12
387.363	430.12
387.588	436.12
387.813	429.12
388.038	438.12
388.263	430.12
388.488	442.12
388.713	455.12
388.938	441.12
389.163	456.12
389.387	452.12
389.612	429.12
389.837	449.12
390.062	443.12
390.287	438.12
390.512	440.12
390.736	431.12
390.961	431.12
391.186	452.12
391.411	446.12
391.636	436.12
391.86	458.12
392.085	448.12
392.31	454.12
392.534	457.12
392.759	465.12
392.984	469.12
393.208	464.12
393.433	478.12
393.658	473.12
393.882	441.12
394.107	425.12
394.331	444.12
394.556	456.12
394.78	452.12
395.005	455.12
395.229	444.12
395.454	452.12
395.678	484.12
395.903	470.12
396.127	492.12
396.352	510.12
396.576	447.12
396.801	461.12
397.025	499.12
397.249	491.12
397.474	471.12
397.698	455.12
397.922	486.12
398.147	517.12
398.371	511.12
398.595	473.12
398.82	499.12
399.044	501.12
399.268	523.12
399.492	531.12
399.717	542.12
399.941	565.12
400.165	589.12
400.389	608.12
400.613	576.12
400.837	564.12
401.062	525.12
401.286	531.12
401.51	516.12
401.734	497.12
401.958	499.12
402.182	492.12
402.406	512.12
402.63	546.12
402.854	527.12
403.078	508.12
403.302	535.12
403.526	543.12
403.75	539.12
403.974	522.12
404.198	528.12
404.422	536.12
404.645	537.12
404.869	543.12
405.093	580.12
405.317	622.12
405.541	638.12
405.765	618.12
405.988	576.12
406.212	567.12
406.436	600.12
406.66	618.12
406.883	598.12
407.107	601.12
407.331	652.12
407.555	707.12
407.778	702.12
408.002	638.12
408.226	601.12
408.449	594.12
408.673	591.12
408.896	622.12
409.12	674.12
409.344	629.12
409.567	564.12
409.791	542.12
410.014	544.12
410.238	535.12
410.461	552.12
410.685	553.12
410.908	566.12
411.132	582.12
411.355	641.12
411.578	621.12
411.802	550.12
412.025	536.12
412.249	536.12
412.472	565.12
412.695	597.12
412.919	615.12
413.142	552.12
413.365	528.12
413.589	532.12
413.812	514.12
414.035	517.12
414.258	516.12
414.482	498.12
414.705	518.12
414.928	510.12
415.151	508.12
415.374	510.12
415.597	493.12
415.821	477.12
416.044	507.12
416.267	510.12
416.49	513.12
416.713	532.12
416.936	486.12
417.159	494.12
417.382	523.12
417.605	520.12
417.828	527.12
418.051	551.12
418.274	551.12
418.497	524.12
418.72	502.12
418.943	523.12
419.166	544.12
419.389	541.12
419.611	546.12
419.834	519.12
420.057	543.12
420.28	568.12
420.503	546.12
420.726	524.12
420.948	554.12
421.171	597.12
421.394	624.12
421.617	571.12
421.839	543.12
422.062	562.12
422.285	542.12
422.507	616.12
422.73	700.12
422.953	696.12
423.175	614.12
423.398	554.12
423.621	553.12
423.843	581.12
424.066	579.12
424.288	576.12
424.511	592.12
424.733	665.12
424.956	714.12
425.178	715.12
425.401	728.12
425.623	772.12
425.846	636.12
426.068	608.12
426.291	588.12
426.513	571.12
426.735	591.12
426.958	650.12
427.18	704.12
427.402	868.12
427.625	919.12
427.847	839.12
428.069	742.12
428.292	675.12
428.514	614.12
428.736	578.12
428.958	587.12
429.181	560.12
429.403	568.12
429.625	575.12
429.847	618.12
430.069	667.12
430.292	668.12
430.514	599.12
430.736	550.12
430.958	552.12
431.18	520.12
431.402	554.12
431.624	502.12
431.846	508.12
432.068	516.12
432.29	520.12
432.512	518.12
432.734	543.12
432.956	524.12
433.178	531.12
433.4	542.12
433.622	530.12
433.844	511.12
434.066	518.12
434.287	537.12
434.509	520.12
434.731	522.12
434.953	540.12
435.175	552.12
435.397	581.12
435.618	607.12
435.84	640.12
436.062	733.12
436.284	792.12
436.505	654.12
436.727	607.12
436.949	586.12
437.17	569.12
437.392	544.12
437.614	561.12
437.835	594.12
438.057	732.12
438.278	813.12
438.5	788.12
438.721	873.12
438.943	833.12
439.165	706.12
439.386	644.12
439.608	657.12
439.829	617.12
440.05	638.12
440.272	698.12
440.493	651.12
440.715	597.12
440.936	582.12
441.158	551.12
441.379	550.12
441.6	584.12
441.822	604.12
442.043	630.12
442.264	703.12
442.486	746.12
442.707	656.12
442.928	603.12
443.149	635.12
443.371	645.12
443.592	709.12
443.813	778.12
444.034	828.12
444.255	687.12
444.476	628.12
444.698	592.12
444.919	610.12
445.14	716.12
445.361	650.12
445.582	670.12
445.803	694.12
446.024	829.12
446.245	825.12
446.466	756.12
446.687	681.12
446.908	610.12
447.129	572.12
447.35	564.12
447.571	579.12
447.792	555.12
448.013	560.12
448.234	590.12
448.455	631.12
448.675	762.12
448.896	848.12
449.117	754.12
449.338	719.12
449.559	783.12
449.779	870.12
450	741.12
450.221	667.12
450.442	568.12
450.662	566.12
450.883	542.12
451.104	557.12
451.324	558.12
451.545	537.12
451.766	503.12
451.986	490.12
452.207	498.12
452.428	470.12
452.648	487.12
452.869	496.12
453.089	522.12
453.31	514.12
453.53	503.12
453.751	495.12
453.971	498.12
454.192	504.12
454.412	512.12
454.633	489.12
454.853	502.12
455.073	539.12
455.294	535.12
455.514	593.12
455.734	594.12
455.955	485.12
456.175	482.12
456.395	479.12
456.616	458.12
456.836	464.12
457.056	441.12
457.276	460.12
457.497	468.12
457.717	465.12
457.937	467.12
458.157	488.12
458.377	474.12
458.598	521.12
458.818	592.12
459.038	654.12
459.258	678.12
459.478	568.12
459.698	525.12
459.918	527.12
460.138	515.12
460.358	503.12
460.578	528.12
460.798	508.12
461.018	513.12
461.238	507.12
461.458	532.12
461.678	506.12
461.898	508.12
462.118	528.12
462.338	519.12
462.558	515.12
462.777	543.12
462.997	555.12
463.217	550.12
463.437	551.12
463.657	532.12
463.876	543.12
464.096	525.12
464.316	537.12
464.536	555.12
464.755	547.12
464.975	578.12
465.195	620.12
465.414	704.12
465.634	636.12
465.854	573.12
466.073	544.12
466.293	535.12
466.512	522.12
466.732	498.12
466.951	492.12
467.171	491.12
467.391	502.12
467.61	528.12
467.829	542.12
468.049	538.12
468.268	520.12
468.488	494.12
468.707	496.12
468.927	507.12
469.146	494.12
469.365	499.12
469.585	498.12
469.804	485.12
470.023	525.12
470.243	528.12
470.462	516.12
470.681	549.12
470.901	531.12
471.12	524.12
471.339	505.12
471.558	530.12
471.777	507.12
471.997	512.12
472.216	508.12
472.435	565.12
472.654	549.12
472.873	511.12
473.092	505.12
473.311	516.12
473.53	540.12
473.749	528.12
473.968	568.12
474.187	679.12
474.406	696.12
474.625	592.12
474.844	558.12
475.063	525.12
475.282	512.12
475.501	520.12
475.72	521.12
475.939	536.12
476.158	537.12
476.377	537.12
476.596	523.12
476.814	539.12
477.033	542.12
477.252	559.12
477.471	540.12
477.69	555.12
477.908	552.12
478.127	554.12
478.346	551.12
478.564	570.12
478.783	569.12
479.002	580.12
479.22	591.12
479.439	619.12
479.658	626.12
479.876	646.12
480.095	624.12
480.313	678.12
480.532	640.12
480.751	645.12
480.969	660.12
481.188	722.12
481.406	748.12
481.624	648.12
481.843	637.12
482.061	618.12
482.28	637.12
482.498	616.12
482.717	598.12
482.935	611.12
483.153	597.12
483.372	607.12
483.59	621.12
483.808	620.12
484.027	595.12
484.245	640.12
484.463	626.12
484.681	657.12
484.9	626.12
485.118	624.12
485.336	631.12
485.554	639.12
485.772	626.12
485.99	618.12
486.209	620.12
486.427	643.12
486.645	648.12
486.863	699.12
487.081	687.12
487.299	680.12
487.517	653.12
487.735	653.12
487.953	675.12
488.171	668.12
488.389	658.12
488.607	656.12
488.825	698.12
489.043	680.12
489.261	679.12
489.479	665.12
489.696	706.12
489.914	716.12
490.132	710.12
490.35	719.12
490.568	714.12
490.786	717.12
491.003	731.12
491.221	769.12
491.439	735.12
491.657	815.12
491.874	735.12
492.092	789.12
492.31	784.12
492.527	792.12
492.745	787.12
492.963	808.12
493.18	794.12
493.398	794.12
493.615	807.12
493.833	822.12
494.05	815.12
494.268	810.12
494.485	787.12
494.703	799.12
494.92	832.12
495.138	813.12
495.355	818.12
495.573	797.12
495.79	800.12
496.008	851.12
496.225	814.12
496.442	812.12
496.66	824.12
496.877	806.12
497.094	816.12
497.312	820.12
497.529	806.12
497.746	809.12
497.963	842.12
498.181	858.12
498.398	849.12
498.615	878.12
498.832	896.12
499.049	873.12
499.267	912.12
499.484	925.12
499.701	947.12
499.918	967.12
500.135	975.12
500.352	1019.12
500.569	1010.12
500.786	1006.12
501.003	1042.12
501.22	995.12
501.437	1027.12
501.654	961.12
501.871	967.12
