Data from 1970.PennyLincolnUp.Lamp.En5.5.200Scan.071719.P1._HRD10591_15-16-10-841.txt Node
Date: Thu Jul 18 15:16:10 EDT 2019
User: cochatt
Spectrometer: HR+D1059
Trigger mode: 1
Integration Time (sec): 1.000000E-1
Scans to average: 1
Electric dark correction enabled: true
Nonlinearity correction enabled: false
Boxcar width: 0
XAxis mode: Wavelengths
Number of Pixels in Spectrum: 2048
>>>>>Begin Spectral Data<<<<<
223.165	-0.81
223.4	-0.81
223.635	-0.81
223.869	-9.81
224.104	-15.81
224.338	-23.81
224.573	-14.81
224.808	-3.81
225.042	-13.81
225.277	-8.81
225.511	-14.81
225.746	1.19
225.98	12.19
226.215	8.19
226.449	20.19
226.683	9.19
226.918	26.19
227.152	29.19
227.387	29.19
227.621	32.19
227.856	25.19
228.09	49.19
228.324	55.19
228.559	61.19
228.793	53.19
229.027	102.19
229.262	104.19
229.496	126.19
229.73	160.19
229.964	171.19
230.199	142.19
230.433	129.19
230.667	127.19
230.901	120.19
231.136	115.19
231.37	129.19
231.604	104.19
231.838	117.19
232.072	112.19
232.306	115.19
232.541	116.19
232.775	128.19
233.009	131.19
233.243	117.19
233.477	122.19
233.711	131.19
233.945	127.19
234.179	102.19
234.413	117.19
234.647	131.19
234.881	120.19
235.115	125.19
235.349	123.19
235.583	130.19
235.817	141.19
236.051	147.19
236.285	139.19
236.519	134.19
236.753	131.19
236.987	163.19
237.221	196.19
237.455	259.19
237.689	228.19
237.922	156.19
238.156	133.19
238.39	147.19
238.624	152.19
238.858	150.19
239.091	136.19
239.325	159.19
239.559	143.19
239.793	148.19
240.027	163.19
240.26	165.19
240.494	166.19
240.728	165.19
240.961	165.19
241.195	151.19
241.429	158.19
241.662	147.19
241.896	141.19
242.13	151.19
242.363	141.19
242.597	150.19
242.83	143.19
243.064	147.19
243.298	141.19
243.531	150.19
243.765	143.19
243.998	169.19
244.232	147.19
244.465	171.19
244.699	155.19
244.932	157.19
245.166	162.19
245.399	152.19
245.633	158.19
245.866	152.19
246.099	122.19
246.333	180.19
246.566	170.19
246.8	151.19
247.033	164.19
247.266	164.19
247.5	175.19
247.733	173.19
247.966	190.19
248.2	197.19
248.433	177.19
248.666	199.19
248.899	202.19
249.133	231.19
249.366	222.19
249.599	227.19
249.832	190.19
250.066	198.19
250.299	207.19
250.532	209.19
250.765	229.19
250.998	249.19
251.231	249.19
251.465	235.19
251.698	227.19
251.931	211.19
252.164	210.19
252.397	233.19
252.63	224.19
252.863	240.19
253.096	241.19
253.329	258.19
253.562	273.19
253.795	259.19
254.028	236.19
254.261	236.19
254.494	234.19
254.727	291.19
254.96	313.19
255.193	303.19
255.426	292.19
255.659	277.19
255.892	269.19
256.124	271.19
256.357	264.19
256.59	246.19
256.823	240.19
257.056	235.19
257.289	236.19
257.521	232.19
257.754	221.19
257.987	231.19
258.22	228.19
258.452	211.19
258.685	225.19
258.918	228.19
259.151	231.19
259.383	235.19
259.616	246.19
259.849	234.19
260.081	258.19
260.314	269.19
260.547	279.19
260.779	278.19
261.012	264.19
261.244	263.19
261.477	237.19
261.71	246.19
261.942	239.19
262.175	267.19
262.407	257.19
262.64	241.19
262.872	231.19
263.105	231.19
263.337	238.19
263.57	229.19
263.802	210.19
264.035	231.19
264.267	212.19
264.499	222.19
264.732	230.19
264.964	220.19
265.197	217.19
265.429	225.19
265.661	205.19
265.894	206.19
266.126	231.19
266.358	208.19
266.591	218.19
266.823	235.19
267.055	256.19
267.287	235.19
267.52	247.19
267.752	221.19
267.984	227.19
268.216	210.19
268.448	237.19
268.681	243.19
268.913	260.19
269.145	284.19
269.377	305.19
269.609	262.19
269.841	291.19
270.073	295.19
270.306	318.19
270.538	341.19
270.77	339.19
271.002	314.19
271.234	322.19
271.466	319.19
271.698	332.19
271.93	351.19
272.162	352.19
272.394	344.19
272.626	338.19
272.858	324.19
273.09	295.19
273.322	300.19
273.553	281.19
273.785	280.19
274.017	287.19
274.249	284.19
274.481	280.19
274.713	277.19
274.945	296.19
275.176	285.19
275.408	293.19
275.64	281.19
275.872	273.19
276.104	274.19
276.335	277.19
276.567	270.19
276.799	311.19
277.031	330.19
277.262	326.19
277.494	335.19
277.726	329.19
277.957	300.19
278.189	290.19
278.421	278.19
278.652	280.19
278.884	262.19
279.115	268.19
279.347	283.19
279.579	281.19
279.81	274.19
280.042	287.19
280.273	265.19
280.505	272.19
280.736	265.19
280.968	275.19
281.199	265.19
281.431	275.19
281.662	267.19
281.894	276.19
282.125	290.19
282.356	280.19
282.588	316.19
282.819	329.19
283.051	281.19
283.282	259.19
283.513	275.19
283.745	273.19
283.976	278.19
284.207	281.19
284.439	282.19
284.67	289.19
284.901	271.19
285.132	250.19
285.364	284.19
285.595	275.19
285.826	281.19
286.057	277.19
286.288	289.19
286.52	272.19
286.751	296.19
286.982	273.19
287.213	298.19
287.444	281.19
287.675	275.19
287.906	306.19
288.138	309.19
288.369	321.19
288.6	313.19
288.831	315.19
289.062	312.19
289.293	290.19
289.524	290.19
289.755	283.19
289.986	278.19
290.217	271.19
290.448	280.19
290.679	274.19
290.91	299.19
291.141	285.19
291.371	287.19
291.602	296.19
291.833	284.19
292.064	304.19
292.295	303.19
292.526	296.19
292.757	300.19
292.987	304.19
293.218	295.19
293.449	279.19
293.68	279.19
293.91	272.19
294.141	276.19
294.372	278.19
294.603	306.19
294.833	297.19
295.064	269.19
295.295	296.19
295.525	293.19
295.756	306.19
295.987	306.19
296.217	329.19
296.448	332.19
296.679	305.19
296.909	302.19
297.14	312.19
297.37	298.19
297.601	292.19
297.831	307.19
298.062	300.19
298.292	310.19
298.523	305.19
298.753	297.19
298.984	325.19
299.214	300.19
299.445	309.19
299.675	303.19
299.905	338.19
300.136	319.19
300.366	298.19
300.597	321.19
300.827	323.19
301.057	326.19
301.288	330.19
301.518	330.19
301.748	327.19
301.979	331.19
302.209	328.19
302.439	311.19
302.669	316.19
302.9	327.19
303.13	315.19
303.36	316.19
303.59	311.19
303.82	345.19
304.051	349.19
304.281	311.19
304.511	309.19
304.741	326.19
304.971	321.19
305.201	322.19
305.431	332.19
305.661	332.19
305.891	337.19
306.121	331.19
306.352	329.19
306.582	355.19
306.812	324.19
307.042	328.19
307.272	339.19
307.502	319.19
307.731	332.19
307.961	342.19
308.191	330.19
308.421	339.19
308.651	342.19
308.881	333.19
309.111	351.19
309.341	339.19
309.571	355.19
309.8	373.19
310.03	377.19
310.26	380.19
310.49	407.19
310.72	418.19
310.949	407.19
311.179	425.19
311.409	404.19
311.639	391.19
311.868	383.19
312.098	411.19
312.328	389.19
312.557	424.19
312.787	435.19
313.017	441.19
313.246	420.19
313.476	397.19
313.706	388.19
313.935	405.19
314.165	418.19
314.394	427.19
314.624	406.19
314.853	402.19
315.083	381.19
315.312	391.19
315.542	383.19
315.771	403.19
316.001	372.19
316.23	381.19
316.46	402.19
316.689	382.19
316.919	415.19
317.148	394.19
317.377	410.19
317.607	398.19
317.836	413.19
318.065	372.19
318.295	391.19
318.524	383.19
318.753	387.19
318.983	391.19
319.212	392.19
319.441	412.19
319.67	423.19
319.9	398.19
320.129	390.19
320.358	394.19
320.587	383.19
320.816	408.19
321.046	439.19
321.275	414.19
321.504	418.19
321.733	437.19
321.962	442.19
322.191	431.19
322.42	467.19
322.649	487.19
322.878	496.19
323.108	515.19
323.337	522.19
323.566	536.19
323.795	602.19
324.024	633.19
324.253	794.19
324.482	1122.19
324.71	1769.19
324.939	2531.19
325.168	2210.19
325.397	1140.19
325.626	746.19
325.855	645.19
326.084	563.19
326.313	572.19
326.542	568.19
326.77	628.19
326.999	764.19
327.228	1035.19
327.457	1535.19
327.686	1855.19
327.914	1302.19
328.143	840.19
328.372	745.19
328.6	698.19
328.829	652.19
329.058	658.19
329.287	672.19
329.515	619.19
329.744	583.19
329.972	567.19
330.201	596.19
330.43	644.19
330.658	668.19
330.887	698.19
331.115	687.19
331.344	596.19
331.572	527.19
331.801	546.19
332.03	548.19
332.258	505.19
332.486	487.19
332.715	467.19
332.943	467.19
333.172	452.19
333.4	483.19
333.629	475.19
333.857	496.19
334.085	531.19
334.314	560.19
334.542	591.19
334.771	602.19
334.999	545.19
335.227	504.19
335.455	487.19
335.684	468.19
335.912	470.19
336.14	472.19
336.369	452.19
336.597	455.19
336.825	468.19
337.053	444.19
337.281	438.19
337.51	457.19
337.738	444.19
337.966	455.19
338.194	475.19
338.422	464.19
338.65	457.19
338.878	454.19
339.106	425.19
339.334	419.19
339.562	459.19
339.79	446.19
340.018	463.19
340.246	445.19
340.474	451.19
340.702	467.19
340.93	454.19
341.158	441.19
341.386	451.19
341.614	467.19
341.842	446.19
342.07	423.19
342.298	448.19
342.526	427.19
342.754	431.19
342.981	419.19
343.209	423.19
343.437	413.19
343.665	429.19
343.893	439.19
344.12	437.19
344.348	445.19
344.576	430.19
344.804	444.19
345.031	470.19
345.259	485.19
345.487	478.19
345.714	458.19
345.942	451.19
346.17	432.19
346.397	421.19
346.625	442.19
346.853	431.19
347.08	441.19
347.308	445.19
347.535	444.19
347.763	438.19
347.99	447.19
348.218	453.19
348.445	469.19
348.673	449.19
348.9	429.19
349.128	441.19
349.355	417.19
349.583	425.19
349.81	412.19
350.037	428.19
350.265	434.19
350.492	435.19
350.72	421.19
350.947	426.19
351.174	461.19
351.402	465.19
351.629	440.19
351.856	460.19
352.083	456.19
352.311	484.19
352.538	473.19
352.765	475.19
352.992	460.19
353.22	444.19
353.447	452.19
353.674	449.19
353.901	413.19
354.128	415.19
354.355	423.19
354.583	408.19
354.81	412.19
355.037	428.19
355.264	408.19
355.491	420.19
355.718	407.19
355.945	425.19
356.172	403.19
356.399	408.19
356.626	403.19
356.853	397.19
357.08	412.19
357.307	411.19
357.534	396.19
357.761	400.19
357.988	432.19
358.215	412.19
358.441	433.19
358.668	419.19
358.895	404.19
359.122	426.19
359.349	452.19
359.576	455.19
359.802	491.19
360.029	518.19
360.256	509.19
360.483	501.19
360.709	455.19
360.936	456.19
361.163	461.19
361.39	443.19
361.616	464.19
361.843	452.19
362.07	450.19
362.296	472.19
362.523	450.19
362.749	443.19
362.976	442.19
363.203	440.19
363.429	431.19
363.656	451.19
363.882	425.19
364.109	415.19
364.335	410.19
364.562	418.19
364.788	439.19
365.015	427.19
365.241	428.19
365.468	432.19
365.694	457.19
365.92	439.19
366.147	412.19
366.373	418.19
366.599	387.19
366.826	411.19
367.052	420.19
367.278	418.19
367.505	435.19
367.731	427.19
367.957	431.19
368.184	418.19
368.41	454.19
368.636	435.19
368.862	469.19
369.089	454.19
369.315	434.19
369.541	413.19
369.767	409.19
369.993	413.19
370.219	422.19
370.445	419.19
370.672	407.19
370.898	420.19
371.124	410.19
371.35	416.19
371.576	418.19
371.802	394.19
372.028	426.19
372.254	411.19
372.48	407.19
372.706	418.19
372.932	423.19
373.158	427.19
373.384	409.19
373.61	416.19
373.835	405.19
374.061	415.19
374.287	432.19
374.513	445.19
374.739	435.19
374.965	419.19
375.191	427.19
375.416	452.19
375.642	406.19
375.868	433.19
376.094	424.19
376.319	406.19
376.545	427.19
376.771	416.19
376.997	418.19
377.222	411.19
377.448	433.19
377.674	416.19
377.899	403.19
378.125	412.19
378.35	407.19
378.576	422.19
378.802	414.19
379.027	423.19
379.253	421.19
379.478	413.19
379.704	428.19
379.929	420.19
380.155	435.19
380.38	423.19
380.606	420.19
380.831	419.19
381.057	418.19
381.282	420.19
381.507	431.19
381.733	429.19
381.958	428.19
382.184	423.19
382.409	420.19
382.634	440.19
382.86	424.19
383.085	421.19
383.31	428.19
383.535	434.19
383.761	432.19
383.986	451.19
384.211	439.19
384.436	432.19
384.662	439.19
384.887	457.19
385.112	448.19
385.337	439.19
385.562	453.19
385.787	466.19
386.013	463.19
386.238	460.19
386.463	482.19
386.688	469.19
386.913	453.19
387.138	453.19
387.363	441.19
387.588	458.19
387.813	461.19
388.038	467.19
388.263	453.19
388.488	449.19
388.713	437.19
388.938	435.19
389.163	457.19
389.387	470.19
389.612	470.19
389.837	444.19
390.062	447.19
390.287	457.19
390.512	460.19
390.736	455.19
390.961	450.19
391.186	452.19
391.411	459.19
391.636	475.19
391.86	459.19
392.085	474.19
392.31	452.19
392.534	448.19
392.759	456.19
392.984	456.19
393.208	472.19
393.433	459.19
393.658	459.19
393.882	459.19
394.107	449.19
394.331	458.19
394.556	445.19
394.78	464.19
395.005	467.19
395.229	447.19
395.454	478.19
395.678	450.19
395.903	480.19
396.127	516.19
396.352	491.19
396.576	475.19
396.801	487.19
397.025	464.19
397.249	475.19
397.474	465.19
397.698	479.19
397.922	506.19
398.147	526.19
398.371	519.19
398.595	509.19
398.82	517.19
399.044	495.19
399.268	513.19
399.492	570.19
399.717	588.19
399.941	611.19
400.165	602.19
400.389	633.19
400.613	588.19
400.837	545.19
401.062	556.19
401.286	551.19
401.51	524.19
401.734	494.19
401.958	509.19
402.182	541.19
402.406	544.19
402.63	554.19
402.854	524.19
403.078	533.19
403.302	520.19
403.526	561.19
403.75	536.19
403.974	515.19
404.198	521.19
404.422	546.19
404.645	567.19
404.869	563.19
405.093	598.19
405.317	656.19
405.541	673.19
405.765	623.19
405.988	606.19
406.212	581.19
406.436	605.19
406.66	632.19
406.883	597.19
407.107	619.19
407.331	696.19
407.555	721.19
407.778	711.19
408.002	652.19
408.226	608.19
408.449	632.19
408.673	617.19
408.896	646.19
409.12	679.19
409.344	634.19
409.567	594.19
409.791	579.19
410.014	572.19
410.238	547.19
410.461	555.19
410.685	570.19
410.908	586.19
411.132	617.19
411.355	653.19
411.578	633.19
411.802	579.19
412.025	559.19
412.249	574.19
412.472	604.19
412.695	650.19
412.919	636.19
413.142	593.19
413.365	543.19
413.589	556.19
413.812	524.19
414.035	499.19
414.258	525.19
414.482	534.19
414.705	537.19
414.928	510.19
415.151	519.19
415.374	510.19
415.597	534.19
415.821	518.19
416.044	529.19
416.267	513.19
416.49	536.19
416.713	517.19
416.936	528.19
417.159	508.19
417.382	545.19
417.605	553.19
417.828	557.19
418.051	548.19
418.274	547.19
418.497	542.19
418.72	543.19
418.943	545.19
419.166	531.19
419.389	558.19
419.611	587.19
419.834	555.19
420.057	562.19
420.28	569.19
420.503	575.19
420.726	560.19
420.948	599.19
421.171	620.19
421.394	660.19
421.617	590.19
421.839	579.19
422.062	543.19
422.285	579.19
422.507	640.19
422.73	723.19
422.953	672.19
423.175	614.19
423.398	600.19
423.621	580.19
423.843	586.19
424.066	617.19
424.288	604.19
424.511	631.19
424.733	706.19
424.956	761.19
425.178	735.19
425.401	718.19
425.623	778.19
425.846	664.19
426.068	626.19
426.291	616.19
426.513	592.19
426.735	650.19
426.958	685.19
427.18	760.19
427.402	885.19
427.625	948.19
427.847	917.19
428.069	783.19
428.292	693.19
428.514	627.19
428.736	588.19
428.958	593.19
429.181	597.19
429.403	577.19
429.625	586.19
429.847	625.19
430.069	683.19
430.292	695.19
430.514	612.19
430.736	595.19
430.958	548.19
431.18	548.19
431.402	535.19
431.624	535.19
431.846	541.19
432.068	531.19
432.29	516.19
432.512	535.19
432.734	550.19
432.956	560.19
433.178	545.19
433.4	563.19
433.622	533.19
433.844	531.19
434.066	523.19
434.287	539.19
434.509	520.19
434.731	532.19
434.953	558.19
435.175	576.19
435.397	608.19
435.618	631.19
435.84	668.19
436.062	777.19
436.284	834.19
436.505	714.19
436.727	630.19
436.949	600.19
437.17	575.19
437.392	595.19
437.614	591.19
437.835	646.19
438.057	758.19
438.278	851.19
438.5	847.19
438.721	921.19
438.943	884.19
439.165	708.19
439.386	647.19
439.608	636.19
439.829	618.19
440.05	666.19
440.272	715.19
440.493	680.19
440.715	609.19
440.936	607.19
441.158	562.19
441.379	579.19
441.6	598.19
441.822	629.19
442.043	677.19
442.264	775.19
442.486	804.19
442.707	680.19
442.928	645.19
443.149	639.19
443.371	662.19
443.592	725.19
443.813	833.19
444.034	870.19
444.255	751.19
444.476	680.19
444.698	616.19
444.919	610.19
445.14	751.19
445.361	695.19
445.582	665.19
445.803	732.19
446.024	847.19
446.245	860.19
446.466	800.19
446.687	681.19
446.908	639.19
447.129	599.19
447.35	588.19
447.571	586.19
447.792	585.19
448.013	582.19
448.234	624.19
448.455	665.19
448.675	798.19
448.896	899.19
449.117	785.19
449.338	749.19
449.559	808.19
449.779	922.19
450	746.19
450.221	638.19
450.442	611.19
450.662	585.19
450.883	607.19
451.104	604.19
451.324	597.19
451.545	583.19
451.766	563.19
451.986	519.19
452.207	526.19
452.428	540.19
452.648	515.19
452.869	521.19
453.089	551.19
453.31	553.19
453.53	540.19
453.751	531.19
453.971	538.19
454.192	572.19
454.412	554.19
454.633	545.19
454.853	524.19
455.073	524.19
455.294	548.19
455.514	644.19
455.734	631.19
455.955	533.19
456.175	512.19
456.395	488.19
456.616	481.19
456.836	485.19
457.056	466.19
457.276	466.19
457.497	496.19
457.717	485.19
457.937	487.19
458.157	498.19
458.377	497.19
458.598	522.19
458.818	608.19
459.038	687.19
459.258	727.19
459.478	598.19
459.698	582.19
459.918	539.19
460.138	533.19
460.358	511.19
460.578	533.19
460.798	537.19
461.018	540.19
461.238	539.19
461.458	543.19
461.678	549.19
461.898	528.19
462.118	533.19
462.338	534.19
462.558	518.19
462.777	541.19
462.997	539.19
463.217	564.19
463.437	567.19
463.657	539.19
463.876	549.19
464.096	570.19
464.316	561.19
464.536	579.19
464.755	576.19
464.975	591.19
465.195	637.19
465.414	737.19
465.634	669.19
465.854	617.19
466.073	603.19
466.293	564.19
466.512	563.19
466.732	520.19
466.951	548.19
467.171	537.19
467.391	534.19
467.61	558.19
467.829	563.19
468.049	568.19
468.268	561.19
468.488	541.19
468.707	504.19
468.927	523.19
469.146	515.19
469.365	516.19
469.585	534.19
469.804	516.19
470.023	541.19
470.243	536.19
470.462	552.19
470.681	570.19
470.901	577.19
471.12	551.19
471.339	540.19
471.558	533.19
471.777	536.19
471.997	534.19
472.216	536.19
472.435	612.19
472.654	570.19
472.873	529.19
473.092	531.19
473.311	549.19
473.53	532.19
473.749	557.19
473.968	604.19
474.187	722.19
474.406	762.19
474.625	624.19
474.844	575.19
475.063	571.19
475.282	542.19
475.501	544.19
475.72	565.19
475.939	570.19
476.158	559.19
476.377	564.19
476.596	556.19
476.814	563.19
477.033	569.19
477.252	572.19
477.471	615.19
477.69	584.19
477.908	601.19
478.127	598.19
478.346	578.19
478.564	593.19
478.783	604.19
479.002	606.19
479.22	628.19
479.439	633.19
479.658	647.19
479.876	639.19
480.095	674.19
480.313	708.19
480.532	662.19
480.751	669.19
480.969	681.19
481.188	742.19
481.406	837.19
481.624	721.19
481.843	695.19
482.061	658.19
482.28	653.19
482.498	658.19
482.717	647.19
482.935	648.19
483.153	641.19
483.372	648.19
483.59	643.19
483.808	657.19
484.027	667.19
484.245	648.19
484.463	660.19
484.681	655.19
484.9	659.19
485.118	667.19
485.336	650.19
485.554	656.19
485.772	664.19
485.99	657.19
486.209	687.19
486.427	687.19
486.645	671.19
486.863	705.19
487.081	722.19
487.299	708.19
487.517	692.19
487.735	675.19
487.953	700.19
488.171	718.19
488.389	700.19
488.607	696.19
488.825	716.19
489.043	701.19
489.261	708.19
489.479	716.19
489.696	724.19
489.914	730.19
490.132	754.19
490.35	754.19
490.568	751.19
490.786	746.19
491.003	776.19
491.221	779.19
491.439	795.19
491.657	793.19
491.874	811.19
492.092	830.19
492.31	835.19
492.527	829.19
492.745	833.19
492.963	813.19
493.18	850.19
493.398	836.19
493.615	841.19
493.833	841.19
494.05	837.19
494.268	859.19
494.485	841.19
494.703	855.19
494.92	875.19
495.138	863.19
495.355	868.19
495.573	881.19
495.79	851.19
496.008	862.19
496.225	834.19
496.442	834.19
496.66	820.19
496.877	866.19
497.094	854.19
497.312	836.19
497.529	857.19
497.746	861.19
497.963	855.19
498.181	876.19
498.398	905.19
498.615	905.19
498.832	917.19
499.049	905.19
499.267	911.19
499.484	963.19
499.701	977.19
499.918	997.19
500.135	1004.19
500.352	1047.19
500.569	1039.19
500.786	1069.19
501.003	1068.19
501.22	1010.19
501.437	1048.19
501.654	1004.19
501.871	998.19
