Data from 1970.PennyLincolnUp.Lamp.En5.5.200Scan.071719.P1._HRD10591_15-15-56-841.txt Node
Date: Thu Jul 18 15:15:56 EDT 2019
User: cochatt
Spectrometer: HR+D1059
Trigger mode: 1
Integration Time (sec): 1.000000E-1
Scans to average: 1
Electric dark correction enabled: true
Nonlinearity correction enabled: false
Boxcar width: 0
XAxis mode: Wavelengths
Number of Pixels in Spectrum: 2048
>>>>>Begin Spectral Data<<<<<
223.165	-16.38
223.4	-16.38
223.635	-16.38
223.869	-9.38
224.104	-5.38
224.338	-21.38
224.573	-31.38
224.808	-3.38
225.042	-9.38
225.277	-13.38
225.511	-0.38
225.746	-9.38
225.98	6.62
226.215	15.62
226.449	16.62
226.683	15.62
226.918	39.62
227.152	25.62
227.387	30.62
227.621	35.62
227.856	46.62
228.09	49.62
228.324	47.62
228.559	47.62
228.793	86.62
229.027	120.62
229.262	136.62
229.496	127.62
229.73	157.62
229.964	170.62
230.199	152.62
230.433	134.62
230.667	127.62
230.901	124.62
231.136	105.62
231.37	144.62
231.604	128.62
231.838	124.62
232.072	117.62
232.306	122.62
232.541	110.62
232.775	125.62
233.009	108.62
233.243	108.62
233.477	117.62
233.711	124.62
233.945	129.62
234.179	130.62
234.413	122.62
234.647	119.62
234.881	113.62
235.115	140.62
235.349	127.62
235.583	121.62
235.817	128.62
236.051	143.62
236.285	139.62
236.519	128.62
236.753	153.62
236.987	168.62
237.221	194.62
237.455	274.62
237.689	215.62
237.922	161.62
238.156	147.62
238.39	164.62
238.624	156.62
238.858	144.62
239.091	145.62
239.325	130.62
239.559	134.62
239.793	136.62
240.027	149.62
240.26	158.62
240.494	169.62
240.728	164.62
240.961	156.62
241.195	172.62
241.429	150.62
241.662	152.62
241.896	151.62
242.13	156.62
242.363	135.62
242.597	150.62
242.83	146.62
243.064	148.62
243.298	156.62
243.531	140.62
243.765	137.62
243.998	145.62
244.232	157.62
244.465	155.62
244.699	152.62
244.932	154.62
245.166	162.62
245.399	159.62
245.633	173.62
245.866	170.62
246.099	165.62
246.333	157.62
246.566	172.62
246.8	167.62
247.033	180.62
247.266	184.62
247.5	182.62
247.733	198.62
247.966	170.62
248.2	193.62
248.433	207.62
248.666	199.62
248.899	210.62
249.133	228.62
249.366	249.62
249.599	210.62
249.832	204.62
250.066	210.62
250.299	207.62
250.532	208.62
250.765	217.62
250.998	257.62
251.231	258.62
251.465	249.62
251.698	235.62
251.931	211.62
252.164	221.62
252.397	237.62
252.63	230.62
252.863	235.62
253.096	252.62
253.329	249.62
253.562	258.62
253.795	249.62
254.028	247.62
254.261	246.62
254.494	254.62
254.727	286.62
254.96	306.62
255.193	313.62
255.426	289.62
255.659	249.62
255.892	278.62
256.124	266.62
256.357	265.62
256.59	268.62
256.823	251.62
257.056	257.62
257.289	240.62
257.521	240.62
257.754	213.62
257.987	220.62
258.22	217.62
258.452	239.62
258.685	224.62
258.918	229.62
259.151	236.62
259.383	241.62
259.616	254.62
259.849	232.62
260.081	252.62
260.314	288.62
260.547	294.62
260.779	289.62
261.012	270.62
261.244	250.62
261.477	253.62
261.71	256.62
261.942	246.62
262.175	274.62
262.407	254.62
262.64	242.62
262.872	241.62
263.105	241.62
263.337	254.62
263.57	259.62
263.802	221.62
264.035	233.62
264.267	229.62
264.499	224.62
264.732	226.62
264.964	238.62
265.197	223.62
265.429	219.62
265.661	220.62
265.894	234.62
266.126	229.62
266.358	223.62
266.591	232.62
266.823	251.62
267.055	224.62
267.287	248.62
267.52	227.62
267.752	238.62
267.984	233.62
268.216	240.62
268.448	236.62
268.681	247.62
268.913	260.62
269.145	290.62
269.377	296.62
269.609	293.62
269.841	296.62
270.073	296.62
270.306	317.62
270.538	354.62
270.77	357.62
271.002	322.62
271.234	334.62
271.466	327.62
271.698	349.62
271.93	367.62
272.162	350.62
272.394	336.62
272.626	329.62
272.858	305.62
273.09	301.62
273.322	309.62
273.553	288.62
273.785	306.62
274.017	284.62
274.249	262.62
274.481	294.62
274.713	288.62
274.945	284.62
275.176	279.62
275.408	270.62
275.64	275.62
275.872	279.62
276.104	274.62
276.335	278.62
276.567	297.62
276.799	300.62
277.031	341.62
277.262	321.62
277.494	338.62
277.726	329.62
277.957	327.62
278.189	291.62
278.421	292.62
278.652	294.62
278.884	284.62
279.115	276.62
279.347	269.62
279.579	281.62
279.81	288.62
280.042	294.62
280.273	271.62
280.505	268.62
280.736	267.62
280.968	280.62
281.199	282.62
281.431	286.62
281.662	260.62
281.894	278.62
282.125	280.62
282.356	320.62
282.588	331.62
282.819	304.62
283.051	302.62
283.282	277.62
283.513	279.62
283.745	273.62
283.976	282.62
284.207	278.62
284.439	268.62
284.67	288.62
284.901	293.62
285.132	292.62
285.364	274.62
285.595	284.62
285.826	274.62
286.057	293.62
286.288	294.62
286.52	288.62
286.751	291.62
286.982	292.62
287.213	285.62
287.444	290.62
287.675	291.62
287.906	320.62
288.138	310.62
288.369	305.62
288.6	283.62
288.831	304.62
289.062	320.62
289.293	273.62
289.524	280.62
289.755	298.62
289.986	280.62
290.217	285.62
290.448	298.62
290.679	297.62
290.91	303.62
291.141	283.62
291.371	301.62
291.602	289.62
291.833	286.62
292.064	297.62
292.295	284.62
292.526	287.62
292.757	292.62
292.987	284.62
293.218	300.62
293.449	284.62
293.68	292.62
293.91	305.62
294.141	300.62
294.372	302.62
294.603	305.62
294.833	305.62
295.064	297.62
295.295	297.62
295.525	293.62
295.756	300.62
295.987	314.62
296.217	337.62
296.448	338.62
296.679	316.62
296.909	319.62
297.14	310.62
297.37	299.62
297.601	303.62
297.831	287.62
298.062	281.62
298.292	305.62
298.523	310.62
298.753	322.62
298.984	311.62
299.214	313.62
299.445	316.62
299.675	314.62
299.905	310.62
300.136	313.62
300.366	317.62
300.597	328.62
300.827	324.62
301.057	336.62
301.288	331.62
301.518	327.62
301.748	309.62
301.979	338.62
302.209	313.62
302.439	330.62
302.669	336.62
302.9	321.62
303.13	318.62
303.36	330.62
303.59	322.62
303.82	350.62
304.051	345.62
304.281	324.62
304.511	333.62
304.741	324.62
304.971	321.62
305.201	308.62
305.431	333.62
305.661	329.62
305.891	330.62
306.121	341.62
306.352	323.62
306.582	360.62
306.812	336.62
307.042	338.62
307.272	336.62
307.502	323.62
307.731	343.62
307.961	348.62
308.191	332.62
308.421	351.62
308.651	346.62
308.881	334.62
309.111	350.62
309.341	354.62
309.571	372.62
309.8	369.62
310.03	384.62
310.26	402.62
310.49	409.62
310.72	416.62
310.949	429.62
311.179	437.62
311.409	396.62
311.639	400.62
311.868	420.62
312.098	388.62
312.328	418.62
312.557	420.62
312.787	425.62
313.017	420.62
313.246	406.62
313.476	384.62
313.706	393.62
313.935	407.62
314.165	425.62
314.394	422.62
314.624	408.62
314.853	409.62
315.083	388.62
315.312	390.62
315.542	377.62
315.771	385.62
316.001	383.62
316.23	386.62
316.46	374.62
316.689	395.62
316.919	400.62
317.148	410.62
317.377	420.62
317.607	412.62
317.836	386.62
318.065	393.62
318.295	390.62
318.524	382.62
318.753	371.62
318.983	358.62
319.212	384.62
319.441	407.62
319.67	392.62
319.9	415.62
320.129	380.62
320.358	389.62
320.587	428.62
320.816	406.62
321.046	406.62
321.275	419.62
321.504	421.62
321.733	437.62
321.962	434.62
322.191	439.62
322.42	468.62
322.649	474.62
322.878	496.62
323.108	522.62
323.337	563.62
323.566	568.62
323.795	605.62
324.024	660.62
324.253	816.62
324.482	1180.62
324.71	1767.62
324.939	2486.62
325.168	2184.62
325.397	1158.62
325.626	782.62
325.855	625.62
326.084	585.62
326.313	582.62
326.542	570.62
326.77	599.62
326.999	745.62
327.228	1030.62
327.457	1551.62
327.686	1892.62
327.914	1322.62
328.143	860.62
328.372	741.62
328.6	704.62
328.829	640.62
329.058	654.62
329.287	682.62
329.515	631.62
329.744	583.62
329.972	582.62
330.201	602.62
330.43	657.62
330.658	684.62
330.887	714.62
331.115	690.62
331.344	585.62
331.572	545.62
331.801	557.62
332.03	559.62
332.258	527.62
332.486	497.62
332.715	467.62
332.943	475.62
333.172	472.62
333.4	480.62
333.629	479.62
333.857	530.62
334.085	500.62
334.314	525.62
334.542	586.62
334.771	600.62
334.999	538.62
335.227	521.62
335.455	482.62
335.684	476.62
335.912	456.62
336.14	454.62
336.369	459.62
336.597	470.62
336.825	484.62
337.053	484.62
337.281	456.62
337.51	445.62
337.738	452.62
337.966	457.62
338.194	473.62
338.422	465.62
338.65	450.62
338.878	454.62
339.106	428.62
339.334	436.62
339.562	461.62
339.79	429.62
340.018	444.62
340.246	427.62
340.474	446.62
340.702	452.62
340.93	450.62
341.158	440.62
341.386	448.62
341.614	443.62
341.842	448.62
342.07	430.62
342.298	438.62
342.526	440.62
342.754	424.62
342.981	445.62
343.209	406.62
343.437	428.62
343.665	439.62
343.893	442.62
344.12	448.62
344.348	459.62
344.576	428.62
344.804	451.62
345.031	465.62
345.259	480.62
345.487	458.62
345.714	460.62
345.942	446.62
346.17	440.62
346.397	416.62
346.625	446.62
346.853	442.62
347.08	447.62
347.308	437.62
347.535	464.62
347.763	462.62
347.99	451.62
348.218	459.62
348.445	475.62
348.673	480.62
348.9	464.62
349.128	447.62
349.355	449.62
349.583	428.62
349.81	438.62
350.037	416.62
350.265	424.62
350.492	433.62
350.72	413.62
350.947	444.62
351.174	454.62
351.402	479.62
351.629	465.62
351.856	467.62
352.083	456.62
352.311	482.62
352.538	463.62
352.765	464.62
352.992	465.62
353.22	454.62
353.447	455.62
353.674	461.62
353.901	427.62
354.128	430.62
354.355	400.62
354.583	377.62
354.81	401.62
355.037	403.62
355.264	405.62
355.491	400.62
355.718	420.62
355.945	420.62
356.172	407.62
356.399	406.62
356.626	400.62
356.853	405.62
357.08	402.62
357.307	394.62
357.534	411.62
357.761	403.62
357.988	423.62
358.215	399.62
358.441	403.62
358.668	422.62
358.895	437.62
359.122	417.62
359.349	432.62
359.576	464.62
359.802	488.62
360.029	504.62
360.256	534.62
360.483	484.62
360.709	481.62
360.936	450.62
361.163	454.62
361.39	448.62
361.616	441.62
361.843	448.62
362.07	446.62
362.296	456.62
362.523	458.62
362.749	453.62
362.976	445.62
363.203	444.62
363.429	428.62
363.656	429.62
363.882	421.62
364.109	412.62
364.335	446.62
364.562	425.62
364.788	421.62
365.015	423.62
365.241	423.62
365.468	442.62
365.694	442.62
365.92	449.62
366.147	395.62
366.373	425.62
366.599	425.62
366.826	418.62
367.052	420.62
367.278	423.62
367.505	423.62
367.731	447.62
367.957	434.62
368.184	425.62
368.41	452.62
368.636	444.62
368.862	455.62
369.089	455.62
369.315	422.62
369.541	445.62
369.767	422.62
369.993	418.62
370.219	421.62
370.445	418.62
370.672	446.62
370.898	442.62
371.124	437.62
371.35	431.62
371.576	438.62
371.802	408.62
372.028	418.62
372.254	420.62
372.48	415.62
372.706	421.62
372.932	415.62
373.158	422.62
373.384	431.62
373.61	431.62
373.835	441.62
374.061	417.62
374.287	423.62
374.513	422.62
374.739	453.62
374.965	432.62
375.191	438.62
375.416	415.62
375.642	414.62
375.868	434.62
376.094	434.62
376.319	438.62
376.545	419.62
376.771	418.62
376.997	431.62
377.222	437.62
377.448	424.62
377.674	447.62
377.899	406.62
378.125	410.62
378.35	416.62
378.576	420.62
378.802	410.62
379.027	443.62
379.253	431.62
379.478	420.62
379.704	414.62
379.929	449.62
380.155	423.62
380.38	444.62
380.606	444.62
380.831	417.62
381.057	425.62
381.282	417.62
381.507	419.62
381.733	452.62
381.958	410.62
382.184	440.62
382.409	426.62
382.634	450.62
382.86	439.62
383.085	443.62
383.31	432.62
383.535	432.62
383.761	437.62
383.986	437.62
384.211	451.62
384.436	450.62
384.662	438.62
384.887	434.62
385.112	438.62
385.337	430.62
385.562	453.62
385.787	442.62
386.013	465.62
386.238	466.62
386.463	463.62
386.688	462.62
386.913	466.62
387.138	450.62
387.363	455.62
387.588	457.62
387.813	457.62
388.038	443.62
388.263	493.62
388.488	456.62
388.713	457.62
388.938	445.62
389.163	458.62
389.387	461.62
389.612	458.62
389.837	425.62
390.062	437.62
390.287	476.62
390.512	452.62
390.736	453.62
390.961	457.62
391.186	471.62
391.411	441.62
391.636	469.62
391.86	458.62
392.085	457.62
392.31	475.62
392.534	472.62
392.759	473.62
392.984	453.62
393.208	467.62
393.433	462.62
393.658	474.62
393.882	477.62
394.107	446.62
394.331	465.62
394.556	466.62
394.78	469.62
395.005	454.62
395.229	454.62
395.454	478.62
395.678	478.62
395.903	502.62
396.127	521.62
396.352	484.62
396.576	487.62
396.801	485.62
397.025	477.62
397.249	469.62
397.474	478.62
397.698	489.62
397.922	494.62
398.147	525.62
398.371	517.62
398.595	520.62
398.82	497.62
399.044	529.62
399.268	531.62
399.492	533.62
399.717	580.62
399.941	615.62
400.165	633.62
400.389	639.62
400.613	612.62
400.837	558.62
401.062	534.62
401.286	544.62
401.51	526.62
401.734	530.62
401.958	529.62
402.182	538.62
402.406	569.62
402.63	529.62
402.854	517.62
403.078	528.62
403.302	535.62
403.526	538.62
403.75	543.62
403.974	548.62
404.198	534.62
404.422	544.62
404.645	564.62
404.869	557.62
405.093	600.62
405.317	632.62
405.541	655.62
405.765	636.62
405.988	596.62
406.212	600.62
406.436	633.62
406.66	640.62
406.883	616.62
407.107	614.62
407.331	654.62
407.555	734.62
407.778	709.62
408.002	669.62
408.226	635.62
408.449	584.62
408.673	608.62
408.896	652.62
409.12	694.62
409.344	654.62
409.567	598.62
409.791	558.62
410.014	568.62
410.238	588.62
410.461	581.62
410.685	561.62
410.908	586.62
411.132	624.62
411.355	658.62
411.578	622.62
411.802	544.62
412.025	574.62
412.249	576.62
412.472	584.62
412.695	634.62
412.919	622.62
413.142	572.62
413.365	566.62
413.589	538.62
413.812	542.62
414.035	542.62
414.258	529.62
414.482	534.62
414.705	515.62
414.928	514.62
415.151	546.62
415.374	549.62
415.597	537.62
415.821	493.62
416.044	533.62
416.267	516.62
416.49	532.62
416.713	529.62
416.936	513.62
417.159	525.62
417.382	531.62
417.605	518.62
417.828	569.62
418.051	539.62
418.274	544.62
418.497	529.62
418.72	530.62
418.943	522.62
419.166	553.62
419.389	580.62
419.611	585.62
419.834	569.62
420.057	552.62
420.28	558.62
420.503	549.62
420.726	559.62
420.948	562.62
421.171	653.62
421.394	648.62
421.617	591.62
421.839	550.62
422.062	572.62
422.285	576.62
422.507	648.62
422.73	726.62
422.953	712.62
423.175	610.62
423.398	592.62
423.621	596.62
423.843	612.62
424.066	617.62
424.288	608.62
424.511	622.62
424.733	677.62
424.956	785.62
425.178	734.62
425.401	772.62
425.623	761.62
425.846	666.62
426.068	643.62
426.291	630.62
426.513	625.62
426.735	621.62
426.958	678.62
427.18	762.62
427.402	901.62
427.625	978.62
427.847	897.62
428.069	807.62
428.292	707.62
428.514	634.62
428.736	590.62
428.958	621.62
429.181	567.62
429.403	565.62
429.625	583.62
429.847	638.62
430.069	691.62
430.292	693.62
430.514	600.62
430.736	583.62
430.958	559.62
431.18	567.62
431.402	550.62
431.624	544.62
431.846	548.62
432.068	531.62
432.29	544.62
432.512	566.62
432.734	558.62
432.956	555.62
433.178	564.62
433.4	545.62
433.622	544.62
433.844	534.62
434.066	543.62
434.287	539.62
434.509	525.62
434.731	560.62
434.953	541.62
435.175	596.62
435.397	622.62
435.618	637.62
435.84	673.62
436.062	753.62
436.284	832.62
436.505	718.62
436.727	636.62
436.949	621.62
437.17	596.62
437.392	592.62
437.614	602.62
437.835	641.62
438.057	753.62
438.278	886.62
438.5	855.62
438.721	892.62
438.943	897.62
439.165	722.62
439.386	652.62
439.608	662.62
439.829	623.62
440.05	682.62
440.272	715.62
440.493	674.62
440.715	616.62
440.936	577.62
441.158	590.62
441.379	592.62
441.6	617.62
441.822	631.62
442.043	693.62
442.264	787.62
442.486	798.62
442.707	684.62
442.928	669.62
443.149	658.62
443.371	650.62
443.592	723.62
443.813	813.62
444.034	884.62
444.255	742.62
444.476	664.62
444.698	642.62
444.919	615.62
445.14	729.62
445.361	662.62
445.582	692.62
445.803	732.62
446.024	888.62
446.245	879.62
446.466	783.62
446.687	680.62
446.908	659.62
447.129	589.62
447.35	596.62
447.571	585.62
447.792	586.62
448.013	601.62
448.234	623.62
448.455	687.62
448.675	784.62
448.896	895.62
449.117	752.62
449.338	720.62
449.559	856.62
449.779	917.62
450	749.62
450.221	648.62
450.442	593.62
450.662	574.62
450.883	593.62
451.104	598.62
451.324	585.62
451.545	584.62
451.766	549.62
451.986	526.62
452.207	542.62
452.428	509.62
452.648	503.62
452.869	525.62
453.089	534.62
453.31	553.62
453.53	544.62
453.751	534.62
453.971	526.62
454.192	555.62
454.412	548.62
454.633	519.62
454.853	522.62
455.073	504.62
455.294	547.62
455.514	616.62
455.734	614.62
455.955	545.62
456.175	501.62
456.395	495.62
456.616	480.62
456.836	496.62
457.056	497.62
457.276	487.62
457.497	479.62
457.717	504.62
457.937	493.62
458.157	472.62
458.377	500.62
458.598	537.62
458.818	628.62
459.038	680.62
459.258	721.62
459.478	630.62
459.698	556.62
459.918	553.62
460.138	541.62
460.358	546.62
460.578	518.62
460.798	540.62
461.018	530.62
461.238	538.62
461.458	530.62
461.678	533.62
461.898	524.62
462.118	534.62
462.338	542.62
462.558	534.62
462.777	552.62
462.997	572.62
463.217	564.62
463.437	577.62
463.657	552.62
463.876	560.62
464.096	552.62
464.316	552.62
464.536	586.62
464.755	581.62
464.975	609.62
465.195	632.62
465.414	764.62
465.634	654.62
465.854	620.62
466.073	584.62
466.293	554.62
466.512	527.62
466.732	523.62
466.951	507.62
467.171	538.62
467.391	520.62
467.61	547.62
467.829	583.62
468.049	575.62
468.268	553.62
468.488	546.62
468.707	522.62
468.927	515.62
469.146	492.62
469.365	498.62
469.585	528.62
469.804	504.62
470.023	558.62
470.243	552.62
470.462	551.62
470.681	559.62
470.901	575.62
471.12	558.62
471.339	558.62
471.558	540.62
471.777	527.62
471.997	530.62
472.216	554.62
472.435	603.62
472.654	591.62
472.873	553.62
473.092	538.62
473.311	544.62
473.53	558.62
473.749	579.62
473.968	608.62
474.187	714.62
474.406	747.62
474.625	603.62
474.844	578.62
475.063	560.62
475.282	534.62
475.501	555.62
475.72	575.62
475.939	547.62
476.158	561.62
476.377	561.62
476.596	562.62
476.814	581.62
477.033	561.62
477.252	586.62
477.471	581.62
477.69	582.62
477.908	575.62
478.127	578.62
478.346	556.62
478.564	604.62
478.783	609.62
479.002	616.62
479.22	593.62
479.439	618.62
479.658	656.62
479.876	648.62
480.095	665.62
480.313	682.62
480.532	672.62
480.751	670.62
480.969	679.62
481.188	764.62
481.406	842.62
481.624	716.62
481.843	692.62
482.061	679.62
482.28	647.62
482.498	657.62
482.717	664.62
482.935	659.62
483.153	652.62
483.372	644.62
483.59	658.62
483.808	640.62
484.027	651.62
484.245	644.62
484.463	656.62
484.681	675.62
484.9	662.62
485.118	647.62
485.336	647.62
485.554	635.62
485.772	655.62
485.99	688.62
486.209	669.62
486.427	656.62
486.645	668.62
486.863	702.62
487.081	721.62
487.299	701.62
487.517	704.62
487.735	696.62
487.953	713.62
488.171	719.62
488.389	684.62
488.607	690.62
488.825	694.62
489.043	705.62
489.261	710.62
489.479	718.62
489.696	720.62
489.914	722.62
490.132	727.62
490.35	745.62
490.568	768.62
490.786	753.62
491.003	781.62
491.221	778.62
491.439	790.62
491.657	796.62
491.874	818.62
492.092	850.62
492.31	819.62
492.527	810.62
492.745	818.62
492.963	830.62
493.18	861.62
493.398	836.62
493.615	856.62
493.833	842.62
494.05	844.62
494.268	838.62
494.485	849.62
494.703	831.62
494.92	849.62
495.138	870.62
495.355	860.62
495.573	864.62
495.79	870.62
496.008	873.62
496.225	848.62
496.442	840.62
496.66	839.62
496.877	863.62
497.094	839.62
497.312	853.62
497.529	844.62
497.746	861.62
497.963	875.62
498.181	889.62
498.398	870.62
498.615	870.62
498.832	936.62
499.049	953.62
499.267	927.62
499.484	949.62
499.701	956.62
499.918	973.62
500.135	1019.62
500.352	1021.62
500.569	1028.62
500.786	1055.62
501.003	1057.62
501.22	1058.62
501.437	1013.62
501.654	1001.62
