Data from 1970.PennyLincolnUp.Lamp.En5.5.200Scan.071719.P1._HRD10591_15-15-24-841.txt Node
Date: Thu Jul 18 15:15:24 EDT 2019
User: cochatt
Spectrometer: HR+D1059
Trigger mode: 1
Integration Time (sec): 1.000000E-1
Scans to average: 1
Electric dark correction enabled: true
Nonlinearity correction enabled: false
Boxcar width: 0
XAxis mode: Wavelengths
Number of Pixels in Spectrum: 2048
>>>>>Begin Spectral Data<<<<<
223.165	-6.5
223.4	-6.5
223.635	-6.5
223.869	-7.5
224.104	-19.5
224.338	-5.5
224.573	-10.5
224.808	-9.5
225.042	-8.5
225.277	-13.5
225.511	-19.5
225.746	9.5
225.98	9.5
226.215	12.5
226.449	7.5
226.683	20.5
226.918	20.5
227.152	20.5
227.387	34.5
227.621	24.5
227.856	34.5
228.09	37.5
228.324	40.5
228.559	51.5
228.793	70.5
229.027	114.5
229.262	114.5
229.496	122.5
229.73	139.5
229.964	171.5
230.199	159.5
230.433	137.5
230.667	129.5
230.901	132.5
231.136	119.5
231.37	119.5
231.604	118.5
231.838	117.5
232.072	128.5
232.306	125.5
232.541	123.5
232.775	127.5
233.009	106.5
233.243	121.5
233.477	117.5
233.711	131.5
233.945	111.5
234.179	116.5
234.413	120.5
234.647	127.5
234.881	121.5
235.115	116.5
235.349	126.5
235.583	141.5
235.817	150.5
236.051	137.5
236.285	119.5
236.519	131.5
236.753	142.5
236.987	150.5
237.221	215.5
237.455	273.5
237.689	211.5
237.922	169.5
238.156	154.5
238.39	138.5
238.624	132.5
238.858	114.5
239.091	134.5
239.325	126.5
239.559	142.5
239.793	157.5
240.027	140.5
240.26	165.5
240.494	190.5
240.728	165.5
240.961	159.5
241.195	154.5
241.429	144.5
241.662	149.5
241.896	121.5
242.13	151.5
242.363	153.5
242.597	151.5
242.83	143.5
243.064	152.5
243.298	160.5
243.531	153.5
243.765	136.5
243.998	143.5
244.232	154.5
244.465	143.5
244.699	154.5
244.932	146.5
245.166	159.5
245.399	157.5
245.633	165.5
245.866	141.5
246.099	158.5
246.333	151.5
246.566	170.5
246.8	168.5
247.033	163.5
247.266	188.5
247.5	185.5
247.733	194.5
247.966	186.5
248.2	175.5
248.433	193.5
248.666	186.5
248.899	200.5
249.133	224.5
249.366	232.5
249.599	220.5
249.832	185.5
250.066	194.5
250.299	198.5
250.532	212.5
250.765	230.5
250.998	252.5
251.231	262.5
251.465	254.5
251.698	242.5
251.931	227.5
252.164	217.5
252.397	217.5
252.63	227.5
252.863	216.5
253.096	228.5
253.329	264.5
253.562	260.5
253.795	240.5
254.028	257.5
254.261	248.5
254.494	239.5
254.727	291.5
254.96	296.5
255.193	316.5
255.426	306.5
255.659	264.5
255.892	282.5
256.124	258.5
256.357	263.5
256.59	258.5
256.823	256.5
257.056	236.5
257.289	234.5
257.521	230.5
257.754	233.5
257.987	233.5
258.22	247.5
258.452	225.5
258.685	217.5
258.918	230.5
259.151	224.5
259.383	222.5
259.616	233.5
259.849	250.5
260.081	252.5
260.314	252.5
260.547	281.5
260.779	273.5
261.012	259.5
261.244	248.5
261.477	253.5
261.71	251.5
261.942	237.5
262.175	246.5
262.407	258.5
262.64	233.5
262.872	246.5
263.105	223.5
263.337	226.5
263.57	232.5
263.802	219.5
264.035	230.5
264.267	230.5
264.499	218.5
264.732	212.5
264.964	215.5
265.197	225.5
265.429	213.5
265.661	208.5
265.894	214.5
266.126	215.5
266.358	226.5
266.591	229.5
266.823	243.5
267.055	231.5
267.287	222.5
267.52	227.5
267.752	223.5
267.984	227.5
268.216	228.5
268.448	227.5
268.681	245.5
268.913	256.5
269.145	267.5
269.377	290.5
269.609	284.5
269.841	280.5
270.073	297.5
270.306	315.5
270.538	339.5
270.77	352.5
271.002	313.5
271.234	315.5
271.466	336.5
271.698	328.5
271.93	342.5
272.162	335.5
272.394	363.5
272.626	327.5
272.858	301.5
273.09	300.5
273.322	285.5
273.553	275.5
273.785	296.5
274.017	278.5
274.249	272.5
274.481	268.5
274.713	288.5
274.945	284.5
275.176	268.5
275.408	266.5
275.64	266.5
275.872	272.5
276.104	283.5
276.335	272.5
276.567	276.5
276.799	292.5
277.031	315.5
277.262	339.5
277.494	314.5
277.726	322.5
277.957	300.5
278.189	301.5
278.421	291.5
278.652	270.5
278.884	282.5
279.115	302.5
279.347	271.5
279.579	268.5
279.81	278.5
280.042	281.5
280.273	259.5
280.505	274.5
280.736	271.5
280.968	253.5
281.199	253.5
281.431	263.5
281.662	262.5
281.894	272.5
282.125	277.5
282.356	273.5
282.588	332.5
282.819	313.5
283.051	281.5
283.282	281.5
283.513	277.5
283.745	277.5
283.976	279.5
284.207	284.5
284.439	279.5
284.67	276.5
284.901	291.5
285.132	278.5
285.364	282.5
285.595	250.5
285.826	272.5
286.057	297.5
286.288	268.5
286.52	268.5
286.751	280.5
286.982	271.5
287.213	278.5
287.444	283.5
287.675	295.5
287.906	289.5
288.138	294.5
288.369	300.5
288.6	306.5
288.831	308.5
289.062	301.5
289.293	279.5
289.524	294.5
289.755	280.5
289.986	290.5
290.217	275.5
290.448	271.5
290.679	285.5
290.91	284.5
291.141	287.5
291.371	284.5
291.602	276.5
291.833	268.5
292.064	272.5
292.295	291.5
292.526	300.5
292.757	311.5
292.987	308.5
293.218	272.5
293.449	302.5
293.68	295.5
293.91	293.5
294.141	283.5
294.372	287.5
294.603	282.5
294.833	307.5
295.064	299.5
295.295	277.5
295.525	283.5
295.756	298.5
295.987	320.5
296.217	334.5
296.448	343.5
296.679	308.5
296.909	301.5
297.14	280.5
297.37	307.5
297.601	287.5
297.831	307.5
298.062	296.5
298.292	300.5
298.523	321.5
298.753	291.5
298.984	282.5
299.214	310.5
299.445	308.5
299.675	305.5
299.905	301.5
300.136	309.5
300.366	311.5
300.597	323.5
300.827	295.5
301.057	303.5
301.288	338.5
301.518	312.5
301.748	324.5
301.979	321.5
302.209	328.5
302.439	318.5
302.669	326.5
302.9	322.5
303.13	307.5
303.36	336.5
303.59	342.5
303.82	338.5
304.051	349.5
304.281	334.5
304.511	335.5
304.741	338.5
304.971	324.5
305.201	325.5
305.431	326.5
305.661	317.5
305.891	317.5
306.121	327.5
306.352	324.5
306.582	325.5
306.812	298.5
307.042	327.5
307.272	317.5
307.502	324.5
307.731	319.5
307.961	318.5
308.191	306.5
308.421	322.5
308.651	336.5
308.881	349.5
309.111	344.5
309.341	336.5
309.571	352.5
309.8	354.5
310.03	363.5
310.26	375.5
310.49	374.5
310.72	404.5
310.949	426.5
311.179	439.5
311.409	414.5
311.639	365.5
311.868	402.5
312.098	402.5
312.328	381.5
312.557	417.5
312.787	446.5
313.017	431.5
313.246	397.5
313.476	388.5
313.706	389.5
313.935	388.5
314.165	390.5
314.394	414.5
314.624	410.5
314.853	408.5
315.083	408.5
315.312	395.5
315.542	363.5
315.771	382.5
316.001	374.5
316.23	376.5
316.46	383.5
316.689	391.5
316.919	375.5
317.148	407.5
317.377	396.5
317.607	386.5
317.836	378.5
318.065	383.5
318.295	384.5
318.524	391.5
318.753	404.5
318.983	388.5
319.212	379.5
319.441	393.5
319.67	394.5
319.9	386.5
320.129	397.5
320.358	389.5
320.587	392.5
320.816	404.5
321.046	401.5
321.275	406.5
321.504	410.5
321.733	430.5
321.962	426.5
322.191	418.5
322.42	468.5
322.649	463.5
322.878	511.5
323.108	498.5
323.337	528.5
323.566	528.5
323.795	585.5
324.024	636.5
324.253	803.5
324.482	1136.5
324.71	1769.5
324.939	2473.5
325.168	2181.5
325.397	1189.5
325.626	765.5
325.855	639.5
326.084	575.5
326.313	575.5
326.542	572.5
326.77	609.5
326.999	725.5
327.228	1026.5
327.457	1540.5
327.686	1899.5
327.914	1296.5
328.143	865.5
328.372	723.5
328.6	694.5
328.829	644.5
329.058	650.5
329.287	663.5
329.515	642.5
329.744	569.5
329.972	546.5
330.201	602.5
330.43	633.5
330.658	672.5
330.887	680.5
331.115	676.5
331.344	575.5
331.572	526.5
331.801	528.5
332.03	517.5
332.258	506.5
332.486	469.5
332.715	469.5
332.943	483.5
333.172	472.5
333.4	486.5
333.629	478.5
333.857	505.5
334.085	521.5
334.314	525.5
334.542	575.5
334.771	586.5
334.999	529.5
335.227	473.5
335.455	455.5
335.684	455.5
335.912	438.5
336.14	451.5
336.369	442.5
336.597	489.5
336.825	473.5
337.053	459.5
337.281	456.5
337.51	429.5
337.738	436.5
337.966	452.5
338.194	448.5
338.422	478.5
338.65	440.5
338.878	444.5
339.106	448.5
339.334	422.5
339.562	420.5
339.79	426.5
340.018	429.5
340.246	447.5
340.474	446.5
340.702	445.5
340.93	422.5
341.158	429.5
341.386	431.5
341.614	433.5
341.842	431.5
342.07	445.5
342.298	422.5
342.526	426.5
342.754	428.5
342.981	425.5
343.209	407.5
343.437	417.5
343.665	428.5
343.893	437.5
344.12	438.5
344.348	435.5
344.576	460.5
344.804	447.5
345.031	473.5
345.259	474.5
345.487	456.5
345.714	447.5
345.942	447.5
346.17	445.5
346.397	424.5
346.625	415.5
346.853	417.5
347.08	456.5
347.308	436.5
347.535	463.5
347.763	461.5
347.99	473.5
348.218	451.5
348.445	453.5
348.673	433.5
348.9	423.5
349.128	444.5
349.355	411.5
349.583	408.5
349.81	394.5
350.037	397.5
350.265	414.5
350.492	427.5
350.72	422.5
350.947	424.5
351.174	446.5
351.402	457.5
351.629	440.5
351.856	456.5
352.083	459.5
352.311	451.5
352.538	475.5
352.765	467.5
352.992	448.5
353.22	466.5
353.447	435.5
353.674	419.5
353.901	409.5
354.128	420.5
354.355	412.5
354.583	412.5
354.81	407.5
355.037	396.5
355.264	393.5
355.491	380.5
355.718	410.5
355.945	395.5
356.172	391.5
356.399	402.5
356.626	392.5
356.853	378.5
357.08	398.5
357.307	376.5
357.534	388.5
357.761	403.5
357.988	403.5
358.215	418.5
358.441	401.5
358.668	392.5
358.895	393.5
359.122	406.5
359.349	413.5
359.576	443.5
359.802	458.5
360.029	492.5
360.256	513.5
360.483	496.5
360.709	459.5
360.936	422.5
361.163	419.5
361.39	444.5
361.616	463.5
361.843	436.5
362.07	450.5
362.296	447.5
362.523	436.5
362.749	432.5
362.976	428.5
363.203	441.5
363.429	406.5
363.656	418.5
363.882	408.5
364.109	409.5
364.335	394.5
364.562	435.5
364.788	418.5
365.015	409.5
365.241	415.5
365.468	437.5
365.694	420.5
365.92	422.5
366.147	412.5
366.373	420.5
366.599	403.5
366.826	402.5
367.052	420.5
367.278	414.5
367.505	422.5
367.731	392.5
367.957	412.5
368.184	420.5
368.41	413.5
368.636	453.5
368.862	404.5
369.089	412.5
369.315	416.5
369.541	401.5
369.767	423.5
369.993	414.5
370.219	410.5
370.445	401.5
370.672	422.5
370.898	397.5
371.124	382.5
371.35	403.5
371.576	420.5
371.802	396.5
372.028	390.5
372.254	419.5
372.48	392.5
372.706	423.5
372.932	407.5
373.158	401.5
373.384	422.5
373.61	426.5
373.835	421.5
374.061	420.5
374.287	418.5
374.513	436.5
374.739	418.5
374.965	413.5
375.191	419.5
375.416	412.5
375.642	406.5
375.868	413.5
376.094	428.5
376.319	441.5
376.545	409.5
376.771	397.5
376.997	399.5
377.222	408.5
377.448	406.5
377.674	412.5
377.899	395.5
378.125	387.5
378.35	411.5
378.576	412.5
378.802	435.5
379.027	416.5
379.253	394.5
379.478	386.5
379.704	395.5
379.929	386.5
380.155	411.5
380.38	415.5
380.606	429.5
380.831	419.5
381.057	392.5
381.282	415.5
381.507	410.5
381.733	428.5
381.958	421.5
382.184	410.5
382.409	431.5
382.634	419.5
382.86	414.5
383.085	428.5
383.31	437.5
383.535	438.5
383.761	408.5
383.986	434.5
384.211	432.5
384.436	451.5
384.662	420.5
384.887	436.5
385.112	427.5
385.337	426.5
385.562	445.5
385.787	458.5
386.013	444.5
386.238	429.5
386.463	458.5
386.688	461.5
386.913	442.5
387.138	437.5
387.363	429.5
387.588	454.5
387.813	445.5
388.038	441.5
388.263	447.5
388.488	414.5
388.713	453.5
388.938	453.5
389.163	429.5
389.387	426.5
389.612	421.5
389.837	458.5
390.062	447.5
390.287	454.5
390.512	452.5
390.736	423.5
390.961	455.5
391.186	444.5
391.411	460.5
391.636	432.5
391.86	444.5
392.085	449.5
392.31	444.5
392.534	441.5
392.759	434.5
392.984	445.5
393.208	447.5
393.433	443.5
393.658	437.5
393.882	444.5
394.107	437.5
394.331	458.5
394.556	462.5
394.78	447.5
395.005	447.5
395.229	453.5
395.454	456.5
395.678	450.5
395.903	494.5
396.127	485.5
396.352	487.5
396.576	475.5
396.801	458.5
397.025	471.5
397.249	446.5
397.474	466.5
397.698	463.5
397.922	496.5
398.147	510.5
398.371	507.5
398.595	491.5
398.82	500.5
399.044	491.5
399.268	508.5
399.492	524.5
399.717	548.5
399.941	603.5
400.165	608.5
400.389	621.5
400.613	573.5
400.837	525.5
401.062	533.5
401.286	515.5
401.51	500.5
401.734	508.5
401.958	509.5
402.182	506.5
402.406	528.5
402.63	496.5
402.854	523.5
403.078	519.5
403.302	536.5
403.526	539.5
403.75	531.5
403.974	526.5
404.198	527.5
404.422	543.5
404.645	532.5
404.869	565.5
405.093	576.5
405.317	613.5
405.541	652.5
405.765	603.5
405.988	585.5
406.212	586.5
406.436	598.5
406.66	600.5
406.883	599.5
407.107	610.5
407.331	636.5
407.555	721.5
407.778	696.5
408.002	631.5
408.226	602.5
408.449	603.5
408.673	617.5
408.896	605.5
409.12	672.5
409.344	632.5
409.567	555.5
409.791	541.5
410.014	548.5
410.238	521.5
410.461	550.5
410.685	549.5
410.908	569.5
411.132	610.5
411.355	631.5
411.578	600.5
411.802	536.5
412.025	554.5
412.249	549.5
412.472	579.5
412.695	623.5
412.919	610.5
413.142	533.5
413.365	533.5
413.589	541.5
413.812	503.5
414.035	508.5
414.258	498.5
414.482	516.5
414.705	506.5
414.928	514.5
415.151	483.5
415.374	513.5
415.597	521.5
415.821	515.5
416.044	517.5
416.267	524.5
416.49	506.5
416.713	511.5
416.936	515.5
417.159	519.5
417.382	532.5
417.605	529.5
417.828	535.5
418.051	554.5
418.274	546.5
418.497	547.5
418.72	491.5
418.943	505.5
419.166	551.5
419.389	559.5
419.611	540.5
419.834	549.5
420.057	526.5
420.28	551.5
420.503	566.5
420.726	564.5
420.948	551.5
421.171	591.5
421.394	625.5
421.617	586.5
421.839	559.5
422.062	562.5
422.285	566.5
422.507	631.5
422.73	718.5
422.953	677.5
423.175	621.5
423.398	580.5
423.621	570.5
423.843	602.5
424.066	615.5
424.288	602.5
424.511	644.5
424.733	676.5
424.956	766.5
425.178	737.5
425.401	733.5
425.623	776.5
425.846	654.5
426.068	610.5
426.291	602.5
426.513	622.5
426.735	622.5
426.958	676.5
427.18	770.5
427.402	893.5
427.625	969.5
427.847	918.5
428.069	778.5
428.292	700.5
428.514	641.5
428.736	597.5
428.958	594.5
429.181	556.5
429.403	550.5
429.625	581.5
429.847	607.5
430.069	690.5
430.292	697.5
430.514	596.5
430.736	570.5
430.958	548.5
431.18	534.5
431.402	535.5
431.624	531.5
431.846	540.5
432.068	521.5
432.29	518.5
432.512	521.5
432.734	526.5
432.956	554.5
433.178	566.5
433.4	545.5
433.622	548.5
433.844	537.5
434.066	533.5
434.287	511.5
434.509	518.5
434.731	527.5
434.953	534.5
435.175	550.5
435.397	572.5
435.618	602.5
435.84	644.5
436.062	760.5
436.284	808.5
436.505	720.5
436.727	664.5
436.949	617.5
437.17	580.5
437.392	601.5
437.614	595.5
437.835	640.5
438.057	760.5
438.278	837.5
438.5	859.5
438.721	894.5
438.943	861.5
439.165	710.5
439.386	648.5
439.608	654.5
439.829	639.5
440.05	666.5
440.272	718.5
440.493	678.5
440.715	629.5
440.936	590.5
441.158	586.5
441.379	574.5
441.6	581.5
441.822	605.5
442.043	664.5
442.264	766.5
442.486	801.5
442.707	702.5
442.928	656.5
443.149	628.5
443.371	671.5
443.592	717.5
443.813	800.5
444.034	846.5
444.255	725.5
444.476	642.5
444.698	635.5
444.919	620.5
445.14	715.5
445.361	680.5
445.582	661.5
445.803	738.5
446.024	836.5
446.245	855.5
446.466	778.5
446.687	678.5
446.908	626.5
447.129	607.5
447.35	569.5
447.571	566.5
447.792	549.5
448.013	580.5
448.234	596.5
448.455	654.5
448.675	800.5
448.896	864.5
449.117	774.5
449.338	695.5
449.559	848.5
449.779	922.5
450	768.5
450.221	641.5
450.442	588.5
450.662	574.5
450.883	564.5
451.104	577.5
451.324	589.5
451.545	595.5
451.766	546.5
451.986	529.5
452.207	504.5
452.428	520.5
452.648	494.5
452.869	524.5
453.089	516.5
453.31	543.5
453.53	527.5
453.751	522.5
453.971	515.5
454.192	552.5
454.412	525.5
454.633	511.5
454.853	504.5
455.073	516.5
455.294	556.5
455.514	647.5
455.734	610.5
455.955	510.5
456.175	517.5
456.395	459.5
456.616	484.5
456.836	468.5
457.056	463.5
457.276	452.5
457.497	463.5
457.717	474.5
457.937	510.5
458.157	487.5
458.377	500.5
458.598	524.5
458.818	612.5
459.038	701.5
459.258	687.5
459.478	613.5
459.698	514.5
459.918	514.5
460.138	536.5
460.358	520.5
460.578	528.5
460.798	515.5
461.018	526.5
461.238	507.5
461.458	509.5
461.678	503.5
461.898	512.5
462.118	512.5
462.338	511.5
462.558	529.5
462.777	527.5
462.997	546.5
463.217	546.5
463.437	554.5
463.657	529.5
463.876	531.5
464.096	536.5
464.316	532.5
464.536	556.5
464.755	544.5
464.975	567.5
465.195	635.5
465.414	726.5
465.634	631.5
465.854	610.5
466.073	559.5
466.293	527.5
466.512	536.5
466.732	523.5
466.951	510.5
467.171	519.5
467.391	524.5
467.61	532.5
467.829	550.5
468.049	541.5
468.268	546.5
468.488	500.5
468.707	515.5
468.927	491.5
469.146	499.5
469.365	492.5
469.585	495.5
469.804	517.5
470.023	528.5
470.243	531.5
470.462	522.5
470.681	540.5
470.901	570.5
471.12	543.5
471.339	507.5
471.558	520.5
471.777	519.5
471.997	508.5
472.216	518.5
472.435	597.5
472.654	572.5
472.873	555.5
473.092	554.5
473.311	533.5
473.53	531.5
473.749	551.5
473.968	606.5
474.187	711.5
474.406	743.5
474.625	629.5
474.844	558.5
475.063	518.5
475.282	509.5
475.501	538.5
475.72	538.5
475.939	558.5
476.158	537.5
476.377	562.5
476.596	531.5
476.814	552.5
477.033	590.5
477.252	547.5
477.471	561.5
477.69	566.5
477.908	564.5
478.127	550.5
478.346	564.5
478.564	591.5
478.783	597.5
479.002	599.5
479.22	605.5
479.439	614.5
479.658	616.5
479.876	645.5
480.095	635.5
480.313	664.5
480.532	664.5
480.751	649.5
480.969	662.5
481.188	726.5
481.406	806.5
481.624	706.5
481.843	687.5
482.061	644.5
482.28	635.5
482.498	632.5
482.717	622.5
482.935	618.5
483.153	631.5
483.372	628.5
483.59	626.5
483.808	631.5
484.027	631.5
484.245	639.5
484.463	624.5
484.681	630.5
484.9	633.5
485.118	653.5
485.336	640.5
485.554	649.5
485.772	647.5
485.99	659.5
486.209	649.5
486.427	661.5
486.645	691.5
486.863	706.5
487.081	713.5
487.299	707.5
487.517	694.5
487.735	682.5
487.953	686.5
488.171	706.5
488.389	686.5
488.607	683.5
488.825	696.5
489.043	684.5
489.261	711.5
489.479	710.5
489.696	684.5
489.914	698.5
490.132	693.5
490.35	735.5
490.568	733.5
490.786	733.5
491.003	742.5
491.221	781.5
491.439	762.5
491.657	792.5
491.874	800.5
492.092	800.5
492.31	780.5
492.527	824.5
492.745	819.5
492.963	803.5
493.18	839.5
493.398	840.5
493.615	850.5
493.833	838.5
494.05	814.5
494.268	814.5
494.485	853.5
494.703	820.5
494.92	852.5
495.138	831.5
495.355	850.5
495.573	862.5
495.79	829.5
496.008	828.5
496.225	818.5
496.442	864.5
496.66	846.5
496.877	843.5
497.094	815.5
497.312	845.5
497.529	853.5
497.746	867.5
497.963	860.5
498.181	878.5
498.398	866.5
498.615	896.5
498.832	894.5
499.049	888.5
499.267	908.5
499.484	929.5
499.701	946.5
499.918	942.5
500.135	959.5
500.352	995.5
500.569	994.5
500.786	1014.5
501.003	1021.5
501.22	1006.5
501.437	994.5
501.654	986.5
501.871	971.5
502.088	973.5
502.305	921.5
502.522	911.5
502.739	887.5
502.956	854.5
503.172	862.5
503.389	867.5
503.606	852.5
503.823	843.5
504.04	848.5
504.256	830.5
504.473	838.5
504.69	824.5
504.907	831.5
505.123	808.5
505.34	808.5
505.557	796.5
505.773	800.5
505.99	805.5
506.207	837.5
506.423	813.5
506.64	804.5
506.856	778.5
507.073	778.5
507.289	783.5
507.506	804.5
507.722	807.5
507.939	820.5
508.155	788.5
508.372	775.5
508.588	768.5
508.805	782.5
509.021	779.5
509.238	788.5
509.454	821.5
509.67	750.5
509.887	762.5
510.103	791.5
510.319	774.5
510.536	920.5
510.752	1511.5
510.968	1255.5
511.184	843.5
511.401	766.5
511.617	748.5
511.833	752.5
512.049	722.5
512.265	745.5
512.481	734.5
512.698	731.5
512.914	715.5
513.13	758.5
513.346	722.5
513.562	739.5
513.778	720.5
513.994	743.5
514.21	749.5
514.426	798.5
514.642	866.5
514.858	871.5
515.074	960.5
515.29	1149.5
515.506	1695.5
515.721	1389.5
515.937	935.5
516.153	827.5
516.369	782.5
516.585	768.5
516.801	762.5
517.016	740.5
517.232	719.5
517.448	740.5
517.664	746.5
517.879	729.5
518.095	752.5
518.311	739.5
518.527	726.5
518.742	728.5
518.958	727.5
519.173	725.5
519.389	717.5
519.605	688.5
519.82	728.5
