Data from 1970.PennyLincolnUp.Lamp.En5.5.200Scan.071719.P1._HRD10591_15-16-17-841.txt Node
Date: Thu Jul 18 15:16:17 EDT 2019
User: cochatt
Spectrometer: HR+D1059
Trigger mode: 1
Integration Time (sec): 1.000000E-1
Scans to average: 1
Electric dark correction enabled: true
Nonlinearity correction enabled: false
Boxcar width: 0
XAxis mode: Wavelengths
Number of Pixels in Spectrum: 2048
>>>>>Begin Spectral Data<<<<<
223.165	-26.56
223.4	-26.56
223.635	-26.56
223.869	-20.56
224.104	-22.56
224.338	-7.56
224.573	-4.56
224.808	-2.56
225.042	-6.56
225.277	-7.56
225.511	-7.56
225.746	-3.56
225.98	9.44
226.215	22.44
226.449	18.44
226.683	10.44
226.918	17.44
227.152	31.44
227.387	30.44
227.621	32.44
227.856	36.44
228.09	43.44
228.324	53.44
228.559	47.44
228.793	63.44
229.027	118.44
229.262	112.44
229.496	123.44
229.73	148.44
229.964	173.44
230.199	140.44
230.433	122.44
230.667	117.44
230.901	129.44
231.136	109.44
231.37	125.44
231.604	118.44
231.838	123.44
232.072	94.44
232.306	119.44
232.541	119.44
232.775	110.44
233.009	117.44
233.243	115.44
233.477	119.44
233.711	122.44
233.945	125.44
234.179	133.44
234.413	130.44
234.647	109.44
234.881	119.44
235.115	127.44
235.349	112.44
235.583	121.44
235.817	128.44
236.051	132.44
236.285	145.44
236.519	129.44
236.753	148.44
236.987	159.44
237.221	211.44
237.455	266.44
237.689	200.44
237.922	163.44
238.156	158.44
238.39	143.44
238.624	145.44
238.858	148.44
239.091	147.44
239.325	128.44
239.559	119.44
239.793	131.44
240.027	156.44
240.26	145.44
240.494	175.44
240.728	168.44
240.961	157.44
241.195	154.44
241.429	149.44
241.662	164.44
241.896	135.44
242.13	133.44
242.363	156.44
242.597	146.44
242.83	133.44
243.064	148.44
243.298	133.44
243.531	154.44
243.765	152.44
243.998	156.44
244.232	147.44
244.465	157.44
244.699	152.44
244.932	149.44
245.166	167.44
245.399	159.44
245.633	138.44
245.866	159.44
246.099	150.44
246.333	167.44
246.566	152.44
246.8	159.44
247.033	161.44
247.266	175.44
247.5	175.44
247.733	171.44
247.966	199.44
248.2	173.44
248.433	193.44
248.666	204.44
248.899	215.44
249.133	213.44
249.366	225.44
249.599	213.44
249.832	204.44
250.066	201.44
250.299	203.44
250.532	204.44
250.765	233.44
250.998	253.44
251.231	248.44
251.465	240.44
251.698	231.44
251.931	234.44
252.164	233.44
252.397	247.44
252.63	235.44
252.863	243.44
253.096	242.44
253.329	269.44
253.562	270.44
253.795	248.44
254.028	241.44
254.261	261.44
254.494	267.44
254.727	292.44
254.96	326.44
255.193	304.44
255.426	267.44
255.659	268.44
255.892	263.44
256.124	266.44
256.357	267.44
256.59	249.44
256.823	245.44
257.056	233.44
257.289	239.44
257.521	229.44
257.754	236.44
257.987	219.44
258.22	228.44
258.452	232.44
258.685	238.44
258.918	223.44
259.151	230.44
259.383	256.44
259.616	257.44
259.849	232.44
260.081	261.44
260.314	278.44
260.547	290.44
260.779	276.44
261.012	267.44
261.244	255.44
261.477	247.44
261.71	237.44
261.942	265.44
262.175	271.44
262.407	275.44
262.64	245.44
262.872	228.44
263.105	230.44
263.337	240.44
263.57	237.44
263.802	242.44
264.035	233.44
264.267	218.44
264.499	223.44
264.732	225.44
264.964	239.44
265.197	215.44
265.429	212.44
265.661	221.44
265.894	231.44
266.126	225.44
266.358	230.44
266.591	225.44
266.823	239.44
267.055	250.44
267.287	241.44
267.52	250.44
267.752	232.44
267.984	250.44
268.216	228.44
268.448	267.44
268.681	246.44
268.913	259.44
269.145	277.44
269.377	321.44
269.609	289.44
269.841	303.44
270.073	300.44
270.306	319.44
270.538	357.44
270.77	351.44
271.002	331.44
271.234	319.44
271.466	329.44
271.698	336.44
271.93	339.44
272.162	346.44
272.394	330.44
272.626	338.44
272.858	347.44
273.09	301.44
273.322	300.44
273.553	274.44
273.785	296.44
274.017	285.44
274.249	280.44
274.481	272.44
274.713	285.44
274.945	267.44
275.176	296.44
275.408	289.44
275.64	271.44
275.872	275.44
276.104	281.44
276.335	286.44
276.567	293.44
276.799	303.44
277.031	329.44
277.262	340.44
277.494	346.44
277.726	331.44
277.957	333.44
278.189	305.44
278.421	311.44
278.652	291.44
278.884	275.44
279.115	282.44
279.347	270.44
279.579	282.44
279.81	287.44
280.042	275.44
280.273	259.44
280.505	275.44
280.736	281.44
280.968	283.44
281.199	279.44
281.431	273.44
281.662	286.44
281.894	292.44
282.125	285.44
282.356	290.44
282.588	321.44
282.819	320.44
283.051	293.44
283.282	275.44
283.513	284.44
283.745	281.44
283.976	291.44
284.207	283.44
284.439	290.44
284.67	285.44
284.901	284.44
285.132	279.44
285.364	264.44
285.595	285.44
285.826	271.44
286.057	277.44
286.288	280.44
286.52	273.44
286.751	293.44
286.982	291.44
287.213	270.44
287.444	299.44
287.675	294.44
287.906	289.44
288.138	307.44
288.369	306.44
288.6	300.44
288.831	296.44
289.062	291.44
289.293	303.44
289.524	309.44
289.755	296.44
289.986	290.44
290.217	299.44
290.448	280.44
290.679	287.44
290.91	296.44
291.141	305.44
291.371	285.44
291.602	259.44
291.833	300.44
292.064	288.44
292.295	287.44
292.526	294.44
292.757	286.44
292.987	312.44
293.218	299.44
293.449	275.44
293.68	295.44
293.91	279.44
294.141	299.44
294.372	309.44
294.603	289.44
294.833	295.44
295.064	300.44
295.295	311.44
295.525	290.44
295.756	304.44
295.987	309.44
296.217	341.44
296.448	344.44
296.679	310.44
296.909	299.44
297.14	293.44
297.37	307.44
297.601	288.44
297.831	295.44
298.062	306.44
298.292	303.44
298.523	311.44
298.753	302.44
298.984	311.44
299.214	307.44
299.445	305.44
299.675	313.44
299.905	324.44
300.136	299.44
300.366	307.44
300.597	323.44
300.827	331.44
301.057	324.44
301.288	323.44
301.518	342.44
301.748	323.44
301.979	324.44
302.209	322.44
302.439	332.44
302.669	326.44
302.9	319.44
303.13	317.44
303.36	321.44
303.59	342.44
303.82	350.44
304.051	356.44
304.281	336.44
304.511	345.44
304.741	332.44
304.971	316.44
305.201	323.44
305.431	315.44
305.661	340.44
305.891	340.44
306.121	327.44
306.352	330.44
306.582	352.44
306.812	324.44
307.042	347.44
307.272	341.44
307.502	329.44
307.731	344.44
307.961	344.44
308.191	358.44
308.421	349.44
308.651	360.44
308.881	344.44
309.111	339.44
309.341	356.44
309.571	360.44
309.8	368.44
310.03	361.44
310.26	364.44
310.49	383.44
310.72	406.44
310.949	431.44
311.179	439.44
311.409	396.44
311.639	403.44
311.868	407.44
312.098	397.44
312.328	411.44
312.557	432.44
312.787	447.44
313.017	452.44
313.246	409.44
313.476	387.44
313.706	403.44
313.935	417.44
314.165	426.44
314.394	429.44
314.624	420.44
314.853	390.44
315.083	404.44
315.312	397.44
315.542	403.44
315.771	408.44
316.001	379.44
316.23	384.44
316.46	382.44
316.689	380.44
316.919	391.44
317.148	424.44
317.377	415.44
317.607	417.44
317.836	396.44
318.065	407.44
318.295	407.44
318.524	406.44
318.753	398.44
318.983	403.44
319.212	394.44
319.441	397.44
319.67	413.44
319.9	421.44
320.129	385.44
320.358	389.44
320.587	424.44
320.816	396.44
321.046	410.44
321.275	428.44
321.504	421.44
321.733	414.44
321.962	455.44
322.191	450.44
322.42	490.44
322.649	467.44
322.878	505.44
323.108	513.44
323.337	560.44
323.566	586.44
323.795	635.44
324.024	680.44
324.253	834.44
324.482	1212.44
324.71	1867.44
324.939	2693.44
325.168	2271.44
325.397	1197.44
325.626	803.44
325.855	650.44
326.084	612.44
326.313	588.44
326.542	573.44
326.77	660.44
326.999	764.44
327.228	1059.44
327.457	1631.44
327.686	2012.44
327.914	1333.44
328.143	885.44
328.372	761.44
328.6	740.44
328.829	668.44
329.058	675.44
329.287	702.44
329.515	609.44
329.744	601.44
329.972	579.44
330.201	627.44
330.43	673.44
330.658	697.44
330.887	723.44
331.115	716.44
331.344	623.44
331.572	538.44
331.801	567.44
332.03	521.44
332.258	523.44
332.486	485.44
332.715	475.44
332.943	498.44
333.172	475.44
333.4	485.44
333.629	488.44
333.857	507.44
334.085	508.44
334.314	541.44
334.542	592.44
334.771	629.44
334.999	578.44
335.227	505.44
335.455	496.44
335.684	479.44
335.912	479.44
336.14	465.44
336.369	456.44
336.597	488.44
336.825	484.44
337.053	452.44
337.281	477.44
337.51	458.44
337.738	447.44
337.966	467.44
338.194	468.44
338.422	468.44
338.65	469.44
338.878	472.44
339.106	452.44
339.334	441.44
339.562	438.44
339.79	434.44
340.018	447.44
340.246	460.44
340.474	478.44
340.702	439.44
340.93	430.44
341.158	465.44
341.386	462.44
341.614	452.44
341.842	458.44
342.07	450.44
342.298	447.44
342.526	457.44
342.754	453.44
342.981	438.44
343.209	413.44
343.437	432.44
343.665	435.44
343.893	438.44
344.12	440.44
344.348	442.44
344.576	429.44
344.804	435.44
345.031	476.44
345.259	492.44
345.487	487.44
345.714	460.44
345.942	449.44
346.17	463.44
346.397	461.44
346.625	442.44
346.853	450.44
347.08	456.44
347.308	462.44
347.535	459.44
347.763	477.44
347.99	460.44
348.218	449.44
348.445	471.44
348.673	460.44
348.9	472.44
349.128	440.44
349.355	437.44
349.583	428.44
349.81	437.44
350.037	441.44
350.265	447.44
350.492	428.44
350.72	434.44
350.947	449.44
351.174	435.44
351.402	453.44
351.629	460.44
351.856	447.44
352.083	455.44
352.311	463.44
352.538	460.44
352.765	460.44
352.992	473.44
353.22	459.44
353.447	437.44
353.674	468.44
353.901	433.44
354.128	427.44
354.355	427.44
354.583	410.44
354.81	420.44
355.037	408.44
355.264	387.44
355.491	418.44
355.718	422.44
355.945	412.44
356.172	398.44
356.399	423.44
356.626	396.44
356.853	403.44
357.08	405.44
357.307	398.44
357.534	427.44
357.761	439.44
357.988	425.44
358.215	420.44
358.441	428.44
358.668	423.44
358.895	441.44
359.122	409.44
359.349	419.44
359.576	431.44
359.802	485.44
360.029	557.44
360.256	544.44
360.483	517.44
360.709	457.44
360.936	458.44
361.163	446.44
361.39	471.44
361.616	458.44
361.843	460.44
362.07	466.44
362.296	463.44
362.523	445.44
362.749	439.44
362.976	445.44
363.203	455.44
363.429	459.44
363.656	448.44
363.882	441.44
364.109	452.44
364.335	419.44
364.562	434.44
364.788	433.44
365.015	433.44
365.241	425.44
365.468	433.44
365.694	443.44
365.92	461.44
366.147	443.44
366.373	438.44
366.599	406.44
366.826	439.44
367.052	430.44
367.278	422.44
367.505	445.44
367.731	435.44
367.957	441.44
368.184	427.44
368.41	431.44
368.636	421.44
368.862	453.44
369.089	435.44
369.315	448.44
369.541	412.44
369.767	424.44
369.993	440.44
370.219	431.44
370.445	435.44
370.672	421.44
370.898	425.44
371.124	441.44
371.35	404.44
371.576	414.44
371.802	431.44
372.028	433.44
372.254	419.44
372.48	403.44
372.706	415.44
372.932	413.44
373.158	437.44
373.384	421.44
373.61	431.44
373.835	415.44
374.061	420.44
374.287	432.44
374.513	421.44
374.739	439.44
374.965	453.44
375.191	457.44
375.416	450.44
375.642	441.44
375.868	447.44
376.094	454.44
376.319	416.44
376.545	424.44
376.771	420.44
376.997	416.44
377.222	437.44
377.448	403.44
377.674	403.44
377.899	424.44
378.125	418.44
378.35	415.44
378.576	426.44
378.802	402.44
379.027	418.44
379.253	414.44
379.478	411.44
379.704	420.44
379.929	412.44
380.155	423.44
380.38	451.44
380.606	420.44
380.831	428.44
381.057	434.44
381.282	433.44
381.507	416.44
381.733	435.44
381.958	427.44
382.184	422.44
382.409	444.44
382.634	439.44
382.86	427.44
383.085	458.44
383.31	456.44
383.535	440.44
383.761	424.44
383.986	445.44
384.211	433.44
384.436	467.44
384.662	425.44
384.887	443.44
385.112	428.44
385.337	445.44
385.562	465.44
385.787	461.44
386.013	468.44
386.238	460.44
386.463	489.44
386.688	460.44
386.913	465.44
387.138	459.44
387.363	467.44
387.588	455.44
387.813	442.44
388.038	452.44
388.263	444.44
388.488	447.44
388.713	463.44
388.938	469.44
389.163	468.44
389.387	476.44
389.612	459.44
389.837	468.44
390.062	467.44
390.287	469.44
390.512	443.44
390.736	447.44
390.961	472.44
391.186	481.44
391.411	498.44
391.636	455.44
391.86	463.44
392.085	466.44
392.31	462.44
392.534	459.44
392.759	464.44
392.984	481.44
393.208	473.44
393.433	464.44
393.658	456.44
393.882	473.44
394.107	444.44
394.331	469.44
394.556	485.44
394.78	469.44
395.005	467.44
395.229	455.44
395.454	454.44
395.678	471.44
395.903	508.44
396.127	510.44
396.352	515.44
396.576	485.44
396.801	485.44
397.025	488.44
397.249	475.44
397.474	495.44
397.698	496.44
397.922	500.44
398.147	527.44
398.371	539.44
398.595	520.44
398.82	512.44
399.044	532.44
399.268	523.44
399.492	562.44
399.717	579.44
399.941	604.44
400.165	612.44
400.389	634.44
400.613	586.44
400.837	569.44
401.062	549.44
401.286	545.44
401.51	555.44
401.734	519.44
401.958	519.44
402.182	548.44
402.406	567.44
402.63	578.44
402.854	543.44
403.078	543.44
403.302	555.44
403.526	561.44
403.75	562.44
403.974	540.44
404.198	540.44
404.422	566.44
404.645	587.44
404.869	573.44
405.093	616.44
405.317	657.44
405.541	681.44
405.765	633.44
405.988	601.44
406.212	620.44
406.436	616.44
406.66	646.44
406.883	637.44
407.107	636.44
407.331	668.44
407.555	745.44
407.778	722.44
408.002	663.44
408.226	637.44
408.449	602.44
408.673	599.44
408.896	637.44
409.12	679.44
409.344	653.44
409.567	627.44
409.791	580.44
410.014	573.44
410.238	567.44
410.461	580.44
410.685	569.44
410.908	572.44
411.132	632.44
411.355	674.44
411.578	617.44
411.802	599.44
412.025	578.44
412.249	577.44
412.472	617.44
412.695	638.44
412.919	648.44
413.142	586.44
413.365	550.44
413.589	555.44
413.812	556.44
414.035	531.44
414.258	516.44
414.482	546.44
414.705	529.44
414.928	540.44
415.151	520.44
415.374	539.44
415.597	518.44
415.821	535.44
416.044	539.44
416.267	550.44
416.49	535.44
416.713	531.44
416.936	510.44
417.159	539.44
417.382	543.44
417.605	540.44
417.828	536.44
418.051	569.44
418.274	568.44
418.497	530.44
418.72	523.44
418.943	525.44
419.166	550.44
419.389	563.44
419.611	581.44
419.834	579.44
420.057	589.44
420.28	572.44
420.503	548.44
420.726	595.44
420.948	592.44
421.171	625.44
421.394	679.44
421.617	611.44
421.839	577.44
422.062	561.44
422.285	580.44
422.507	659.44
422.73	722.44
422.953	720.44
423.175	657.44
423.398	597.44
423.621	600.44
423.843	589.44
424.066	614.44
424.288	616.44
424.511	634.44
424.733	677.44
424.956	752.44
425.178	758.44
425.401	757.44
425.623	800.44
425.846	681.44
426.068	667.44
426.291	625.44
426.513	618.44
426.735	639.44
426.958	668.44
427.18	779.44
427.402	919.44
427.625	1013.44
427.847	927.44
428.069	810.44
428.292	698.44
428.514	653.44
428.736	631.44
428.958	601.44
429.181	612.44
429.403	583.44
429.625	599.44
429.847	644.44
430.069	716.44
430.292	685.44
430.514	612.44
430.736	592.44
430.958	564.44
431.18	561.44
431.402	545.44
431.624	554.44
431.846	544.44
432.068	563.44
432.29	555.44
432.512	547.44
432.734	579.44
432.956	571.44
433.178	575.44
433.4	591.44
433.622	561.44
433.844	552.44
434.066	548.44
434.287	534.44
434.509	561.44
434.731	556.44
434.953	553.44
435.175	580.44
435.397	613.44
435.618	628.44
435.84	711.44
436.062	769.44
436.284	834.44
436.505	740.44
436.727	663.44
436.949	615.44
437.17	615.44
437.392	613.44
437.614	594.44
437.835	655.44
438.057	767.44
438.278	866.44
438.5	882.44
438.721	939.44
438.943	891.44
439.165	726.44
439.386	666.44
439.608	665.44
439.829	659.44
440.05	674.44
440.272	742.44
440.493	675.44
440.715	653.44
440.936	603.44
441.158	595.44
441.379	601.44
441.6	624.44
441.822	641.44
442.043	679.44
442.264	793.44
442.486	822.44
442.707	715.44
442.928	660.44
443.149	668.44
443.371	666.44
443.592	743.44
443.813	817.44
444.034	881.44
444.255	733.44
444.476	689.44
444.698	625.44
444.919	616.44
445.14	742.44
445.361	684.44
445.582	688.44
445.803	777.44
446.024	853.44
446.245	876.44
446.466	799.44
446.687	700.44
446.908	650.44
447.129	585.44
447.35	604.44
447.571	593.44
447.792	579.44
448.013	612.44
448.234	618.44
448.455	696.44
448.675	819.44
448.896	910.44
449.117	789.44
449.338	771.44
449.559	851.44
449.779	969.44
450	789.44
450.221	665.44
450.442	604.44
450.662	579.44
450.883	587.44
451.104	634.44
451.324	597.44
451.545	581.44
451.766	575.44
451.986	555.44
452.207	537.44
452.428	533.44
452.648	515.44
452.869	536.44
453.089	526.44
453.31	548.44
453.53	525.44
453.751	551.44
453.971	569.44
454.192	559.44
454.412	540.44
454.633	539.44
454.853	533.44
455.073	546.44
455.294	565.44
455.514	640.44
455.734	637.44
455.955	541.44
456.175	517.44
456.395	469.44
456.616	485.44
456.836	482.44
457.056	500.44
457.276	465.44
457.497	481.44
457.717	484.44
457.937	521.44
458.157	519.44
458.377	540.44
458.598	546.44
458.818	596.44
459.038	727.44
459.258	737.44
459.478	631.44
459.698	550.44
459.918	547.44
460.138	535.44
460.358	532.44
460.578	535.44
460.798	535.44
461.018	547.44
461.238	537.44
461.458	526.44
461.678	536.44
461.898	536.44
462.118	514.44
462.338	540.44
462.558	563.44
462.777	526.44
462.997	551.44
463.217	556.44
463.437	601.44
463.657	543.44
463.876	577.44
464.096	567.44
464.316	583.44
464.536	574.44
464.755	577.44
464.975	591.44
465.195	663.44
465.414	776.44
465.634	667.44
465.854	607.44
466.073	585.44
466.293	563.44
466.512	557.44
466.732	537.44
466.951	530.44
467.171	558.44
467.391	540.44
467.61	566.44
467.829	572.44
468.049	560.44
468.268	543.44
468.488	559.44
468.707	517.44
468.927	522.44
469.146	526.44
469.365	526.44
469.585	493.44
469.804	533.44
470.023	549.44
470.243	534.44
470.462	579.44
470.681	555.44
470.901	569.44
471.12	571.44
471.339	529.44
471.558	569.44
471.777	553.44
471.997	527.44
472.216	562.44
472.435	612.44
472.654	605.44
472.873	566.44
473.092	541.44
473.311	540.44
473.53	549.44
473.749	552.44
473.968	608.44
474.187	739.44
474.406	723.44
474.625	616.44
474.844	565.44
475.063	562.44
475.282	568.44
475.501	548.44
475.72	561.44
475.939	545.44
476.158	579.44
476.377	579.44
476.596	572.44
476.814	566.44
477.033	589.44
477.252	588.44
477.471	588.44
477.69	593.44
477.908	602.44
478.127	612.44
478.346	599.44
478.564	582.44
478.783	625.44
479.002	597.44
479.22	632.44
479.439	639.44
479.658	659.44
479.876	668.44
480.095	664.44
480.313	692.44
480.532	688.44
480.751	672.44
480.969	695.44
481.188	781.44
481.406	869.44
481.624	738.44
481.843	687.44
482.061	676.44
482.28	665.44
482.498	648.44
482.717	641.44
482.935	651.44
483.153	665.44
483.372	664.44
483.59	636.44
483.808	648.44
484.027	653.44
484.245	680.44
484.463	657.44
484.681	663.44
484.9	653.44
485.118	667.44
485.336	652.44
485.554	653.44
485.772	661.44
485.99	672.44
486.209	653.44
486.427	698.44
486.645	696.44
486.863	737.44
487.081	701.44
487.299	721.44
487.517	716.44
487.735	725.44
487.953	695.44
488.171	729.44
488.389	719.44
488.607	745.44
488.825	708.44
489.043	705.44
489.261	736.44
489.479	711.44
489.696	740.44
489.914	711.44
490.132	735.44
490.35	715.44
490.568	744.44
490.786	771.44
491.003	801.44
491.221	776.44
491.439	789.44
491.657	820.44
491.874	832.44
492.092	849.44
492.31	836.44
492.527	869.44
492.745	821.44
492.963	856.44
493.18	842.44
493.398	838.44
493.615	845.44
493.833	857.44
494.05	848.44
494.268	896.44
494.485	875.44
494.703	879.44
494.92	869.44
495.138	875.44
495.355	867.44
495.573	873.44
495.79	857.44
496.008	870.44
496.225	832.44
496.442	854.44
496.66	871.44
496.877	860.44
497.094	872.44
497.312	861.44
497.529	916.44
497.746	888.44
497.963	885.44
498.181	892.44
498.398	905.44
498.615	896.44
498.832	945.44
499.049	901.44
499.267	930.44
499.484	957.44
499.701	1007.44
499.918	1012.44
500.135	994.44
500.352	1065.44
500.569	1045.44
500.786	1070.44
501.003	1079.44
501.22	1061.44
501.437	1060.44
501.654	986.44
501.871	1047.44
