Data from 1970.PennyLincolnUp.Lamp.En5.5.200Scan.071719.P1._HRD10591_15-13-39-843.txt Node
Date: Thu Jul 18 15:13:39 EDT 2019
User: cochatt
Spectrometer: HR+D1059
Trigger mode: 1
Integration Time (sec): 1.000000E-1
Scans to average: 1
Electric dark correction enabled: true
Nonlinearity correction enabled: false
Boxcar width: 0
XAxis mode: Wavelengths
Number of Pixels in Spectrum: 2048
>>>>>Begin Spectral Data<<<<<
223.165	-16.25
223.4	-16.25
223.635	-16.25
223.869	-23.25
224.104	-23.25
224.338	-25.25
224.573	-15.25
224.808	-10.25
225.042	3.75
225.277	-11.25
225.511	7.75
225.746	4.75
225.98	12.75
226.215	3.75
226.449	7.75
226.683	25.75
226.918	26.75
227.152	31.75
227.387	33.75
227.621	44.75
227.856	47.75
228.09	55.75
228.324	45.75
228.559	51.75
228.793	70.75
229.027	100.75
229.262	109.75
229.496	132.75
229.73	140.75
229.964	176.75
230.199	144.75
230.433	114.75
230.667	116.75
230.901	107.75
231.136	108.75
231.37	118.75
231.604	132.75
231.838	122.75
232.072	119.75
232.306	129.75
232.541	124.75
232.775	113.75
233.009	99.75
233.243	104.75
233.477	112.75
233.711	120.75
233.945	128.75
234.179	133.75
234.413	110.75
234.647	122.75
234.881	109.75
235.115	117.75
235.349	110.75
235.583	142.75
235.817	131.75
236.051	138.75
236.285	138.75
236.519	125.75
236.753	137.75
236.987	152.75
237.221	184.75
237.455	262.75
237.689	190.75
237.922	146.75
238.156	148.75
238.39	123.75
238.624	133.75
238.858	128.75
239.091	128.75
239.325	123.75
239.559	131.75
239.793	137.75
240.027	143.75
240.26	146.75
240.494	150.75
240.728	155.75
240.961	152.75
241.195	137.75
241.429	122.75
241.662	130.75
241.896	120.75
242.13	146.75
242.363	141.75
242.597	134.75
242.83	142.75
243.064	145.75
243.298	152.75
243.531	137.75
243.765	140.75
243.998	153.75
244.232	144.75
244.465	150.75
244.699	147.75
244.932	149.75
245.166	162.75
245.399	146.75
245.633	136.75
245.866	164.75
246.099	157.75
246.333	139.75
246.566	145.75
246.8	155.75
247.033	178.75
247.266	147.75
247.5	158.75
247.733	173.75
247.966	173.75
248.2	178.75
248.433	180.75
248.666	183.75
248.899	187.75
249.133	200.75
249.366	213.75
249.599	195.75
249.832	182.75
250.066	183.75
250.299	185.75
250.532	183.75
250.765	222.75
250.998	208.75
251.231	228.75
251.465	219.75
251.698	227.75
251.931	205.75
252.164	213.75
252.397	204.75
252.63	216.75
252.863	217.75
253.096	230.75
253.329	234.75
253.562	255.75
253.795	247.75
254.028	226.75
254.261	213.75
254.494	244.75
254.727	245.75
254.96	279.75
255.193	288.75
255.426	261.75
255.659	255.75
255.892	222.75
256.124	243.75
256.357	236.75
256.59	246.75
256.823	222.75
257.056	222.75
257.289	219.75
257.521	217.75
257.754	205.75
257.987	211.75
258.22	208.75
258.452	200.75
258.685	212.75
258.918	216.75
259.151	200.75
259.383	215.75
259.616	214.75
259.849	242.75
260.081	239.75
260.314	243.75
260.547	248.75
260.779	254.75
261.012	234.75
261.244	228.75
261.477	221.75
261.71	216.75
261.942	249.75
262.175	234.75
262.407	230.75
262.64	222.75
262.872	205.75
263.105	199.75
263.337	216.75
263.57	216.75
263.802	207.75
264.035	224.75
264.267	215.75
264.499	209.75
264.732	208.75
264.964	221.75
265.197	202.75
265.429	211.75
265.661	204.75
265.894	203.75
266.126	222.75
266.358	207.75
266.591	219.75
266.823	203.75
267.055	213.75
267.287	232.75
267.52	216.75
267.752	217.75
267.984	204.75
268.216	226.75
268.448	209.75
268.681	215.75
268.913	235.75
269.145	224.75
269.377	246.75
269.609	276.75
269.841	266.75
270.073	264.75
270.306	274.75
270.538	322.75
270.77	296.75
271.002	310.75
271.234	282.75
271.466	271.75
271.698	294.75
271.93	286.75
272.162	318.75
272.394	311.75
272.626	298.75
272.858	276.75
273.09	274.75
273.322	258.75
273.553	261.75
273.785	262.75
274.017	253.75
274.249	252.75
274.481	256.75
274.713	235.75
274.945	255.75
275.176	266.75
275.408	258.75
275.64	252.75
275.872	250.75
276.104	243.75
276.335	232.75
276.567	265.75
276.799	276.75
277.031	299.75
277.262	289.75
277.494	301.75
277.726	276.75
277.957	271.75
278.189	272.75
278.421	263.75
278.652	256.75
278.884	247.75
279.115	264.75
279.347	246.75
279.579	266.75
279.81	270.75
280.042	239.75
280.273	253.75
280.505	258.75
280.736	255.75
280.968	240.75
281.199	224.75
281.431	238.75
281.662	239.75
281.894	236.75
282.125	248.75
282.356	259.75
282.588	271.75
282.819	293.75
283.051	258.75
283.282	245.75
283.513	257.75
283.745	264.75
283.976	253.75
284.207	256.75
284.439	250.75
284.67	270.75
284.901	243.75
285.132	248.75
285.364	245.75
285.595	255.75
285.826	261.75
286.057	247.75
286.288	248.75
286.52	266.75
286.751	267.75
286.982	277.75
287.213	259.75
287.444	277.75
287.675	276.75
287.906	264.75
288.138	273.75
288.369	293.75
288.6	279.75
288.831	278.75
289.062	266.75
289.293	271.75
289.524	259.75
289.755	282.75
289.986	254.75
290.217	266.75
290.448	270.75
290.679	270.75
290.91	271.75
291.141	253.75
291.371	294.75
291.602	247.75
291.833	266.75
292.064	252.75
292.295	276.75
292.526	275.75
292.757	258.75
292.987	278.75
293.218	257.75
293.449	249.75
293.68	266.75
293.91	261.75
294.141	261.75
294.372	252.75
294.603	254.75
294.833	266.75
295.064	264.75
295.295	253.75
295.525	262.75
295.756	278.75
295.987	280.75
296.217	302.75
296.448	317.75
296.679	275.75
296.909	276.75
297.14	286.75
297.37	257.75
297.601	268.75
297.831	276.75
298.062	277.75
298.292	277.75
298.523	272.75
298.753	274.75
298.984	294.75
299.214	268.75
299.445	285.75
299.675	283.75
299.905	262.75
300.136	285.75
300.366	295.75
300.597	291.75
300.827	292.75
301.057	283.75
301.288	294.75
301.518	299.75
301.748	292.75
301.979	288.75
302.209	294.75
302.439	278.75
302.669	275.75
302.9	287.75
303.13	291.75
303.36	293.75
303.59	309.75
303.82	312.75
304.051	316.75
304.281	310.75
304.511	284.75
304.741	276.75
304.971	287.75
305.201	299.75
305.431	311.75
305.661	296.75
305.891	272.75
306.121	300.75
306.352	308.75
306.582	311.75
306.812	293.75
307.042	306.75
307.272	297.75
307.502	303.75
307.731	300.75
307.961	323.75
308.191	308.75
308.421	296.75
308.651	303.75
308.881	310.75
309.111	317.75
309.341	314.75
309.571	315.75
309.8	332.75
310.03	338.75
310.26	354.75
310.49	342.75
310.72	362.75
310.949	360.75
311.179	367.75
311.409	354.75
311.639	336.75
311.868	339.75
312.098	343.75
312.328	353.75
312.557	374.75
312.787	380.75
313.017	369.75
313.246	364.75
313.476	348.75
313.706	335.75
313.935	353.75
314.165	351.75
314.394	360.75
314.624	366.75
314.853	357.75
315.083	350.75
315.312	336.75
315.542	341.75
315.771	332.75
316.001	333.75
316.23	329.75
316.46	347.75
316.689	360.75
316.919	346.75
317.148	347.75
317.377	358.75
317.607	378.75
317.836	360.75
318.065	341.75
318.295	355.75
318.524	336.75
318.753	359.75
318.983	346.75
319.212	342.75
319.441	358.75
319.67	368.75
319.9	342.75
320.129	354.75
320.358	352.75
320.587	330.75
320.816	355.75
321.046	371.75
321.275	371.75
321.504	359.75
321.733	363.75
321.962	388.75
322.191	417.75
322.42	397.75
322.649	405.75
322.878	422.75
323.108	421.75
323.337	465.75
323.566	468.75
323.795	518.75
324.024	573.75
324.253	659.75
324.482	923.75
324.71	1418.75
324.939	1990.75
325.168	1742.75
325.397	935.75
325.626	648.75
325.855	527.75
326.084	502.75
326.313	472.75
326.542	492.75
326.77	507.75
326.999	611.75
327.228	862.75
327.457	1232.75
327.686	1498.75
327.914	1035.75
328.143	694.75
328.372	614.75
328.6	584.75
328.829	529.75
329.058	538.75
329.287	580.75
329.515	533.75
329.744	515.75
329.972	475.75
330.201	496.75
330.43	525.75
330.658	567.75
330.887	598.75
331.115	582.75
331.344	482.75
331.572	448.75
331.801	473.75
332.03	462.75
332.258	423.75
332.486	430.75
332.715	395.75
332.943	426.75
333.172	409.75
333.4	416.75
333.629	414.75
333.857	450.75
334.085	461.75
334.314	462.75
334.542	480.75
334.771	490.75
334.999	466.75
335.227	452.75
335.455	419.75
335.684	414.75
335.912	413.75
336.14	404.75
336.369	408.75
336.597	407.75
336.825	415.75
337.053	416.75
337.281	401.75
337.51	406.75
337.738	411.75
337.966	412.75
338.194	399.75
338.422	405.75
338.65	415.75
338.878	390.75
339.106	386.75
339.334	399.75
339.562	387.75
339.79	410.75
340.018	378.75
340.246	382.75
340.474	396.75
340.702	414.75
340.93	396.75
341.158	386.75
341.386	388.75
341.614	390.75
341.842	380.75
342.07	382.75
342.298	382.75
342.526	393.75
342.754	387.75
342.981	398.75
343.209	374.75
343.437	388.75
343.665	378.75
343.893	396.75
344.12	403.75
344.348	404.75
344.576	412.75
344.804	426.75
345.031	429.75
345.259	431.75
345.487	423.75
345.714	417.75
345.942	391.75
346.17	404.75
346.397	387.75
346.625	425.75
346.853	380.75
347.08	378.75
347.308	379.75
347.535	392.75
347.763	415.75
347.99	418.75
348.218	415.75
348.445	426.75
348.673	422.75
348.9	379.75
349.128	404.75
349.355	389.75
349.583	365.75
349.81	379.75
350.037	365.75
350.265	372.75
350.492	394.75
350.72	388.75
350.947	375.75
351.174	398.75
351.402	421.75
351.629	402.75
351.856	398.75
352.083	402.75
352.311	424.75
352.538	398.75
352.765	402.75
352.992	392.75
353.22	386.75
353.447	396.75
353.674	380.75
353.901	384.75
354.128	381.75
354.355	372.75
354.583	354.75
354.81	384.75
355.037	380.75
355.264	350.75
355.491	376.75
355.718	370.75
355.945	372.75
356.172	366.75
356.399	362.75
356.626	363.75
356.853	370.75
357.08	371.75
357.307	375.75
357.534	360.75
357.761	384.75
357.988	364.75
358.215	381.75
358.441	364.75
358.668	378.75
358.895	363.75
359.122	374.75
359.349	392.75
359.576	397.75
359.802	423.75
360.029	440.75
360.256	446.75
360.483	438.75
360.709	428.75
360.936	408.75
361.163	414.75
361.39	419.75
361.616	383.75
361.843	380.75
362.07	396.75
362.296	403.75
362.523	410.75
362.749	404.75
362.976	394.75
363.203	376.75
363.429	383.75
363.656	386.75
363.882	400.75
364.109	359.75
364.335	379.75
364.562	384.75
364.788	401.75
365.015	390.75
365.241	370.75
365.468	395.75
365.694	397.75
365.92	393.75
366.147	379.75
366.373	390.75
366.599	403.75
366.826	397.75
367.052	402.75
367.278	388.75
367.505	403.75
367.731	394.75
367.957	408.75
368.184	388.75
368.41	395.75
368.636	399.75
368.862	415.75
369.089	395.75
369.315	388.75
369.541	381.75
369.767	394.75
369.993	379.75
370.219	394.75
370.445	384.75
370.672	392.75
370.898	387.75
371.124	386.75
371.35	375.75
371.576	388.75
371.802	382.75
372.028	391.75
372.254	372.75
372.48	372.75
372.706	386.75
372.932	398.75
373.158	382.75
373.384	404.75
373.61	386.75
373.835	379.75
374.061	388.75
374.287	387.75
374.513	387.75
374.739	404.75
374.965	391.75
375.191	396.75
375.416	409.75
375.642	378.75
375.868	381.75
376.094	419.75
376.319	392.75
376.545	400.75
376.771	378.75
376.997	395.75
377.222	412.75
377.448	395.75
377.674	382.75
377.899	391.75
378.125	380.75
378.35	387.75
378.576	402.75
378.802	374.75
379.027	388.75
379.253	399.75
379.478	393.75
379.704	395.75
379.929	390.75
380.155	407.75
380.38	389.75
380.606	413.75
380.831	383.75
381.057	387.75
381.282	398.75
381.507	400.75
381.733	375.75
381.958	396.75
382.184	398.75
382.409	406.75
382.634	414.75
382.86	405.75
383.085	394.75
383.31	406.75
383.535	407.75
383.761	378.75
383.986	397.75
384.211	405.75
384.436	399.75
384.662	408.75
384.887	413.75
385.112	415.75
385.337	390.75
385.562	418.75
385.787	438.75
386.013	452.75
386.238	431.75
386.463	443.75
386.688	419.75
386.913	426.75
387.138	411.75
387.363	431.75
387.588	422.75
387.813	421.75
388.038	415.75
388.263	413.75
388.488	438.75
388.713	421.75
388.938	418.75
389.163	408.75
389.387	428.75
389.612	414.75
389.837	415.75
390.062	399.75
390.287	413.75
390.512	423.75
390.736	404.75
390.961	436.75
391.186	421.75
391.411	413.75
391.636	413.75
391.86	427.75
392.085	429.75
392.31	426.75
392.534	424.75
392.759	421.75
392.984	432.75
393.208	412.75
393.433	450.75
393.658	450.75
393.882	440.75
394.107	429.75
394.331	431.75
394.556	427.75
394.78	424.75
395.005	430.75
395.229	423.75
395.454	427.75
395.678	426.75
395.903	455.75
396.127	464.75
396.352	472.75
396.576	442.75
396.801	432.75
397.025	453.75
397.249	456.75
397.474	444.75
397.698	446.75
397.922	453.75
398.147	472.75
398.371	459.75
398.595	460.75
398.82	478.75
399.044	454.75
399.268	460.75
399.492	532.75
399.717	532.75
399.941	556.75
400.165	595.75
400.389	585.75
400.613	538.75
400.837	521.75
401.062	497.75
401.286	480.75
401.51	470.75
401.734	486.75
401.958	468.75
402.182	484.75
402.406	509.75
402.63	497.75
402.854	479.75
403.078	514.75
403.302	493.75
403.526	490.75
403.75	502.75
403.974	500.75
404.198	490.75
404.422	517.75
404.645	496.75
404.869	491.75
405.093	519.75
405.317	555.75
405.541	582.75
405.765	562.75
405.988	554.75
406.212	553.75
406.436	572.75
406.66	597.75
406.883	560.75
407.107	570.75
407.331	619.75
407.555	651.75
407.778	675.75
408.002	618.75
408.226	579.75
408.449	576.75
408.673	559.75
408.896	576.75
409.12	647.75
409.344	607.75
409.567	540.75
409.791	518.75
410.014	527.75
410.238	511.75
410.461	521.75
410.685	492.75
410.908	514.75
411.132	552.75
411.355	602.75
411.578	574.75
411.802	517.75
412.025	506.75
412.249	516.75
412.472	531.75
412.695	567.75
412.919	559.75
413.142	522.75
413.365	512.75
413.589	532.75
413.812	494.75
414.035	470.75
414.258	500.75
414.482	453.75
414.705	474.75
414.928	467.75
415.151	477.75
415.374	478.75
415.597	473.75
415.821	456.75
416.044	484.75
416.267	488.75
416.49	485.75
416.713	482.75
416.936	486.75
417.159	481.75
417.382	478.75
417.605	504.75
417.828	514.75
418.051	520.75
418.274	485.75
418.497	502.75
418.72	487.75
418.943	484.75
419.166	478.75
419.389	527.75
419.611	518.75
419.834	534.75
420.057	544.75
420.28	550.75
420.503	485.75
420.726	503.75
420.948	514.75
421.171	584.75
421.394	588.75
421.617	549.75
421.839	538.75
422.062	520.75
422.285	517.75
422.507	590.75
422.73	665.75
422.953	638.75
423.175	571.75
423.398	553.75
423.621	546.75
423.843	558.75
424.066	571.75
424.288	580.75
424.511	588.75
424.733	610.75
424.956	696.75
425.178	689.75
425.401	648.75
425.623	687.75
425.846	615.75
426.068	583.75
426.291	559.75
426.513	571.75
426.735	574.75
426.958	591.75
427.18	683.75
427.402	791.75
427.625	872.75
427.847	792.75
428.069	676.75
428.292	652.75
428.514	575.75
428.736	536.75
428.958	549.75
429.181	543.75
429.403	535.75
429.625	523.75
429.847	559.75
430.069	622.75
430.292	627.75
430.514	548.75
430.736	533.75
430.958	522.75
431.18	494.75
431.402	499.75
431.624	499.75
431.846	480.75
432.068	491.75
432.29	492.75
432.512	489.75
432.734	510.75
432.956	498.75
433.178	520.75
433.4	522.75
433.622	511.75
433.844	508.75
434.066	493.75
434.287	490.75
434.509	478.75
434.731	500.75
434.953	504.75
435.175	518.75
435.397	529.75
435.618	555.75
435.84	597.75
436.062	687.75
436.284	745.75
436.505	655.75
436.727	600.75
436.949	537.75
437.17	528.75
437.392	510.75
437.614	552.75
437.835	582.75
438.057	663.75
438.278	760.75
438.5	768.75
438.721	823.75
438.943	782.75
439.165	642.75
439.386	572.75
439.608	567.75
439.829	588.75
440.05	588.75
440.272	636.75
440.493	625.75
440.715	546.75
440.936	520.75
441.158	500.75
441.379	526.75
441.6	565.75
441.822	563.75
442.043	598.75
442.264	683.75
442.486	723.75
442.707	627.75
442.928	604.75
443.149	578.75
443.371	645.75
443.592	662.75
443.813	719.75
444.034	791.75
444.255	644.75
444.476	598.75
444.698	566.75
444.919	566.75
445.14	683.75
445.361	633.75
445.582	619.75
445.803	678.75
446.024	778.75
446.245	779.75
446.466	697.75
446.687	591.75
446.908	590.75
447.129	540.75
447.35	535.75
447.571	542.75
447.792	518.75
448.013	532.75
448.234	559.75
448.455	632.75
448.675	703.75
448.896	800.75
449.117	709.75
449.338	676.75
449.559	759.75
449.779	815.75
450	689.75
450.221	596.75
450.442	542.75
450.662	537.75
450.883	518.75
451.104	536.75
451.324	527.75
451.545	524.75
451.766	479.75
451.986	490.75
452.207	475.75
452.428	471.75
452.648	465.75
452.869	488.75
453.089	492.75
453.31	509.75
453.53	479.75
453.751	471.75
453.971	470.75
454.192	479.75
454.412	479.75
454.633	492.75
454.853	474.75
455.073	459.75
455.294	492.75
455.514	548.75
455.734	540.75
455.955	483.75
456.175	460.75
456.395	452.75
456.616	455.75
456.836	426.75
457.056	424.75
457.276	421.75
457.497	419.75
457.717	444.75
457.937	457.75
458.157	466.75
458.377	454.75
458.598	491.75
458.818	541.75
459.038	634.75
459.258	616.75
459.478	543.75
459.698	485.75
459.918	486.75
460.138	470.75
460.358	494.75
460.578	477.75
460.798	491.75
461.018	496.75
461.238	488.75
461.458	482.75
461.678	489.75
461.898	472.75
462.118	475.75
462.338	500.75
462.558	484.75
462.777	483.75
462.997	501.75
463.217	504.75
463.437	532.75
463.657	527.75
463.876	521.75
464.096	526.75
464.316	518.75
464.536	511.75
464.755	529.75
464.975	536.75
465.195	575.75
465.414	668.75
465.634	604.75
465.854	537.75
466.073	515.75
466.293	505.75
466.512	505.75
466.732	469.75
466.951	474.75
467.171	475.75
467.391	474.75
467.61	495.75
467.829	495.75
468.049	484.75
468.268	495.75
468.488	480.75
468.707	493.75
468.927	457.75
469.146	445.75
469.365	470.75
469.585	473.75
469.804	489.75
470.023	493.75
470.243	478.75
470.462	511.75
470.681	510.75
470.901	516.75
471.12	504.75
471.339	494.75
471.558	485.75
471.777	474.75
471.997	479.75
472.216	492.75
472.435	542.75
472.654	533.75
472.873	524.75
473.092	495.75
473.311	504.75
473.53	491.75
473.749	503.75
473.968	547.75
474.187	645.75
474.406	655.75
474.625	568.75
474.844	527.75
475.063	504.75
475.282	500.75
475.501	480.75
475.72	511.75
475.939	505.75
476.158	499.75
476.377	491.75
476.596	499.75
476.814	530.75
477.033	512.75
477.252	552.75
477.471	520.75
477.69	516.75
477.908	526.75
478.127	527.75
478.346	538.75
478.564	532.75
478.783	564.75
479.002	564.75
479.22	572.75
479.439	595.75
479.658	614.75
479.876	613.75
480.095	617.75
480.313	656.75
480.532	612.75
480.751	626.75
480.969	600.75
481.188	648.75
481.406	726.75
481.624	648.75
481.843	595.75
482.061	591.75
482.28	586.75
482.498	600.75
482.717	593.75
482.935	584.75
483.153	583.75
483.372	587.75
483.59	556.75
483.808	599.75
484.027	576.75
484.245	556.75
484.463	586.75
484.681	583.75
484.9	609.75
485.118	587.75
485.336	608.75
485.554	586.75
485.772	616.75
485.99	599.75
486.209	613.75
486.427	603.75
486.645	654.75
486.863	650.75
487.081	619.75
487.299	634.75
487.517	639.75
487.735	651.75
487.953	619.75
488.171	652.75
488.389	643.75
488.607	650.75
488.825	626.75
489.043	638.75
489.261	644.75
489.479	664.75
489.696	638.75
489.914	646.75
490.132	670.75
490.35	658.75
490.568	682.75
490.786	694.75
491.003	694.75
491.221	724.75
491.439	710.75
491.657	707.75
491.874	754.75
492.092	739.75
492.31	755.75
492.527	720.75
492.745	734.75
492.963	735.75
493.18	772.75
493.398	757.75
493.615	775.75
493.833	790.75
494.05	784.75
494.268	776.75
494.485	755.75
494.703	771.75
494.92	773.75
495.138	782.75
495.355	762.75
495.573	757.75
495.79	770.75
496.008	774.75
496.225	771.75
496.442	764.75
496.66	768.75
496.877	763.75
497.094	763.75
497.312	793.75
497.529	755.75
497.746	805.75
497.963	791.75
498.181	825.75
498.398	820.75
498.615	842.75
498.832	855.75
499.049	848.75
499.267	847.75
499.484	852.75
499.701	898.75
499.918	907.75
500.135	930.75
500.352	951.75
500.569	975.75
500.786	967.75
501.003	977.75
501.22	943.75
501.437	955.75
501.654	918.75
501.871	923.75
