Data from 1970.PennyLincolnUp.Lamp.En5.5.200Scan.071719.P1._HRD10591_15-15-14-841.txt Node
Date: Thu Jul 18 15:15:14 EDT 2019
User: cochatt
Spectrometer: HR+D1059
Trigger mode: 1
Integration Time (sec): 1.000000E-1
Scans to average: 1
Electric dark correction enabled: true
Nonlinearity correction enabled: false
Boxcar width: 0
XAxis mode: Wavelengths
Number of Pixels in Spectrum: 2048
>>>>>Begin Spectral Data<<<<<
223.165	-15.38
223.4	-15.38
223.635	-15.38
223.869	-20.38
224.104	-24.38
224.338	-4.38
224.573	-12.38
224.808	-0.38
225.042	-2.38
225.277	-15.38
225.511	-19.38
225.746	9.62
225.98	9.62
226.215	6.62
226.449	9.62
226.683	19.62
226.918	20.62
227.152	38.62
227.387	26.62
227.621	42.62
227.856	46.62
228.09	37.62
228.324	59.62
228.559	62.62
228.793	83.62
229.027	114.62
229.262	132.62
229.496	133.62
229.73	161.62
229.964	183.62
230.199	138.62
230.433	125.62
230.667	121.62
230.901	124.62
231.136	135.62
231.37	146.62
231.604	128.62
231.838	118.62
232.072	127.62
232.306	123.62
232.541	124.62
232.775	111.62
233.009	139.62
233.243	111.62
233.477	128.62
233.711	119.62
233.945	131.62
234.179	129.62
234.413	130.62
234.647	126.62
234.881	127.62
235.115	124.62
235.349	127.62
235.583	130.62
235.817	135.62
236.051	127.62
236.285	146.62
236.519	132.62
236.753	142.62
236.987	168.62
237.221	206.62
237.455	285.62
237.689	220.62
237.922	153.62
238.156	149.62
238.39	139.62
238.624	138.62
238.858	141.62
239.091	114.62
239.325	123.62
239.559	138.62
239.793	145.62
240.027	150.62
240.26	161.62
240.494	182.62
240.728	182.62
240.961	171.62
241.195	165.62
241.429	158.62
241.662	147.62
241.896	151.62
242.13	157.62
242.363	135.62
242.597	155.62
242.83	151.62
243.064	145.62
243.298	143.62
243.531	161.62
243.765	145.62
243.998	151.62
244.232	143.62
244.465	164.62
244.699	155.62
244.932	163.62
245.166	154.62
245.399	155.62
245.633	169.62
245.866	160.62
246.099	152.62
246.333	170.62
246.566	173.62
246.8	167.62
247.033	162.62
247.266	175.62
247.5	169.62
247.733	180.62
247.966	197.62
248.2	200.62
248.433	201.62
248.666	202.62
248.899	202.62
249.133	232.62
249.366	233.62
249.599	230.62
249.832	214.62
250.066	222.62
250.299	223.62
250.532	222.62
250.765	224.62
250.998	253.62
251.231	280.62
251.465	230.62
251.698	238.62
251.931	228.62
252.164	241.62
252.397	230.62
252.63	210.62
252.863	224.62
253.096	239.62
253.329	253.62
253.562	255.62
253.795	245.62
254.028	256.62
254.261	259.62
254.494	262.62
254.727	315.62
254.96	323.62
255.193	306.62
255.426	273.62
255.659	281.62
255.892	268.62
256.124	273.62
256.357	264.62
256.59	257.62
256.823	247.62
257.056	231.62
257.289	254.62
257.521	248.62
257.754	222.62
257.987	234.62
258.22	224.62
258.452	241.62
258.685	230.62
258.918	235.62
259.151	234.62
259.383	242.62
259.616	268.62
259.849	255.62
260.081	270.62
260.314	280.62
260.547	292.62
260.779	287.62
261.012	271.62
261.244	251.62
261.477	261.62
261.71	241.62
261.942	244.62
262.175	253.62
262.407	258.62
262.64	250.62
262.872	240.62
263.105	239.62
263.337	217.62
263.57	238.62
263.802	238.62
264.035	229.62
264.267	230.62
264.499	260.62
264.732	226.62
264.964	217.62
265.197	224.62
265.429	237.62
265.661	235.62
265.894	217.62
266.126	227.62
266.358	243.62
266.591	227.62
266.823	251.62
267.055	263.62
267.287	234.62
267.52	237.62
267.752	231.62
267.984	245.62
268.216	251.62
268.448	247.62
268.681	250.62
268.913	254.62
269.145	272.62
269.377	282.62
269.609	289.62
269.841	311.62
270.073	293.62
270.306	301.62
270.538	339.62
270.77	335.62
271.002	338.62
271.234	326.62
271.466	304.62
271.698	334.62
271.93	333.62
272.162	367.62
272.394	359.62
272.626	347.62
272.858	328.62
273.09	303.62
273.322	296.62
273.553	291.62
273.785	283.62
274.017	285.62
274.249	281.62
274.481	286.62
274.713	290.62
274.945	272.62
275.176	278.62
275.408	289.62
275.64	277.62
275.872	269.62
276.104	284.62
276.335	290.62
276.567	303.62
276.799	302.62
277.031	337.62
277.262	353.62
277.494	358.62
277.726	335.62
277.957	322.62
278.189	301.62
278.421	279.62
278.652	295.62
278.884	282.62
279.115	298.62
279.347	287.62
279.579	280.62
279.81	294.62
280.042	295.62
280.273	291.62
280.505	295.62
280.736	263.62
280.968	265.62
281.199	270.62
281.431	288.62
281.662	287.62
281.894	284.62
282.125	286.62
282.356	292.62
282.588	333.62
282.819	315.62
283.051	269.62
283.282	273.62
283.513	294.62
283.745	285.62
283.976	287.62
284.207	292.62
284.439	293.62
284.67	276.62
284.901	280.62
285.132	288.62
285.364	272.62
285.595	269.62
285.826	286.62
286.057	278.62
286.288	268.62
286.52	284.62
286.751	284.62
286.982	282.62
287.213	284.62
287.444	307.62
287.675	305.62
287.906	314.62
288.138	295.62
288.369	317.62
288.6	303.62
288.831	281.62
289.062	305.62
289.293	310.62
289.524	290.62
289.755	298.62
289.986	290.62
290.217	280.62
290.448	295.62
290.679	293.62
290.91	311.62
291.141	297.62
291.371	279.62
291.602	288.62
291.833	287.62
292.064	288.62
292.295	300.62
292.526	293.62
292.757	289.62
292.987	297.62
293.218	301.62
293.449	303.62
293.68	287.62
293.91	317.62
294.141	299.62
294.372	290.62
294.603	304.62
294.833	298.62
295.064	301.62
295.295	298.62
295.525	328.62
295.756	305.62
295.987	302.62
296.217	339.62
296.448	342.62
296.679	317.62
296.909	310.62
297.14	302.62
297.37	313.62
297.601	310.62
297.831	306.62
298.062	311.62
298.292	295.62
298.523	302.62
298.753	313.62
298.984	306.62
299.214	306.62
299.445	331.62
299.675	315.62
299.905	331.62
300.136	306.62
300.366	301.62
300.597	312.62
300.827	320.62
301.057	334.62
301.288	344.62
301.518	323.62
301.748	334.62
301.979	332.62
302.209	342.62
302.439	336.62
302.669	349.62
302.9	325.62
303.13	321.62
303.36	338.62
303.59	327.62
303.82	346.62
304.051	350.62
304.281	320.62
304.511	330.62
304.741	330.62
304.971	329.62
305.201	326.62
305.431	330.62
305.661	361.62
305.891	329.62
306.121	334.62
306.352	337.62
306.582	361.62
306.812	339.62
307.042	336.62
307.272	343.62
307.502	341.62
307.731	347.62
307.961	350.62
308.191	326.62
308.421	337.62
308.651	352.62
308.881	341.62
309.111	358.62
309.341	363.62
309.571	400.62
309.8	393.62
310.03	389.62
310.26	371.62
310.49	378.62
310.72	391.62
310.949	430.62
311.179	425.62
311.409	389.62
311.639	384.62
311.868	397.62
312.098	403.62
312.328	409.62
312.557	411.62
312.787	450.62
313.017	416.62
313.246	414.62
313.476	390.62
313.706	403.62
313.935	407.62
314.165	412.62
314.394	439.62
314.624	403.62
314.853	414.62
315.083	397.62
315.312	379.62
315.542	375.62
315.771	391.62
316.001	381.62
316.23	384.62
316.46	394.62
316.689	395.62
316.919	409.62
317.148	404.62
317.377	408.62
317.607	413.62
317.836	401.62
318.065	402.62
318.295	398.62
318.524	373.62
318.753	389.62
318.983	387.62
319.212	403.62
319.441	422.62
319.67	418.62
319.9	412.62
320.129	391.62
320.358	394.62
320.587	395.62
320.816	419.62
321.046	442.62
321.275	435.62
321.504	434.62
321.733	443.62
321.962	450.62
322.191	423.62
322.42	461.62
322.649	478.62
322.878	512.62
323.108	486.62
323.337	534.62
323.566	582.62
323.795	631.62
324.024	659.62
324.253	773.62
324.482	1149.62
324.71	1760.62
324.939	2541.62
325.168	2214.62
325.397	1153.62
325.626	806.62
325.855	643.62
326.084	585.62
326.313	578.62
326.542	575.62
326.77	626.62
326.999	729.62
327.228	1027.62
327.457	1569.62
327.686	1851.62
327.914	1285.62
328.143	863.62
328.372	752.62
328.6	690.62
328.829	627.62
329.058	663.62
329.287	665.62
329.515	627.62
329.744	587.62
329.972	551.62
330.201	589.62
330.43	650.62
330.658	667.62
330.887	701.62
331.115	666.62
331.344	594.62
331.572	573.62
331.801	555.62
332.03	531.62
332.258	533.62
332.486	479.62
332.715	482.62
332.943	490.62
333.172	477.62
333.4	478.62
333.629	508.62
333.857	497.62
334.085	547.62
334.314	539.62
334.542	599.62
334.771	588.62
334.999	539.62
335.227	520.62
335.455	467.62
335.684	465.62
335.912	481.62
336.14	464.62
336.369	467.62
336.597	478.62
336.825	462.62
337.053	455.62
337.281	455.62
337.51	447.62
337.738	454.62
337.966	467.62
338.194	465.62
338.422	482.62
338.65	453.62
338.878	455.62
339.106	448.62
339.334	428.62
339.562	427.62
339.79	439.62
340.018	450.62
340.246	447.62
340.474	463.62
340.702	461.62
340.93	472.62
341.158	459.62
341.386	445.62
341.614	456.62
341.842	459.62
342.07	440.62
342.298	444.62
342.526	441.62
342.754	431.62
342.981	417.62
343.209	419.62
343.437	429.62
343.665	446.62
343.893	452.62
344.12	462.62
344.348	441.62
344.576	455.62
344.804	474.62
345.031	455.62
345.259	483.62
345.487	467.62
345.714	485.62
345.942	450.62
346.17	461.62
346.397	446.62
346.625	473.62
346.853	446.62
347.08	453.62
347.308	472.62
347.535	466.62
347.763	475.62
347.99	465.62
348.218	484.62
348.445	460.62
348.673	466.62
348.9	465.62
349.128	443.62
349.355	421.62
349.583	434.62
349.81	423.62
350.037	413.62
350.265	419.62
350.492	413.62
350.72	425.62
350.947	447.62
351.174	458.62
351.402	463.62
351.629	457.62
351.856	448.62
352.083	462.62
352.311	489.62
352.538	471.62
352.765	468.62
352.992	461.62
353.22	439.62
353.447	479.62
353.674	450.62
353.901	438.62
354.128	404.62
354.355	423.62
354.583	407.62
354.81	404.62
355.037	407.62
355.264	417.62
355.491	380.62
355.718	418.62
355.945	411.62
356.172	437.62
356.399	410.62
356.626	418.62
356.853	403.62
357.08	391.62
357.307	417.62
357.534	426.62
357.761	427.62
357.988	421.62
358.215	405.62
358.441	423.62
358.668	433.62
358.895	430.62
359.122	415.62
359.349	441.62
359.576	458.62
359.802	494.62
360.029	535.62
360.256	555.62
360.483	513.62
360.709	481.62
360.936	457.62
361.163	469.62
361.39	451.62
361.616	472.62
361.843	475.62
362.07	449.62
362.296	445.62
362.523	457.62
362.749	446.62
362.976	457.62
363.203	418.62
363.429	439.62
363.656	425.62
363.882	445.62
364.109	445.62
364.335	445.62
364.562	442.62
364.788	429.62
365.015	441.62
365.241	432.62
365.468	443.62
365.694	431.62
365.92	441.62
366.147	439.62
366.373	439.62
366.599	430.62
366.826	417.62
367.052	409.62
367.278	430.62
367.505	443.62
367.731	443.62
367.957	441.62
368.184	446.62
368.41	451.62
368.636	467.62
368.862	463.62
369.089	445.62
369.315	457.62
369.541	450.62
369.767	424.62
369.993	425.62
370.219	433.62
370.445	436.62
370.672	442.62
370.898	437.62
371.124	423.62
371.35	437.62
371.576	439.62
371.802	437.62
372.028	425.62
372.254	428.62
372.48	443.62
372.706	429.62
372.932	444.62
373.158	446.62
373.384	438.62
373.61	443.62
373.835	427.62
374.061	437.62
374.287	443.62
374.513	440.62
374.739	455.62
374.965	447.62
375.191	428.62
375.416	429.62
375.642	440.62
375.868	418.62
376.094	412.62
376.319	425.62
376.545	440.62
376.771	430.62
376.997	434.62
377.222	402.62
377.448	399.62
377.674	426.62
377.899	418.62
378.125	436.62
378.35	439.62
378.576	423.62
378.802	412.62
379.027	439.62
379.253	462.62
379.478	430.62
379.704	447.62
379.929	442.62
380.155	430.62
380.38	418.62
380.606	432.62
380.831	441.62
381.057	441.62
381.282	430.62
381.507	443.62
381.733	430.62
381.958	446.62
382.184	433.62
382.409	440.62
382.634	435.62
382.86	432.62
383.085	453.62
383.31	445.62
383.535	445.62
383.761	452.62
383.986	434.62
384.211	451.62
384.436	464.62
384.662	448.62
384.887	471.62
385.112	465.62
385.337	438.62
385.562	461.62
385.787	464.62
386.013	469.62
386.238	470.62
386.463	491.62
386.688	478.62
386.913	466.62
387.138	465.62
387.363	485.62
387.588	471.62
387.813	446.62
388.038	463.62
388.263	472.62
388.488	456.62
388.713	488.62
388.938	478.62
389.163	472.62
389.387	462.62
389.612	448.62
389.837	478.62
390.062	483.62
390.287	466.62
390.512	465.62
390.736	474.62
390.961	463.62
391.186	459.62
391.411	469.62
391.636	477.62
391.86	488.62
392.085	490.62
392.31	503.62
392.534	469.62
392.759	491.62
392.984	474.62
393.208	482.62
393.433	487.62
393.658	482.62
393.882	482.62
394.107	483.62
394.331	489.62
394.556	467.62
394.78	482.62
395.005	489.62
395.229	474.62
395.454	508.62
395.678	471.62
395.903	491.62
396.127	539.62
396.352	503.62
396.576	491.62
396.801	471.62
397.025	489.62
397.249	493.62
397.474	495.62
397.698	508.62
397.922	505.62
398.147	536.62
398.371	526.62
398.595	539.62
398.82	513.62
399.044	525.62
399.268	554.62
399.492	549.62
399.717	595.62
399.941	624.62
400.165	624.62
400.389	654.62
400.613	593.62
400.837	553.62
401.062	558.62
401.286	544.62
401.51	558.62
401.734	541.62
401.958	528.62
402.182	565.62
402.406	555.62
402.63	539.62
402.854	541.62
403.078	551.62
403.302	572.62
403.526	579.62
403.75	560.62
403.974	537.62
404.198	541.62
404.422	558.62
404.645	571.62
404.869	574.62
405.093	614.62
405.317	656.62
405.541	666.62
405.765	643.62
405.988	617.62
406.212	615.62
406.436	639.62
406.66	676.62
406.883	621.62
407.107	644.62
407.331	670.62
407.555	748.62
407.778	744.62
408.002	693.62
408.226	621.62
408.449	618.62
408.673	638.62
408.896	657.62
409.12	687.62
409.344	647.62
409.567	611.62
409.791	614.62
410.014	574.62
410.238	577.62
410.461	586.62
410.685	565.62
410.908	590.62
411.132	623.62
411.355	669.62
411.578	616.62
411.802	599.62
412.025	581.62
412.249	581.62
412.472	606.62
412.695	664.62
412.919	653.62
413.142	586.62
413.365	559.62
413.589	541.62
413.812	559.62
414.035	554.62
414.258	509.62
414.482	517.62
414.705	548.62
414.928	509.62
415.151	550.62
415.374	530.62
415.597	550.62
415.821	534.62
416.044	548.62
416.267	543.62
416.49	532.62
416.713	551.62
416.936	556.62
417.159	559.62
417.382	551.62
417.605	545.62
417.828	579.62
418.051	562.62
418.274	557.62
418.497	537.62
418.72	540.62
418.943	523.62
419.166	571.62
419.389	588.62
419.611	551.62
419.834	537.62
420.057	577.62
420.28	599.62
420.503	571.62
420.726	575.62
420.948	563.62
421.171	627.62
421.394	677.62
421.617	595.62
421.839	555.62
422.062	562.62
422.285	583.62
422.507	649.62
422.73	741.62
422.953	717.62
423.175	621.62
423.398	594.62
423.621	595.62
423.843	636.62
424.066	621.62
424.288	639.62
424.511	674.62
424.733	702.62
424.956	775.62
425.178	774.62
425.401	775.62
425.623	753.62
425.846	695.62
426.068	654.62
426.291	645.62
426.513	636.62
426.735	651.62
426.958	677.62
427.18	770.62
427.402	929.62
427.625	1013.62
427.847	922.62
428.069	796.62
428.292	683.62
428.514	635.62
428.736	631.62
428.958	625.62
429.181	604.62
429.403	593.62
429.625	587.62
429.847	622.62
430.069	718.62
430.292	718.62
430.514	603.62
430.736	604.62
430.958	598.62
431.18	576.62
431.402	570.62
431.624	562.62
431.846	553.62
432.068	553.62
432.29	567.62
432.512	556.62
432.734	577.62
432.956	560.62
433.178	559.62
433.4	563.62
433.622	562.62
433.844	567.62
434.066	531.62
434.287	529.62
434.509	576.62
434.731	577.62
434.953	562.62
435.175	591.62
435.397	638.62
435.618	641.62
435.84	687.62
436.062	791.62
436.284	849.62
436.505	741.62
436.727	633.62
436.949	616.62
437.17	597.62
437.392	615.62
437.614	607.62
437.835	663.62
438.057	781.62
438.278	890.62
438.5	849.62
438.721	946.62
438.943	901.62
439.165	750.62
439.386	697.62
439.608	709.62
439.829	667.62
440.05	671.62
440.272	730.62
440.493	691.62
440.715	642.62
440.936	609.62
441.158	575.62
441.379	591.62
441.6	619.62
441.822	632.62
442.043	657.62
442.264	760.62
442.486	838.62
442.707	693.62
442.928	652.62
443.149	655.62
443.371	678.62
443.592	734.62
443.813	818.62
444.034	864.62
444.255	740.62
444.476	672.62
444.698	643.62
444.919	634.62
445.14	703.62
445.361	683.62
445.582	687.62
445.803	754.62
446.024	866.62
446.245	893.62
446.466	799.62
446.687	676.62
446.908	661.62
447.129	610.62
447.35	613.62
447.571	609.62
447.792	596.62
448.013	604.62
448.234	604.62
448.455	693.62
448.675	822.62
448.896	925.62
449.117	811.62
449.338	752.62
449.559	863.62
449.779	937.62
450	775.62
450.221	671.62
450.442	624.62
450.662	609.62
450.883	605.62
451.104	641.62
451.324	599.62
451.545	564.62
451.766	561.62
451.986	535.62
452.207	536.62
452.428	549.62
452.648	532.62
452.869	549.62
453.089	550.62
453.31	567.62
453.53	555.62
453.751	535.62
453.971	549.62
454.192	557.62
454.412	558.62
454.633	540.62
454.853	554.62
455.073	569.62
455.294	575.62
455.514	639.62
455.734	634.62
455.955	543.62
456.175	527.62
456.395	504.62
456.616	502.62
456.836	508.62
457.056	491.62
457.276	491.62
457.497	522.62
457.717	508.62
457.937	481.62
458.157	517.62
458.377	531.62
458.598	551.62
458.818	636.62
459.038	725.62
459.258	702.62
459.478	627.62
459.698	579.62
459.918	537.62
460.138	552.62
460.358	548.62
460.578	545.62
460.798	565.62
461.018	543.62
461.238	558.62
461.458	555.62
461.678	533.62
461.898	556.62
462.118	551.62
462.338	546.62
462.558	555.62
462.777	565.62
462.997	587.62
463.217	570.62
463.437	573.62
463.657	601.62
463.876	566.62
464.096	581.62
464.316	548.62
464.536	591.62
464.755	590.62
464.975	572.62
465.195	649.62
465.414	765.62
465.634	655.62
465.854	603.62
466.073	611.62
466.293	557.62
466.512	541.62
466.732	542.62
466.951	515.62
467.171	528.62
467.391	534.62
467.61	555.62
467.829	565.62
468.049	571.62
468.268	547.62
468.488	555.62
468.707	539.62
468.927	541.62
469.146	525.62
469.365	540.62
469.585	544.62
469.804	547.62
470.023	536.62
470.243	527.62
470.462	552.62
470.681	562.62
470.901	569.62
471.12	549.62
471.339	538.62
471.558	555.62
471.777	560.62
471.997	537.62
472.216	563.62
472.435	632.62
472.654	609.62
472.873	551.62
473.092	538.62
473.311	566.62
473.53	548.62
473.749	574.62
473.968	615.62
474.187	731.62
474.406	759.62
474.625	639.62
474.844	558.62
475.063	562.62
475.282	562.62
475.501	557.62
475.72	541.62
475.939	565.62
476.158	565.62
476.377	563.62
476.596	591.62
476.814	576.62
477.033	575.62
477.252	595.62
477.471	602.62
477.69	598.62
477.908	590.62
478.127	586.62
478.346	592.62
478.564	618.62
478.783	606.62
479.002	643.62
479.22	644.62
479.439	620.62
479.658	669.62
479.876	662.62
480.095	651.62
480.313	724.62
480.532	691.62
480.751	673.62
480.969	698.62
481.188	783.62
481.406	851.62
481.624	732.62
481.843	690.62
482.061	671.62
482.28	670.62
482.498	673.62
482.717	645.62
482.935	677.62
483.153	652.62
483.372	641.62
483.59	645.62
483.808	665.62
484.027	671.62
484.245	643.62
484.463	671.62
484.681	695.62
484.9	657.62
485.118	669.62
485.336	699.62
485.554	671.62
485.772	696.62
485.99	680.62
486.209	672.62
486.427	689.62
486.645	704.62
486.863	715.62
487.081	749.62
487.299	723.62
487.517	729.62
487.735	697.62
487.953	733.62
488.171	716.62
488.389	738.62
488.607	703.62
488.825	716.62
489.043	719.62
489.261	729.62
489.479	739.62
489.696	722.62
489.914	723.62
490.132	754.62
490.35	759.62
490.568	762.62
490.786	768.62
491.003	762.62
491.221	832.62
491.439	810.62
491.657	834.62
491.874	842.62
492.092	806.62
492.31	869.62
492.527	832.62
492.745	866.62
492.963	834.62
493.18	860.62
493.398	862.62
493.615	849.62
493.833	880.62
494.05	880.62
494.268	846.62
494.485	866.62
494.703	889.62
494.92	856.62
495.138	885.62
495.355	881.62
495.573	888.62
495.79	843.62
496.008	859.62
496.225	866.62
496.442	873.62
496.66	867.62
496.877	845.62
497.094	865.62
497.312	889.62
497.529	857.62
497.746	892.62
497.963	889.62
498.181	901.62
498.398	883.62
498.615	917.62
498.832	945.62
499.049	922.62
499.267	947.62
499.484	954.62
499.701	1028.62
499.918	997.62
500.135	1029.62
500.352	1061.62
500.569	1075.62
500.786	1053.62
501.003	1099.62
501.22	1048.62
501.437	1035.62
501.654	1036.62
