Data from 1970.PennyLincolnUp.Lamp.En5.5.200Scan.071719.P1._HRD10591_15-14-29-841.txt Node
Date: Thu Jul 18 15:14:29 EDT 2019
User: cochatt
Spectrometer: HR+D1059
Trigger mode: 1
Integration Time (sec): 1.000000E-1
Scans to average: 1
Electric dark correction enabled: true
Nonlinearity correction enabled: false
Boxcar width: 0
XAxis mode: Wavelengths
Number of Pixels in Spectrum: 2048
>>>>>Begin Spectral Data<<<<<
223.165	-24.31
223.4	-24.31
223.635	-24.31
223.869	-13.31
224.104	-18.31
224.338	-19.31
224.573	-5.31
224.808	-11.31
225.042	-4.31
225.277	-3.31
225.511	-1.31
225.746	-7.31
225.98	7.69
226.215	16.69
226.449	15.69
226.683	20.69
226.918	25.69
227.152	21.69
227.387	23.69
227.621	46.69
227.856	50.69
228.09	47.69
228.324	50.69
228.559	55.69
228.793	52.69
229.027	108.69
229.262	122.69
229.496	132.69
229.73	142.69
229.964	172.69
230.199	133.69
230.433	128.69
230.667	136.69
230.901	117.69
231.136	104.69
231.37	116.69
231.604	118.69
231.838	121.69
232.072	108.69
232.306	116.69
232.541	110.69
232.775	116.69
233.009	120.69
233.243	109.69
233.477	112.69
233.711	130.69
233.945	124.69
234.179	124.69
234.413	127.69
234.647	126.69
234.881	121.69
235.115	133.69
235.349	120.69
235.583	110.69
235.817	130.69
236.051	115.69
236.285	119.69
236.519	137.69
236.753	138.69
236.987	154.69
237.221	199.69
237.455	249.69
237.689	196.69
237.922	155.69
238.156	152.69
238.39	154.69
238.624	134.69
238.858	128.69
239.091	127.69
239.325	134.69
239.559	137.69
239.793	132.69
240.027	139.69
240.26	151.69
240.494	164.69
240.728	160.69
240.961	173.69
241.195	152.69
241.429	148.69
241.662	153.69
241.896	134.69
242.13	136.69
242.363	134.69
242.597	136.69
242.83	147.69
243.064	150.69
243.298	164.69
243.531	156.69
243.765	144.69
243.998	152.69
244.232	147.69
244.465	152.69
244.699	157.69
244.932	152.69
245.166	136.69
245.399	154.69
245.633	146.69
245.866	146.69
246.099	143.69
246.333	143.69
246.566	173.69
246.8	146.69
247.033	154.69
247.266	174.69
247.5	181.69
247.733	176.69
247.966	185.69
248.2	184.69
248.433	184.69
248.666	210.69
248.899	198.69
249.133	208.69
249.366	222.69
249.599	220.69
249.832	200.69
250.066	209.69
250.299	207.69
250.532	217.69
250.765	202.69
250.998	258.69
251.231	249.69
251.465	249.69
251.698	239.69
251.931	216.69
252.164	213.69
252.397	216.69
252.63	214.69
252.863	219.69
253.096	231.69
253.329	226.69
253.562	239.69
253.795	245.69
254.028	234.69
254.261	244.69
254.494	253.69
254.727	274.69
254.96	307.69
255.193	319.69
255.426	267.69
255.659	269.69
255.892	271.69
256.124	238.69
256.357	255.69
256.59	232.69
256.823	222.69
257.056	234.69
257.289	235.69
257.521	211.69
257.754	218.69
257.987	217.69
258.22	247.69
258.452	219.69
258.685	216.69
258.918	219.69
259.151	226.69
259.383	232.69
259.616	227.69
259.849	252.69
260.081	237.69
260.314	254.69
260.547	297.69
260.779	273.69
261.012	264.69
261.244	244.69
261.477	228.69
261.71	228.69
261.942	231.69
262.175	258.69
262.407	215.69
262.64	217.69
262.872	209.69
263.105	233.69
263.337	226.69
263.57	219.69
263.802	215.69
264.035	224.69
264.267	244.69
264.499	220.69
264.732	205.69
264.964	222.69
265.197	206.69
265.429	208.69
265.661	222.69
265.894	226.69
266.126	223.69
266.358	218.69
266.591	235.69
266.823	221.69
267.055	223.69
267.287	226.69
267.52	234.69
267.752	219.69
267.984	236.69
268.216	223.69
268.448	236.69
268.681	260.69
268.913	267.69
269.145	269.69
269.377	294.69
269.609	280.69
269.841	276.69
270.073	262.69
270.306	288.69
270.538	318.69
270.77	335.69
271.002	313.69
271.234	313.69
271.466	314.69
271.698	303.69
271.93	334.69
272.162	357.69
272.394	340.69
272.626	298.69
272.858	318.69
273.09	283.69
273.322	280.69
273.553	251.69
273.785	251.69
274.017	262.69
274.249	282.69
274.481	266.69
274.713	264.69
274.945	279.69
275.176	267.69
275.408	268.69
275.64	260.69
275.872	239.69
276.104	266.69
276.335	272.69
276.567	267.69
276.799	301.69
277.031	312.69
277.262	330.69
277.494	302.69
277.726	296.69
277.957	274.69
278.189	299.69
278.421	276.69
278.652	271.69
278.884	264.69
279.115	278.69
279.347	254.69
279.579	259.69
279.81	256.69
280.042	257.69
280.273	263.69
280.505	252.69
280.736	254.69
280.968	253.69
281.199	240.69
281.431	261.69
281.662	262.69
281.894	267.69
282.125	265.69
282.356	280.69
282.588	313.69
282.819	310.69
283.051	263.69
283.282	246.69
283.513	264.69
283.745	272.69
283.976	273.69
284.207	283.69
284.439	276.69
284.67	286.69
284.901	280.69
285.132	273.69
285.364	275.69
285.595	287.69
285.826	265.69
286.057	281.69
286.288	275.69
286.52	276.69
286.751	276.69
286.982	278.69
287.213	279.69
287.444	271.69
287.675	272.69
287.906	270.69
288.138	276.69
288.369	310.69
288.6	288.69
288.831	300.69
289.062	291.69
289.293	280.69
289.524	269.69
289.755	267.69
289.986	285.69
290.217	266.69
290.448	295.69
290.679	282.69
290.91	293.69
291.141	276.69
291.371	285.69
291.602	276.69
291.833	286.69
292.064	258.69
292.295	278.69
292.526	267.69
292.757	287.69
292.987	263.69
293.218	276.69
293.449	267.69
293.68	284.69
293.91	284.69
294.141	280.69
294.372	286.69
294.603	284.69
294.833	279.69
295.064	294.69
295.295	287.69
295.525	276.69
295.756	303.69
295.987	285.69
296.217	308.69
296.448	344.69
296.679	306.69
296.909	289.69
297.14	274.69
297.37	267.69
297.601	281.69
297.831	274.69
298.062	300.69
298.292	285.69
298.523	292.69
298.753	286.69
298.984	290.69
299.214	295.69
299.445	300.69
299.675	288.69
299.905	300.69
300.136	307.69
300.366	318.69
300.597	306.69
300.827	322.69
301.057	283.69
301.288	292.69
301.518	308.69
301.748	324.69
301.979	306.69
302.209	306.69
302.439	318.69
302.669	321.69
302.9	318.69
303.13	320.69
303.36	314.69
303.59	320.69
303.82	312.69
304.051	311.69
304.281	315.69
304.511	318.69
304.741	306.69
304.971	334.69
305.201	322.69
305.431	324.69
305.661	307.69
305.891	312.69
306.121	306.69
306.352	327.69
306.582	353.69
306.812	313.69
307.042	318.69
307.272	319.69
307.502	302.69
307.731	321.69
307.961	326.69
308.191	319.69
308.421	317.69
308.651	323.69
308.881	329.69
309.111	323.69
309.341	345.69
309.571	360.69
309.8	348.69
310.03	375.69
310.26	386.69
310.49	366.69
310.72	370.69
310.949	410.69
311.179	387.69
311.409	379.69
311.639	366.69
311.868	374.69
312.098	398.69
312.328	379.69
312.557	382.69
312.787	422.69
313.017	415.69
313.246	386.69
313.476	382.69
313.706	363.69
313.935	386.69
314.165	388.69
314.394	408.69
314.624	407.69
314.853	384.69
315.083	378.69
315.312	358.69
315.542	358.69
315.771	346.69
316.001	335.69
316.23	354.69
316.46	378.69
316.689	345.69
316.919	372.69
317.148	396.69
317.377	395.69
317.607	380.69
317.836	376.69
318.065	371.69
318.295	354.69
318.524	368.69
318.753	362.69
318.983	380.69
319.212	372.69
319.441	385.69
319.67	368.69
319.9	348.69
320.129	379.69
320.358	396.69
320.587	382.69
320.816	393.69
321.046	408.69
321.275	423.69
321.504	399.69
321.733	419.69
321.962	429.69
322.191	421.69
322.42	432.69
322.649	458.69
322.878	454.69
323.108	475.69
323.337	516.69
323.566	528.69
323.795	562.69
324.024	594.69
324.253	728.69
324.482	1063.69
324.71	1633.69
324.939	2342.69
325.168	2042.69
325.397	1099.69
325.626	713.69
325.855	599.69
326.084	558.69
326.313	551.69
326.542	550.69
326.77	595.69
326.999	712.69
327.228	965.69
327.457	1439.69
327.686	1746.69
327.914	1194.69
328.143	799.69
328.372	700.69
328.6	659.69
328.829	605.69
329.058	603.69
329.287	636.69
329.515	600.69
329.744	561.69
329.972	525.69
330.201	572.69
330.43	615.69
330.658	628.69
330.887	668.69
331.115	637.69
331.344	550.69
331.572	516.69
331.801	494.69
332.03	512.69
332.258	482.69
332.486	456.69
332.715	445.69
332.943	446.69
333.172	454.69
333.4	452.69
333.629	477.69
333.857	486.69
334.085	512.69
334.314	504.69
334.542	547.69
334.771	597.69
334.999	516.69
335.227	466.69
335.455	473.69
335.684	450.69
335.912	448.69
336.14	443.69
336.369	440.69
336.597	437.69
336.825	460.69
337.053	442.69
337.281	411.69
337.51	444.69
337.738	455.69
337.966	429.69
338.194	429.69
338.422	449.69
338.65	427.69
338.878	428.69
339.106	420.69
339.334	415.69
339.562	420.69
339.79	401.69
340.018	430.69
340.246	419.69
340.474	427.69
340.702	438.69
340.93	428.69
341.158	418.69
341.386	420.69
341.614	442.69
341.842	421.69
342.07	428.69
342.298	407.69
342.526	405.69
342.754	421.69
342.981	412.69
343.209	391.69
343.437	394.69
343.665	405.69
343.893	426.69
344.12	418.69
344.348	431.69
344.576	428.69
344.804	434.69
345.031	447.69
345.259	436.69
345.487	450.69
345.714	432.69
345.942	415.69
346.17	407.69
346.397	406.69
346.625	416.69
346.853	401.69
347.08	399.69
347.308	426.69
347.535	427.69
347.763	413.69
347.99	422.69
348.218	432.69
348.445	456.69
348.673	434.69
348.9	430.69
349.128	434.69
349.355	401.69
349.583	414.69
349.81	395.69
350.037	408.69
350.265	406.69
350.492	412.69
350.72	409.69
350.947	419.69
351.174	427.69
351.402	438.69
351.629	420.69
351.856	418.69
352.083	447.69
352.311	456.69
352.538	430.69
352.765	455.69
352.992	436.69
353.22	411.69
353.447	432.69
353.674	424.69
353.901	413.69
354.128	400.69
354.355	386.69
354.583	400.69
354.81	398.69
355.037	391.69
355.264	409.69
355.491	394.69
355.718	388.69
355.945	380.69
356.172	391.69
356.399	395.69
356.626	383.69
356.853	388.69
357.08	392.69
357.307	395.69
357.534	380.69
357.761	376.69
357.988	400.69
358.215	392.69
358.441	395.69
358.668	378.69
358.895	402.69
359.122	388.69
359.349	425.69
359.576	442.69
359.802	447.69
360.029	476.69
360.256	521.69
360.483	471.69
360.709	443.69
360.936	421.69
361.163	423.69
361.39	449.69
361.616	428.69
361.843	417.69
362.07	430.69
362.296	418.69
362.523	439.69
362.749	420.69
362.976	411.69
363.203	406.69
363.429	409.69
363.656	412.69
363.882	412.69
364.109	425.69
364.335	404.69
364.562	409.69
364.788	406.69
365.015	406.69
365.241	413.69
365.468	390.69
365.694	427.69
365.92	426.69
366.147	406.69
366.373	409.69
366.599	407.69
366.826	392.69
367.052	382.69
367.278	415.69
367.505	421.69
367.731	422.69
367.957	439.69
368.184	405.69
368.41	413.69
368.636	430.69
368.862	430.69
369.089	435.69
369.315	400.69
369.541	402.69
369.767	401.69
369.993	388.69
370.219	417.69
370.445	397.69
370.672	406.69
370.898	399.69
371.124	406.69
371.35	388.69
371.576	422.69
371.802	415.69
372.028	406.69
372.254	386.69
372.48	419.69
372.706	399.69
372.932	422.69
373.158	404.69
373.384	412.69
373.61	405.69
373.835	419.69
374.061	408.69
374.287	415.69
374.513	429.69
374.739	420.69
374.965	412.69
375.191	414.69
375.416	398.69
375.642	420.69
375.868	417.69
376.094	426.69
376.319	416.69
376.545	391.69
376.771	398.69
376.997	406.69
377.222	409.69
377.448	408.69
377.674	397.69
377.899	400.69
378.125	390.69
378.35	407.69
378.576	374.69
378.802	403.69
379.027	398.69
379.253	412.69
379.478	415.69
379.704	417.69
379.929	398.69
380.155	421.69
380.38	417.69
380.606	421.69
380.831	392.69
381.057	392.69
381.282	411.69
381.507	412.69
381.733	411.69
381.958	404.69
382.184	408.69
382.409	406.69
382.634	425.69
382.86	398.69
383.085	416.69
383.31	420.69
383.535	423.69
383.761	421.69
383.986	429.69
384.211	421.69
384.436	412.69
384.662	414.69
384.887	424.69
385.112	430.69
385.337	420.69
385.562	423.69
385.787	431.69
386.013	459.69
386.238	471.69
386.463	452.69
386.688	443.69
386.913	433.69
387.138	446.69
387.363	444.69
387.588	434.69
387.813	436.69
388.038	429.69
388.263	437.69
388.488	422.69
388.713	456.69
388.938	429.69
389.163	450.69
389.387	452.69
389.612	431.69
389.837	428.69
390.062	423.69
390.287	432.69
390.512	434.69
390.736	430.69
390.961	448.69
391.186	424.69
391.411	424.69
391.636	431.69
391.86	438.69
392.085	440.69
392.31	461.69
392.534	418.69
392.759	442.69
392.984	439.69
393.208	461.69
393.433	476.69
393.658	448.69
393.882	438.69
394.107	444.69
394.331	432.69
394.556	438.69
394.78	434.69
395.005	452.69
395.229	453.69
395.454	456.69
395.678	458.69
395.903	484.69
396.127	486.69
396.352	492.69
396.576	474.69
396.801	462.69
397.025	445.69
397.249	459.69
397.474	474.69
397.698	474.69
397.922	490.69
398.147	496.69
398.371	524.69
398.595	507.69
398.82	489.69
399.044	498.69
399.268	498.69
399.492	531.69
399.717	534.69
399.941	583.69
400.165	604.69
400.389	592.69
400.613	583.69
400.837	522.69
401.062	539.69
401.286	516.69
401.51	522.69
401.734	503.69
401.958	520.69
402.182	524.69
402.406	518.69
402.63	538.69
402.854	516.69
403.078	507.69
403.302	531.69
403.526	519.69
403.75	545.69
403.974	504.69
404.198	510.69
404.422	538.69
404.645	535.69
404.869	552.69
405.093	589.69
405.317	634.69
405.541	651.69
405.765	588.69
405.988	559.69
406.212	552.69
406.436	592.69
406.66	614.69
406.883	586.69
407.107	574.69
407.331	626.69
407.555	693.69
407.778	688.69
408.002	628.69
408.226	614.69
408.449	617.69
408.673	599.69
408.896	621.69
409.12	672.69
409.344	622.69
409.567	557.69
409.791	580.69
410.014	543.69
410.238	518.69
410.461	533.69
410.685	532.69
410.908	560.69
411.132	587.69
411.355	637.69
411.578	600.69
411.802	550.69
412.025	553.69
412.249	537.69
412.472	559.69
412.695	630.69
412.919	598.69
413.142	560.69
413.365	543.69
413.589	513.69
413.812	526.69
414.035	510.69
414.258	527.69
414.482	483.69
414.705	482.69
414.928	506.69
415.151	526.69
415.374	510.69
415.597	493.69
415.821	480.69
416.044	502.69
416.267	507.69
416.49	496.69
416.713	491.69
416.936	502.69
417.159	516.69
417.382	512.69
417.605	501.69
417.828	514.69
418.051	545.69
418.274	517.69
418.497	503.69
418.72	487.69
418.943	502.69
419.166	527.69
419.389	559.69
419.611	556.69
419.834	520.69
420.057	529.69
420.28	548.69
420.503	543.69
420.726	536.69
420.948	554.69
421.171	607.69
421.394	611.69
421.617	563.69
421.839	558.69
422.062	534.69
422.285	548.69
422.507	612.69
422.73	688.69
422.953	658.69
423.175	601.69
423.398	560.69
423.621	564.69
423.843	582.69
424.066	599.69
424.288	575.69
424.511	614.69
424.733	636.69
424.956	743.69
425.178	719.69
425.401	710.69
425.623	732.69
425.846	652.69
426.068	594.69
426.291	614.69
426.513	603.69
426.735	614.69
426.958	651.69
427.18	731.69
427.402	839.69
427.625	968.69
427.847	883.69
428.069	768.69
428.292	683.69
428.514	596.69
428.736	588.69
428.958	568.69
429.181	563.69
429.403	563.69
429.625	572.69
429.847	623.69
430.069	692.69
430.292	655.69
430.514	589.69
430.736	549.69
430.958	527.69
431.18	522.69
431.402	536.69
431.624	518.69
431.846	502.69
432.068	493.69
432.29	511.69
432.512	515.69
432.734	553.69
432.956	519.69
433.178	550.69
433.4	532.69
433.622	515.69
433.844	529.69
434.066	525.69
434.287	513.69
434.509	519.69
434.731	528.69
434.953	542.69
435.175	545.69
435.397	582.69
435.618	592.69
435.84	638.69
436.062	725.69
436.284	782.69
436.505	714.69
436.727	619.69
436.949	594.69
437.17	568.69
437.392	544.69
437.614	579.69
437.835	622.69
438.057	686.69
438.278	824.69
438.5	816.69
438.721	892.69
438.943	855.69
439.165	708.69
439.386	664.69
439.608	621.69
439.829	636.69
440.05	660.69
440.272	699.69
440.493	647.69
440.715	579.69
440.936	594.69
441.158	566.69
441.379	547.69
441.6	562.69
441.822	576.69
442.043	635.69
442.264	735.69
442.486	743.69
442.707	670.69
442.928	621.69
443.149	621.69
443.371	636.69
443.592	683.69
443.813	771.69
444.034	841.69
444.255	688.69
444.476	628.69
444.698	600.69
444.919	605.69
445.14	701.69
445.361	656.69
445.582	624.69
445.803	739.69
446.024	808.69
446.245	823.69
446.466	757.69
446.687	656.69
446.908	626.69
447.129	582.69
447.35	556.69
447.571	576.69
447.792	551.69
448.013	578.69
448.234	584.69
448.455	652.69
448.675	780.69
448.896	853.69
449.117	745.69
449.338	684.69
449.559	809.69
449.779	914.69
450	727.69
450.221	622.69
450.442	582.69
450.662	574.69
450.883	576.69
451.104	587.69
451.324	572.69
451.545	530.69
451.766	528.69
451.986	511.69
452.207	493.69
452.428	500.69
452.648	479.69
452.869	493.69
453.089	495.69
453.31	530.69
453.53	512.69
453.751	521.69
453.971	518.69
454.192	532.69
454.412	522.69
454.633	523.69
454.853	486.69
455.073	508.69
455.294	532.69
455.514	597.69
455.734	571.69
455.955	519.69
456.175	476.69
456.395	478.69
456.616	473.69
456.836	464.69
457.056	470.69
457.276	458.69
457.497	464.69
457.717	477.69
457.937	448.69
458.157	486.69
458.377	473.69
458.598	514.69
458.818	591.69
459.038	664.69
459.258	687.69
459.478	581.69
459.698	540.69
459.918	528.69
460.138	512.69
460.358	502.69
460.578	507.69
460.798	525.69
461.018	522.69
461.238	520.69
461.458	528.69
461.678	505.69
461.898	491.69
462.118	498.69
462.338	506.69
462.558	522.69
462.777	518.69
462.997	540.69
463.217	540.69
463.437	557.69
463.657	532.69
463.876	554.69
464.096	547.69
464.316	551.69
464.536	550.69
464.755	547.69
464.975	568.69
465.195	602.69
465.414	720.69
465.634	638.69
465.854	584.69
466.073	550.69
466.293	516.69
466.512	519.69
466.732	516.69
466.951	515.69
467.171	502.69
467.391	494.69
467.61	545.69
467.829	527.69
468.049	528.69
468.268	521.69
468.488	526.69
468.707	485.69
468.927	505.69
469.146	486.69
469.365	520.69
469.585	482.69
469.804	504.69
470.023	538.69
470.243	522.69
470.462	526.69
470.681	579.69
470.901	542.69
471.12	527.69
471.339	535.69
471.558	523.69
471.777	522.69
471.997	515.69
472.216	534.69
472.435	574.69
472.654	557.69
472.873	515.69
473.092	527.69
473.311	529.69
473.53	501.69
473.749	516.69
473.968	584.69
474.187	711.69
474.406	706.69
474.625	575.69
474.844	542.69
475.063	526.69
475.282	524.69
475.501	519.69
475.72	524.69
475.939	535.69
476.158	501.69
476.377	519.69
476.596	539.69
476.814	535.69
477.033	550.69
477.252	559.69
477.471	539.69
477.69	538.69
477.908	558.69
478.127	535.69
478.346	578.69
478.564	587.69
478.783	589.69
479.002	574.69
479.22	579.69
479.439	582.69
479.658	618.69
479.876	604.69
480.095	638.69
480.313	648.69
480.532	636.69
480.751	635.69
480.969	668.69
481.188	728.69
481.406	791.69
481.624	698.69
481.843	647.69
482.061	623.69
482.28	618.69
482.498	635.69
482.717	608.69
482.935	615.69
483.153	636.69
483.372	616.69
483.59	621.69
483.808	612.69
484.027	644.69
484.245	627.69
484.463	629.69
484.681	654.69
484.9	640.69
485.118	636.69
485.336	624.69
485.554	640.69
485.772	646.69
485.99	640.69
486.209	647.69
486.427	652.69
486.645	661.69
486.863	678.69
487.081	662.69
487.299	671.69
487.517	683.69
487.735	636.69
487.953	652.69
488.171	675.69
488.389	678.69
488.607	687.69
488.825	701.69
489.043	688.69
489.261	674.69
489.479	672.69
489.696	707.69
489.914	692.69
490.132	673.69
490.35	706.69
490.568	729.69
490.786	724.69
491.003	744.69
491.221	752.69
491.439	757.69
491.657	784.69
491.874	795.69
492.092	794.69
492.31	835.69
492.527	802.69
492.745	775.69
492.963	805.69
493.18	804.69
493.398	813.69
493.615	817.69
493.833	851.69
494.05	809.69
494.268	826.69
494.485	832.69
494.703	821.69
494.92	798.69
495.138	804.69
495.355	836.69
495.573	826.69
495.79	804.69
496.008	833.69
496.225	847.69
496.442	806.69
496.66	799.69
496.877	799.69
497.094	818.69
497.312	828.69
497.529	836.69
497.746	836.69
497.963	835.69
498.181	885.69
498.398	872.69
498.615	869.69
498.832	895.69
499.049	874.69
499.267	877.69
499.484	900.69
499.701	938.69
499.918	953.69
500.135	970.69
500.352	989.69
500.569	979.69
500.786	992.69
501.003	1028.69
501.22	982.69
501.437	981.69
501.654	952.69
501.871	986.69
