Data from 1970.PennyLincolnUp.Lamp.En5.5.200Scan.071719.P1._HRD10591_15-13-09-843.txt Node
Date: Thu Jul 18 15:13:09 EDT 2019
User: cochatt
Spectrometer: HR+D1059
Trigger mode: 1
Integration Time (sec): 1.000000E-1
Scans to average: 1
Electric dark correction enabled: true
Nonlinearity correction enabled: false
Boxcar width: 0
XAxis mode: Wavelengths
Number of Pixels in Spectrum: 2048
>>>>>Begin Spectral Data<<<<<
223.165	-21.25
223.4	-21.25
223.635	-21.25
223.869	-20.25
224.104	-24.25
224.338	-22.25
224.573	-4.25
224.808	-16.25
225.042	-22.25
225.277	-4.25
225.511	-2.25
225.746	7.75
225.98	9.75
226.215	19.75
226.449	19.75
226.683	12.75
226.918	37.75
227.152	29.75
227.387	36.75
227.621	23.75
227.856	41.75
228.09	41.75
228.324	55.75
228.559	51.75
228.793	71.75
229.027	98.75
229.262	102.75
229.496	106.75
229.73	111.75
229.964	151.75
230.199	119.75
230.433	111.75
230.667	100.75
230.901	100.75
231.136	112.75
231.37	102.75
231.604	100.75
231.838	101.75
232.072	101.75
232.306	100.75
232.541	107.75
232.775	114.75
233.009	119.75
233.243	109.75
233.477	121.75
233.711	113.75
233.945	118.75
234.179	115.75
234.413	113.75
234.647	108.75
234.881	119.75
235.115	111.75
235.349	103.75
235.583	104.75
235.817	116.75
236.051	111.75
236.285	100.75
236.519	113.75
236.753	126.75
236.987	138.75
237.221	155.75
237.455	218.75
237.689	163.75
237.922	123.75
238.156	120.75
238.39	118.75
238.624	111.75
238.858	114.75
239.091	142.75
239.325	114.75
239.559	106.75
239.793	106.75
240.027	123.75
240.26	136.75
240.494	140.75
240.728	144.75
240.961	123.75
241.195	131.75
241.429	132.75
241.662	127.75
241.896	129.75
242.13	137.75
242.363	115.75
242.597	138.75
242.83	121.75
243.064	129.75
243.298	123.75
243.531	125.75
243.765	127.75
243.998	119.75
244.232	121.75
244.465	121.75
244.699	127.75
244.932	128.75
245.166	119.75
245.399	142.75
245.633	151.75
245.866	155.75
246.099	151.75
246.333	135.75
246.566	144.75
246.8	138.75
247.033	147.75
247.266	146.75
247.5	157.75
247.733	151.75
247.966	161.75
248.2	156.75
248.433	159.75
248.666	153.75
248.899	174.75
249.133	180.75
249.366	173.75
249.599	178.75
249.832	159.75
250.066	164.75
250.299	170.75
250.532	181.75
250.765	185.75
250.998	196.75
251.231	200.75
251.465	201.75
251.698	186.75
251.931	179.75
252.164	200.75
252.397	179.75
252.63	185.75
252.863	191.75
253.096	198.75
253.329	210.75
253.562	215.75
253.795	185.75
254.028	213.75
254.261	203.75
254.494	210.75
254.727	229.75
254.96	242.75
255.193	249.75
255.426	212.75
255.659	197.75
255.892	199.75
256.124	201.75
256.357	209.75
256.59	217.75
256.823	197.75
257.056	204.75
257.289	184.75
257.521	195.75
257.754	184.75
257.987	193.75
258.22	209.75
258.452	195.75
258.685	179.75
258.918	186.75
259.151	193.75
259.383	197.75
259.616	189.75
259.849	193.75
260.081	208.75
260.314	216.75
260.547	226.75
260.779	222.75
261.012	203.75
261.244	195.75
261.477	204.75
261.71	200.75
261.942	203.75
262.175	180.75
262.407	219.75
262.64	197.75
262.872	181.75
263.105	199.75
263.337	209.75
263.57	179.75
263.802	195.75
264.035	171.75
264.267	189.75
264.499	189.75
264.732	176.75
264.964	181.75
265.197	187.75
265.429	198.75
265.661	175.75
265.894	188.75
266.126	202.75
266.358	179.75
266.591	189.75
266.823	207.75
267.055	187.75
267.287	193.75
267.52	197.75
267.752	198.75
267.984	192.75
268.216	190.75
268.448	200.75
268.681	191.75
268.913	203.75
269.145	217.75
269.377	234.75
269.609	223.75
269.841	219.75
270.073	226.75
270.306	226.75
270.538	254.75
270.77	268.75
271.002	259.75
271.234	244.75
271.466	241.75
271.698	255.75
271.93	259.75
272.162	256.75
272.394	273.75
272.626	265.75
272.858	250.75
273.09	236.75
273.322	229.75
273.553	231.75
273.785	214.75
274.017	214.75
274.249	221.75
274.481	210.75
274.713	216.75
274.945	210.75
275.176	227.75
275.408	219.75
275.64	206.75
275.872	228.75
276.104	214.75
276.335	226.75
276.567	221.75
276.799	229.75
277.031	231.75
277.262	257.75
277.494	240.75
277.726	262.75
277.957	226.75
278.189	240.75
278.421	229.75
278.652	224.75
278.884	220.75
279.115	223.75
279.347	201.75
279.579	217.75
279.81	228.75
280.042	231.75
280.273	231.75
280.505	231.75
280.736	229.75
280.968	242.75
281.199	222.75
281.431	226.75
281.662	226.75
281.894	211.75
282.125	228.75
282.356	221.75
282.588	244.75
282.819	230.75
283.051	218.75
283.282	218.75
283.513	223.75
283.745	221.75
283.976	216.75
284.207	215.75
284.439	212.75
284.67	258.75
284.901	207.75
285.132	220.75
285.364	228.75
285.595	227.75
285.826	224.75
286.057	207.75
286.288	220.75
286.52	233.75
286.751	219.75
286.982	218.75
287.213	220.75
287.444	232.75
287.675	228.75
287.906	224.75
288.138	250.75
288.369	250.75
288.6	234.75
288.831	246.75
289.062	223.75
289.293	248.75
289.524	251.75
289.755	227.75
289.986	229.75
290.217	234.75
290.448	225.75
290.679	228.75
290.91	228.75
291.141	231.75
291.371	229.75
291.602	239.75
291.833	227.75
292.064	236.75
292.295	222.75
292.526	223.75
292.757	255.75
292.987	215.75
293.218	229.75
293.449	234.75
293.68	246.75
293.91	242.75
294.141	226.75
294.372	232.75
294.603	221.75
294.833	231.75
295.064	224.75
295.295	225.75
295.525	223.75
295.756	230.75
295.987	243.75
296.217	266.75
296.448	248.75
296.679	239.75
296.909	230.75
297.14	245.75
297.37	241.75
297.601	243.75
297.831	252.75
298.062	237.75
298.292	231.75
298.523	239.75
298.753	239.75
298.984	245.75
299.214	234.75
299.445	245.75
299.675	230.75
299.905	243.75
300.136	243.75
300.366	235.75
300.597	236.75
300.827	248.75
301.057	261.75
301.288	265.75
301.518	259.75
301.748	253.75
301.979	254.75
302.209	259.75
302.439	234.75
302.669	267.75
302.9	249.75
303.13	266.75
303.36	260.75
303.59	268.75
303.82	257.75
304.051	266.75
304.281	253.75
304.511	269.75
304.741	258.75
304.971	260.75
305.201	252.75
305.431	266.75
305.661	259.75
305.891	276.75
306.121	267.75
306.352	262.75
306.582	261.75
306.812	250.75
307.042	263.75
307.272	259.75
307.502	264.75
307.731	270.75
307.961	260.75
308.191	263.75
308.421	275.75
308.651	256.75
308.881	266.75
309.111	267.75
309.341	286.75
309.571	270.75
309.8	283.75
310.03	290.75
310.26	299.75
310.49	283.75
310.72	312.75
310.949	299.75
311.179	295.75
311.409	293.75
311.639	285.75
311.868	303.75
312.098	319.75
312.328	300.75
312.557	306.75
312.787	313.75
313.017	323.75
313.246	308.75
313.476	294.75
313.706	304.75
313.935	298.75
314.165	286.75
314.394	311.75
314.624	297.75
314.853	309.75
315.083	312.75
315.312	300.75
315.542	297.75
315.771	295.75
316.001	290.75
316.23	292.75
316.46	303.75
316.689	292.75
316.919	295.75
317.148	300.75
317.377	288.75
317.607	310.75
317.836	307.75
318.065	292.75
318.295	295.75
318.524	294.75
318.753	298.75
318.983	307.75
319.212	308.75
319.441	310.75
319.67	309.75
319.9	307.75
320.129	288.75
320.358	311.75
320.587	311.75
320.816	296.75
321.046	307.75
321.275	322.75
321.504	301.75
321.733	321.75
321.962	303.75
322.191	324.75
322.42	326.75
322.649	348.75
322.878	341.75
323.108	360.75
323.337	379.75
323.566	406.75
323.795	406.75
324.024	435.75
324.253	500.75
324.482	720.75
324.71	1082.75
324.939	1553.75
325.168	1353.75
325.397	706.75
325.626	485.75
325.855	433.75
326.084	408.75
326.313	407.75
326.542	389.75
326.77	414.75
326.999	486.75
327.228	651.75
327.457	949.75
327.686	1169.75
327.914	789.75
328.143	540.75
328.372	459.75
328.6	425.75
328.829	431.75
329.058	449.75
329.287	445.75
329.515	413.75
329.744	410.75
329.972	388.75
330.201	411.75
330.43	421.75
330.658	448.75
330.887	455.75
331.115	457.75
331.344	412.75
331.572	380.75
331.801	399.75
332.03	387.75
332.258	373.75
332.486	372.75
332.715	349.75
332.943	361.75
333.172	344.75
333.4	346.75
333.629	344.75
333.857	375.75
334.085	375.75
334.314	387.75
334.542	383.75
334.771	410.75
334.999	403.75
335.227	372.75
335.455	372.75
335.684	359.75
335.912	361.75
336.14	341.75
336.369	359.75
336.597	355.75
336.825	369.75
337.053	348.75
337.281	348.75
337.51	334.75
337.738	350.75
337.966	344.75
338.194	357.75
338.422	352.75
338.65	347.75
338.878	347.75
339.106	333.75
339.334	351.75
339.562	347.75
339.79	337.75
340.018	339.75
340.246	343.75
340.474	338.75
340.702	352.75
340.93	340.75
341.158	337.75
341.386	344.75
341.614	360.75
341.842	347.75
342.07	341.75
342.298	348.75
342.526	331.75
342.754	330.75
342.981	332.75
343.209	333.75
343.437	349.75
343.665	319.75
343.893	336.75
344.12	357.75
344.348	361.75
344.576	344.75
344.804	353.75
345.031	345.75
345.259	346.75
345.487	347.75
345.714	336.75
345.942	346.75
346.17	344.75
346.397	338.75
346.625	343.75
346.853	333.75
347.08	325.75
347.308	333.75
347.535	348.75
347.763	352.75
347.99	353.75
348.218	344.75
348.445	333.75
348.673	348.75
348.9	338.75
349.128	341.75
349.355	345.75
349.583	327.75
349.81	330.75
350.037	307.75
350.265	339.75
350.492	334.75
350.72	332.75
350.947	345.75
351.174	343.75
351.402	328.75
351.629	353.75
351.856	335.75
352.083	360.75
352.311	346.75
352.538	359.75
352.765	359.75
352.992	348.75
353.22	344.75
353.447	365.75
353.674	341.75
353.901	343.75
354.128	312.75
354.355	319.75
354.583	340.75
354.81	318.75
355.037	313.75
355.264	331.75
355.491	332.75
355.718	347.75
355.945	323.75
356.172	326.75
356.399	323.75
356.626	313.75
356.853	318.75
357.08	325.75
357.307	325.75
357.534	325.75
357.761	338.75
357.988	331.75
358.215	320.75
358.441	334.75
358.668	323.75
358.895	336.75
359.122	332.75
359.349	349.75
359.576	345.75
359.802	362.75
360.029	381.75
360.256	403.75
360.483	362.75
360.709	335.75
360.936	363.75
361.163	354.75
361.39	354.75
361.616	348.75
361.843	343.75
362.07	342.75
362.296	361.75
362.523	340.75
362.749	351.75
362.976	331.75
363.203	338.75
363.429	331.75
363.656	345.75
363.882	339.75
364.109	330.75
364.335	337.75
364.562	354.75
364.788	340.75
365.015	357.75
365.241	339.75
365.468	356.75
365.694	337.75
365.92	364.75
366.147	329.75
366.373	344.75
366.599	331.75
366.826	349.75
367.052	338.75
367.278	337.75
367.505	338.75
367.731	333.75
367.957	351.75
368.184	341.75
368.41	356.75
368.636	329.75
368.862	351.75
369.089	332.75
369.315	347.75
369.541	326.75
369.767	333.75
369.993	357.75
370.219	331.75
370.445	345.75
370.672	351.75
370.898	353.75
371.124	360.75
371.35	326.75
371.576	354.75
371.802	348.75
372.028	319.75
372.254	342.75
372.48	361.75
372.706	361.75
372.932	346.75
373.158	344.75
373.384	355.75
373.61	361.75
373.835	347.75
374.061	351.75
374.287	347.75
374.513	369.75
374.739	355.75
374.965	362.75
375.191	353.75
375.416	362.75
375.642	338.75
375.868	348.75
376.094	345.75
376.319	342.75
376.545	354.75
376.771	360.75
376.997	357.75
377.222	359.75
377.448	364.75
377.674	350.75
377.899	351.75
378.125	347.75
378.35	337.75
378.576	336.75
378.802	351.75
379.027	348.75
379.253	355.75
379.478	356.75
379.704	345.75
379.929	355.75
380.155	352.75
380.38	359.75
380.606	358.75
380.831	356.75
381.057	351.75
381.282	338.75
381.507	355.75
381.733	360.75
381.958	353.75
382.184	373.75
382.409	351.75
382.634	350.75
382.86	354.75
383.085	360.75
383.31	374.75
383.535	388.75
383.761	373.75
383.986	383.75
384.211	362.75
384.436	375.75
384.662	375.75
384.887	360.75
385.112	371.75
385.337	371.75
385.562	367.75
385.787	367.75
386.013	386.75
386.238	400.75
386.463	402.75
386.688	384.75
386.913	375.75
387.138	371.75
387.363	383.75
387.588	370.75
387.813	394.75
388.038	357.75
388.263	377.75
388.488	389.75
388.713	393.75
388.938	393.75
389.163	383.75
389.387	385.75
389.612	353.75
389.837	364.75
390.062	375.75
390.287	389.75
390.512	377.75
390.736	390.75
390.961	366.75
391.186	374.75
391.411	371.75
391.636	387.75
391.86	375.75
392.085	403.75
392.31	385.75
392.534	395.75
392.759	378.75
392.984	391.75
393.208	385.75
393.433	427.75
393.658	431.75
393.882	397.75
394.107	388.75
394.331	394.75
394.556	390.75
394.78	364.75
395.005	378.75
395.229	407.75
395.454	373.75
395.678	387.75
395.903	416.75
396.127	448.75
396.352	439.75
396.576	426.75
396.801	418.75
397.025	428.75
397.249	425.75
397.474	425.75
397.698	408.75
397.922	409.75
398.147	403.75
398.371	435.75
398.595	440.75
398.82	419.75
399.044	431.75
399.268	453.75
399.492	457.75
399.717	492.75
399.941	493.75
400.165	540.75
400.389	532.75
400.613	472.75
400.837	460.75
401.062	449.75
401.286	435.75
401.51	441.75
401.734	437.75
401.958	451.75
402.182	435.75
402.406	453.75
402.63	467.75
402.854	444.75
403.078	448.75
403.302	436.75
403.526	440.75
403.75	452.75
403.974	452.75
404.198	457.75
404.422	453.75
404.645	453.75
404.869	487.75
405.093	465.75
405.317	497.75
405.541	535.75
405.765	497.75
405.988	475.75
406.212	482.75
406.436	470.75
406.66	494.75
406.883	479.75
407.107	508.75
407.331	548.75
407.555	594.75
407.778	588.75
408.002	559.75
408.226	536.75
408.449	495.75
408.673	489.75
408.896	527.75
409.12	551.75
409.344	543.75
409.567	507.75
409.791	477.75
410.014	467.75
410.238	459.75
410.461	461.75
410.685	467.75
410.908	480.75
411.132	497.75
411.355	507.75
411.578	496.75
411.802	464.75
412.025	443.75
412.249	428.75
412.472	479.75
412.695	502.75
412.919	506.75
413.142	457.75
413.365	463.75
413.589	451.75
413.812	440.75
414.035	452.75
414.258	455.75
414.482	428.75
414.705	432.75
414.928	458.75
415.151	437.75
415.374	431.75
415.597	420.75
415.821	427.75
416.044	457.75
416.267	452.75
416.49	436.75
416.713	412.75
416.936	428.75
417.159	445.75
417.382	451.75
417.605	451.75
417.828	458.75
418.051	464.75
418.274	433.75
418.497	470.75
418.72	439.75
418.943	441.75
419.166	453.75
419.389	444.75
419.611	464.75
419.834	470.75
420.057	453.75
420.28	467.75
420.503	447.75
420.726	480.75
420.948	469.75
421.171	491.75
421.394	523.75
421.617	481.75
421.839	468.75
422.062	483.75
422.285	480.75
422.507	555.75
422.73	561.75
422.953	587.75
423.175	502.75
423.398	486.75
423.621	472.75
423.843	503.75
424.066	501.75
424.288	499.75
424.511	512.75
424.733	568.75
424.956	613.75
425.178	589.75
425.401	585.75
425.623	599.75
425.846	543.75
426.068	505.75
426.291	509.75
426.513	496.75
426.735	522.75
426.958	540.75
427.18	614.75
427.402	717.75
427.625	767.75
427.847	703.75
428.069	611.75
428.292	548.75
428.514	512.75
428.736	496.75
428.958	498.75
429.181	478.75
429.403	456.75
429.625	468.75
429.847	508.75
430.069	566.75
430.292	554.75
430.514	493.75
430.736	480.75
430.958	441.75
431.18	455.75
431.402	445.75
431.624	442.75
431.846	437.75
432.068	437.75
432.29	451.75
432.512	450.75
432.734	444.75
432.956	457.75
433.178	452.75
433.4	453.75
433.622	453.75
433.844	427.75
434.066	434.75
434.287	447.75
434.509	451.75
434.731	456.75
434.953	451.75
435.175	467.75
435.397	481.75
435.618	511.75
435.84	546.75
436.062	624.75
436.284	668.75
436.505	570.75
436.727	520.75
436.949	471.75
437.17	447.75
437.392	463.75
437.614	477.75
437.835	529.75
438.057	577.75
438.278	657.75
438.5	673.75
438.721	719.75
438.943	734.75
439.165	553.75
439.386	527.75
439.608	500.75
439.829	496.75
440.05	526.75
440.272	558.75
440.493	532.75
440.715	505.75
440.936	493.75
441.158	466.75
441.379	463.75
441.6	488.75
441.822	499.75
442.043	535.75
442.264	607.75
442.486	647.75
442.707	573.75
442.928	526.75
443.149	503.75
443.371	550.75
443.592	563.75
443.813	630.75
444.034	709.75
444.255	587.75
444.476	537.75
444.698	490.75
444.919	515.75
445.14	625.75
445.361	569.75
445.582	532.75
445.803	592.75
446.024	670.75
446.245	681.75
446.466	631.75
446.687	535.75
446.908	488.75
447.129	494.75
447.35	480.75
447.571	469.75
447.792	475.75
448.013	457.75
448.234	488.75
448.455	534.75
448.675	632.75
448.896	694.75
449.117	595.75
449.338	589.75
449.559	690.75
449.779	739.75
450	617.75
450.221	517.75
450.442	471.75
450.662	456.75
450.883	469.75
451.104	477.75
451.324	455.75
451.545	452.75
451.766	420.75
451.986	423.75
452.207	421.75
452.428	398.75
452.648	426.75
452.869	431.75
453.089	431.75
453.31	436.75
453.53	424.75
453.751	401.75
453.971	413.75
454.192	417.75
454.412	427.75
454.633	410.75
454.853	422.75
455.073	399.75
455.294	443.75
455.514	506.75
455.734	483.75
455.955	424.75
456.175	387.75
456.395	421.75
456.616	404.75
456.836	399.75
457.056	397.75
457.276	374.75
457.497	380.75
457.717	389.75
457.937	393.75
458.157	389.75
458.377	424.75
458.598	421.75
458.818	470.75
459.038	502.75
459.258	549.75
459.478	477.75
459.698	433.75
459.918	429.75
460.138	416.75
460.358	452.75
460.578	446.75
460.798	433.75
461.018	452.75
461.238	425.75
461.458	433.75
461.678	423.75
461.898	432.75
462.118	445.75
462.338	456.75
462.558	439.75
462.777	460.75
462.997	475.75
463.217	480.75
463.437	477.75
463.657	468.75
463.876	460.75
464.096	487.75
464.316	496.75
464.536	471.75
464.755	483.75
464.975	459.75
465.195	511.75
465.414	557.75
465.634	498.75
465.854	451.75
466.073	461.75
466.293	437.75
466.512	445.75
466.732	412.75
466.951	439.75
467.171	443.75
467.391	414.75
467.61	429.75
467.829	465.75
468.049	437.75
468.268	417.75
468.488	441.75
468.707	409.75
468.927	412.75
469.146	416.75
469.365	427.75
469.585	426.75
469.804	434.75
470.023	414.75
470.243	453.75
470.462	450.75
470.681	453.75
470.901	444.75
471.12	445.75
471.339	435.75
471.558	431.75
471.777	428.75
471.997	439.75
472.216	431.75
472.435	469.75
472.654	454.75
472.873	445.75
473.092	423.75
473.311	440.75
473.53	442.75
473.749	445.75
473.968	473.75
474.187	539.75
474.406	568.75
474.625	487.75
474.844	471.75
475.063	439.75
475.282	453.75
475.501	435.75
475.72	437.75
475.939	457.75
476.158	452.75
476.377	451.75
476.596	461.75
476.814	452.75
477.033	447.75
477.252	480.75
477.471	476.75
477.69	457.75
477.908	460.75
478.127	467.75
478.346	492.75
478.564	482.75
478.783	497.75
479.002	511.75
479.22	508.75
479.439	495.75
479.658	521.75
479.876	510.75
480.095	528.75
480.313	536.75
480.532	547.75
480.751	521.75
480.969	543.75
481.188	588.75
481.406	579.75
481.624	541.75
481.843	542.75
482.061	513.75
482.28	491.75
482.498	535.75
482.717	520.75
482.935	508.75
483.153	497.75
483.372	539.75
483.59	519.75
483.808	521.75
484.027	521.75
484.245	511.75
484.463	516.75
484.681	541.75
484.9	531.75
485.118	545.75
485.336	512.75
485.554	552.75
485.772	533.75
485.99	529.75
486.209	540.75
486.427	549.75
486.645	544.75
486.863	583.75
487.081	559.75
487.299	569.75
487.517	552.75
487.735	554.75
487.953	551.75
488.171	589.75
488.389	584.75
488.607	563.75
488.825	559.75
489.043	597.75
489.261	589.75
489.479	589.75
489.696	568.75
489.914	572.75
490.132	576.75
490.35	598.75
490.568	614.75
490.786	609.75
491.003	593.75
491.221	629.75
491.439	636.75
491.657	642.75
491.874	648.75
492.092	665.75
492.31	658.75
492.527	659.75
492.745	621.75
492.963	665.75
493.18	653.75
493.398	672.75
493.615	661.75
493.833	662.75
494.05	682.75
494.268	668.75
494.485	666.75
494.703	668.75
494.92	678.75
495.138	680.75
495.355	677.75
495.573	677.75
495.79	651.75
496.008	663.75
496.225	666.75
496.442	679.75
496.66	671.75
496.877	671.75
497.094	688.75
497.312	697.75
497.529	694.75
497.746	725.75
497.963	707.75
498.181	725.75
498.398	713.75
498.615	737.75
498.832	735.75
499.049	754.75
499.267	749.75
499.484	795.75
499.701	780.75
499.918	790.75
500.135	859.75
500.352	879.75
500.569	891.75
500.786	881.75
501.003	877.75
501.22	851.75
501.437	819.75
501.654	831.75
501.871	799.75
