Data from 1970.PennyLincolnUp.Lamp.En5.5.200Scan.071719.P1._HRD10591_15-13-22-844.txt Node
Date: Thu Jul 18 15:13:22 EDT 2019
User: cochatt
Spectrometer: HR+D1059
Trigger mode: 1
Integration Time (sec): 1.000000E-1
Scans to average: 1
Electric dark correction enabled: true
Nonlinearity correction enabled: false
Boxcar width: 0
XAxis mode: Wavelengths
Number of Pixels in Spectrum: 2048
>>>>>Begin Spectral Data<<<<<
223.165	-20.5
223.4	-20.5
223.635	-20.5
223.869	-27.5
224.104	-11.5
224.338	-5.5
224.573	-18.5
224.808	-15.5
225.042	1.5
225.277	-14.5
225.511	-1.5
225.746	10.5
225.98	5.5
226.215	13.5
226.449	12.5
226.683	13.5
226.918	33.5
227.152	24.5
227.387	30.5
227.621	43.5
227.856	52.5
228.09	49.5
228.324	43.5
228.559	66.5
228.793	63.5
229.027	101.5
229.262	96.5
229.496	105.5
229.73	124.5
229.964	160.5
230.199	113.5
230.433	124.5
230.667	119.5
230.901	110.5
231.136	123.5
231.37	107.5
231.604	123.5
231.838	116.5
232.072	103.5
232.306	116.5
232.541	122.5
232.775	112.5
233.009	105.5
233.243	114.5
233.477	114.5
233.711	125.5
233.945	119.5
234.179	124.5
234.413	104.5
234.647	115.5
234.881	120.5
235.115	120.5
235.349	125.5
235.583	118.5
235.817	123.5
236.051	125.5
236.285	130.5
236.519	139.5
236.753	122.5
236.987	144.5
237.221	175.5
237.455	215.5
237.689	186.5
237.922	151.5
238.156	125.5
238.39	138.5
238.624	103.5
238.858	135.5
239.091	133.5
239.325	142.5
239.559	142.5
239.793	144.5
240.027	128.5
240.26	151.5
240.494	156.5
240.728	148.5
240.961	137.5
241.195	151.5
241.429	156.5
241.662	137.5
241.896	141.5
242.13	127.5
242.363	140.5
242.597	133.5
242.83	143.5
243.064	125.5
243.298	146.5
243.531	144.5
243.765	139.5
243.998	131.5
244.232	135.5
244.465	164.5
244.699	146.5
244.932	155.5
245.166	145.5
245.399	153.5
245.633	156.5
245.866	141.5
246.099	146.5
246.333	151.5
246.566	163.5
246.8	148.5
247.033	142.5
247.266	181.5
247.5	165.5
247.733	155.5
247.966	174.5
248.2	185.5
248.433	183.5
248.666	177.5
248.899	190.5
249.133	190.5
249.366	202.5
249.599	215.5
249.832	188.5
250.066	181.5
250.299	166.5
250.532	199.5
250.765	199.5
250.998	229.5
251.231	211.5
251.465	210.5
251.698	207.5
251.931	195.5
252.164	189.5
252.397	204.5
252.63	200.5
252.863	203.5
253.096	224.5
253.329	225.5
253.562	238.5
253.795	198.5
254.028	208.5
254.261	222.5
254.494	223.5
254.727	240.5
254.96	283.5
255.193	268.5
255.426	237.5
255.659	249.5
255.892	224.5
256.124	222.5
256.357	225.5
256.59	209.5
256.823	205.5
257.056	212.5
257.289	197.5
257.521	212.5
257.754	211.5
257.987	213.5
258.22	222.5
258.452	200.5
258.685	214.5
258.918	209.5
259.151	203.5
259.383	207.5
259.616	225.5
259.849	217.5
260.081	219.5
260.314	245.5
260.547	246.5
260.779	222.5
261.012	220.5
261.244	232.5
261.477	213.5
261.71	205.5
261.942	213.5
262.175	214.5
262.407	217.5
262.64	220.5
262.872	187.5
263.105	214.5
263.337	221.5
263.57	213.5
263.802	188.5
264.035	198.5
264.267	201.5
264.499	203.5
264.732	199.5
264.964	199.5
265.197	211.5
265.429	198.5
265.661	211.5
265.894	204.5
266.126	218.5
266.358	190.5
266.591	215.5
266.823	204.5
267.055	208.5
267.287	213.5
267.52	219.5
267.752	202.5
267.984	212.5
268.216	214.5
268.448	232.5
268.681	213.5
268.913	219.5
269.145	233.5
269.377	249.5
269.609	256.5
269.841	255.5
270.073	265.5
270.306	265.5
270.538	270.5
270.77	284.5
271.002	263.5
271.234	277.5
271.466	280.5
271.698	283.5
271.93	293.5
272.162	284.5
272.394	297.5
272.626	276.5
272.858	266.5
273.09	261.5
273.322	247.5
273.553	230.5
273.785	239.5
274.017	242.5
274.249	245.5
274.481	242.5
274.713	237.5
274.945	222.5
275.176	244.5
275.408	242.5
275.64	233.5
275.872	244.5
276.104	239.5
276.335	237.5
276.567	241.5
276.799	261.5
277.031	291.5
277.262	288.5
277.494	268.5
277.726	267.5
277.957	247.5
278.189	261.5
278.421	265.5
278.652	254.5
278.884	235.5
279.115	225.5
279.347	262.5
279.579	236.5
279.81	228.5
280.042	243.5
280.273	247.5
280.505	242.5
280.736	238.5
280.968	226.5
281.199	225.5
281.431	226.5
281.662	225.5
281.894	229.5
282.125	236.5
282.356	244.5
282.588	258.5
282.819	262.5
283.051	236.5
283.282	247.5
283.513	247.5
283.745	216.5
283.976	231.5
284.207	244.5
284.439	259.5
284.67	241.5
284.901	261.5
285.132	258.5
285.364	245.5
285.595	247.5
285.826	244.5
286.057	249.5
286.288	249.5
286.52	236.5
286.751	257.5
286.982	255.5
287.213	265.5
287.444	250.5
287.675	266.5
287.906	261.5
288.138	267.5
288.369	248.5
288.6	260.5
288.831	265.5
289.062	262.5
289.293	263.5
289.524	262.5
289.755	259.5
289.986	243.5
290.217	255.5
290.448	253.5
290.679	238.5
290.91	235.5
291.141	255.5
291.371	255.5
291.602	236.5
291.833	246.5
292.064	245.5
292.295	260.5
292.526	244.5
292.757	254.5
292.987	261.5
293.218	255.5
293.449	265.5
293.68	249.5
293.91	255.5
294.141	249.5
294.372	257.5
294.603	260.5
294.833	268.5
295.064	255.5
295.295	258.5
295.525	260.5
295.756	272.5
295.987	266.5
296.217	278.5
296.448	295.5
296.679	283.5
296.909	252.5
297.14	243.5
297.37	265.5
297.601	256.5
297.831	280.5
298.062	275.5
298.292	250.5
298.523	265.5
298.753	277.5
298.984	258.5
299.214	270.5
299.445	271.5
299.675	276.5
299.905	271.5
300.136	283.5
300.366	264.5
300.597	273.5
300.827	268.5
301.057	269.5
301.288	286.5
301.518	291.5
301.748	285.5
301.979	305.5
302.209	278.5
302.439	304.5
302.669	284.5
302.9	265.5
303.13	289.5
303.36	297.5
303.59	284.5
303.82	290.5
304.051	304.5
304.281	290.5
304.511	290.5
304.741	281.5
304.971	287.5
305.201	272.5
305.431	297.5
305.661	300.5
305.891	262.5
306.121	295.5
306.352	294.5
306.582	314.5
306.812	299.5
307.042	299.5
307.272	277.5
307.502	289.5
307.731	280.5
307.961	303.5
308.191	287.5
308.421	281.5
308.651	299.5
308.881	303.5
309.111	300.5
309.341	321.5
309.571	316.5
309.8	326.5
310.03	335.5
310.26	322.5
310.49	334.5
310.72	341.5
310.949	324.5
311.179	334.5
311.409	316.5
311.639	330.5
311.868	323.5
312.098	321.5
312.328	333.5
312.557	359.5
312.787	370.5
313.017	341.5
313.246	354.5
313.476	331.5
313.706	324.5
313.935	340.5
314.165	328.5
314.394	333.5
314.624	365.5
314.853	341.5
315.083	337.5
315.312	323.5
315.542	338.5
315.771	330.5
316.001	308.5
316.23	326.5
316.46	321.5
316.689	325.5
316.919	341.5
317.148	335.5
317.377	339.5
317.607	361.5
317.836	328.5
318.065	332.5
318.295	342.5
318.524	325.5
318.753	332.5
318.983	343.5
319.212	334.5
319.441	334.5
319.67	340.5
319.9	338.5
320.129	327.5
320.358	353.5
320.587	328.5
320.816	339.5
321.046	370.5
321.275	360.5
321.504	377.5
321.733	353.5
321.962	360.5
322.191	379.5
322.42	376.5
322.649	382.5
322.878	431.5
323.108	387.5
323.337	424.5
323.566	420.5
323.795	462.5
324.024	520.5
324.253	610.5
324.482	826.5
324.71	1293.5
324.939	1847.5
325.168	1617.5
325.397	871.5
325.626	604.5
325.855	500.5
326.084	453.5
326.313	451.5
326.542	460.5
326.77	488.5
326.999	584.5
327.228	757.5
327.457	1160.5
327.686	1387.5
327.914	948.5
328.143	641.5
328.372	563.5
328.6	510.5
328.829	501.5
329.058	520.5
329.287	526.5
329.515	489.5
329.744	462.5
329.972	471.5
330.201	463.5
330.43	504.5
330.658	539.5
330.887	566.5
331.115	514.5
331.344	463.5
331.572	422.5
331.801	436.5
332.03	415.5
332.258	417.5
332.486	409.5
332.715	412.5
332.943	382.5
333.172	412.5
333.4	408.5
333.629	419.5
333.857	421.5
334.085	424.5
334.314	425.5
334.542	453.5
334.771	467.5
334.999	415.5
335.227	411.5
335.455	409.5
335.684	398.5
335.912	389.5
336.14	419.5
336.369	394.5
336.597	418.5
336.825	410.5
337.053	392.5
337.281	385.5
337.51	392.5
337.738	390.5
337.966	410.5
338.194	395.5
338.422	387.5
338.65	382.5
338.878	373.5
339.106	364.5
339.334	387.5
339.562	370.5
339.79	370.5
340.018	374.5
340.246	394.5
340.474	400.5
340.702	390.5
340.93	374.5
341.158	373.5
341.386	375.5
341.614	373.5
341.842	391.5
342.07	393.5
342.298	386.5
342.526	381.5
342.754	365.5
342.981	356.5
343.209	374.5
343.437	371.5
343.665	376.5
343.893	381.5
344.12	383.5
344.348	391.5
344.576	392.5
344.804	383.5
345.031	403.5
345.259	397.5
345.487	394.5
345.714	389.5
345.942	351.5
346.17	375.5
346.397	381.5
346.625	379.5
346.853	393.5
347.08	375.5
347.308	384.5
347.535	392.5
347.763	382.5
347.99	384.5
348.218	382.5
348.445	389.5
348.673	409.5
348.9	393.5
349.128	382.5
349.355	385.5
349.583	369.5
349.81	361.5
350.037	377.5
350.265	375.5
350.492	370.5
350.72	385.5
350.947	377.5
351.174	403.5
351.402	390.5
351.629	405.5
351.856	379.5
352.083	390.5
352.311	397.5
352.538	423.5
352.765	415.5
352.992	381.5
353.22	390.5
353.447	395.5
353.674	378.5
353.901	387.5
354.128	363.5
354.355	343.5
354.583	353.5
354.81	349.5
355.037	354.5
355.264	355.5
355.491	347.5
355.718	362.5
355.945	349.5
356.172	359.5
356.399	367.5
356.626	373.5
356.853	369.5
357.08	369.5
357.307	351.5
357.534	369.5
357.761	354.5
357.988	360.5
358.215	358.5
358.441	377.5
358.668	345.5
358.895	381.5
359.122	361.5
359.349	362.5
359.576	391.5
359.802	409.5
360.029	453.5
360.256	438.5
360.483	401.5
360.709	389.5
360.936	390.5
361.163	397.5
361.39	412.5
361.616	395.5
361.843	391.5
362.07	386.5
362.296	386.5
362.523	391.5
362.749	385.5
362.976	377.5
363.203	370.5
363.429	365.5
363.656	362.5
363.882	384.5
364.109	397.5
364.335	381.5
364.562	370.5
364.788	361.5
365.015	372.5
365.241	374.5
365.468	386.5
365.694	373.5
365.92	377.5
366.147	386.5
366.373	371.5
366.599	378.5
366.826	355.5
367.052	391.5
367.278	369.5
367.505	375.5
367.731	376.5
367.957	389.5
368.184	396.5
368.41	380.5
368.636	387.5
368.862	390.5
369.089	372.5
369.315	369.5
369.541	373.5
369.767	387.5
369.993	400.5
370.219	371.5
370.445	378.5
370.672	386.5
370.898	372.5
371.124	387.5
371.35	403.5
371.576	383.5
371.802	357.5
372.028	359.5
372.254	398.5
372.48	377.5
372.706	402.5
372.932	389.5
373.158	374.5
373.384	363.5
373.61	367.5
373.835	389.5
374.061	381.5
374.287	392.5
374.513	378.5
374.739	393.5
374.965	392.5
375.191	378.5
375.416	380.5
375.642	376.5
375.868	381.5
376.094	385.5
376.319	377.5
376.545	380.5
376.771	378.5
376.997	375.5
377.222	374.5
377.448	374.5
377.674	363.5
377.899	369.5
378.125	369.5
378.35	386.5
378.576	387.5
378.802	395.5
379.027	392.5
379.253	381.5
379.478	386.5
379.704	385.5
379.929	380.5
380.155	379.5
380.38	395.5
380.606	372.5
380.831	385.5
381.057	398.5
381.282	380.5
381.507	372.5
381.733	387.5
381.958	363.5
382.184	395.5
382.409	393.5
382.634	401.5
382.86	391.5
383.085	378.5
383.31	411.5
383.535	394.5
383.761	393.5
383.986	399.5
384.211	395.5
384.436	386.5
384.662	402.5
384.887	413.5
385.112	409.5
385.337	424.5
385.562	413.5
385.787	416.5
386.013	434.5
386.238	421.5
386.463	425.5
386.688	428.5
386.913	418.5
387.138	424.5
387.363	428.5
387.588	411.5
387.813	422.5
388.038	425.5
388.263	419.5
388.488	418.5
388.713	415.5
388.938	421.5
389.163	428.5
389.387	404.5
389.612	391.5
389.837	433.5
390.062	415.5
390.287	409.5
390.512	414.5
390.736	417.5
390.961	406.5
391.186	422.5
391.411	422.5
391.636	426.5
391.86	430.5
392.085	430.5
392.31	428.5
392.534	435.5
392.759	412.5
392.984	427.5
393.208	417.5
393.433	445.5
393.658	455.5
393.882	413.5
394.107	415.5
394.331	417.5
394.556	423.5
394.78	437.5
395.005	429.5
395.229	414.5
395.454	416.5
395.678	423.5
395.903	446.5
396.127	466.5
396.352	462.5
396.576	439.5
396.801	450.5
397.025	469.5
397.249	433.5
397.474	466.5
397.698	441.5
397.922	472.5
398.147	459.5
398.371	464.5
398.595	493.5
398.82	468.5
399.044	462.5
399.268	474.5
399.492	493.5
399.717	532.5
399.941	559.5
400.165	562.5
400.389	583.5
400.613	539.5
400.837	516.5
401.062	502.5
401.286	486.5
401.51	497.5
401.734	459.5
401.958	476.5
402.182	491.5
402.406	485.5
402.63	489.5
402.854	491.5
403.078	483.5
403.302	521.5
403.526	500.5
403.75	503.5
403.974	480.5
404.198	485.5
404.422	508.5
404.645	519.5
404.869	501.5
405.093	520.5
405.317	554.5
405.541	601.5
405.765	575.5
405.988	553.5
406.212	529.5
406.436	533.5
406.66	575.5
406.883	519.5
407.107	552.5
407.331	598.5
407.555	673.5
407.778	653.5
408.002	604.5
408.226	577.5
408.449	539.5
408.673	556.5
408.896	580.5
409.12	600.5
409.344	577.5
409.567	531.5
409.791	525.5
410.014	517.5
410.238	509.5
410.461	506.5
410.685	519.5
410.908	515.5
411.132	553.5
411.355	599.5
411.578	577.5
411.802	533.5
412.025	499.5
412.249	514.5
412.472	541.5
412.695	559.5
412.919	548.5
413.142	500.5
413.365	514.5
413.589	500.5
413.812	477.5
414.035	481.5
414.258	462.5
414.482	477.5
414.705	465.5
414.928	474.5
415.151	460.5
415.374	474.5
415.597	446.5
415.821	461.5
416.044	487.5
416.267	482.5
416.49	477.5
416.713	483.5
416.936	460.5
417.159	486.5
417.382	477.5
417.605	482.5
417.828	481.5
418.051	522.5
418.274	497.5
418.497	482.5
418.72	486.5
418.943	472.5
419.166	514.5
419.389	523.5
419.611	521.5
419.834	501.5
420.057	498.5
420.28	521.5
420.503	513.5
420.726	509.5
420.948	505.5
421.171	549.5
421.394	574.5
421.617	517.5
421.839	503.5
422.062	508.5
422.285	531.5
422.507	573.5
422.73	656.5
422.953	626.5
423.175	542.5
423.398	540.5
423.621	532.5
423.843	557.5
424.066	564.5
424.288	546.5
424.511	553.5
424.733	598.5
424.956	677.5
425.178	665.5
425.401	662.5
425.623	668.5
425.846	590.5
426.068	583.5
426.291	542.5
426.513	541.5
426.735	580.5
426.958	595.5
427.18	668.5
427.402	795.5
427.625	867.5
427.847	755.5
428.069	659.5
428.292	586.5
428.514	555.5
428.736	551.5
428.958	537.5
429.181	509.5
429.403	525.5
429.625	525.5
429.847	560.5
430.069	619.5
430.292	606.5
430.514	551.5
430.736	510.5
430.958	499.5
431.18	489.5
431.402	501.5
431.624	499.5
431.846	457.5
432.068	458.5
432.29	479.5
432.512	490.5
432.734	503.5
432.956	490.5
433.178	505.5
433.4	513.5
433.622	500.5
433.844	506.5
434.066	513.5
434.287	482.5
434.509	485.5
434.731	491.5
434.953	506.5
435.175	499.5
435.397	545.5
435.618	550.5
435.84	596.5
436.062	666.5
436.284	735.5
436.505	632.5
436.727	564.5
436.949	535.5
437.17	557.5
437.392	504.5
437.614	514.5
437.835	556.5
438.057	676.5
438.278	740.5
438.5	718.5
438.721	797.5
438.943	775.5
439.165	631.5
439.386	593.5
439.608	556.5
439.829	563.5
440.05	588.5
440.272	637.5
440.493	574.5
440.715	539.5
440.936	505.5
441.158	541.5
441.379	531.5
441.6	533.5
441.822	557.5
442.043	589.5
442.264	694.5
442.486	701.5
442.707	621.5
442.928	579.5
443.149	579.5
443.371	567.5
443.592	619.5
443.813	725.5
444.034	763.5
444.255	631.5
444.476	597.5
444.698	554.5
444.919	561.5
445.14	647.5
445.361	606.5
445.582	599.5
445.803	653.5
446.024	738.5
446.245	746.5
446.466	676.5
446.687	573.5
446.908	551.5
447.129	527.5
447.35	504.5
447.571	522.5
447.792	520.5
448.013	519.5
448.234	557.5
448.455	603.5
448.675	709.5
448.896	803.5
449.117	661.5
449.338	658.5
449.559	748.5
449.779	798.5
450	681.5
450.221	569.5
450.442	517.5
450.662	513.5
450.883	523.5
451.104	520.5
451.324	541.5
451.545	501.5
451.766	492.5
451.986	479.5
452.207	463.5
452.428	465.5
452.648	458.5
452.869	452.5
453.089	486.5
453.31	488.5
453.53	486.5
453.751	457.5
453.971	467.5
454.192	491.5
454.412	479.5
454.633	462.5
454.853	452.5
455.073	454.5
455.294	484.5
455.514	566.5
455.734	531.5
455.955	442.5
456.175	460.5
456.395	470.5
456.616	427.5
456.836	438.5
457.056	429.5
457.276	432.5
457.497	451.5
457.717	454.5
457.937	435.5
458.157	440.5
458.377	445.5
458.598	465.5
458.818	534.5
459.038	583.5
459.258	613.5
459.478	523.5
459.698	490.5
459.918	483.5
460.138	485.5
460.358	467.5
460.578	478.5
460.798	489.5
461.018	476.5
461.238	474.5
461.458	490.5
461.678	491.5
461.898	482.5
462.118	481.5
462.338	502.5
462.558	495.5
462.777	493.5
462.997	511.5
463.217	511.5
463.437	516.5
463.657	505.5
463.876	509.5
464.096	500.5
464.316	504.5
464.536	533.5
464.755	502.5
464.975	517.5
465.195	564.5
465.414	645.5
465.634	540.5
465.854	530.5
466.073	488.5
466.293	494.5
466.512	486.5
466.732	468.5
466.951	468.5
467.171	467.5
467.391	489.5
467.61	487.5
467.829	499.5
468.049	461.5
468.268	499.5
468.488	472.5
468.707	449.5
468.927	469.5
469.146	458.5
469.365	461.5
469.585	459.5
469.804	466.5
470.023	475.5
470.243	486.5
470.462	485.5
470.681	479.5
470.901	491.5
471.12	470.5
471.339	482.5
471.558	481.5
471.777	499.5
471.997	503.5
472.216	482.5
472.435	529.5
472.654	513.5
472.873	478.5
473.092	484.5
473.311	484.5
473.53	490.5
473.749	490.5
473.968	527.5
474.187	605.5
474.406	647.5
474.625	554.5
474.844	482.5
475.063	491.5
475.282	490.5
475.501	486.5
475.72	516.5
475.939	492.5
476.158	482.5
476.377	517.5
476.596	479.5
476.814	506.5
477.033	510.5
477.252	510.5
477.471	518.5
477.69	513.5
477.908	541.5
478.127	521.5
478.346	533.5
478.564	532.5
478.783	523.5
479.002	537.5
479.22	531.5
479.439	580.5
479.658	563.5
479.876	601.5
480.095	578.5
480.313	632.5
480.532	606.5
480.751	587.5
480.969	602.5
481.188	607.5
481.406	684.5
481.624	614.5
481.843	589.5
482.061	585.5
482.28	582.5
482.498	562.5
482.717	576.5
482.935	587.5
483.153	564.5
483.372	567.5
483.59	588.5
483.808	576.5
484.027	577.5
484.245	584.5
484.463	586.5
484.681	599.5
484.9	583.5
485.118	598.5
485.336	585.5
485.554	589.5
485.772	586.5
485.99	613.5
486.209	618.5
486.427	595.5
486.645	611.5
486.863	638.5
487.081	636.5
487.299	620.5
487.517	620.5
487.735	614.5
487.953	620.5
488.171	629.5
488.389	621.5
488.607	616.5
488.825	619.5
489.043	656.5
489.261	656.5
489.479	630.5
489.696	628.5
489.914	638.5
490.132	662.5
490.35	660.5
490.568	655.5
490.786	679.5
491.003	679.5
491.221	707.5
491.439	707.5
491.657	703.5
491.874	714.5
492.092	709.5
492.31	716.5
492.527	740.5
492.745	739.5
492.963	749.5
493.18	728.5
493.398	741.5
493.615	713.5
493.833	734.5
494.05	738.5
494.268	755.5
494.485	748.5
494.703	719.5
494.92	727.5
495.138	748.5
495.355	733.5
495.573	755.5
495.79	732.5
496.008	731.5
496.225	746.5
496.442	766.5
496.66	742.5
496.877	752.5
497.094	751.5
497.312	777.5
497.529	762.5
497.746	787.5
497.963	759.5
498.181	798.5
498.398	811.5
498.615	812.5
498.832	839.5
499.049	823.5
499.267	884.5
499.484	865.5
499.701	865.5
499.918	871.5
500.135	919.5
500.352	931.5
500.569	969.5
500.786	983.5
501.003	989.5
501.22	939.5
501.437	898.5
501.654	920.5
501.871	894.5
502.088	898.5
502.305	860.5
502.522	830.5
502.739	830.5
502.956	796.5
503.172	793.5
503.389	765.5
503.606	770.5
503.823	788.5
504.04	764.5
504.256	751.5
504.473	730.5
504.69	716.5
504.907	731.5
505.123	739.5
505.34	713.5
505.557	743.5
505.773	716.5
505.99	745.5
506.207	706.5
506.423	710.5
506.64	729.5
506.856	686.5
507.073	709.5
507.289	672.5
507.506	702.5
507.722	681.5
507.939	745.5
508.155	726.5
508.372	694.5
508.588	681.5
508.805	653.5
509.021	703.5
509.238	679.5
509.454	689.5
509.67	697.5
509.887	693.5
510.103	699.5
510.319	706.5
510.536	761.5
510.752	1243.5
510.968	1039.5
511.184	705.5
511.401	669.5
511.617	659.5
511.833	638.5
512.049	674.5
512.265	657.5
512.481	657.5
512.698	637.5
512.914	634.5
513.13	654.5
513.346	641.5
513.562	639.5
513.778	630.5
513.994	663.5
514.21	656.5
514.426	682.5
514.642	702.5
514.858	727.5
515.074	791.5
515.29	915.5
515.506	1317.5
515.721	1094.5
515.937	774.5
516.153	719.5
516.369	681.5
516.585	657.5
516.801	637.5
517.016	662.5
517.232	647.5
517.448	665.5
517.664	665.5
517.879	643.5
518.095	650.5
518.311	636.5
518.527	643.5
518.742	627.5
518.958	649.5
519.173	635.5
519.389	648.5
519.605	650.5
519.82	640.5
