Data from 1970.PennyLincolnUp.Lamp.En5.5.200Scan.071719.P1._HRD10591_15-14-16-842.txt Node
Date: Thu Jul 18 15:14:16 EDT 2019
User: cochatt
Spectrometer: HR+D1059
Trigger mode: 1
Integration Time (sec): 1.000000E-1
Scans to average: 1
Electric dark correction enabled: true
Nonlinearity correction enabled: false
Boxcar width: 0
XAxis mode: Wavelengths
Number of Pixels in Spectrum: 2048
>>>>>Begin Spectral Data<<<<<
223.165	-27.12
223.4	-27.12
223.635	-27.12
223.869	-3.12
224.104	-21.12
224.338	-8.12
224.573	-13.12
224.808	-8.12
225.042	-16.12
225.277	1.88
225.511	3.88
225.746	4.88
225.98	1.88
226.215	19.88
226.449	18.88
226.683	6.88
226.918	24.88
227.152	13.88
227.387	33.88
227.621	42.88
227.856	40.88
228.09	28.88
228.324	53.88
228.559	53.88
228.793	75.88
229.027	118.88
229.262	129.88
229.496	118.88
229.73	142.88
229.964	155.88
230.199	127.88
230.433	106.88
230.667	108.88
230.901	117.88
231.136	121.88
231.37	124.88
231.604	118.88
231.838	122.88
232.072	115.88
232.306	116.88
232.541	114.88
232.775	122.88
233.009	136.88
233.243	110.88
233.477	124.88
233.711	108.88
233.945	120.88
234.179	112.88
234.413	121.88
234.647	123.88
234.881	109.88
235.115	115.88
235.349	117.88
235.583	122.88
235.817	114.88
236.051	115.88
236.285	133.88
236.519	119.88
236.753	154.88
236.987	156.88
237.221	202.88
237.455	249.88
237.689	213.88
237.922	156.88
238.156	153.88
238.39	152.88
238.624	132.88
238.858	122.88
239.091	131.88
239.325	118.88
239.559	126.88
239.793	126.88
240.027	123.88
240.26	161.88
240.494	159.88
240.728	169.88
240.961	163.88
241.195	156.88
241.429	139.88
241.662	145.88
241.896	149.88
242.13	126.88
242.363	141.88
242.597	150.88
242.83	128.88
243.064	136.88
243.298	151.88
243.531	147.88
243.765	153.88
243.998	137.88
244.232	150.88
244.465	145.88
244.699	161.88
244.932	168.88
245.166	156.88
245.399	154.88
245.633	154.88
245.866	162.88
246.099	155.88
246.333	153.88
246.566	145.88
246.8	158.88
247.033	151.88
247.266	167.88
247.5	179.88
247.733	179.88
247.966	201.88
248.2	180.88
248.433	179.88
248.666	197.88
248.899	209.88
249.133	208.88
249.366	208.88
249.599	211.88
249.832	204.88
250.066	187.88
250.299	212.88
250.532	182.88
250.765	214.88
250.998	244.88
251.231	245.88
251.465	237.88
251.698	215.88
251.931	219.88
252.164	223.88
252.397	217.88
252.63	207.88
252.863	216.88
253.096	230.88
253.329	240.88
253.562	230.88
253.795	252.88
254.028	232.88
254.261	244.88
254.494	262.88
254.727	280.88
254.96	311.88
255.193	293.88
255.426	276.88
255.659	257.88
255.892	259.88
256.124	257.88
256.357	242.88
256.59	248.88
256.823	233.88
257.056	225.88
257.289	242.88
257.521	222.88
257.754	239.88
257.987	220.88
258.22	227.88
258.452	222.88
258.685	218.88
258.918	233.88
259.151	233.88
259.383	227.88
259.616	232.88
259.849	231.88
260.081	244.88
260.314	257.88
260.547	279.88
260.779	263.88
261.012	245.88
261.244	241.88
261.477	226.88
261.71	226.88
261.942	238.88
262.175	258.88
262.407	225.88
262.64	225.88
262.872	225.88
263.105	241.88
263.337	239.88
263.57	227.88
263.802	230.88
264.035	210.88
264.267	227.88
264.499	226.88
264.732	224.88
264.964	236.88
265.197	218.88
265.429	216.88
265.661	212.88
265.894	220.88
266.126	206.88
266.358	225.88
266.591	230.88
266.823	215.88
267.055	222.88
267.287	228.88
267.52	236.88
267.752	231.88
267.984	230.88
268.216	233.88
268.448	238.88
268.681	231.88
268.913	243.88
269.145	259.88
269.377	274.88
269.609	285.88
269.841	266.88
270.073	280.88
270.306	315.88
270.538	335.88
270.77	332.88
271.002	328.88
271.234	305.88
271.466	288.88
271.698	342.88
271.93	311.88
272.162	340.88
272.394	335.88
272.626	302.88
272.858	291.88
273.09	282.88
273.322	281.88
273.553	281.88
273.785	267.88
274.017	283.88
274.249	252.88
274.481	280.88
274.713	272.88
274.945	281.88
275.176	278.88
275.408	269.88
275.64	276.88
275.872	261.88
276.104	261.88
276.335	249.88
276.567	290.88
276.799	295.88
277.031	314.88
277.262	317.88
277.494	322.88
277.726	328.88
277.957	307.88
278.189	281.88
278.421	281.88
278.652	286.88
278.884	285.88
279.115	280.88
279.347	274.88
279.579	272.88
279.81	265.88
280.042	258.88
280.273	276.88
280.505	268.88
280.736	258.88
280.968	245.88
281.199	265.88
281.431	281.88
281.662	270.88
281.894	273.88
282.125	280.88
282.356	285.88
282.588	297.88
282.819	290.88
283.051	279.88
283.282	267.88
283.513	270.88
283.745	281.88
283.976	270.88
284.207	267.88
284.439	272.88
284.67	277.88
284.901	290.88
285.132	286.88
285.364	266.88
285.595	273.88
285.826	274.88
286.057	258.88
286.288	269.88
286.52	277.88
286.751	272.88
286.982	267.88
287.213	271.88
287.444	264.88
287.675	305.88
287.906	299.88
288.138	286.88
288.369	298.88
288.6	303.88
288.831	292.88
289.062	297.88
289.293	269.88
289.524	277.88
289.755	280.88
289.986	267.88
290.217	268.88
290.448	260.88
290.679	271.88
290.91	285.88
291.141	276.88
291.371	285.88
291.602	268.88
291.833	278.88
292.064	277.88
292.295	278.88
292.526	301.88
292.757	292.88
292.987	282.88
293.218	281.88
293.449	291.88
293.68	293.88
293.91	275.88
294.141	290.88
294.372	269.88
294.603	281.88
294.833	279.88
295.064	277.88
295.295	283.88
295.525	286.88
295.756	266.88
295.987	285.88
296.217	330.88
296.448	311.88
296.679	293.88
296.909	291.88
297.14	291.88
297.37	307.88
297.601	285.88
297.831	291.88
298.062	295.88
298.292	295.88
298.523	286.88
298.753	286.88
298.984	296.88
299.214	299.88
299.445	297.88
299.675	305.88
299.905	315.88
300.136	300.88
300.366	294.88
300.597	298.88
300.827	305.88
301.057	313.88
301.288	325.88
301.518	301.88
301.748	320.88
301.979	294.88
302.209	314.88
302.439	326.88
302.669	324.88
302.9	331.88
303.13	314.88
303.36	319.88
303.59	321.88
303.82	308.88
304.051	316.88
304.281	324.88
304.511	318.88
304.741	319.88
304.971	302.88
305.201	315.88
305.431	302.88
305.661	322.88
305.891	332.88
306.121	334.88
306.352	330.88
306.582	334.88
306.812	325.88
307.042	319.88
307.272	326.88
307.502	307.88
307.731	359.88
307.961	316.88
308.191	318.88
308.421	307.88
308.651	326.88
308.881	332.88
309.111	330.88
309.341	324.88
309.571	371.88
309.8	362.88
310.03	353.88
310.26	376.88
310.49	357.88
310.72	389.88
310.949	391.88
311.179	412.88
311.409	361.88
311.639	377.88
311.868	366.88
312.098	354.88
312.328	385.88
312.557	375.88
312.787	398.88
313.017	427.88
313.246	381.88
313.476	375.88
313.706	390.88
313.935	384.88
314.165	389.88
314.394	411.88
314.624	398.88
314.853	389.88
315.083	381.88
315.312	370.88
315.542	357.88
315.771	348.88
316.001	362.88
316.23	370.88
316.46	357.88
316.689	385.88
316.919	369.88
317.148	371.88
317.377	378.88
317.607	388.88
317.836	379.88
318.065	374.88
318.295	376.88
318.524	367.88
318.753	377.88
318.983	369.88
319.212	354.88
319.441	381.88
319.67	379.88
319.9	385.88
320.129	373.88
320.358	362.88
320.587	379.88
320.816	381.88
321.046	388.88
321.275	407.88
321.504	391.88
321.733	401.88
321.962	405.88
322.191	429.88
322.42	430.88
322.649	454.88
322.878	454.88
323.108	483.88
323.337	528.88
323.566	515.88
323.795	546.88
324.024	609.88
324.253	739.88
324.482	1075.88
324.71	1625.88
324.939	2278.88
325.168	1958.88
325.397	1072.88
325.626	731.88
325.855	594.88
326.084	542.88
326.313	534.88
326.542	527.88
326.77	578.88
326.999	690.88
327.228	924.88
327.457	1419.88
327.686	1731.88
327.914	1185.88
328.143	783.88
328.372	675.88
328.6	638.88
328.829	588.88
329.058	637.88
329.287	630.88
329.515	601.88
329.744	543.88
329.972	522.88
330.201	557.88
330.43	595.88
330.658	622.88
330.887	654.88
331.115	639.88
331.344	551.88
331.572	534.88
331.801	497.88
332.03	500.88
332.258	482.88
332.486	451.88
332.715	468.88
332.943	441.88
333.172	458.88
333.4	469.88
333.629	446.88
333.857	502.88
334.085	484.88
334.314	493.88
334.542	559.88
334.771	574.88
334.999	513.88
335.227	479.88
335.455	456.88
335.684	443.88
335.912	421.88
336.14	429.88
336.369	432.88
336.597	442.88
336.825	450.88
337.053	438.88
337.281	427.88
337.51	441.88
337.738	423.88
337.966	441.88
338.194	449.88
338.422	433.88
338.65	421.88
338.878	439.88
339.106	440.88
339.334	413.88
339.562	394.88
339.79	415.88
340.018	448.88
340.246	439.88
340.474	437.88
340.702	421.88
340.93	427.88
341.158	429.88
341.386	425.88
341.614	436.88
341.842	413.88
342.07	419.88
342.298	413.88
342.526	418.88
342.754	426.88
342.981	427.88
343.209	405.88
343.437	426.88
343.665	426.88
343.893	436.88
344.12	435.88
344.348	411.88
344.576	435.88
344.804	438.88
345.031	459.88
345.259	455.88
345.487	435.88
345.714	455.88
345.942	421.88
346.17	422.88
346.397	441.88
346.625	428.88
346.853	412.88
347.08	437.88
347.308	445.88
347.535	444.88
347.763	436.88
347.99	438.88
348.218	425.88
348.445	444.88
348.673	433.88
348.9	425.88
349.128	429.88
349.355	415.88
349.583	414.88
349.81	431.88
350.037	415.88
350.265	418.88
350.492	404.88
350.72	411.88
350.947	421.88
351.174	429.88
351.402	448.88
351.629	425.88
351.856	438.88
352.083	443.88
352.311	456.88
352.538	475.88
352.765	468.88
352.992	441.88
353.22	421.88
353.447	425.88
353.674	430.88
353.901	394.88
354.128	398.88
354.355	410.88
354.583	413.88
354.81	387.88
355.037	396.88
355.264	391.88
355.491	394.88
355.718	385.88
355.945	409.88
356.172	382.88
356.399	389.88
356.626	399.88
356.853	415.88
357.08	400.88
357.307	387.88
357.534	404.88
357.761	400.88
357.988	392.88
358.215	395.88
358.441	396.88
358.668	376.88
358.895	386.88
359.122	406.88
359.349	419.88
359.576	441.88
359.802	464.88
360.029	488.88
360.256	507.88
360.483	487.88
360.709	437.88
360.936	439.88
361.163	430.88
361.39	430.88
361.616	434.88
361.843	439.88
362.07	444.88
362.296	446.88
362.523	433.88
362.749	414.88
362.976	422.88
363.203	421.88
363.429	427.88
363.656	421.88
363.882	407.88
364.109	420.88
364.335	406.88
364.562	406.88
364.788	420.88
365.015	400.88
365.241	404.88
365.468	415.88
365.694	433.88
365.92	423.88
366.147	442.88
366.373	418.88
366.599	436.88
366.826	418.88
367.052	398.88
367.278	415.88
367.505	425.88
367.731	413.88
367.957	418.88
368.184	437.88
368.41	434.88
368.636	455.88
368.862	453.88
369.089	436.88
369.315	414.88
369.541	421.88
369.767	423.88
369.993	434.88
370.219	421.88
370.445	454.88
370.672	411.88
370.898	416.88
371.124	397.88
371.35	418.88
371.576	408.88
371.802	422.88
372.028	387.88
372.254	389.88
372.48	392.88
372.706	412.88
372.932	412.88
373.158	427.88
373.384	414.88
373.61	417.88
373.835	427.88
374.061	398.88
374.287	412.88
374.513	405.88
374.739	436.88
374.965	435.88
375.191	417.88
375.416	403.88
375.642	414.88
375.868	410.88
376.094	418.88
376.319	441.88
376.545	412.88
376.771	401.88
376.997	403.88
377.222	429.88
377.448	406.88
377.674	422.88
377.899	424.88
378.125	419.88
378.35	413.88
378.576	412.88
378.802	413.88
379.027	431.88
379.253	426.88
379.478	405.88
379.704	407.88
379.929	411.88
380.155	415.88
380.38	406.88
380.606	413.88
380.831	425.88
381.057	439.88
381.282	403.88
381.507	430.88
381.733	410.88
381.958	423.88
382.184	410.88
382.409	417.88
382.634	417.88
382.86	431.88
383.085	431.88
383.31	435.88
383.535	424.88
383.761	438.88
383.986	416.88
384.211	409.88
384.436	427.88
384.662	437.88
384.887	424.88
385.112	437.88
385.337	440.88
385.562	451.88
385.787	447.88
386.013	461.88
386.238	457.88
386.463	450.88
386.688	461.88
386.913	449.88
387.138	434.88
387.363	446.88
387.588	435.88
387.813	429.88
388.038	456.88
388.263	447.88
388.488	446.88
388.713	451.88
388.938	455.88
389.163	469.88
389.387	447.88
389.612	445.88
389.837	460.88
390.062	428.88
390.287	441.88
390.512	454.88
390.736	431.88
390.961	456.88
391.186	450.88
391.411	423.88
391.636	440.88
391.86	462.88
392.085	454.88
392.31	447.88
392.534	462.88
392.759	435.88
392.984	447.88
393.208	442.88
393.433	462.88
393.658	479.88
393.882	463.88
394.107	455.88
394.331	462.88
394.556	465.88
394.78	445.88
395.005	443.88
395.229	458.88
395.454	446.88
395.678	479.88
395.903	482.88
396.127	486.88
396.352	509.88
396.576	515.88
396.801	463.88
397.025	474.88
397.249	473.88
397.474	474.88
397.698	498.88
397.922	495.88
398.147	523.88
398.371	510.88
398.595	515.88
398.82	483.88
399.044	508.88
399.268	527.88
399.492	554.88
399.717	574.88
399.941	592.88
400.165	594.88
400.389	644.88
400.613	598.88
400.837	524.88
401.062	533.88
401.286	531.88
401.51	508.88
401.734	493.88
401.958	533.88
402.182	517.88
402.406	537.88
402.63	516.88
402.854	498.88
403.078	529.88
403.302	528.88
403.526	511.88
403.75	533.88
403.974	523.88
404.198	521.88
404.422	545.88
404.645	547.88
404.869	562.88
405.093	581.88
405.317	623.88
405.541	654.88
405.765	601.88
405.988	582.88
406.212	587.88
406.436	628.88
406.66	597.88
406.883	596.88
407.107	619.88
407.331	663.88
407.555	685.88
407.778	705.88
408.002	668.88
408.226	594.88
408.449	568.88
408.673	579.88
408.896	596.88
409.12	662.88
409.344	633.88
409.567	567.88
409.791	565.88
410.014	557.88
410.238	551.88
410.461	558.88
410.685	556.88
410.908	563.88
411.132	579.88
411.355	631.88
411.578	598.88
411.802	567.88
412.025	557.88
412.249	561.88
412.472	583.88
412.695	624.88
412.919	588.88
413.142	560.88
413.365	537.88
413.589	554.88
413.812	540.88
414.035	535.88
414.258	509.88
414.482	500.88
414.705	493.88
414.928	513.88
415.151	513.88
415.374	513.88
415.597	519.88
415.821	494.88
416.044	507.88
416.267	532.88
416.49	533.88
416.713	509.88
416.936	519.88
417.159	531.88
417.382	524.88
417.605	525.88
417.828	545.88
418.051	570.88
418.274	561.88
418.497	523.88
418.72	531.88
418.943	500.88
419.166	543.88
419.389	553.88
419.611	533.88
419.834	518.88
420.057	559.88
420.28	572.88
420.503	551.88
420.726	554.88
420.948	578.88
421.171	601.88
421.394	647.88
421.617	581.88
421.839	577.88
422.062	572.88
422.285	546.88
422.507	619.88
422.73	713.88
422.953	667.88
423.175	609.88
423.398	583.88
423.621	552.88
423.843	562.88
424.066	613.88
424.288	591.88
424.511	626.88
424.733	666.88
424.956	763.88
425.178	753.88
425.401	732.88
425.623	757.88
425.846	656.88
426.068	616.88
426.291	601.88
426.513	602.88
426.735	622.88
426.958	660.88
427.18	765.88
427.402	846.88
427.625	953.88
427.847	891.88
428.069	775.88
428.292	699.88
428.514	607.88
428.736	571.88
428.958	598.88
429.181	538.88
429.403	562.88
429.625	573.88
429.847	607.88
430.069	697.88
430.292	665.88
430.514	581.88
430.736	557.88
430.958	543.88
431.18	538.88
431.402	551.88
431.624	515.88
431.846	526.88
432.068	525.88
432.29	506.88
432.512	523.88
432.734	537.88
432.956	525.88
433.178	541.88
433.4	571.88
433.622	551.88
433.844	531.88
434.066	504.88
434.287	514.88
434.509	517.88
434.731	528.88
434.953	550.88
435.175	560.88
435.397	578.88
435.618	580.88
435.84	632.88
436.062	760.88
436.284	823.88
436.505	695.88
436.727	612.88
436.949	601.88
437.17	569.88
437.392	564.88
437.614	598.88
437.835	644.88
438.057	720.88
438.278	856.88
438.5	835.88
438.721	874.88
438.943	841.88
439.165	686.88
439.386	639.88
439.608	651.88
439.829	633.88
440.05	663.88
440.272	698.88
440.493	669.88
440.715	607.88
440.936	596.88
441.158	568.88
441.379	581.88
441.6	586.88
441.822	607.88
442.043	656.88
442.264	747.88
442.486	795.88
442.707	692.88
442.928	603.88
443.149	618.88
443.371	652.88
443.592	650.88
443.813	799.88
444.034	838.88
444.255	699.88
444.476	625.88
444.698	638.88
444.919	599.88
445.14	708.88
445.361	684.88
445.582	632.88
445.803	723.88
446.024	820.88
446.245	815.88
446.466	750.88
446.687	673.88
446.908	622.88
447.129	596.88
447.35	567.88
447.571	553.88
447.792	550.88
448.013	581.88
448.234	601.88
448.455	640.88
448.675	771.88
448.896	825.88
449.117	743.88
449.338	702.88
449.559	825.88
449.779	912.88
450	746.88
450.221	627.88
450.442	577.88
450.662	567.88
450.883	580.88
451.104	602.88
451.324	576.88
451.545	557.88
451.766	538.88
451.986	511.88
452.207	506.88
452.428	509.88
452.648	517.88
452.869	496.88
453.089	523.88
453.31	529.88
453.53	493.88
453.751	498.88
453.971	519.88
454.192	541.88
454.412	510.88
454.633	518.88
454.853	498.88
455.073	532.88
455.294	542.88
455.514	595.88
455.734	598.88
455.955	518.88
456.175	484.88
456.395	488.88
456.616	450.88
456.836	493.88
457.056	484.88
457.276	458.88
457.497	481.88
457.717	463.88
457.937	491.88
458.157	487.88
458.377	507.88
458.598	527.88
458.818	583.88
459.038	659.88
459.258	685.88
459.478	590.88
459.698	533.88
459.918	541.88
460.138	517.88
460.358	516.88
460.578	527.88
460.798	513.88
461.018	525.88
461.238	501.88
461.458	536.88
461.678	495.88
461.898	514.88
462.118	500.88
462.338	549.88
462.558	549.88
462.777	516.88
462.997	546.88
463.217	546.88
463.437	564.88
463.657	520.88
463.876	561.88
464.096	550.88
464.316	533.88
464.536	534.88
464.755	556.88
464.975	549.88
465.195	610.88
465.414	721.88
465.634	636.88
465.854	583.88
466.073	546.88
466.293	535.88
466.512	507.88
466.732	494.88
466.951	486.88
467.171	505.88
467.391	519.88
467.61	527.88
467.829	543.88
468.049	527.88
468.268	521.88
468.488	534.88
468.707	525.88
468.927	492.88
469.146	490.88
469.365	522.88
469.585	491.88
469.804	529.88
470.023	523.88
470.243	525.88
470.462	541.88
470.681	586.88
470.901	559.88
471.12	491.88
471.339	522.88
471.558	555.88
471.777	533.88
471.997	502.88
472.216	536.88
472.435	582.88
472.654	574.88
472.873	528.88
473.092	531.88
473.311	524.88
473.53	529.88
473.749	563.88
473.968	598.88
474.187	687.88
474.406	712.88
474.625	604.88
474.844	555.88
475.063	542.88
475.282	526.88
475.501	540.88
475.72	569.88
475.939	545.88
476.158	541.88
476.377	549.88
476.596	531.88
476.814	522.88
477.033	558.88
477.252	544.88
477.471	573.88
477.69	549.88
477.908	571.88
478.127	563.88
478.346	562.88
478.564	586.88
478.783	583.88
479.002	593.88
479.22	603.88
479.439	620.88
479.658	626.88
479.876	628.88
480.095	653.88
480.313	671.88
480.532	641.88
480.751	646.88
480.969	650.88
481.188	706.88
481.406	743.88
481.624	706.88
481.843	668.88
482.061	627.88
482.28	632.88
482.498	647.88
482.717	637.88
482.935	637.88
483.153	629.88
483.372	621.88
483.59	647.88
483.808	637.88
484.027	630.88
484.245	644.88
484.463	608.88
484.681	651.88
484.9	633.88
485.118	641.88
485.336	655.88
485.554	651.88
485.772	643.88
485.99	659.88
486.209	657.88
486.427	638.88
486.645	637.88
486.863	709.88
487.081	686.88
487.299	687.88
487.517	677.88
487.735	683.88
487.953	686.88
488.171	682.88
488.389	693.88
488.607	681.88
488.825	714.88
489.043	705.88
489.261	683.88
489.479	686.88
489.696	700.88
489.914	691.88
490.132	715.88
490.35	755.88
490.568	715.88
490.786	739.88
491.003	744.88
491.221	748.88
491.439	792.88
491.657	797.88
491.874	810.88
492.092	779.88
492.31	785.88
492.527	793.88
492.745	814.88
492.963	826.88
493.18	813.88
493.398	834.88
493.615	861.88
493.833	834.88
494.05	830.88
494.268	813.88
494.485	842.88
494.703	791.88
494.92	833.88
495.138	833.88
495.355	808.88
495.573	832.88
495.79	809.88
496.008	835.88
496.225	812.88
496.442	797.88
496.66	835.88
496.877	811.88
497.094	836.88
497.312	815.88
497.529	833.88
497.746	866.88
497.963	849.88
498.181	872.88
498.398	891.88
498.615	891.88
498.832	886.88
499.049	865.88
499.267	899.88
499.484	895.88
499.701	956.88
499.918	955.88
500.135	985.88
500.352	1017.88
500.569	1035.88
500.786	996.88
501.003	1033.88
501.22	1025.88
501.437	982.88
501.654	983.88
501.871	987.88
