Data from 1970.PennyLincolnUp.Lamp.En5.5.200Scan.071719.P1._HRD10591_15-14-59-841.txt Node
Date: Thu Jul 18 15:14:59 EDT 2019
User: cochatt
Spectrometer: HR+D1059
Trigger mode: 1
Integration Time (sec): 1.000000E-1
Scans to average: 1
Electric dark correction enabled: true
Nonlinearity correction enabled: false
Boxcar width: 0
XAxis mode: Wavelengths
Number of Pixels in Spectrum: 2048
>>>>>Begin Spectral Data<<<<<
223.165	-8.88
223.4	-8.88
223.635	-8.88
223.869	-11.88
224.104	-2.88
224.338	-17.88
224.573	-17.88
224.808	2.12
225.042	-12.88
225.277	-25.88
225.511	-11.88
225.746	12.12
225.98	-4.88
226.215	13.12
226.449	24.12
226.683	16.12
226.918	8.12
227.152	39.12
227.387	33.12
227.621	36.12
227.856	56.12
228.09	43.12
228.324	59.12
228.559	41.12
228.793	64.12
229.027	98.12
229.262	108.12
229.496	146.12
229.73	143.12
229.964	186.12
230.199	140.12
230.433	124.12
230.667	124.12
230.901	116.12
231.136	101.12
231.37	132.12
231.604	126.12
231.838	111.12
232.072	117.12
232.306	116.12
232.541	126.12
232.775	117.12
233.009	125.12
233.243	107.12
233.477	116.12
233.711	113.12
233.945	120.12
234.179	118.12
234.413	121.12
234.647	124.12
234.881	117.12
235.115	133.12
235.349	131.12
235.583	135.12
235.817	105.12
236.051	126.12
236.285	122.12
236.519	144.12
236.753	157.12
236.987	149.12
237.221	217.12
237.455	244.12
237.689	220.12
237.922	176.12
238.156	153.12
238.39	140.12
238.624	118.12
238.858	124.12
239.091	122.12
239.325	134.12
239.559	142.12
239.793	152.12
240.027	142.12
240.26	171.12
240.494	158.12
240.728	157.12
240.961	160.12
241.195	157.12
241.429	147.12
241.662	136.12
241.896	140.12
242.13	134.12
242.363	146.12
242.597	142.12
242.83	159.12
243.064	145.12
243.298	142.12
243.531	157.12
243.765	142.12
243.998	160.12
244.232	148.12
244.465	148.12
244.699	163.12
244.932	166.12
245.166	151.12
245.399	166.12
245.633	174.12
245.866	159.12
246.099	184.12
246.333	158.12
246.566	141.12
246.8	182.12
247.033	163.12
247.266	184.12
247.5	174.12
247.733	180.12
247.966	193.12
248.2	191.12
248.433	197.12
248.666	198.12
248.899	200.12
249.133	219.12
249.366	255.12
249.599	229.12
249.832	203.12
250.066	191.12
250.299	201.12
250.532	220.12
250.765	224.12
250.998	246.12
251.231	255.12
251.465	251.12
251.698	231.12
251.931	226.12
252.164	221.12
252.397	220.12
252.63	237.12
252.863	228.12
253.096	250.12
253.329	254.12
253.562	273.12
253.795	270.12
254.028	229.12
254.261	237.12
254.494	260.12
254.727	293.12
254.96	307.12
255.193	320.12
255.426	288.12
255.659	259.12
255.892	238.12
256.124	272.12
256.357	253.12
256.59	252.12
256.823	246.12
257.056	234.12
257.289	234.12
257.521	236.12
257.754	244.12
257.987	221.12
258.22	223.12
258.452	233.12
258.685	221.12
258.918	222.12
259.151	213.12
259.383	243.12
259.616	267.12
259.849	260.12
260.081	264.12
260.314	278.12
260.547	279.12
260.779	282.12
261.012	264.12
261.244	262.12
261.477	269.12
261.71	235.12
261.942	258.12
262.175	252.12
262.407	256.12
262.64	236.12
262.872	220.12
263.105	252.12
263.337	232.12
263.57	228.12
263.802	228.12
264.035	224.12
264.267	229.12
264.499	227.12
264.732	246.12
264.964	231.12
265.197	199.12
265.429	234.12
265.661	229.12
265.894	209.12
266.126	238.12
266.358	220.12
266.591	239.12
266.823	232.12
267.055	250.12
267.287	232.12
267.52	229.12
267.752	243.12
267.984	242.12
268.216	244.12
268.448	244.12
268.681	263.12
268.913	254.12
269.145	270.12
269.377	292.12
269.609	280.12
269.841	294.12
270.073	306.12
270.306	304.12
270.538	326.12
270.77	340.12
271.002	330.12
271.234	313.12
271.466	327.12
271.698	353.12
271.93	316.12
272.162	333.12
272.394	344.12
272.626	320.12
272.858	315.12
273.09	320.12
273.322	282.12
273.553	285.12
273.785	285.12
274.017	267.12
274.249	282.12
274.481	276.12
274.713	281.12
274.945	287.12
275.176	290.12
275.408	278.12
275.64	284.12
275.872	274.12
276.104	286.12
276.335	272.12
276.567	308.12
276.799	304.12
277.031	314.12
277.262	329.12
277.494	351.12
277.726	333.12
277.957	315.12
278.189	295.12
278.421	290.12
278.652	279.12
278.884	284.12
279.115	294.12
279.347	283.12
279.579	272.12
279.81	262.12
280.042	262.12
280.273	287.12
280.505	288.12
280.736	276.12
280.968	280.12
281.199	278.12
281.431	271.12
281.662	277.12
281.894	287.12
282.125	271.12
282.356	285.12
282.588	310.12
282.819	324.12
283.051	304.12
283.282	282.12
283.513	249.12
283.745	278.12
283.976	285.12
284.207	265.12
284.439	290.12
284.67	290.12
284.901	283.12
285.132	301.12
285.364	278.12
285.595	282.12
285.826	285.12
286.057	282.12
286.288	283.12
286.52	269.12
286.751	262.12
286.982	287.12
287.213	301.12
287.444	302.12
287.675	297.12
287.906	283.12
288.138	300.12
288.369	312.12
288.6	312.12
288.831	301.12
289.062	300.12
289.293	307.12
289.524	295.12
289.755	288.12
289.986	285.12
290.217	302.12
290.448	284.12
290.679	290.12
290.91	291.12
291.141	289.12
291.371	282.12
291.602	283.12
291.833	278.12
292.064	277.12
292.295	285.12
292.526	295.12
292.757	285.12
292.987	299.12
293.218	279.12
293.449	286.12
293.68	303.12
293.91	299.12
294.141	278.12
294.372	285.12
294.603	292.12
294.833	302.12
295.064	307.12
295.295	299.12
295.525	284.12
295.756	300.12
295.987	310.12
296.217	327.12
296.448	337.12
296.679	302.12
296.909	295.12
297.14	287.12
297.37	308.12
297.601	323.12
297.831	310.12
298.062	294.12
298.292	286.12
298.523	312.12
298.753	317.12
298.984	316.12
299.214	313.12
299.445	307.12
299.675	295.12
299.905	308.12
300.136	302.12
300.366	306.12
300.597	318.12
300.827	318.12
301.057	299.12
301.288	315.12
301.518	320.12
301.748	331.12
301.979	334.12
302.209	326.12
302.439	342.12
302.669	325.12
302.9	319.12
303.13	327.12
303.36	312.12
303.59	314.12
303.82	343.12
304.051	326.12
304.281	331.12
304.511	333.12
304.741	329.12
304.971	313.12
305.201	348.12
305.431	328.12
305.661	336.12
305.891	348.12
306.121	330.12
306.352	355.12
306.582	364.12
306.812	327.12
307.042	319.12
307.272	343.12
307.502	346.12
307.731	319.12
307.961	316.12
308.191	324.12
308.421	328.12
308.651	335.12
308.881	343.12
309.111	336.12
309.341	368.12
309.571	356.12
309.8	357.12
310.03	362.12
310.26	397.12
310.49	401.12
310.72	418.12
310.949	407.12
311.179	411.12
311.409	375.12
311.639	374.12
311.868	388.12
312.098	386.12
312.328	406.12
312.557	416.12
312.787	408.12
313.017	425.12
313.246	417.12
313.476	375.12
313.706	408.12
313.935	383.12
314.165	397.12
314.394	420.12
314.624	420.12
314.853	395.12
315.083	390.12
315.312	372.12
315.542	374.12
315.771	366.12
316.001	380.12
316.23	386.12
316.46	377.12
316.689	407.12
316.919	399.12
317.148	396.12
317.377	412.12
317.607	388.12
317.836	409.12
318.065	406.12
318.295	388.12
318.524	377.12
318.753	370.12
318.983	380.12
319.212	396.12
319.441	397.12
319.67	395.12
319.9	385.12
320.129	404.12
320.358	406.12
320.587	403.12
320.816	418.12
321.046	429.12
321.275	423.12
321.504	417.12
321.733	434.12
321.962	450.12
322.191	424.12
322.42	449.12
322.649	488.12
322.878	488.12
323.108	504.12
323.337	536.12
323.566	580.12
323.795	592.12
324.024	661.12
324.253	806.12
324.482	1118.12
324.71	1722.12
324.939	2414.12
325.168	2117.12
325.397	1116.12
325.626	762.12
325.855	629.12
326.084	576.12
326.313	549.12
326.542	547.12
326.77	612.12
326.999	723.12
327.228	996.12
327.457	1478.12
327.686	1840.12
327.914	1250.12
328.143	839.12
328.372	728.12
328.6	687.12
328.829	636.12
329.058	659.12
329.287	640.12
329.515	615.12
329.744	570.12
329.972	551.12
330.201	574.12
330.43	644.12
330.658	638.12
330.887	685.12
331.115	646.12
331.344	570.12
331.572	528.12
331.801	524.12
332.03	515.12
332.258	512.12
332.486	502.12
332.715	459.12
332.943	476.12
333.172	464.12
333.4	472.12
333.629	492.12
333.857	491.12
334.085	507.12
334.314	535.12
334.542	550.12
334.771	588.12
334.999	548.12
335.227	472.12
335.455	456.12
335.684	443.12
335.912	450.12
336.14	470.12
336.369	430.12
336.597	446.12
336.825	463.12
337.053	463.12
337.281	452.12
337.51	456.12
337.738	470.12
337.966	444.12
338.194	451.12
338.422	452.12
338.65	435.12
338.878	434.12
339.106	430.12
339.334	428.12
339.562	444.12
339.79	438.12
340.018	454.12
340.246	443.12
340.474	467.12
340.702	430.12
340.93	452.12
341.158	464.12
341.386	459.12
341.614	469.12
341.842	456.12
342.07	444.12
342.298	442.12
342.526	442.12
342.754	447.12
342.981	422.12
343.209	428.12
343.437	422.12
343.665	424.12
343.893	449.12
344.12	454.12
344.348	442.12
344.576	446.12
344.804	431.12
345.031	470.12
345.259	463.12
345.487	456.12
345.714	477.12
345.942	423.12
346.17	444.12
346.397	445.12
346.625	457.12
346.853	428.12
347.08	430.12
347.308	439.12
347.535	446.12
347.763	463.12
347.99	470.12
348.218	459.12
348.445	458.12
348.673	485.12
348.9	437.12
349.128	436.12
349.355	422.12
349.583	443.12
349.81	434.12
350.037	429.12
350.265	431.12
350.492	446.12
350.72	429.12
350.947	440.12
351.174	445.12
351.402	449.12
351.629	441.12
351.856	463.12
352.083	472.12
352.311	463.12
352.538	450.12
352.765	450.12
352.992	453.12
353.22	436.12
353.447	435.12
353.674	424.12
353.901	423.12
354.128	417.12
354.355	410.12
354.583	419.12
354.81	423.12
355.037	390.12
355.264	411.12
355.491	398.12
355.718	404.12
355.945	388.12
356.172	381.12
356.399	400.12
356.626	371.12
356.853	392.12
357.08	406.12
357.307	386.12
357.534	405.12
357.761	413.12
357.988	423.12
358.215	415.12
358.441	417.12
358.668	407.12
358.895	388.12
359.122	435.12
359.349	416.12
359.576	464.12
359.802	478.12
360.029	517.12
360.256	520.12
360.483	503.12
360.709	464.12
360.936	447.12
361.163	448.12
361.39	438.12
361.616	450.12
361.843	444.12
362.07	459.12
362.296	460.12
362.523	438.12
362.749	424.12
362.976	428.12
363.203	439.12
363.429	431.12
363.656	436.12
363.882	407.12
364.109	425.12
364.335	444.12
364.562	440.12
364.788	418.12
365.015	410.12
365.241	414.12
365.468	450.12
365.694	434.12
365.92	447.12
366.147	426.12
366.373	440.12
366.599	411.12
366.826	408.12
367.052	398.12
367.278	431.12
367.505	426.12
367.731	421.12
367.957	415.12
368.184	428.12
368.41	439.12
368.636	451.12
368.862	443.12
369.089	462.12
369.315	447.12
369.541	437.12
369.767	435.12
369.993	445.12
370.219	410.12
370.445	408.12
370.672	429.12
370.898	422.12
371.124	405.12
371.35	409.12
371.576	407.12
371.802	420.12
372.028	431.12
372.254	426.12
372.48	429.12
372.706	432.12
372.932	415.12
373.158	398.12
373.384	424.12
373.61	422.12
373.835	430.12
374.061	428.12
374.287	419.12
374.513	427.12
374.739	422.12
374.965	420.12
375.191	422.12
375.416	438.12
375.642	443.12
375.868	439.12
376.094	450.12
376.319	436.12
376.545	439.12
376.771	438.12
376.997	418.12
377.222	418.12
377.448	423.12
377.674	416.12
377.899	427.12
378.125	408.12
378.35	418.12
378.576	415.12
378.802	418.12
379.027	426.12
379.253	415.12
379.478	418.12
379.704	428.12
379.929	442.12
380.155	410.12
380.38	416.12
380.606	427.12
380.831	416.12
381.057	428.12
381.282	438.12
381.507	420.12
381.733	429.12
381.958	447.12
382.184	421.12
382.409	429.12
382.634	426.12
382.86	435.12
383.085	427.12
383.31	424.12
383.535	451.12
383.761	442.12
383.986	446.12
384.211	430.12
384.436	452.12
384.662	451.12
384.887	457.12
385.112	459.12
385.337	455.12
385.562	444.12
385.787	445.12
386.013	484.12
386.238	505.12
386.463	470.12
386.688	470.12
386.913	442.12
387.138	448.12
387.363	446.12
387.588	474.12
387.813	459.12
388.038	457.12
388.263	459.12
388.488	471.12
388.713	449.12
388.938	460.12
389.163	452.12
389.387	453.12
389.612	436.12
389.837	445.12
390.062	446.12
390.287	460.12
390.512	461.12
390.736	454.12
390.961	468.12
391.186	463.12
391.411	450.12
391.636	467.12
391.86	472.12
392.085	452.12
392.31	469.12
392.534	471.12
392.759	456.12
392.984	479.12
393.208	463.12
393.433	493.12
393.658	477.12
393.882	447.12
394.107	443.12
394.331	462.12
394.556	470.12
394.78	453.12
395.005	460.12
395.229	468.12
395.454	474.12
395.678	483.12
395.903	486.12
396.127	497.12
396.352	507.12
396.576	482.12
396.801	474.12
397.025	478.12
397.249	496.12
397.474	477.12
397.698	483.12
397.922	489.12
398.147	524.12
398.371	534.12
398.595	509.12
398.82	511.12
399.044	519.12
399.268	531.12
399.492	535.12
399.717	570.12
399.941	593.12
400.165	628.12
400.389	650.12
400.613	585.12
400.837	570.12
401.062	531.12
401.286	526.12
401.51	532.12
401.734	522.12
401.958	522.12
402.182	525.12
402.406	519.12
402.63	527.12
402.854	533.12
403.078	560.12
403.302	551.12
403.526	539.12
403.75	549.12
403.974	556.12
404.198	542.12
404.422	565.12
404.645	569.12
404.869	596.12
405.093	588.12
405.317	655.12
405.541	700.12
405.765	599.12
405.988	602.12
406.212	572.12
406.436	598.12
406.66	623.12
406.883	607.12
407.107	652.12
407.331	677.12
407.555	704.12
407.778	716.12
408.002	668.12
408.226	626.12
408.449	603.12
408.673	589.12
408.896	629.12
409.12	682.12
409.344	638.12
409.567	581.12
409.791	570.12
410.014	570.12
410.238	533.12
410.461	551.12
410.685	558.12
410.908	578.12
411.132	628.12
411.355	647.12
411.578	633.12
411.802	581.12
412.025	564.12
412.249	576.12
412.472	601.12
412.695	629.12
412.919	620.12
413.142	581.12
413.365	550.12
413.589	571.12
413.812	534.12
414.035	534.12
414.258	540.12
414.482	521.12
414.705	512.12
414.928	516.12
415.151	534.12
415.374	500.12
415.597	505.12
415.821	518.12
416.044	555.12
416.267	519.12
416.49	535.12
416.713	500.12
416.936	504.12
417.159	549.12
417.382	532.12
417.605	512.12
417.828	551.12
418.051	565.12
418.274	536.12
418.497	543.12
418.72	540.12
418.943	538.12
419.166	566.12
419.389	556.12
419.611	560.12
419.834	575.12
420.057	546.12
420.28	599.12
420.503	572.12
420.726	556.12
420.948	585.12
421.171	622.12
421.394	662.12
421.617	584.12
421.839	580.12
422.062	585.12
422.285	551.12
422.507	666.12
422.73	729.12
422.953	717.12
423.175	603.12
423.398	591.12
423.621	582.12
423.843	615.12
424.066	610.12
424.288	641.12
424.511	620.12
424.733	672.12
424.956	771.12
425.178	754.12
425.401	723.12
425.623	764.12
425.846	648.12
426.068	621.12
426.291	619.12
426.513	605.12
426.735	638.12
426.958	683.12
427.18	744.12
427.402	926.12
427.625	957.12
427.847	883.12
428.069	793.12
428.292	680.12
428.514	620.12
428.736	616.12
428.958	611.12
429.181	585.12
429.403	589.12
429.625	597.12
429.847	619.12
430.069	703.12
430.292	695.12
430.514	618.12
430.736	574.12
430.958	549.12
431.18	575.12
431.402	555.12
431.624	516.12
431.846	550.12
432.068	520.12
432.29	524.12
432.512	533.12
432.734	542.12
432.956	539.12
433.178	540.12
433.4	558.12
433.622	550.12
433.844	535.12
434.066	525.12
434.287	536.12
434.509	534.12
434.731	538.12
434.953	567.12
435.175	576.12
435.397	597.12
435.618	597.12
435.84	686.12
436.062	766.12
436.284	832.12
436.505	735.12
436.727	633.12
436.949	606.12
437.17	575.12
437.392	576.12
437.614	608.12
437.835	622.12
438.057	741.12
438.278	875.12
438.5	839.12
438.721	917.12
438.943	867.12
439.165	719.12
439.386	637.12
439.608	641.12
439.829	653.12
440.05	692.12
440.272	703.12
440.493	671.12
440.715	613.12
440.936	615.12
441.158	583.12
441.379	583.12
441.6	607.12
441.822	613.12
442.043	652.12
442.264	778.12
442.486	797.12
442.707	675.12
442.928	656.12
443.149	631.12
443.371	663.12
443.592	715.12
443.813	818.12
444.034	865.12
444.255	751.12
444.476	652.12
444.698	620.12
444.919	614.12
445.14	711.12
445.361	670.12
445.582	664.12
445.803	724.12
446.024	857.12
446.245	873.12
446.466	791.12
446.687	690.12
446.908	644.12
447.129	598.12
447.35	574.12
447.571	602.12
447.792	599.12
448.013	571.12
448.234	607.12
448.455	650.12
448.675	765.12
448.896	906.12
449.117	792.12
449.338	751.12
449.559	831.12
449.779	928.12
450	750.12
450.221	632.12
450.442	589.12
450.662	580.12
450.883	596.12
451.104	603.12
451.324	595.12
451.545	596.12
451.766	567.12
451.986	532.12
452.207	542.12
452.428	532.12
452.648	538.12
452.869	527.12
453.089	544.12
453.31	560.12
453.53	524.12
453.751	527.12
453.971	550.12
454.192	550.12
454.412	556.12
454.633	531.12
454.853	519.12
455.073	507.12
455.294	574.12
455.514	640.12
455.734	599.12
455.955	539.12
456.175	494.12
456.395	485.12
456.616	468.12
456.836	466.12
457.056	479.12
457.276	482.12
457.497	498.12
457.717	489.12
457.937	476.12
458.157	500.12
458.377	493.12
458.598	539.12
458.818	616.12
459.038	681.12
459.258	706.12
459.478	592.12
459.698	556.12
459.918	541.12
460.138	536.12
460.358	533.12
460.578	514.12
460.798	521.12
461.018	536.12
461.238	498.12
461.458	533.12
461.678	517.12
461.898	526.12
462.118	540.12
462.338	520.12
462.558	550.12
462.777	524.12
462.997	578.12
463.217	568.12
463.437	557.12
463.657	556.12
463.876	557.12
464.096	582.12
464.316	564.12
464.536	559.12
464.755	582.12
464.975	564.12
465.195	638.12
465.414	732.12
465.634	627.12
465.854	600.12
466.073	576.12
466.293	532.12
466.512	529.12
466.732	504.12
466.951	522.12
467.171	517.12
467.391	549.12
467.61	538.12
467.829	559.12
468.049	548.12
468.268	540.12
468.488	537.12
468.707	516.12
468.927	516.12
469.146	493.12
469.365	485.12
469.585	525.12
469.804	536.12
470.023	557.12
470.243	529.12
470.462	538.12
470.681	570.12
470.901	581.12
471.12	541.12
471.339	550.12
471.558	549.12
471.777	562.12
471.997	506.12
472.216	546.12
472.435	595.12
472.654	565.12
472.873	561.12
473.092	525.12
473.311	537.12
473.53	534.12
473.749	556.12
473.968	628.12
474.187	710.12
474.406	720.12
474.625	614.12
474.844	555.12
475.063	536.12
475.282	570.12
475.501	568.12
475.72	550.12
475.939	536.12
476.158	541.12
476.377	558.12
476.596	559.12
476.814	576.12
477.033	558.12
477.252	577.12
477.471	578.12
477.69	563.12
477.908	587.12
478.127	604.12
478.346	590.12
478.564	614.12
478.783	588.12
479.002	636.12
479.22	636.12
479.439	634.12
479.658	635.12
479.876	653.12
480.095	668.12
480.313	690.12
480.532	694.12
480.751	674.12
480.969	675.12
481.188	747.12
481.406	804.12
481.624	726.12
481.843	679.12
482.061	645.12
482.28	640.12
482.498	646.12
482.717	620.12
482.935	644.12
483.153	644.12
483.372	642.12
483.59	649.12
483.808	634.12
484.027	663.12
484.245	653.12
484.463	626.12
484.681	646.12
484.9	659.12
485.118	654.12
485.336	675.12
485.554	660.12
485.772	668.12
485.99	664.12
486.209	677.12
486.427	673.12
486.645	687.12
486.863	710.12
487.081	712.12
487.299	717.12
487.517	706.12
487.735	687.12
487.953	684.12
488.171	695.12
488.389	681.12
488.607	711.12
488.825	683.12
489.043	687.12
489.261	732.12
489.479	728.12
489.696	726.12
489.914	731.12
490.132	719.12
490.35	741.12
490.568	723.12
490.786	734.12
491.003	809.12
491.221	798.12
491.439	791.12
491.657	801.12
491.874	826.12
492.092	828.12
492.31	814.12
492.527	818.12
492.745	827.12
492.963	847.12
493.18	835.12
493.398	851.12
493.615	863.12
493.833	836.12
494.05	838.12
494.268	840.12
494.485	823.12
494.703	858.12
494.92	837.12
495.138	867.12
495.355	822.12
495.573	853.12
495.79	862.12
496.008	842.12
496.225	879.12
496.442	848.12
496.66	886.12
496.877	840.12
497.094	834.12
497.312	870.12
497.529	854.12
497.746	865.12
497.963	894.12
498.181	908.12
498.398	887.12
498.615	909.12
498.832	900.12
499.049	933.12
499.267	929.12
499.484	954.12
499.701	957.12
499.918	975.12
500.135	1008.12
500.352	1011.12
500.569	1039.12
500.786	1035.12
501.003	1059.12
501.22	1019.12
501.437	1046.12
501.654	1004.12
501.871	993.12
