Data from 1970.PennyLincolnUp.Lamp.En5.5.200Scan.071719.P1._HRD10591_15-16-05-841.txt Node
Date: Thu Jul 18 15:16:05 EDT 2019
User: cochatt
Spectrometer: HR+D1059
Trigger mode: 1
Integration Time (sec): 1.000000E-1
Scans to average: 1
Electric dark correction enabled: true
Nonlinearity correction enabled: false
Boxcar width: 0
XAxis mode: Wavelengths
Number of Pixels in Spectrum: 2048
>>>>>Begin Spectral Data<<<<<
223.165	-19.69
223.4	-19.69
223.635	-19.69
223.869	-15.69
224.104	-23.69
224.338	-18.69
224.573	-13.69
224.808	-19.69
225.042	-2.69
225.277	-2.69
225.511	2.31
225.746	3.31
225.98	5.31
226.215	17.31
226.449	20.31
226.683	6.31
226.918	34.31
227.152	27.31
227.387	39.31
227.621	45.31
227.856	32.31
228.09	43.31
228.324	50.31
228.559	44.31
228.793	60.31
229.027	123.31
229.262	111.31
229.496	134.31
229.73	145.31
229.964	177.31
230.199	142.31
230.433	131.31
230.667	136.31
230.901	133.31
231.136	120.31
231.37	119.31
231.604	113.31
231.838	119.31
232.072	106.31
232.306	110.31
232.541	108.31
232.775	109.31
233.009	119.31
233.243	125.31
233.477	130.31
233.711	124.31
233.945	133.31
234.179	131.31
234.413	130.31
234.647	143.31
234.881	127.31
235.115	124.31
235.349	131.31
235.583	129.31
235.817	133.31
236.051	129.31
236.285	123.31
236.519	143.31
236.753	151.31
236.987	153.31
237.221	202.31
237.455	246.31
237.689	204.31
237.922	148.31
238.156	143.31
238.39	155.31
238.624	130.31
238.858	132.31
239.091	118.31
239.325	125.31
239.559	147.31
239.793	140.31
240.027	126.31
240.26	181.31
240.494	191.31
240.728	176.31
240.961	180.31
241.195	170.31
241.429	144.31
241.662	154.31
241.896	137.31
242.13	144.31
242.363	131.31
242.597	154.31
242.83	155.31
243.064	151.31
243.298	154.31
243.531	159.31
243.765	150.31
243.998	143.31
244.232	153.31
244.465	138.31
244.699	153.31
244.932	161.31
245.166	164.31
245.399	172.31
245.633	168.31
245.866	163.31
246.099	166.31
246.333	148.31
246.566	147.31
246.8	170.31
247.033	162.31
247.266	161.31
247.5	171.31
247.733	182.31
247.966	201.31
248.2	184.31
248.433	181.31
248.666	191.31
248.899	206.31
249.133	215.31
249.366	243.31
249.599	238.31
249.832	209.31
250.066	216.31
250.299	214.31
250.532	227.31
250.765	224.31
250.998	240.31
251.231	263.31
251.465	246.31
251.698	230.31
251.931	233.31
252.164	231.31
252.397	227.31
252.63	234.31
252.863	251.31
253.096	261.31
253.329	246.31
253.562	259.31
253.795	248.31
254.028	236.31
254.261	250.31
254.494	262.31
254.727	294.31
254.96	305.31
255.193	297.31
255.426	285.31
255.659	265.31
255.892	252.31
256.124	277.31
256.357	276.31
256.59	248.31
256.823	245.31
257.056	249.31
257.289	258.31
257.521	236.31
257.754	237.31
257.987	223.31
258.22	242.31
258.452	214.31
258.685	236.31
258.918	252.31
259.151	222.31
259.383	246.31
259.616	244.31
259.849	245.31
260.081	255.31
260.314	271.31
260.547	274.31
260.779	268.31
261.012	250.31
261.244	251.31
261.477	262.31
261.71	237.31
261.942	259.31
262.175	280.31
262.407	250.31
262.64	242.31
262.872	240.31
263.105	217.31
263.337	231.31
263.57	218.31
263.802	242.31
264.035	219.31
264.267	233.31
264.499	245.31
264.732	219.31
264.964	232.31
265.197	227.31
265.429	231.31
265.661	218.31
265.894	207.31
266.126	221.31
266.358	231.31
266.591	226.31
266.823	241.31
267.055	251.31
267.287	243.31
267.52	230.31
267.752	224.31
267.984	247.31
268.216	249.31
268.448	245.31
268.681	229.31
268.913	262.31
269.145	278.31
269.377	286.31
269.609	311.31
269.841	293.31
270.073	300.31
270.306	312.31
270.538	343.31
270.77	342.31
271.002	324.31
271.234	325.31
271.466	340.31
271.698	327.31
271.93	339.31
272.162	363.31
272.394	347.31
272.626	335.31
272.858	322.31
273.09	300.31
273.322	289.31
273.553	294.31
273.785	277.31
274.017	289.31
274.249	275.31
274.481	278.31
274.713	259.31
274.945	297.31
275.176	289.31
275.408	285.31
275.64	283.31
275.872	285.31
276.104	287.31
276.335	273.31
276.567	263.31
276.799	301.31
277.031	331.31
277.262	355.31
277.494	349.31
277.726	323.31
277.957	296.31
278.189	307.31
278.421	287.31
278.652	313.31
278.884	289.31
279.115	282.31
279.347	261.31
279.579	293.31
279.81	285.31
280.042	285.31
280.273	285.31
280.505	265.31
280.736	285.31
280.968	279.31
281.199	270.31
281.431	294.31
281.662	284.31
281.894	267.31
282.125	303.31
282.356	300.31
282.588	333.31
282.819	340.31
283.051	308.31
283.282	276.31
283.513	284.31
283.745	295.31
283.976	284.31
284.207	299.31
284.439	278.31
284.67	288.31
284.901	299.31
285.132	284.31
285.364	261.31
285.595	283.31
285.826	282.31
286.057	274.31
286.288	270.31
286.52	284.31
286.751	292.31
286.982	291.31
287.213	279.31
287.444	288.31
287.675	291.31
287.906	306.31
288.138	311.31
288.369	312.31
288.6	308.31
288.831	305.31
289.062	298.31
289.293	302.31
289.524	291.31
289.755	291.31
289.986	306.31
290.217	299.31
290.448	284.31
290.679	309.31
290.91	298.31
291.141	284.31
291.371	291.31
291.602	297.31
291.833	304.31
292.064	269.31
292.295	299.31
292.526	299.31
292.757	294.31
292.987	281.31
293.218	281.31
293.449	289.31
293.68	305.31
293.91	300.31
294.141	296.31
294.372	312.31
294.603	294.31
294.833	306.31
295.064	301.31
295.295	301.31
295.525	288.31
295.756	282.31
295.987	309.31
296.217	338.31
296.448	352.31
296.679	318.31
296.909	308.31
297.14	289.31
297.37	316.31
297.601	316.31
297.831	308.31
298.062	318.31
298.292	287.31
298.523	326.31
298.753	309.31
298.984	307.31
299.214	308.31
299.445	329.31
299.675	315.31
299.905	335.31
300.136	317.31
300.366	301.31
300.597	311.31
300.827	326.31
301.057	335.31
301.288	334.31
301.518	315.31
301.748	319.31
301.979	335.31
302.209	327.31
302.439	343.31
302.669	348.31
302.9	332.31
303.13	315.31
303.36	341.31
303.59	336.31
303.82	353.31
304.051	344.31
304.281	352.31
304.511	309.31
304.741	318.31
304.971	322.31
305.201	316.31
305.431	333.31
305.661	317.31
305.891	322.31
306.121	340.31
306.352	342.31
306.582	359.31
306.812	359.31
307.042	329.31
307.272	332.31
307.502	354.31
307.731	347.31
307.961	322.31
308.191	323.31
308.421	325.31
308.651	353.31
308.881	358.31
309.111	356.31
309.341	363.31
309.571	375.31
309.8	390.31
310.03	383.31
310.26	387.31
310.49	398.31
310.72	396.31
310.949	419.31
311.179	426.31
311.409	392.31
311.639	378.31
311.868	398.31
312.098	399.31
312.328	417.31
312.557	442.31
312.787	447.31
313.017	456.31
313.246	418.31
313.476	402.31
313.706	409.31
313.935	402.31
314.165	428.31
314.394	408.31
314.624	407.31
314.853	398.31
315.083	401.31
315.312	387.31
315.542	385.31
315.771	394.31
316.001	380.31
316.23	391.31
316.46	387.31
316.689	398.31
316.919	407.31
317.148	411.31
317.377	430.31
317.607	424.31
317.836	406.31
318.065	402.31
318.295	400.31
318.524	385.31
318.753	393.31
318.983	386.31
319.212	405.31
319.441	419.31
319.67	427.31
319.9	399.31
320.129	395.31
320.358	404.31
320.587	415.31
320.816	433.31
321.046	436.31
321.275	444.31
321.504	440.31
321.733	416.31
321.962	430.31
322.191	457.31
322.42	484.31
322.649	489.31
322.878	491.31
323.108	518.31
323.337	544.31
323.566	571.31
323.795	621.31
324.024	664.31
324.253	846.31
324.482	1197.31
324.71	1825.31
324.939	2618.31
325.168	2278.31
325.397	1203.31
325.626	807.31
325.855	644.31
326.084	608.31
326.313	586.31
326.542	581.31
326.77	628.31
326.999	779.31
327.228	1079.31
327.457	1607.31
327.686	1964.31
327.914	1321.31
328.143	860.31
328.372	764.31
328.6	700.31
328.829	681.31
329.058	686.31
329.287	724.31
329.515	641.31
329.744	602.31
329.972	594.31
330.201	625.31
330.43	679.31
330.658	710.31
330.887	711.31
331.115	683.31
331.344	589.31
331.572	556.31
331.801	570.31
332.03	562.31
332.258	535.31
332.486	495.31
332.715	482.31
332.943	494.31
333.172	478.31
333.4	472.31
333.629	505.31
333.857	519.31
334.085	518.31
334.314	555.31
334.542	609.31
334.771	613.31
334.999	542.31
335.227	516.31
335.455	510.31
335.684	483.31
335.912	473.31
336.14	457.31
336.369	455.31
336.597	488.31
336.825	506.31
337.053	474.31
337.281	471.31
337.51	456.31
337.738	458.31
337.966	451.31
338.194	465.31
338.422	481.31
338.65	483.31
338.878	469.31
339.106	447.31
339.334	469.31
339.562	452.31
339.79	453.31
340.018	449.31
340.246	455.31
340.474	462.31
340.702	476.31
340.93	461.31
341.158	451.31
341.386	452.31
341.614	451.31
341.842	466.31
342.07	456.31
342.298	429.31
342.526	458.31
342.754	417.31
342.981	434.31
343.209	436.31
343.437	444.31
343.665	454.31
343.893	444.31
344.12	451.31
344.348	432.31
344.576	466.31
344.804	462.31
345.031	483.31
345.259	473.31
345.487	467.31
345.714	469.31
345.942	468.31
346.17	447.31
346.397	453.31
346.625	440.31
346.853	457.31
347.08	434.31
347.308	452.31
347.535	476.31
347.763	495.31
347.99	474.31
348.218	470.31
348.445	472.31
348.673	469.31
348.9	468.31
349.128	435.31
349.355	440.31
349.583	443.31
349.81	463.31
350.037	435.31
350.265	444.31
350.492	446.31
350.72	445.31
350.947	432.31
351.174	451.31
351.402	474.31
351.629	475.31
351.856	464.31
352.083	460.31
352.311	470.31
352.538	500.31
352.765	488.31
352.992	489.31
353.22	484.31
353.447	459.31
353.674	445.31
353.901	450.31
354.128	422.31
354.355	421.31
354.583	418.31
354.81	430.31
355.037	421.31
355.264	433.31
355.491	397.31
355.718	407.31
355.945	417.31
356.172	416.31
356.399	420.31
356.626	402.31
356.853	413.31
357.08	409.31
357.307	417.31
357.534	407.31
357.761	412.31
357.988	431.31
358.215	417.31
358.441	405.31
358.668	432.31
358.895	401.31
359.122	432.31
359.349	445.31
359.576	468.31
359.802	490.31
360.029	530.31
360.256	539.31
360.483	511.31
360.709	467.31
360.936	473.31
361.163	460.31
361.39	452.31
361.616	473.31
361.843	448.31
362.07	446.31
362.296	445.31
362.523	439.31
362.749	446.31
362.976	465.31
363.203	445.31
363.429	437.31
363.656	450.31
363.882	451.31
364.109	440.31
364.335	417.31
364.562	442.31
364.788	446.31
365.015	451.31
365.241	428.31
365.468	415.31
365.694	433.31
365.92	438.31
366.147	439.31
366.373	448.31
366.599	421.31
366.826	430.31
367.052	425.31
367.278	392.31
367.505	414.31
367.731	439.31
367.957	438.31
368.184	428.31
368.41	454.31
368.636	455.31
368.862	462.31
369.089	446.31
369.315	423.31
369.541	433.31
369.767	447.31
369.993	437.31
370.219	421.31
370.445	430.31
370.672	444.31
370.898	424.31
371.124	407.31
371.35	421.31
371.576	431.31
371.802	457.31
372.028	397.31
372.254	421.31
372.48	413.31
372.706	425.31
372.932	411.31
373.158	431.31
373.384	423.31
373.61	427.31
373.835	435.31
374.061	418.31
374.287	429.31
374.513	423.31
374.739	440.31
374.965	418.31
375.191	420.31
375.416	429.31
375.642	427.31
375.868	432.31
376.094	428.31
376.319	417.31
376.545	437.31
376.771	427.31
376.997	416.31
377.222	413.31
377.448	435.31
377.674	421.31
377.899	417.31
378.125	424.31
378.35	426.31
378.576	439.31
378.802	418.31
379.027	447.31
379.253	417.31
379.478	405.31
379.704	419.31
379.929	437.31
380.155	417.31
380.38	423.31
380.606	436.31
380.831	435.31
381.057	434.31
381.282	421.31
381.507	417.31
381.733	436.31
381.958	453.31
382.184	427.31
382.409	437.31
382.634	447.31
382.86	435.31
383.085	428.31
383.31	447.31
383.535	423.31
383.761	422.31
383.986	452.31
384.211	449.31
384.436	468.31
384.662	455.31
384.887	451.31
385.112	457.31
385.337	427.31
385.562	453.31
385.787	477.31
386.013	477.31
386.238	473.31
386.463	461.31
386.688	455.31
386.913	472.31
387.138	456.31
387.363	443.31
387.588	453.31
387.813	457.31
388.038	454.31
388.263	467.31
388.488	457.31
388.713	468.31
388.938	446.31
389.163	471.31
389.387	447.31
389.612	472.31
389.837	490.31
390.062	437.31
390.287	458.31
390.512	453.31
390.736	454.31
390.961	449.31
391.186	462.31
391.411	471.31
391.636	441.31
391.86	446.31
392.085	473.31
392.31	471.31
392.534	463.31
392.759	472.31
392.984	473.31
393.208	462.31
393.433	457.31
393.658	473.31
393.882	455.31
394.107	457.31
394.331	470.31
394.556	446.31
394.78	458.31
395.005	460.31
395.229	453.31
395.454	457.31
395.678	494.31
395.903	484.31
396.127	526.31
396.352	520.31
396.576	499.31
396.801	481.31
397.025	479.31
397.249	500.31
397.474	472.31
397.698	484.31
397.922	516.31
398.147	537.31
398.371	553.31
398.595	532.31
398.82	515.31
399.044	502.31
399.268	539.31
399.492	572.31
399.717	577.31
399.941	603.31
400.165	662.31
400.389	662.31
400.613	592.31
400.837	573.31
401.062	546.31
401.286	542.31
401.51	536.31
401.734	528.31
401.958	526.31
402.182	554.31
402.406	547.31
402.63	545.31
402.854	545.31
403.078	540.31
403.302	548.31
403.526	535.31
403.75	538.31
403.974	549.31
404.198	545.31
404.422	540.31
404.645	578.31
404.869	567.31
405.093	576.31
405.317	634.31
405.541	678.31
405.765	641.31
405.988	587.31
406.212	582.31
406.436	619.31
406.66	652.31
406.883	619.31
407.107	610.31
407.331	666.31
407.555	737.31
407.778	710.31
408.002	689.31
408.226	622.31
408.449	586.31
408.673	635.31
408.896	642.31
409.12	677.31
409.344	651.31
409.567	620.31
409.791	561.31
410.014	577.31
410.238	563.31
410.461	566.31
410.685	581.31
410.908	598.31
411.132	618.31
411.355	643.31
411.578	614.31
411.802	555.31
412.025	553.31
412.249	579.31
412.472	621.31
412.695	652.31
412.919	648.31
413.142	599.31
413.365	561.31
413.589	571.31
413.812	549.31
414.035	532.31
414.258	554.31
414.482	529.31
414.705	556.31
414.928	525.31
415.151	531.31
415.374	527.31
415.597	533.31
415.821	515.31
416.044	549.31
416.267	537.31
416.49	534.31
416.713	507.31
416.936	555.31
417.159	523.31
417.382	518.31
417.605	546.31
417.828	564.31
418.051	581.31
418.274	575.31
418.497	554.31
418.72	532.31
418.943	547.31
419.166	561.31
419.389	561.31
419.611	576.31
419.834	562.31
420.057	581.31
420.28	579.31
420.503	555.31
420.726	585.31
420.948	598.31
421.171	628.31
421.394	667.31
421.617	591.31
421.839	574.31
422.062	591.31
422.285	595.31
422.507	639.31
422.73	734.31
422.953	716.31
423.175	645.31
423.398	597.31
423.621	633.31
423.843	612.31
424.066	633.31
424.288	623.31
424.511	635.31
424.733	705.31
424.956	775.31
425.178	751.31
425.401	753.31
425.623	786.31
425.846	677.31
426.068	647.31
426.291	638.31
426.513	623.31
426.735	657.31
426.958	701.31
427.18	763.31
427.402	890.31
427.625	1037.31
427.847	921.31
428.069	785.31
428.292	704.31
428.514	650.31
428.736	618.31
428.958	603.31
429.181	607.31
429.403	591.31
429.625	592.31
429.847	649.31
430.069	686.31
430.292	712.31
430.514	598.31
430.736	599.31
430.958	578.31
431.18	582.31
431.402	552.31
431.624	572.31
431.846	510.31
432.068	539.31
432.29	569.31
432.512	551.31
432.734	556.31
432.956	569.31
433.178	587.31
433.4	566.31
433.622	565.31
433.844	540.31
434.066	527.31
434.287	543.31
434.509	549.31
434.731	585.31
434.953	561.31
435.175	599.31
435.397	626.31
435.618	627.31
435.84	694.31
436.062	781.31
436.284	835.31
436.505	716.31
436.727	652.31
436.949	622.31
437.17	577.31
437.392	581.31
437.614	602.31
437.835	674.31
438.057	761.31
438.278	882.31
438.5	883.31
438.721	947.31
438.943	904.31
439.165	739.31
439.386	679.31
439.608	669.31
439.829	662.31
440.05	686.31
440.272	717.31
440.493	686.31
440.715	646.31
440.936	612.31
441.158	587.31
441.379	600.31
441.6	622.31
441.822	632.31
442.043	681.31
442.264	775.31
442.486	809.31
442.707	693.31
442.928	683.31
443.149	635.31
443.371	685.31
443.592	715.31
443.813	859.31
444.034	895.31
444.255	759.31
444.476	659.31
444.698	639.31
444.919	635.31
445.14	789.31
445.361	725.31
445.582	681.31
445.803	769.31
446.024	872.31
446.245	874.31
446.466	853.31
446.687	699.31
446.908	661.31
447.129	638.31
447.35	595.31
447.571	587.31
447.792	598.31
448.013	581.31
448.234	622.31
448.455	700.31
448.675	809.31
448.896	923.31
449.117	779.31
449.338	748.31
449.559	857.31
449.779	938.31
450	784.31
450.221	654.31
450.442	606.31
450.662	588.31
450.883	607.31
451.104	631.31
451.324	626.31
451.545	579.31
451.766	541.31
451.986	533.31
452.207	546.31
452.428	538.31
452.648	520.31
452.869	528.31
453.089	525.31
453.31	584.31
453.53	550.31
453.751	522.31
453.971	533.31
454.192	583.31
454.412	550.31
454.633	524.31
454.853	529.31
455.073	521.31
455.294	572.31
455.514	667.31
455.734	638.31
455.955	532.31
456.175	514.31
456.395	486.31
456.616	501.31
456.836	515.31
457.056	484.31
457.276	467.31
457.497	492.31
457.717	495.31
457.937	494.31
458.157	486.31
458.377	518.31
458.598	561.31
458.818	605.31
459.038	718.31
459.258	753.31
459.478	625.31
459.698	565.31
459.918	531.31
460.138	525.31
460.358	530.31
460.578	552.31
460.798	530.31
461.018	542.31
461.238	533.31
461.458	540.31
461.678	555.31
461.898	550.31
462.118	549.31
462.338	563.31
462.558	557.31
462.777	542.31
462.997	585.31
463.217	544.31
463.437	555.31
463.657	563.31
463.876	566.31
464.096	548.31
464.316	561.31
464.536	585.31
464.755	585.31
464.975	581.31
465.195	639.31
465.414	785.31
465.634	674.31
465.854	619.31
466.073	589.31
466.293	585.31
466.512	553.31
466.732	528.31
466.951	518.31
467.171	541.31
467.391	562.31
467.61	539.31
467.829	560.31
468.049	547.31
468.268	574.31
468.488	531.31
468.707	563.31
468.927	547.31
469.146	527.31
469.365	548.31
469.585	538.31
469.804	546.31
470.023	572.31
470.243	550.31
470.462	567.31
470.681	580.31
470.901	592.31
471.12	575.31
471.339	549.31
471.558	569.31
471.777	569.31
471.997	538.31
472.216	538.31
472.435	605.31
472.654	608.31
472.873	552.31
473.092	554.31
473.311	527.31
473.53	559.31
473.749	558.31
473.968	586.31
474.187	748.31
474.406	750.31
474.625	619.31
474.844	593.31
475.063	567.31
475.282	563.31
475.501	554.31
475.72	558.31
475.939	582.31
476.158	565.31
476.377	591.31
476.596	567.31
476.814	596.31
477.033	578.31
477.252	594.31
477.471	604.31
477.69	592.31
477.908	589.31
478.127	600.31
478.346	597.31
478.564	608.31
478.783	599.31
479.002	614.31
479.22	607.31
479.439	648.31
479.658	627.31
479.876	676.31
480.095	691.31
480.313	711.31
480.532	700.31
480.751	682.31
480.969	673.31
481.188	776.31
481.406	854.31
481.624	742.31
481.843	702.31
482.061	666.31
482.28	634.31
482.498	652.31
482.717	644.31
482.935	649.31
483.153	661.31
483.372	674.31
483.59	655.31
483.808	646.31
484.027	665.31
484.245	636.31
484.463	659.31
484.681	651.31
484.9	686.31
485.118	669.31
485.336	648.31
485.554	685.31
485.772	683.31
485.99	687.31
486.209	678.31
486.427	702.31
486.645	705.31
486.863	731.31
487.081	718.31
487.299	715.31
487.517	709.31
487.735	719.31
487.953	712.31
488.171	742.31
488.389	709.31
488.607	702.31
488.825	689.31
489.043	697.31
489.261	731.31
489.479	723.31
489.696	735.31
489.914	716.31
490.132	757.31
490.35	769.31
490.568	760.31
490.786	767.31
491.003	783.31
491.221	811.31
491.439	792.31
491.657	817.31
491.874	851.31
492.092	827.31
492.31	846.31
492.527	844.31
492.745	859.31
492.963	865.31
493.18	874.31
493.398	875.31
493.615	855.31
493.833	866.31
494.05	855.31
494.268	891.31
494.485	865.31
494.703	861.31
494.92	876.31
495.138	878.31
495.355	867.31
495.573	868.31
495.79	853.31
496.008	851.31
496.225	859.31
496.442	858.31
496.66	855.31
496.877	864.31
497.094	863.31
497.312	875.31
497.529	916.31
497.746	887.31
497.963	901.31
498.181	914.31
498.398	910.31
498.615	922.31
498.832	941.31
499.049	946.31
499.267	967.31
499.484	972.31
499.701	966.31
499.918	965.31
500.135	1032.31
500.352	1065.31
500.569	1062.31
500.786	1055.31
501.003	1047.31
501.22	1058.31
501.437	1002.31
501.654	1021.31
