Data from 1970.PennyLincolnUp.Lamp.En5.5.200Scan.071719.P1._HRD10591_15-14-54-842.txt Node
Date: Thu Jul 18 15:14:54 EDT 2019
User: cochatt
Spectrometer: HR+D1059
Trigger mode: 1
Integration Time (sec): 1.000000E-1
Scans to average: 1
Electric dark correction enabled: true
Nonlinearity correction enabled: false
Boxcar width: 0
XAxis mode: Wavelengths
Number of Pixels in Spectrum: 2048
>>>>>Begin Spectral Data<<<<<
223.165	-12.38
223.4	-12.38
223.635	-12.38
223.869	-27.38
224.104	-19.38
224.338	-16.38
224.573	-15.38
224.808	-14.38
225.042	-7.38
225.277	1.62
225.511	0.62
225.746	0.62
225.98	-2.38
226.215	13.62
226.449	17.62
226.683	25.62
226.918	25.62
227.152	29.62
227.387	34.62
227.621	40.62
227.856	53.62
228.09	47.62
228.324	41.62
228.559	59.62
228.793	81.62
229.027	109.62
229.262	104.62
229.496	124.62
229.73	137.62
229.964	182.62
230.199	159.62
230.433	125.62
230.667	137.62
230.901	134.62
231.136	126.62
231.37	120.62
231.604	120.62
231.838	126.62
232.072	119.62
232.306	119.62
232.541	123.62
232.775	105.62
233.009	125.62
233.243	125.62
233.477	115.62
233.711	135.62
233.945	103.62
234.179	117.62
234.413	129.62
234.647	127.62
234.881	119.62
235.115	115.62
235.349	128.62
235.583	157.62
235.817	135.62
236.051	133.62
236.285	133.62
236.519	134.62
236.753	124.62
236.987	167.62
237.221	209.62
237.455	273.62
237.689	210.62
237.922	163.62
238.156	142.62
238.39	140.62
238.624	145.62
238.858	146.62
239.091	135.62
239.325	136.62
239.559	141.62
239.793	136.62
240.027	139.62
240.26	159.62
240.494	183.62
240.728	157.62
240.961	179.62
241.195	162.62
241.429	175.62
241.662	151.62
241.896	162.62
242.13	142.62
242.363	149.62
242.597	145.62
242.83	140.62
243.064	150.62
243.298	151.62
243.531	152.62
243.765	143.62
243.998	159.62
244.232	160.62
244.465	158.62
244.699	156.62
244.932	159.62
245.166	145.62
245.399	155.62
245.633	165.62
245.866	158.62
246.099	168.62
246.333	149.62
246.566	156.62
246.8	174.62
247.033	158.62
247.266	173.62
247.5	170.62
247.733	185.62
247.966	186.62
248.2	198.62
248.433	183.62
248.666	183.62
248.899	181.62
249.133	211.62
249.366	248.62
249.599	213.62
249.832	210.62
250.066	199.62
250.299	207.62
250.532	206.62
250.765	236.62
250.998	250.62
251.231	255.62
251.465	245.62
251.698	233.62
251.931	235.62
252.164	226.62
252.397	229.62
252.63	230.62
252.863	236.62
253.096	248.62
253.329	259.62
253.562	272.62
253.795	261.62
254.028	234.62
254.261	227.62
254.494	262.62
254.727	292.62
254.96	298.62
255.193	296.62
255.426	278.62
255.659	272.62
255.892	274.62
256.124	256.62
256.357	266.62
256.59	270.62
256.823	245.62
257.056	243.62
257.289	239.62
257.521	236.62
257.754	238.62
257.987	226.62
258.22	231.62
258.452	226.62
258.685	238.62
258.918	217.62
259.151	224.62
259.383	240.62
259.616	243.62
259.849	240.62
260.081	255.62
260.314	283.62
260.547	291.62
260.779	281.62
261.012	258.62
261.244	263.62
261.477	239.62
261.71	227.62
261.942	240.62
262.175	261.62
262.407	250.62
262.64	237.62
262.872	239.62
263.105	226.62
263.337	257.62
263.57	221.62
263.802	226.62
264.035	216.62
264.267	220.62
264.499	248.62
264.732	227.62
264.964	231.62
265.197	242.62
265.429	228.62
265.661	221.62
265.894	237.62
266.126	221.62
266.358	235.62
266.591	233.62
266.823	245.62
267.055	241.62
267.287	243.62
267.52	257.62
267.752	238.62
267.984	252.62
268.216	237.62
268.448	240.62
268.681	253.62
268.913	271.62
269.145	270.62
269.377	291.62
269.609	281.62
269.841	287.62
270.073	277.62
270.306	323.62
270.538	347.62
270.77	366.62
271.002	327.62
271.234	342.62
271.466	319.62
271.698	362.62
271.93	369.62
272.162	349.62
272.394	348.62
272.626	341.62
272.858	310.62
273.09	315.62
273.322	289.62
273.553	280.62
273.785	279.62
274.017	292.62
274.249	274.62
274.481	274.62
274.713	270.62
274.945	285.62
275.176	276.62
275.408	279.62
275.64	275.62
275.872	271.62
276.104	283.62
276.335	295.62
276.567	283.62
276.799	304.62
277.031	321.62
277.262	333.62
277.494	346.62
277.726	326.62
277.957	286.62
278.189	269.62
278.421	297.62
278.652	276.62
278.884	279.62
279.115	286.62
279.347	280.62
279.579	273.62
279.81	265.62
280.042	271.62
280.273	274.62
280.505	294.62
280.736	275.62
280.968	263.62
281.199	254.62
281.431	273.62
281.662	285.62
281.894	270.62
282.125	262.62
282.356	299.62
282.588	336.62
282.819	313.62
283.051	282.62
283.282	287.62
283.513	281.62
283.745	275.62
283.976	287.62
284.207	295.62
284.439	272.62
284.67	277.62
284.901	275.62
285.132	293.62
285.364	291.62
285.595	275.62
285.826	275.62
286.057	269.62
286.288	285.62
286.52	293.62
286.751	261.62
286.982	280.62
287.213	280.62
287.444	276.62
287.675	286.62
287.906	290.62
288.138	301.62
288.369	326.62
288.6	296.62
288.831	290.62
289.062	298.62
289.293	300.62
289.524	277.62
289.755	297.62
289.986	286.62
290.217	278.62
290.448	294.62
290.679	303.62
290.91	304.62
291.141	292.62
291.371	276.62
291.602	283.62
291.833	290.62
292.064	279.62
292.295	283.62
292.526	293.62
292.757	284.62
292.987	288.62
293.218	273.62
293.449	293.62
293.68	290.62
293.91	286.62
294.141	291.62
294.372	293.62
294.603	293.62
294.833	281.62
295.064	290.62
295.295	293.62
295.525	281.62
295.756	298.62
295.987	306.62
296.217	342.62
296.448	329.62
296.679	312.62
296.909	291.62
297.14	298.62
297.37	301.62
297.601	288.62
297.831	305.62
298.062	299.62
298.292	294.62
298.523	305.62
298.753	285.62
298.984	303.62
299.214	320.62
299.445	309.62
299.675	320.62
299.905	307.62
300.136	320.62
300.366	303.62
300.597	279.62
300.827	322.62
301.057	334.62
301.288	316.62
301.518	329.62
301.748	331.62
301.979	322.62
302.209	331.62
302.439	332.62
302.669	321.62
302.9	332.62
303.13	336.62
303.36	331.62
303.59	342.62
303.82	347.62
304.051	343.62
304.281	325.62
304.511	328.62
304.741	321.62
304.971	338.62
305.201	311.62
305.431	323.62
305.661	335.62
305.891	327.62
306.121	323.62
306.352	329.62
306.582	338.62
306.812	333.62
307.042	334.62
307.272	333.62
307.502	331.62
307.731	339.62
307.961	332.62
308.191	333.62
308.421	321.62
308.651	338.62
308.881	351.62
309.111	351.62
309.341	337.62
309.571	355.62
309.8	383.62
310.03	379.62
310.26	380.62
310.49	385.62
310.72	395.62
310.949	429.62
311.179	435.62
311.409	391.62
311.639	367.62
311.868	402.62
312.098	394.62
312.328	402.62
312.557	417.62
312.787	410.62
313.017	434.62
313.246	408.62
313.476	393.62
313.706	371.62
313.935	399.62
314.165	419.62
314.394	388.62
314.624	431.62
314.853	399.62
315.083	393.62
315.312	369.62
315.542	362.62
315.771	380.62
316.001	378.62
316.23	374.62
316.46	354.62
316.689	393.62
316.919	364.62
317.148	401.62
317.377	412.62
317.607	407.62
317.836	388.62
318.065	389.62
318.295	396.62
318.524	372.62
318.753	360.62
318.983	372.62
319.212	383.62
319.441	399.62
319.67	402.62
319.9	388.62
320.129	388.62
320.358	408.62
320.587	384.62
320.816	395.62
321.046	395.62
321.275	405.62
321.504	412.62
321.733	404.62
321.962	417.62
322.191	425.62
322.42	451.62
322.649	476.62
322.878	486.62
323.108	491.62
323.337	535.62
323.566	537.62
323.795	602.62
324.024	660.62
324.253	783.62
324.482	1114.62
324.71	1721.62
324.939	2487.62
325.168	2083.62
325.397	1131.62
325.626	771.62
325.855	632.62
326.084	563.62
326.313	565.62
326.542	555.62
326.77	595.62
326.999	713.62
327.228	1026.62
327.457	1553.62
327.686	1816.62
327.914	1245.62
328.143	843.62
328.372	735.62
328.6	673.62
328.829	650.62
329.058	641.62
329.287	689.62
329.515	626.62
329.744	580.62
329.972	565.62
330.201	609.62
330.43	643.62
330.658	654.62
330.887	704.62
331.115	687.62
331.344	565.62
331.572	522.62
331.801	535.62
332.03	533.62
332.258	492.62
332.486	503.62
332.715	457.62
332.943	474.62
333.172	467.62
333.4	482.62
333.629	475.62
333.857	490.62
334.085	528.62
334.314	519.62
334.542	554.62
334.771	581.62
334.999	519.62
335.227	486.62
335.455	467.62
335.684	455.62
335.912	466.62
336.14	470.62
336.369	466.62
336.597	451.62
336.825	463.62
337.053	485.62
337.281	452.62
337.51	466.62
337.738	450.62
337.966	445.62
338.194	448.62
338.422	450.62
338.65	449.62
338.878	454.62
339.106	420.62
339.334	431.62
339.562	430.62
339.79	446.62
340.018	448.62
340.246	433.62
340.474	450.62
340.702	449.62
340.93	426.62
341.158	443.62
341.386	453.62
341.614	454.62
341.842	440.62
342.07	431.62
342.298	417.62
342.526	411.62
342.754	432.62
342.981	417.62
343.209	447.62
343.437	432.62
343.665	430.62
343.893	433.62
344.12	453.62
344.348	441.62
344.576	454.62
344.804	435.62
345.031	465.62
345.259	480.62
345.487	456.62
345.714	437.62
345.942	435.62
346.17	441.62
346.397	411.62
346.625	455.62
346.853	444.62
347.08	432.62
347.308	440.62
347.535	447.62
347.763	458.62
347.99	443.62
348.218	459.62
348.445	441.62
348.673	462.62
348.9	457.62
349.128	415.62
349.355	431.62
349.583	437.62
349.81	400.62
350.037	431.62
350.265	440.62
350.492	429.62
350.72	429.62
350.947	438.62
351.174	454.62
351.402	462.62
351.629	449.62
351.856	465.62
352.083	460.62
352.311	465.62
352.538	437.62
352.765	463.62
352.992	453.62
353.22	455.62
353.447	432.62
353.674	456.62
353.901	411.62
354.128	411.62
354.355	402.62
354.583	409.62
354.81	418.62
355.037	407.62
355.264	398.62
355.491	409.62
355.718	401.62
355.945	385.62
356.172	413.62
356.399	394.62
356.626	401.62
356.853	401.62
357.08	394.62
357.307	411.62
357.534	393.62
357.761	394.62
357.988	420.62
358.215	424.62
358.441	395.62
358.668	402.62
358.895	429.62
359.122	421.62
359.349	437.62
359.576	451.62
359.802	475.62
360.029	513.62
360.256	536.62
360.483	485.62
360.709	463.62
360.936	457.62
361.163	436.62
361.39	460.62
361.616	444.62
361.843	437.62
362.07	443.62
362.296	446.62
362.523	438.62
362.749	445.62
362.976	444.62
363.203	433.62
363.429	419.62
363.656	437.62
363.882	411.62
364.109	422.62
364.335	403.62
364.562	424.62
364.788	429.62
365.015	405.62
365.241	427.62
365.468	446.62
365.694	444.62
365.92	427.62
366.147	421.62
366.373	420.62
366.599	441.62
366.826	403.62
367.052	411.62
367.278	423.62
367.505	403.62
367.731	437.62
367.957	418.62
368.184	441.62
368.41	438.62
368.636	461.62
368.862	450.62
369.089	453.62
369.315	430.62
369.541	411.62
369.767	429.62
369.993	405.62
370.219	406.62
370.445	416.62
370.672	422.62
370.898	426.62
371.124	426.62
371.35	416.62
371.576	437.62
371.802	411.62
372.028	407.62
372.254	429.62
372.48	389.62
372.706	409.62
372.932	417.62
373.158	427.62
373.384	413.62
373.61	408.62
373.835	416.62
374.061	431.62
374.287	419.62
374.513	411.62
374.739	420.62
374.965	435.62
375.191	421.62
375.416	433.62
375.642	413.62
375.868	414.62
376.094	434.62
376.319	430.62
376.545	415.62
376.771	413.62
376.997	421.62
377.222	444.62
377.448	395.62
377.674	415.62
377.899	395.62
378.125	430.62
378.35	423.62
378.576	422.62
378.802	401.62
379.027	433.62
379.253	414.62
379.478	439.62
379.704	420.62
379.929	424.62
380.155	421.62
380.38	407.62
380.606	413.62
380.831	411.62
381.057	434.62
381.282	410.62
381.507	425.62
381.733	415.62
381.958	425.62
382.184	415.62
382.409	441.62
382.634	434.62
382.86	416.62
383.085	432.62
383.31	428.62
383.535	427.62
383.761	437.62
383.986	449.62
384.211	435.62
384.436	421.62
384.662	442.62
384.887	461.62
385.112	448.62
385.337	429.62
385.562	465.62
385.787	450.62
386.013	459.62
386.238	448.62
386.463	453.62
386.688	462.62
386.913	449.62
387.138	448.62
387.363	441.62
387.588	422.62
387.813	460.62
388.038	446.62
388.263	462.62
388.488	465.62
388.713	455.62
388.938	458.62
389.163	455.62
389.387	481.62
389.612	438.62
389.837	455.62
390.062	447.62
390.287	445.62
390.512	451.62
390.736	457.62
390.961	462.62
391.186	429.62
391.411	453.62
391.636	451.62
391.86	453.62
392.085	452.62
392.31	465.62
392.534	480.62
392.759	465.62
392.984	454.62
393.208	456.62
393.433	468.62
393.658	480.62
393.882	443.62
394.107	451.62
394.331	479.62
394.556	471.62
394.78	447.62
395.005	463.62
395.229	459.62
395.454	442.62
395.678	471.62
395.903	481.62
396.127	494.62
396.352	522.62
396.576	496.62
396.801	489.62
397.025	486.62
397.249	488.62
397.474	476.62
397.698	463.62
397.922	480.62
398.147	521.62
398.371	504.62
398.595	502.62
398.82	526.62
399.044	506.62
399.268	506.62
399.492	555.62
399.717	533.62
399.941	613.62
400.165	615.62
400.389	613.62
400.613	601.62
400.837	549.62
401.062	531.62
401.286	534.62
401.51	513.62
401.734	504.62
401.958	503.62
402.182	515.62
402.406	546.62
402.63	556.62
402.854	546.62
403.078	559.62
403.302	532.62
403.526	537.62
403.75	557.62
403.974	553.62
404.198	538.62
404.422	543.62
404.645	562.62
404.869	570.62
405.093	578.62
405.317	634.62
405.541	641.62
405.765	599.62
405.988	597.62
406.212	577.62
406.436	596.62
406.66	635.62
406.883	629.62
407.107	639.62
407.331	652.62
407.555	737.62
407.778	730.62
408.002	667.62
408.226	605.62
408.449	629.62
408.673	602.62
408.896	624.62
409.12	650.62
409.344	625.62
409.567	589.62
409.791	573.62
410.014	566.62
410.238	536.62
410.461	547.62
410.685	548.62
410.908	565.62
411.132	587.62
411.355	645.62
411.578	625.62
411.802	575.62
412.025	550.62
412.249	551.62
412.472	595.62
412.695	622.62
412.919	614.62
413.142	568.62
413.365	544.62
413.589	546.62
413.812	513.62
414.035	507.62
414.258	503.62
414.482	505.62
414.705	526.62
414.928	526.62
415.151	520.62
415.374	492.62
415.597	515.62
415.821	518.62
416.044	527.62
416.267	526.62
416.49	525.62
416.713	507.62
416.936	534.62
417.159	527.62
417.382	522.62
417.605	517.62
417.828	548.62
418.051	569.62
418.274	546.62
418.497	544.62
418.72	521.62
418.943	528.62
419.166	552.62
419.389	592.62
419.611	551.62
419.834	553.62
420.057	565.62
420.28	560.62
420.503	565.62
420.726	551.62
420.948	560.62
421.171	601.62
421.394	658.62
421.617	593.62
421.839	557.62
422.062	545.62
422.285	591.62
422.507	664.62
422.73	716.62
422.953	687.62
423.175	633.62
423.398	597.62
423.621	590.62
423.843	620.62
424.066	617.62
424.288	598.62
424.511	603.62
424.733	674.62
424.956	751.62
425.178	740.62
425.401	745.62
425.623	745.62
425.846	659.62
426.068	649.62
426.291	619.62
426.513	595.62
426.735	612.62
426.958	674.62
427.18	779.62
427.402	874.62
427.625	967.62
427.847	878.62
428.069	748.62
428.292	660.62
428.514	632.62
428.736	605.62
428.958	626.62
429.181	583.62
429.403	561.62
429.625	592.62
429.847	629.62
430.069	706.62
430.292	694.62
430.514	611.62
430.736	581.62
430.958	579.62
431.18	561.62
431.402	545.62
431.624	530.62
431.846	521.62
432.068	541.62
432.29	547.62
432.512	559.62
432.734	531.62
432.956	546.62
433.178	574.62
433.4	581.62
433.622	529.62
433.844	538.62
434.066	531.62
434.287	544.62
434.509	546.62
434.731	532.62
434.953	542.62
435.175	580.62
435.397	571.62
435.618	611.62
435.84	651.62
436.062	749.62
436.284	817.62
436.505	715.62
436.727	670.62
436.949	593.62
437.17	575.62
437.392	573.62
437.614	605.62
437.835	648.62
438.057	737.62
438.278	857.62
438.5	863.62
438.721	894.62
438.943	849.62
439.165	695.62
439.386	645.62
439.608	658.62
439.829	631.62
440.05	693.62
440.272	696.62
440.493	663.62
440.715	611.62
440.936	593.62
441.158	569.62
441.379	594.62
441.6	583.62
441.822	626.62
442.043	659.62
442.264	760.62
442.486	783.62
442.707	699.62
442.928	640.62
443.149	647.62
443.371	687.62
443.592	716.62
443.813	801.62
444.034	876.62
444.255	713.62
444.476	641.62
444.698	616.62
444.919	616.62
445.14	720.62
445.361	673.62
445.582	657.62
445.803	711.62
446.024	843.62
446.245	852.62
446.466	787.62
446.687	675.62
446.908	645.62
447.129	599.62
447.35	577.62
447.571	561.62
447.792	553.62
448.013	577.62
448.234	603.62
448.455	641.62
448.675	796.62
448.896	880.62
449.117	768.62
449.338	727.62
449.559	819.62
449.779	919.62
450	781.62
450.221	629.62
450.442	597.62
450.662	577.62
450.883	585.62
451.104	610.62
451.324	583.62
451.545	579.62
451.766	550.62
451.986	530.62
452.207	517.62
452.428	526.62
452.648	505.62
452.869	532.62
453.089	539.62
453.31	529.62
453.53	543.62
453.751	529.62
453.971	539.62
454.192	543.62
454.412	555.62
454.633	537.62
454.853	512.62
455.073	509.62
455.294	542.62
455.514	649.62
455.734	611.62
455.955	525.62
456.175	537.62
456.395	486.62
456.616	502.62
456.836	495.62
457.056	473.62
457.276	468.62
457.497	507.62
457.717	487.62
457.937	480.62
458.157	490.62
458.377	501.62
458.598	523.62
458.818	614.62
459.038	682.62
459.258	725.62
459.478	609.62
459.698	559.62
459.918	541.62
460.138	521.62
460.358	519.62
460.578	522.62
460.798	535.62
461.018	549.62
461.238	531.62
461.458	514.62
461.678	508.62
461.898	526.62
462.118	514.62
462.338	530.62
462.558	524.62
462.777	535.62
462.997	553.62
463.217	536.62
463.437	562.62
463.657	531.62
463.876	557.62
464.096	554.62
464.316	558.62
464.536	561.62
464.755	573.62
464.975	577.62
465.195	647.62
465.414	723.62
465.634	647.62
465.854	594.62
466.073	558.62
466.293	550.62
466.512	525.62
466.732	528.62
466.951	535.62
467.171	517.62
467.391	526.62
467.61	540.62
467.829	543.62
468.049	554.62
468.268	539.62
468.488	521.62
468.707	525.62
468.927	519.62
469.146	506.62
469.365	489.62
469.585	505.62
469.804	518.62
470.023	556.62
470.243	519.62
470.462	535.62
470.681	545.62
470.901	547.62
471.12	557.62
471.339	529.62
471.558	554.62
471.777	557.62
471.997	543.62
472.216	552.62
472.435	579.62
472.654	563.62
472.873	523.62
473.092	536.62
473.311	547.62
473.53	528.62
473.749	562.62
473.968	584.62
474.187	695.62
474.406	745.62
474.625	605.62
474.844	570.62
475.063	563.62
475.282	535.62
475.501	544.62
475.72	551.62
475.939	547.62
476.158	567.62
476.377	542.62
476.596	557.62
476.814	574.62
477.033	568.62
477.252	583.62
477.471	568.62
477.69	569.62
477.908	593.62
478.127	578.62
478.346	573.62
478.564	580.62
478.783	596.62
479.002	597.62
479.22	616.62
479.439	622.62
479.658	658.62
479.876	645.62
480.095	631.62
480.313	670.62
480.532	655.62
480.751	658.62
480.969	682.62
481.188	745.62
481.406	816.62
481.624	711.62
481.843	702.62
482.061	675.62
482.28	649.62
482.498	647.62
482.717	644.62
482.935	645.62
483.153	635.62
483.372	665.62
483.59	662.62
483.808	641.62
484.027	622.62
484.245	655.62
484.463	663.62
484.681	635.62
484.9	640.62
485.118	661.62
485.336	657.62
485.554	681.62
485.772	684.62
485.99	663.62
486.209	665.62
486.427	666.62
486.645	687.62
486.863	702.62
487.081	701.62
487.299	698.62
487.517	697.62
487.735	694.62
487.953	708.62
488.171	703.62
488.389	687.62
488.607	711.62
488.825	703.62
489.043	711.62
489.261	723.62
489.479	705.62
489.696	702.62
489.914	701.62
490.132	711.62
490.35	713.62
490.568	714.62
490.786	757.62
491.003	734.62
491.221	787.62
491.439	813.62
491.657	823.62
491.874	782.62
492.092	808.62
492.31	799.62
492.527	815.62
492.745	823.62
492.963	818.62
493.18	817.62
493.398	833.62
493.615	851.62
493.833	838.62
494.05	845.62
494.268	838.62
494.485	863.62
494.703	851.62
494.92	863.62
495.138	869.62
495.355	838.62
495.573	831.62
495.79	843.62
496.008	812.62
496.225	827.62
496.442	832.62
496.66	849.62
496.877	846.62
497.094	858.62
497.312	845.62
497.529	849.62
497.746	878.62
497.963	879.62
498.181	903.62
498.398	882.62
498.615	901.62
498.832	913.62
499.049	923.62
499.267	908.62
499.484	943.62
499.701	933.62
499.918	960.62
500.135	983.62
500.352	1038.62
500.569	1016.62
500.786	1035.62
501.003	1036.62
501.22	1018.62
501.437	1006.62
501.654	978.62
501.871	974.62
