Data from 1970.PennyLincolnUp.Lamp.En5.5.200Scan.071719.P1._HRD10591_15-13-06-843.txt Node
Date: Thu Jul 18 15:13:06 EDT 2019
User: cochatt
Spectrometer: HR+D1059
Trigger mode: 1
Integration Time (sec): 1.000000E-1
Scans to average: 1
Electric dark correction enabled: true
Nonlinearity correction enabled: false
Boxcar width: 0
XAxis mode: Wavelengths
Number of Pixels in Spectrum: 2048
>>>>>Begin Spectral Data<<<<<
223.165	-14.94
223.4	-14.94
223.635	-14.94
223.869	-4.94
224.104	-26.94
224.338	-18.94
224.573	-13.94
224.808	-8.94
225.042	-8.94
225.277	-3.94
225.511	-0.94
225.746	0.06
225.98	-0.94
226.215	17.06
226.449	28.06
226.683	15.06
226.918	23.06
227.152	20.06
227.387	30.06
227.621	32.06
227.856	39.06
228.09	39.06
228.324	53.06
228.559	55.06
228.793	62.06
229.027	89.06
229.262	84.06
229.496	102.06
229.73	113.06
229.964	129.06
230.199	127.06
230.433	103.06
230.667	99.06
230.901	103.06
231.136	110.06
231.37	100.06
231.604	105.06
231.838	112.06
232.072	97.06
232.306	111.06
232.541	112.06
232.775	103.06
233.009	106.06
233.243	100.06
233.477	100.06
233.711	108.06
233.945	97.06
234.179	111.06
234.413	91.06
234.647	108.06
234.881	93.06
235.115	122.06
235.349	95.06
235.583	113.06
235.817	115.06
236.051	102.06
236.285	108.06
236.519	109.06
236.753	120.06
236.987	129.06
237.221	172.06
237.455	179.06
237.689	148.06
237.922	118.06
238.156	121.06
238.39	107.06
238.624	108.06
238.858	110.06
239.091	105.06
239.325	117.06
239.559	106.06
239.793	119.06
240.027	131.06
240.26	132.06
240.494	134.06
240.728	131.06
240.961	130.06
241.195	135.06
241.429	122.06
241.662	128.06
241.896	109.06
242.13	113.06
242.363	134.06
242.597	119.06
242.83	116.06
243.064	126.06
243.298	129.06
243.531	144.06
243.765	117.06
243.998	137.06
244.232	136.06
244.465	128.06
244.699	144.06
244.932	125.06
245.166	138.06
245.399	148.06
245.633	136.06
245.866	130.06
246.099	137.06
246.333	137.06
246.566	152.06
246.8	154.06
247.033	139.06
247.266	147.06
247.5	151.06
247.733	147.06
247.966	155.06
248.2	160.06
248.433	178.06
248.666	163.06
248.899	181.06
249.133	183.06
249.366	190.06
249.599	179.06
249.832	181.06
250.066	165.06
250.299	151.06
250.532	167.06
250.765	175.06
250.998	172.06
251.231	197.06
251.465	187.06
251.698	181.06
251.931	176.06
252.164	196.06
252.397	178.06
252.63	170.06
252.863	186.06
253.096	183.06
253.329	204.06
253.562	184.06
253.795	188.06
254.028	193.06
254.261	197.06
254.494	205.06
254.727	227.06
254.96	243.06
255.193	236.06
255.426	211.06
255.659	207.06
255.892	220.06
256.124	199.06
256.357	216.06
256.59	200.06
256.823	202.06
257.056	187.06
257.289	179.06
257.521	173.06
257.754	181.06
257.987	169.06
258.22	191.06
258.452	192.06
258.685	196.06
258.918	187.06
259.151	175.06
259.383	193.06
259.616	193.06
259.849	202.06
260.081	205.06
260.314	215.06
260.547	217.06
260.779	205.06
261.012	205.06
261.244	192.06
261.477	193.06
261.71	199.06
261.942	209.06
262.175	188.06
262.407	179.06
262.64	168.06
262.872	190.06
263.105	196.06
263.337	192.06
263.57	194.06
263.802	187.06
264.035	173.06
264.267	188.06
264.499	177.06
264.732	167.06
264.964	183.06
265.197	193.06
265.429	183.06
265.661	175.06
265.894	185.06
266.126	176.06
266.358	196.06
266.591	187.06
266.823	188.06
267.055	186.06
267.287	188.06
267.52	186.06
267.752	194.06
267.984	199.06
268.216	188.06
268.448	200.06
268.681	202.06
268.913	215.06
269.145	207.06
269.377	225.06
269.609	213.06
269.841	215.06
270.073	224.06
270.306	230.06
270.538	250.06
270.77	251.06
271.002	234.06
271.234	239.06
271.466	228.06
271.698	240.06
271.93	247.06
272.162	263.06
272.394	246.06
272.626	248.06
272.858	235.06
273.09	221.06
273.322	227.06
273.553	198.06
273.785	217.06
274.017	225.06
274.249	216.06
274.481	235.06
274.713	223.06
274.945	222.06
275.176	216.06
275.408	182.06
275.64	219.06
275.872	216.06
276.104	205.06
276.335	225.06
276.567	220.06
276.799	217.06
277.031	230.06
277.262	249.06
277.494	252.06
277.726	240.06
277.957	223.06
278.189	232.06
278.421	220.06
278.652	207.06
278.884	220.06
279.115	216.06
279.347	211.06
279.579	213.06
279.81	215.06
280.042	230.06
280.273	219.06
280.505	209.06
280.736	214.06
280.968	197.06
281.199	219.06
281.431	219.06
281.662	208.06
281.894	203.06
282.125	199.06
282.356	228.06
282.588	234.06
282.819	231.06
283.051	225.06
283.282	224.06
283.513	210.06
283.745	220.06
283.976	219.06
284.207	225.06
284.439	217.06
284.67	202.06
284.901	229.06
285.132	210.06
285.364	231.06
285.595	223.06
285.826	233.06
286.057	220.06
286.288	231.06
286.52	226.06
286.751	222.06
286.982	216.06
287.213	221.06
287.444	213.06
287.675	224.06
287.906	217.06
288.138	245.06
288.369	235.06
288.6	231.06
288.831	231.06
289.062	253.06
289.293	219.06
289.524	230.06
289.755	239.06
289.986	225.06
290.217	235.06
290.448	233.06
290.679	235.06
290.91	218.06
291.141	211.06
291.371	232.06
291.602	229.06
291.833	220.06
292.064	220.06
292.295	236.06
292.526	223.06
292.757	220.06
292.987	227.06
293.218	230.06
293.449	219.06
293.68	225.06
293.91	218.06
294.141	212.06
294.372	243.06
294.603	225.06
294.833	239.06
295.064	224.06
295.295	228.06
295.525	230.06
295.756	236.06
295.987	252.06
296.217	241.06
296.448	245.06
296.679	230.06
296.909	237.06
297.14	235.06
297.37	238.06
297.601	249.06
297.831	227.06
298.062	239.06
298.292	259.06
298.523	241.06
298.753	258.06
298.984	239.06
299.214	236.06
299.445	233.06
299.675	236.06
299.905	252.06
300.136	255.06
300.366	235.06
300.597	231.06
300.827	251.06
301.057	257.06
301.288	258.06
301.518	250.06
301.748	241.06
301.979	246.06
302.209	272.06
302.439	246.06
302.669	255.06
302.9	249.06
303.13	260.06
303.36	251.06
303.59	283.06
303.82	259.06
304.051	248.06
304.281	255.06
304.511	251.06
304.741	250.06
304.971	254.06
305.201	265.06
305.431	264.06
305.661	257.06
305.891	263.06
306.121	253.06
306.352	256.06
306.582	282.06
306.812	259.06
307.042	264.06
307.272	259.06
307.502	263.06
307.731	258.06
307.961	241.06
308.191	271.06
308.421	258.06
308.651	259.06
308.881	258.06
309.111	262.06
309.341	276.06
309.571	265.06
309.8	294.06
310.03	278.06
310.26	278.06
310.49	281.06
310.72	296.06
310.949	302.06
311.179	303.06
311.409	286.06
311.639	285.06
311.868	303.06
312.098	293.06
312.328	285.06
312.557	309.06
312.787	289.06
313.017	323.06
313.246	284.06
313.476	278.06
313.706	269.06
313.935	285.06
314.165	315.06
314.394	303.06
314.624	307.06
314.853	307.06
315.083	282.06
315.312	279.06
315.542	279.06
315.771	273.06
316.001	289.06
316.23	275.06
316.46	316.06
316.689	281.06
316.919	295.06
317.148	307.06
317.377	299.06
317.607	269.06
317.836	301.06
318.065	304.06
318.295	313.06
318.524	299.06
318.753	293.06
318.983	283.06
319.212	288.06
319.441	285.06
319.67	318.06
319.9	300.06
320.129	291.06
320.358	309.06
320.587	307.06
320.816	301.06
321.046	296.06
321.275	312.06
321.504	303.06
321.733	297.06
321.962	321.06
322.191	313.06
322.42	324.06
322.649	324.06
322.878	334.06
323.108	353.06
323.337	361.06
323.566	353.06
323.795	362.06
324.024	427.06
324.253	477.06
324.482	661.06
324.71	1041.06
324.939	1488.06
325.168	1263.06
325.397	674.06
325.626	472.06
325.855	421.06
326.084	387.06
326.313	380.06
326.542	389.06
326.77	396.06
326.999	464.06
327.228	607.06
327.457	935.06
327.686	1115.06
327.914	789.06
328.143	503.06
328.372	455.06
328.6	424.06
328.829	405.06
329.058	428.06
329.287	425.06
329.515	395.06
329.744	395.06
329.972	370.06
330.201	391.06
330.43	403.06
330.658	411.06
330.887	445.06
331.115	472.06
331.344	402.06
331.572	372.06
331.801	387.06
332.03	370.06
332.258	385.06
332.486	364.06
332.715	338.06
332.943	344.06
333.172	338.06
333.4	363.06
333.629	336.06
333.857	371.06
334.085	355.06
334.314	370.06
334.542	386.06
334.771	413.06
334.999	379.06
335.227	368.06
335.455	339.06
335.684	364.06
335.912	339.06
336.14	339.06
336.369	344.06
336.597	377.06
336.825	370.06
337.053	345.06
337.281	340.06
337.51	345.06
337.738	357.06
337.966	337.06
338.194	329.06
338.422	328.06
338.65	333.06
338.878	345.06
339.106	325.06
339.334	345.06
339.562	324.06
339.79	331.06
340.018	342.06
340.246	341.06
340.474	339.06
340.702	359.06
340.93	331.06
341.158	345.06
341.386	333.06
341.614	325.06
341.842	343.06
342.07	337.06
342.298	348.06
342.526	309.06
342.754	319.06
342.981	333.06
343.209	340.06
343.437	323.06
343.665	335.06
343.893	324.06
344.12	334.06
344.348	337.06
344.576	352.06
344.804	337.06
345.031	348.06
345.259	359.06
345.487	344.06
345.714	334.06
345.942	345.06
346.17	353.06
346.397	328.06
346.625	348.06
346.853	342.06
347.08	330.06
347.308	340.06
347.535	344.06
347.763	345.06
347.99	331.06
348.218	341.06
348.445	343.06
348.673	338.06
348.9	348.06
349.128	316.06
349.355	316.06
349.583	341.06
349.81	331.06
350.037	332.06
350.265	348.06
350.492	323.06
350.72	330.06
350.947	334.06
351.174	326.06
351.402	355.06
351.629	335.06
351.856	321.06
352.083	333.06
352.311	335.06
352.538	337.06
352.765	361.06
352.992	343.06
353.22	335.06
353.447	332.06
353.674	322.06
353.901	315.06
354.128	335.06
354.355	315.06
354.583	308.06
354.81	315.06
355.037	319.06
355.264	321.06
355.491	315.06
355.718	326.06
355.945	299.06
356.172	314.06
356.399	337.06
356.626	314.06
356.853	315.06
357.08	300.06
357.307	323.06
357.534	320.06
357.761	317.06
357.988	326.06
358.215	329.06
358.441	335.06
358.668	321.06
358.895	319.06
359.122	323.06
359.349	333.06
359.576	332.06
359.802	349.06
360.029	364.06
360.256	381.06
360.483	357.06
360.709	353.06
360.936	337.06
361.163	329.06
361.39	336.06
361.616	347.06
361.843	331.06
362.07	323.06
362.296	356.06
362.523	333.06
362.749	362.06
362.976	339.06
363.203	336.06
363.429	337.06
363.656	348.06
363.882	355.06
364.109	335.06
364.335	346.06
364.562	352.06
364.788	346.06
365.015	322.06
365.241	328.06
365.468	331.06
365.694	334.06
365.92	347.06
366.147	352.06
366.373	327.06
366.599	325.06
366.826	329.06
367.052	308.06
367.278	329.06
367.505	338.06
367.731	344.06
367.957	325.06
368.184	339.06
368.41	330.06
368.636	329.06
368.862	355.06
369.089	337.06
369.315	338.06
369.541	337.06
369.767	339.06
369.993	348.06
370.219	336.06
370.445	338.06
370.672	348.06
370.898	336.06
371.124	336.06
371.35	339.06
371.576	322.06
371.802	330.06
372.028	344.06
372.254	350.06
372.48	354.06
372.706	344.06
372.932	346.06
373.158	333.06
373.384	347.06
373.61	333.06
373.835	338.06
374.061	339.06
374.287	347.06
374.513	353.06
374.739	347.06
374.965	344.06
375.191	368.06
375.416	356.06
375.642	331.06
375.868	349.06
376.094	357.06
376.319	351.06
376.545	355.06
376.771	344.06
376.997	327.06
377.222	338.06
377.448	347.06
377.674	311.06
377.899	339.06
378.125	336.06
378.35	333.06
378.576	340.06
378.802	359.06
379.027	342.06
379.253	335.06
379.478	334.06
379.704	360.06
379.929	333.06
380.155	348.06
380.38	354.06
380.606	357.06
380.831	368.06
381.057	353.06
381.282	363.06
381.507	340.06
381.733	325.06
381.958	350.06
382.184	355.06
382.409	354.06
382.634	357.06
382.86	339.06
383.085	356.06
383.31	362.06
383.535	350.06
383.761	347.06
383.986	365.06
384.211	356.06
384.436	371.06
384.662	364.06
384.887	378.06
385.112	377.06
385.337	361.06
385.562	379.06
385.787	390.06
386.013	405.06
386.238	387.06
386.463	388.06
386.688	377.06
386.913	371.06
387.138	388.06
387.363	362.06
387.588	367.06
387.813	371.06
388.038	385.06
388.263	375.06
388.488	376.06
388.713	372.06
388.938	370.06
389.163	363.06
389.387	377.06
389.612	393.06
389.837	385.06
390.062	370.06
390.287	404.06
390.512	372.06
390.736	372.06
390.961	384.06
391.186	371.06
391.411	381.06
391.636	364.06
391.86	385.06
392.085	380.06
392.31	383.06
392.534	393.06
392.759	397.06
392.984	373.06
393.208	398.06
393.433	449.06
393.658	441.06
393.882	389.06
394.107	389.06
394.331	391.06
394.556	380.06
394.78	396.06
395.005	393.06
395.229	374.06
395.454	386.06
395.678	388.06
395.903	402.06
396.127	421.06
396.352	422.06
396.576	412.06
396.801	403.06
397.025	403.06
397.249	432.06
397.474	411.06
397.698	397.06
397.922	436.06
398.147	424.06
398.371	446.06
398.595	423.06
398.82	438.06
399.044	442.06
399.268	447.06
399.492	469.06
399.717	461.06
399.941	515.06
400.165	515.06
400.389	515.06
400.613	480.06
400.837	459.06
401.062	419.06
401.286	439.06
401.51	427.06
401.734	416.06
401.958	426.06
402.182	442.06
402.406	443.06
402.63	469.06
402.854	429.06
403.078	421.06
403.302	452.06
403.526	457.06
403.75	446.06
403.974	440.06
404.198	432.06
404.422	444.06
404.645	435.06
404.869	456.06
405.093	469.06
405.317	511.06
405.541	539.06
405.765	476.06
405.988	458.06
406.212	479.06
406.436	488.06
406.66	501.06
406.883	488.06
407.107	492.06
407.331	534.06
407.555	586.06
407.778	577.06
408.002	535.06
408.226	491.06
408.449	484.06
408.673	490.06
408.896	523.06
409.12	539.06
409.344	523.06
409.567	459.06
409.791	464.06
410.014	460.06
410.238	444.06
410.461	447.06
410.685	457.06
410.908	467.06
411.132	507.06
411.355	522.06
411.578	500.06
411.802	455.06
412.025	459.06
412.249	467.06
412.472	458.06
412.695	489.06
412.919	485.06
413.142	470.06
413.365	455.06
413.589	443.06
413.812	461.06
414.035	439.06
414.258	433.06
414.482	424.06
414.705	421.06
414.928	414.06
415.151	431.06
415.374	432.06
415.597	420.06
415.821	432.06
416.044	431.06
416.267	439.06
416.49	435.06
416.713	451.06
416.936	441.06
417.159	423.06
417.382	445.06
417.605	432.06
417.828	443.06
418.051	432.06
418.274	451.06
418.497	432.06
418.72	433.06
418.943	445.06
419.166	450.06
419.389	466.06
419.611	471.06
419.834	453.06
420.057	439.06
420.28	439.06
420.503	445.06
420.726	450.06
420.948	469.06
421.171	501.06
421.394	497.06
421.617	471.06
421.839	466.06
422.062	457.06
422.285	477.06
422.507	519.06
422.73	595.06
422.953	570.06
423.175	495.06
423.398	474.06
423.621	465.06
423.843	482.06
424.066	488.06
424.288	474.06
424.511	492.06
424.733	547.06
424.956	617.06
425.178	576.06
425.401	597.06
425.623	613.06
425.846	515.06
426.068	505.06
426.291	496.06
426.513	495.06
426.735	469.06
426.958	519.06
427.18	585.06
427.402	683.06
427.625	771.06
427.847	701.06
428.069	585.06
428.292	522.06
428.514	503.06
428.736	492.06
428.958	465.06
429.181	437.06
429.403	455.06
429.625	453.06
429.847	479.06
430.069	551.06
430.292	546.06
430.514	468.06
430.736	483.06
430.958	449.06
431.18	437.06
431.402	441.06
431.624	421.06
431.846	424.06
432.068	434.06
432.29	426.06
432.512	430.06
432.734	436.06
432.956	465.06
433.178	468.06
433.4	437.06
433.622	452.06
433.844	440.06
434.066	415.06
434.287	426.06
434.509	445.06
434.731	444.06
434.953	463.06
435.175	465.06
435.397	489.06
435.618	464.06
435.84	503.06
436.062	607.06
436.284	649.06
436.505	550.06
436.727	511.06
436.949	484.06
437.17	463.06
437.392	444.06
437.614	453.06
437.835	497.06
438.057	564.06
438.278	657.06
438.5	661.06
438.721	723.06
438.943	675.06
439.165	573.06
439.386	513.06
439.608	500.06
439.829	492.06
440.05	537.06
440.272	559.06
440.493	539.06
440.715	470.06
440.936	480.06
441.158	460.06
441.379	473.06
441.6	448.06
441.822	481.06
442.043	524.06
442.264	611.06
442.486	604.06
442.707	548.06
442.928	512.06
443.149	508.06
443.371	523.06
443.592	541.06
443.813	665.06
444.034	691.06
444.255	584.06
444.476	521.06
444.698	508.06
444.919	486.06
445.14	602.06
445.361	543.06
445.582	510.06
445.803	568.06
446.024	652.06
446.245	659.06
446.466	609.06
446.687	533.06
446.908	511.06
447.129	474.06
447.35	460.06
447.571	455.06
447.792	445.06
448.013	454.06
448.234	459.06
448.455	511.06
448.675	615.06
448.896	695.06
449.117	599.06
449.338	562.06
449.559	659.06
449.779	748.06
450	624.06
450.221	523.06
450.442	467.06
450.662	464.06
450.883	471.06
451.104	463.06
451.324	456.06
451.545	435.06
451.766	431.06
451.986	428.06
452.207	401.06
452.428	415.06
452.648	409.06
452.869	411.06
453.089	407.06
453.31	426.06
453.53	400.06
453.751	421.06
453.971	402.06
454.192	441.06
454.412	412.06
454.633	403.06
454.853	407.06
455.073	413.06
455.294	419.06
455.514	499.06
455.734	461.06
455.955	413.06
456.175	390.06
456.395	387.06
456.616	399.06
456.836	384.06
457.056	361.06
457.276	380.06
457.497	373.06
457.717	389.06
457.937	394.06
458.157	385.06
458.377	416.06
458.598	425.06
458.818	448.06
459.038	524.06
459.258	537.06
459.478	468.06
459.698	451.06
459.918	422.06
460.138	411.06
460.358	428.06
460.578	438.06
460.798	442.06
461.018	459.06
461.238	427.06
461.458	452.06
461.678	452.06
461.898	456.06
462.118	432.06
462.338	448.06
462.558	434.06
462.777	437.06
462.997	477.06
463.217	456.06
463.437	496.06
463.657	469.06
463.876	461.06
464.096	466.06
464.316	451.06
464.536	475.06
464.755	471.06
464.975	464.06
465.195	470.06
465.414	539.06
465.634	491.06
465.854	463.06
466.073	444.06
466.293	432.06
466.512	437.06
466.732	411.06
466.951	438.06
467.171	397.06
467.391	406.06
467.61	425.06
467.829	421.06
468.049	437.06
468.268	407.06
468.488	441.06
468.707	405.06
468.927	419.06
469.146	412.06
469.365	395.06
469.585	398.06
469.804	417.06
470.023	442.06
470.243	441.06
470.462	428.06
470.681	415.06
470.901	432.06
471.12	428.06
471.339	424.06
471.558	427.06
471.777	417.06
471.997	447.06
472.216	429.06
472.435	433.06
472.654	428.06
472.873	426.06
473.092	434.06
473.311	405.06
473.53	426.06
473.749	449.06
473.968	451.06
474.187	526.06
474.406	553.06
474.625	492.06
474.844	449.06
475.063	437.06
475.282	428.06
475.501	425.06
475.72	447.06
475.939	425.06
476.158	439.06
476.377	453.06
476.596	458.06
476.814	459.06
477.033	464.06
477.252	456.06
477.471	482.06
477.69	461.06
477.908	465.06
478.127	471.06
478.346	466.06
478.564	469.06
478.783	480.06
479.002	479.06
479.22	489.06
479.439	517.06
479.658	488.06
479.876	512.06
480.095	511.06
480.313	534.06
480.532	546.06
480.751	524.06
480.969	497.06
481.188	554.06
481.406	580.06
481.624	532.06
481.843	517.06
482.061	511.06
482.28	504.06
482.498	507.06
482.717	509.06
482.935	509.06
483.153	510.06
483.372	507.06
483.59	513.06
483.808	521.06
484.027	538.06
484.245	525.06
484.463	523.06
484.681	510.06
484.9	522.06
485.118	522.06
485.336	514.06
485.554	524.06
485.772	551.06
485.99	545.06
486.209	548.06
486.427	526.06
486.645	544.06
486.863	550.06
487.081	569.06
487.299	561.06
487.517	558.06
487.735	545.06
487.953	540.06
488.171	561.06
488.389	543.06
488.607	553.06
488.825	552.06
489.043	580.06
489.261	561.06
489.479	553.06
489.696	563.06
489.914	587.06
490.132	580.06
490.35	601.06
490.568	571.06
490.786	585.06
491.003	602.06
491.221	609.06
491.439	624.06
491.657	641.06
491.874	637.06
492.092	655.06
492.31	625.06
492.527	668.06
492.745	642.06
492.963	656.06
493.18	653.06
493.398	643.06
493.615	665.06
493.833	661.06
494.05	666.06
494.268	664.06
494.485	635.06
494.703	648.06
494.92	669.06
495.138	679.06
495.355	651.06
495.573	647.06
495.79	665.06
496.008	660.06
496.225	659.06
496.442	646.06
496.66	647.06
496.877	660.06
497.094	694.06
497.312	670.06
497.529	703.06
497.746	697.06
497.963	697.06
498.181	700.06
498.398	714.06
498.615	731.06
498.832	744.06
499.049	754.06
499.267	759.06
499.484	755.06
499.701	799.06
499.918	826.06
500.135	859.06
500.352	891.06
500.569	887.06
500.786	853.06
501.003	860.06
501.22	853.06
501.437	863.06
501.654	819.06
501.871	825.06
502.088	782.06
