Data from 1970.PennyLincolnUp.Lamp.En5.5.200Scan.071719.P1._HRD10591_15-14-56-841.txt Node
Date: Thu Jul 18 15:14:56 EDT 2019
User: cochatt
Spectrometer: HR+D1059
Trigger mode: 1
Integration Time (sec): 1.000000E-1
Scans to average: 1
Electric dark correction enabled: true
Nonlinearity correction enabled: false
Boxcar width: 0
XAxis mode: Wavelengths
Number of Pixels in Spectrum: 2048
>>>>>Begin Spectral Data<<<<<
223.165	-24.56
223.4	-24.56
223.635	-24.56
223.869	-22.56
224.104	-26.56
224.338	-18.56
224.573	-24.56
224.808	-2.56
225.042	-10.56
225.277	-0.56
225.511	-6.56
225.746	4.44
225.98	11.44
226.215	15.44
226.449	24.44
226.683	18.44
226.918	30.44
227.152	32.44
227.387	35.44
227.621	26.44
227.856	46.44
228.09	34.44
228.324	39.44
228.559	68.44
228.793	66.44
229.027	110.44
229.262	109.44
229.496	127.44
229.73	163.44
229.964	165.44
230.199	138.44
230.433	125.44
230.667	119.44
230.901	121.44
231.136	109.44
231.37	124.44
231.604	115.44
231.838	113.44
232.072	119.44
232.306	123.44
232.541	106.44
232.775	117.44
233.009	111.44
233.243	129.44
233.477	133.44
233.711	134.44
233.945	127.44
234.179	127.44
234.413	115.44
234.647	123.44
234.881	136.44
235.115	130.44
235.349	132.44
235.583	138.44
235.817	135.44
236.051	140.44
236.285	147.44
236.519	142.44
236.753	158.44
236.987	172.44
237.221	216.44
237.455	251.44
237.689	229.44
237.922	151.44
238.156	161.44
238.39	132.44
238.624	137.44
238.858	139.44
239.091	141.44
239.325	157.44
239.559	149.44
239.793	133.44
240.027	156.44
240.26	155.44
240.494	184.44
240.728	167.44
240.961	171.44
241.195	150.44
241.429	149.44
241.662	144.44
241.896	140.44
242.13	151.44
242.363	122.44
242.597	145.44
242.83	140.44
243.064	155.44
243.298	146.44
243.531	152.44
243.765	148.44
243.998	156.44
244.232	148.44
244.465	157.44
244.699	167.44
244.932	175.44
245.166	159.44
245.399	160.44
245.633	166.44
245.866	161.44
246.099	164.44
246.333	150.44
246.566	156.44
246.8	157.44
247.033	179.44
247.266	159.44
247.5	183.44
247.733	175.44
247.966	190.44
248.2	193.44
248.433	191.44
248.666	170.44
248.899	199.44
249.133	232.44
249.366	234.44
249.599	234.44
249.832	222.44
250.066	187.44
250.299	194.44
250.532	208.44
250.765	225.44
250.998	243.44
251.231	262.44
251.465	242.44
251.698	231.44
251.931	230.44
252.164	231.44
252.397	221.44
252.63	219.44
252.863	222.44
253.096	241.44
253.329	256.44
253.562	257.44
253.795	238.44
254.028	254.44
254.261	249.44
254.494	258.44
254.727	285.44
254.96	327.44
255.193	300.44
255.426	298.44
255.659	265.44
255.892	245.44
256.124	280.44
256.357	275.44
256.59	274.44
256.823	249.44
257.056	228.44
257.289	239.44
257.521	231.44
257.754	214.44
257.987	235.44
258.22	224.44
258.452	229.44
258.685	229.44
258.918	222.44
259.151	213.44
259.383	260.44
259.616	246.44
259.849	257.44
260.081	258.44
260.314	284.44
260.547	299.44
260.779	268.44
261.012	266.44
261.244	235.44
261.477	247.44
261.71	261.44
261.942	259.44
262.175	267.44
262.407	266.44
262.64	243.44
262.872	246.44
263.105	220.44
263.337	229.44
263.57	232.44
263.802	223.44
264.035	244.44
264.267	234.44
264.499	228.44
264.732	236.44
264.964	232.44
265.197	224.44
265.429	217.44
265.661	209.44
265.894	213.44
266.126	216.44
266.358	235.44
266.591	225.44
266.823	225.44
267.055	237.44
267.287	243.44
267.52	243.44
267.752	243.44
267.984	228.44
268.216	224.44
268.448	237.44
268.681	253.44
268.913	257.44
269.145	289.44
269.377	285.44
269.609	296.44
269.841	279.44
270.073	287.44
270.306	303.44
270.538	341.44
270.77	329.44
271.002	306.44
271.234	319.44
271.466	324.44
271.698	330.44
271.93	332.44
272.162	352.44
272.394	329.44
272.626	322.44
272.858	313.44
273.09	308.44
273.322	277.44
273.553	283.44
273.785	277.44
274.017	296.44
274.249	276.44
274.481	272.44
274.713	281.44
274.945	272.44
275.176	266.44
275.408	268.44
275.64	279.44
275.872	271.44
276.104	268.44
276.335	270.44
276.567	295.44
276.799	293.44
277.031	327.44
277.262	334.44
277.494	343.44
277.726	345.44
277.957	308.44
278.189	286.44
278.421	298.44
278.652	272.44
278.884	280.44
279.115	274.44
279.347	282.44
279.579	281.44
279.81	285.44
280.042	265.44
280.273	285.44
280.505	278.44
280.736	272.44
280.968	286.44
281.199	251.44
281.431	271.44
281.662	265.44
281.894	277.44
282.125	276.44
282.356	307.44
282.588	318.44
282.819	319.44
283.051	285.44
283.282	262.44
283.513	261.44
283.745	261.44
283.976	266.44
284.207	280.44
284.439	280.44
284.67	271.44
284.901	273.44
285.132	262.44
285.364	256.44
285.595	274.44
285.826	278.44
286.057	286.44
286.288	282.44
286.52	279.44
286.751	293.44
286.982	270.44
287.213	289.44
287.444	296.44
287.675	272.44
287.906	289.44
288.138	298.44
288.369	303.44
288.6	303.44
288.831	291.44
289.062	288.44
289.293	282.44
289.524	289.44
289.755	300.44
289.986	295.44
290.217	295.44
290.448	288.44
290.679	276.44
290.91	280.44
291.141	264.44
291.371	292.44
291.602	277.44
291.833	271.44
292.064	287.44
292.295	292.44
292.526	268.44
292.757	299.44
292.987	273.44
293.218	284.44
293.449	292.44
293.68	273.44
293.91	282.44
294.141	298.44
294.372	296.44
294.603	283.44
294.833	291.44
295.064	278.44
295.295	283.44
295.525	309.44
295.756	300.44
295.987	304.44
296.217	308.44
296.448	338.44
296.679	290.44
296.909	289.44
297.14	293.44
297.37	286.44
297.601	296.44
297.831	290.44
298.062	300.44
298.292	312.44
298.523	316.44
298.753	300.44
298.984	303.44
299.214	296.44
299.445	304.44
299.675	295.44
299.905	302.44
300.136	310.44
300.366	316.44
300.597	312.44
300.827	308.44
301.057	323.44
301.288	343.44
301.518	317.44
301.748	297.44
301.979	317.44
302.209	304.44
302.439	317.44
302.669	325.44
302.9	329.44
303.13	323.44
303.36	301.44
303.59	335.44
303.82	357.44
304.051	366.44
304.281	322.44
304.511	336.44
304.741	304.44
304.971	310.44
305.201	326.44
305.431	331.44
305.661	327.44
305.891	334.44
306.121	324.44
306.352	326.44
306.582	342.44
306.812	313.44
307.042	317.44
307.272	329.44
307.502	332.44
307.731	351.44
307.961	358.44
308.191	337.44
308.421	335.44
308.651	314.44
308.881	333.44
309.111	341.44
309.341	353.44
309.571	350.44
309.8	373.44
310.03	379.44
310.26	375.44
310.49	397.44
310.72	397.44
310.949	412.44
311.179	411.44
311.409	387.44
311.639	374.44
311.868	403.44
312.098	392.44
312.328	390.44
312.557	413.44
312.787	417.44
313.017	418.44
313.246	401.44
313.476	374.44
313.706	379.44
313.935	389.44
314.165	417.44
314.394	417.44
314.624	423.44
314.853	387.44
315.083	387.44
315.312	395.44
315.542	371.44
315.771	368.44
316.001	360.44
316.23	388.44
316.46	383.44
316.689	387.44
316.919	378.44
317.148	393.44
317.377	398.44
317.607	398.44
317.836	377.44
318.065	367.44
318.295	403.44
318.524	387.44
318.753	386.44
318.983	385.44
319.212	389.44
319.441	402.44
319.67	397.44
319.9	394.44
320.129	380.44
320.358	397.44
320.587	411.44
320.816	414.44
321.046	402.44
321.275	417.44
321.504	421.44
321.733	424.44
321.962	429.44
322.191	424.44
322.42	462.44
322.649	456.44
322.878	478.44
323.108	479.44
323.337	517.44
323.566	528.44
323.795	595.44
324.024	650.44
324.253	783.44
324.482	1117.44
324.71	1701.44
324.939	2419.44
325.168	2103.44
325.397	1116.44
325.626	767.44
325.855	630.44
326.084	560.44
326.313	562.44
326.542	556.44
326.77	605.44
326.999	716.44
327.228	979.44
327.457	1473.44
327.686	1807.44
327.914	1258.44
328.143	823.44
328.372	715.44
328.6	643.44
328.829	640.44
329.058	652.44
329.287	647.44
329.515	644.44
329.744	576.44
329.972	573.44
330.201	591.44
330.43	627.44
330.658	651.44
330.887	685.44
331.115	681.44
331.344	544.44
331.572	535.44
331.801	541.44
332.03	520.44
332.258	488.44
332.486	492.44
332.715	489.44
332.943	453.44
333.172	447.44
333.4	464.44
333.629	482.44
333.857	476.44
334.085	503.44
334.314	541.44
334.542	565.44
334.771	592.44
334.999	547.44
335.227	495.44
335.455	476.44
335.684	438.44
335.912	473.44
336.14	441.44
336.369	446.44
336.597	486.44
336.825	443.44
337.053	461.44
337.281	435.44
337.51	447.44
337.738	440.44
337.966	447.44
338.194	429.44
338.422	457.44
338.65	441.44
338.878	443.44
339.106	414.44
339.334	412.44
339.562	410.44
339.79	429.44
340.018	435.44
340.246	440.44
340.474	439.44
340.702	438.44
340.93	438.44
341.158	449.44
341.386	420.44
341.614	450.44
341.842	434.44
342.07	423.44
342.298	444.44
342.526	433.44
342.754	435.44
342.981	398.44
343.209	407.44
343.437	451.44
343.665	408.44
343.893	429.44
344.12	433.44
344.348	444.44
344.576	461.44
344.804	437.44
345.031	472.44
345.259	473.44
345.487	454.44
345.714	445.44
345.942	425.44
346.17	408.44
346.397	408.44
346.625	442.44
346.853	425.44
347.08	442.44
347.308	443.44
347.535	448.44
347.763	455.44
347.99	441.44
348.218	439.44
348.445	450.44
348.673	449.44
348.9	449.44
349.128	414.44
349.355	427.44
349.583	430.44
349.81	435.44
350.037	413.44
350.265	428.44
350.492	406.44
350.72	440.44
350.947	408.44
351.174	451.44
351.402	431.44
351.629	432.44
351.856	449.44
352.083	446.44
352.311	460.44
352.538	474.44
352.765	453.44
352.992	441.44
353.22	451.44
353.447	424.44
353.674	439.44
353.901	435.44
354.128	406.44
354.355	413.44
354.583	412.44
354.81	418.44
355.037	407.44
355.264	410.44
355.491	413.44
355.718	387.44
355.945	407.44
356.172	399.44
356.399	379.44
356.626	388.44
356.853	395.44
357.08	401.44
357.307	414.44
357.534	413.44
357.761	397.44
357.988	416.44
358.215	399.44
358.441	389.44
358.668	398.44
358.895	402.44
359.122	422.44
359.349	433.44
359.576	454.44
359.802	477.44
360.029	496.44
360.256	516.44
360.483	507.44
360.709	451.44
360.936	451.44
361.163	449.44
361.39	456.44
361.616	444.44
361.843	452.44
362.07	446.44
362.296	454.44
362.523	436.44
362.749	454.44
362.976	425.44
363.203	436.44
363.429	423.44
363.656	433.44
363.882	427.44
364.109	413.44
364.335	422.44
364.562	429.44
364.788	419.44
365.015	414.44
365.241	414.44
365.468	423.44
365.694	428.44
365.92	425.44
366.147	417.44
366.373	433.44
366.599	405.44
366.826	407.44
367.052	405.44
367.278	412.44
367.505	425.44
367.731	409.44
367.957	389.44
368.184	427.44
368.41	438.44
368.636	433.44
368.862	464.44
369.089	432.44
369.315	423.44
369.541	440.44
369.767	428.44
369.993	410.44
370.219	432.44
370.445	424.44
370.672	423.44
370.898	425.44
371.124	422.44
371.35	421.44
371.576	415.44
371.802	375.44
372.028	393.44
372.254	420.44
372.48	392.44
372.706	412.44
372.932	411.44
373.158	400.44
373.384	400.44
373.61	401.44
373.835	419.44
374.061	419.44
374.287	410.44
374.513	431.44
374.739	432.44
374.965	423.44
375.191	421.44
375.416	429.44
375.642	425.44
375.868	420.44
376.094	416.44
376.319	422.44
376.545	413.44
376.771	407.44
376.997	410.44
377.222	424.44
377.448	396.44
377.674	402.44
377.899	411.44
378.125	417.44
378.35	416.44
378.576	401.44
378.802	408.44
379.027	410.44
379.253	402.44
379.478	413.44
379.704	409.44
379.929	426.44
380.155	419.44
380.38	412.44
380.606	423.44
380.831	433.44
381.057	419.44
381.282	419.44
381.507	399.44
381.733	414.44
381.958	423.44
382.184	411.44
382.409	433.44
382.634	419.44
382.86	427.44
383.085	411.44
383.31	451.44
383.535	426.44
383.761	419.44
383.986	432.44
384.211	425.44
384.436	438.44
384.662	443.44
384.887	442.44
385.112	446.44
385.337	437.44
385.562	446.44
385.787	446.44
386.013	449.44
386.238	451.44
386.463	456.44
386.688	486.44
386.913	475.44
387.138	461.44
387.363	432.44
387.588	443.44
387.813	441.44
388.038	444.44
388.263	445.44
388.488	460.44
388.713	449.44
388.938	457.44
389.163	448.44
389.387	438.44
389.612	440.44
389.837	427.44
390.062	453.44
390.287	437.44
390.512	442.44
390.736	427.44
390.961	449.44
391.186	448.44
391.411	455.44
391.636	473.44
391.86	432.44
392.085	451.44
392.31	473.44
392.534	444.44
392.759	459.44
392.984	447.44
393.208	465.44
393.433	448.44
393.658	450.44
393.882	445.44
394.107	467.44
394.331	443.44
394.556	466.44
394.78	441.44
395.005	448.44
395.229	458.44
395.454	471.44
395.678	459.44
395.903	455.44
396.127	491.44
396.352	487.44
396.576	472.44
396.801	470.44
397.025	475.44
397.249	496.44
397.474	460.44
397.698	465.44
397.922	516.44
398.147	530.44
398.371	493.44
398.595	493.44
398.82	508.44
399.044	488.44
399.268	507.44
399.492	527.44
399.717	567.44
399.941	571.44
400.165	608.44
400.389	630.44
400.613	565.44
400.837	547.44
401.062	535.44
401.286	521.44
401.51	493.44
401.734	507.44
401.958	528.44
402.182	535.44
402.406	553.44
402.63	555.44
402.854	508.44
403.078	509.44
403.302	536.44
403.526	536.44
403.75	528.44
403.974	530.44
404.198	515.44
404.422	547.44
404.645	545.44
404.869	529.44
405.093	563.44
405.317	615.44
405.541	656.44
405.765	607.44
405.988	582.44
406.212	577.44
406.436	612.44
406.66	608.44
406.883	598.44
407.107	619.44
407.331	643.44
407.555	719.44
407.778	708.44
408.002	658.44
408.226	595.44
408.449	627.44
408.673	616.44
408.896	634.44
409.12	691.44
409.344	624.44
409.567	571.44
409.791	566.44
410.014	544.44
410.238	535.44
410.461	552.44
410.685	546.44
410.908	561.44
411.132	607.44
411.355	627.44
411.578	625.44
411.802	573.44
412.025	554.44
412.249	563.44
412.472	573.44
412.695	628.44
412.919	604.44
413.142	582.44
413.365	532.44
413.589	541.44
413.812	524.44
414.035	528.44
414.258	502.44
414.482	535.44
414.705	524.44
414.928	533.44
415.151	532.44
415.374	515.44
415.597	527.44
415.821	512.44
416.044	504.44
416.267	505.44
416.49	506.44
416.713	520.44
416.936	514.44
417.159	506.44
417.382	527.44
417.605	531.44
417.828	535.44
418.051	558.44
418.274	559.44
418.497	535.44
418.72	521.44
418.943	505.44
419.166	534.44
419.389	547.44
419.611	551.44
419.834	537.44
420.057	551.44
420.28	559.44
420.503	544.44
420.726	574.44
420.948	579.44
421.171	615.44
421.394	640.44
421.617	582.44
421.839	563.44
422.062	575.44
422.285	577.44
422.507	640.44
422.73	701.44
422.953	664.44
423.175	626.44
423.398	593.44
423.621	607.44
423.843	586.44
424.066	613.44
424.288	617.44
424.511	620.44
424.733	687.44
424.956	777.44
425.178	744.44
425.401	740.44
425.623	729.44
425.846	668.44
426.068	631.44
426.291	607.44
426.513	623.44
426.735	643.44
426.958	682.44
427.18	763.44
427.402	894.44
427.625	976.44
427.847	914.44
428.069	783.44
428.292	671.44
428.514	607.44
428.736	600.44
428.958	592.44
429.181	554.44
429.403	568.44
429.625	577.44
429.847	632.44
430.069	683.44
430.292	686.44
430.514	590.44
430.736	569.44
430.958	573.44
431.18	548.44
431.402	535.44
431.624	529.44
431.846	542.44
432.068	528.44
432.29	510.44
432.512	540.44
432.734	541.44
432.956	541.44
433.178	528.44
433.4	563.44
433.622	537.44
433.844	501.44
434.066	521.44
434.287	524.44
434.509	523.44
434.731	563.44
434.953	555.44
435.175	581.44
435.397	589.44
435.618	624.44
435.84	676.44
436.062	745.44
436.284	828.44
436.505	717.44
436.727	652.44
436.949	602.44
437.17	574.44
437.392	581.44
437.614	593.44
437.835	643.44
438.057	759.44
438.278	838.44
438.5	832.44
438.721	911.44
438.943	891.44
439.165	724.44
439.386	641.44
439.608	646.44
439.829	640.44
440.05	650.44
440.272	708.44
440.493	659.44
440.715	631.44
440.936	590.44
441.158	579.44
441.379	579.44
441.6	604.44
441.822	633.44
442.043	669.44
442.264	773.44
442.486	800.44
442.707	691.44
442.928	645.44
443.149	661.44
443.371	649.44
443.592	691.44
443.813	825.44
444.034	837.44
444.255	718.44
444.476	653.44
444.698	620.44
444.919	591.44
445.14	701.44
445.361	689.44
445.582	662.44
445.803	755.44
446.024	833.44
446.245	883.44
446.466	789.44
446.687	678.44
446.908	639.44
447.129	583.44
447.35	576.44
447.571	580.44
447.792	581.44
448.013	600.44
448.234	596.44
448.455	616.44
448.675	820.44
448.896	869.44
449.117	767.44
449.338	711.44
449.559	842.44
449.779	921.44
450	777.44
450.221	627.44
450.442	582.44
450.662	571.44
450.883	587.44
451.104	606.44
451.324	605.44
451.545	566.44
451.766	540.44
451.986	520.44
452.207	535.44
452.428	505.44
452.648	498.44
452.869	502.44
453.089	544.44
453.31	533.44
453.53	529.44
453.751	504.44
453.971	520.44
454.192	548.44
454.412	532.44
454.633	523.44
454.853	510.44
455.073	503.44
455.294	548.44
455.514	611.44
455.734	608.44
455.955	539.44
456.175	493.44
456.395	463.44
456.616	489.44
456.836	497.44
457.056	455.44
457.276	475.44
457.497	488.44
457.717	485.44
457.937	484.44
458.157	500.44
458.377	503.44
458.598	517.44
458.818	585.44
459.038	700.44
459.258	716.44
459.478	616.44
459.698	547.44
459.918	542.44
460.138	523.44
460.358	526.44
460.578	509.44
460.798	523.44
461.018	537.44
461.238	537.44
461.458	511.44
461.678	506.44
461.898	507.44
462.118	522.44
462.338	532.44
462.558	542.44
462.777	525.44
462.997	549.44
463.217	539.44
463.437	550.44
463.657	543.44
463.876	537.44
464.096	550.44
464.316	548.44
464.536	541.44
464.755	570.44
464.975	565.44
465.195	633.44
465.414	748.44
465.634	636.44
465.854	603.44
466.073	569.44
466.293	548.44
466.512	521.44
466.732	508.44
466.951	500.44
467.171	525.44
467.391	526.44
467.61	533.44
467.829	559.44
468.049	543.44
468.268	527.44
468.488	516.44
468.707	517.44
468.927	512.44
469.146	518.44
469.365	519.44
469.585	531.44
469.804	515.44
470.023	545.44
470.243	540.44
470.462	567.44
470.681	533.44
470.901	559.44
471.12	515.44
471.339	539.44
471.558	542.44
471.777	524.44
471.997	530.44
472.216	565.44
472.435	588.44
472.654	553.44
472.873	541.44
473.092	542.44
473.311	541.44
473.53	537.44
473.749	555.44
473.968	574.44
474.187	703.44
474.406	727.44
474.625	624.44
474.844	567.44
475.063	532.44
475.282	513.44
475.501	547.44
475.72	532.44
475.939	556.44
476.158	547.44
476.377	565.44
476.596	551.44
476.814	548.44
477.033	574.44
477.252	571.44
477.471	561.44
477.69	567.44
477.908	590.44
478.127	584.44
478.346	583.44
478.564	588.44
478.783	582.44
479.002	579.44
479.22	593.44
479.439	639.44
479.658	656.44
479.876	671.44
480.095	637.44
480.313	675.44
480.532	673.44
480.751	667.44
480.969	644.44
481.188	710.44
481.406	789.44
481.624	721.44
481.843	651.44
482.061	665.44
482.28	644.44
482.498	645.44
482.717	629.44
482.935	627.44
483.153	651.44
483.372	647.44
483.59	635.44
483.808	632.44
484.027	622.44
484.245	637.44
484.463	652.44
484.681	664.44
484.9	632.44
485.118	671.44
485.336	653.44
485.554	657.44
485.772	667.44
485.99	639.44
486.209	686.44
486.427	658.44
486.645	683.44
486.863	713.44
487.081	698.44
487.299	693.44
487.517	683.44
487.735	689.44
487.953	676.44
488.171	692.44
488.389	683.44
488.607	698.44
488.825	695.44
489.043	668.44
489.261	688.44
489.479	708.44
489.696	712.44
489.914	722.44
490.132	730.44
490.35	739.44
490.568	743.44
490.786	752.44
491.003	760.44
491.221	781.44
491.439	813.44
491.657	805.44
491.874	792.44
492.092	794.44
492.31	821.44
492.527	826.44
492.745	811.44
492.963	839.44
493.18	839.44
493.398	824.44
493.615	828.44
493.833	844.44
494.05	832.44
494.268	857.44
494.485	825.44
494.703	806.44
494.92	823.44
495.138	856.44
495.355	840.44
495.573	850.44
495.79	841.44
496.008	874.44
496.225	827.44
496.442	852.44
496.66	848.44
496.877	839.44
497.094	846.44
497.312	840.44
497.529	847.44
497.746	841.44
497.963	869.44
498.181	872.44
498.398	886.44
498.615	897.44
498.832	893.44
499.049	933.44
499.267	920.44
499.484	919.44
499.701	957.44
499.918	969.44
500.135	999.44
500.352	1032.44
500.569	1023.44
500.786	1043.44
501.003	1040.44
501.22	1015.44
501.437	992.44
501.654	967.44
501.871	990.44
