Data from 1970.PennyLincolnUp.Lamp.En5.5.200Scan.071719.P1._HRD10591_15-13-14-847.txt Node
Date: Thu Jul 18 15:13:14 EDT 2019
User: cochatt
Spectrometer: HR+D1059
Trigger mode: 1
Integration Time (sec): 1.000000E-1
Scans to average: 1
Electric dark correction enabled: true
Nonlinearity correction enabled: false
Boxcar width: 0
XAxis mode: Wavelengths
Number of Pixels in Spectrum: 2048
>>>>>Begin Spectral Data<<<<<
223.165	-25.06
223.4	-25.06
223.635	-25.06
223.869	-22.06
224.104	-11.06
224.338	-9.06
224.573	-9.06
224.808	-8.06
225.042	-9.06
225.277	-0.06
225.511	-5.06
225.746	-0.06
225.98	-3.06
226.215	11.94
226.449	23.94
226.683	14.94
226.918	24.94
227.152	25.94
227.387	29.94
227.621	37.94
227.856	42.94
228.09	48.94
228.324	55.94
228.559	49.94
228.793	72.94
229.027	94.94
229.262	90.94
229.496	109.94
229.73	120.94
229.964	151.94
230.199	132.94
230.433	114.94
230.667	103.94
230.901	111.94
231.136	101.94
231.37	116.94
231.604	111.94
231.838	106.94
232.072	111.94
232.306	115.94
232.541	97.94
232.775	107.94
233.009	112.94
233.243	122.94
233.477	113.94
233.711	122.94
233.945	122.94
234.179	118.94
234.413	112.94
234.647	110.94
234.881	101.94
235.115	117.94
235.349	121.94
235.583	123.94
235.817	104.94
236.051	128.94
236.285	126.94
236.519	132.94
236.753	138.94
236.987	124.94
237.221	161.94
237.455	213.94
237.689	172.94
237.922	142.94
238.156	120.94
238.39	127.94
238.624	131.94
238.858	136.94
239.091	125.94
239.325	109.94
239.559	129.94
239.793	130.94
240.027	121.94
240.26	138.94
240.494	155.94
240.728	140.94
240.961	146.94
241.195	153.94
241.429	129.94
241.662	126.94
241.896	127.94
242.13	144.94
242.363	122.94
242.597	125.94
242.83	118.94
243.064	143.94
243.298	140.94
243.531	136.94
243.765	132.94
243.998	146.94
244.232	130.94
244.465	138.94
244.699	137.94
244.932	134.94
245.166	143.94
245.399	142.94
245.633	152.94
245.866	139.94
246.099	131.94
246.333	138.94
246.566	140.94
246.8	139.94
247.033	143.94
247.266	142.94
247.5	140.94
247.733	155.94
247.966	176.94
248.2	161.94
248.433	166.94
248.666	174.94
248.899	187.94
249.133	182.94
249.366	182.94
249.599	199.94
249.832	172.94
250.066	157.94
250.299	173.94
250.532	187.94
250.765	190.94
250.998	211.94
251.231	226.94
251.465	206.94
251.698	200.94
251.931	193.94
252.164	191.94
252.397	196.94
252.63	194.94
252.863	188.94
253.096	190.94
253.329	229.94
253.562	209.94
253.795	226.94
254.028	206.94
254.261	221.94
254.494	208.94
254.727	226.94
254.96	236.94
255.193	252.94
255.426	229.94
255.659	227.94
255.892	221.94
256.124	198.94
256.357	224.94
256.59	236.94
256.823	194.94
257.056	189.94
257.289	188.94
257.521	196.94
257.754	181.94
257.987	196.94
258.22	190.94
258.452	193.94
258.685	183.94
258.918	210.94
259.151	184.94
259.383	202.94
259.616	200.94
259.849	214.94
260.081	216.94
260.314	224.94
260.547	225.94
260.779	221.94
261.012	209.94
261.244	221.94
261.477	204.94
261.71	215.94
261.942	190.94
262.175	210.94
262.407	199.94
262.64	208.94
262.872	193.94
263.105	204.94
263.337	206.94
263.57	187.94
263.802	190.94
264.035	185.94
264.267	191.94
264.499	204.94
264.732	187.94
264.964	200.94
265.197	194.94
265.429	198.94
265.661	181.94
265.894	180.94
266.126	188.94
266.358	189.94
266.591	175.94
266.823	211.94
267.055	205.94
267.287	215.94
267.52	191.94
267.752	195.94
267.984	188.94
268.216	205.94
268.448	202.94
268.681	205.94
268.913	210.94
269.145	233.94
269.377	221.94
269.609	242.94
269.841	233.94
270.073	248.94
270.306	245.94
270.538	265.94
270.77	275.94
271.002	277.94
271.234	270.94
271.466	258.94
271.698	248.94
271.93	257.94
272.162	252.94
272.394	264.94
272.626	252.94
272.858	239.94
273.09	231.94
273.322	238.94
273.553	229.94
273.785	240.94
274.017	229.94
274.249	225.94
274.481	229.94
274.713	223.94
274.945	241.94
275.176	222.94
275.408	209.94
275.64	217.94
275.872	225.94
276.104	215.94
276.335	221.94
276.567	222.94
276.799	231.94
277.031	245.94
277.262	252.94
277.494	256.94
277.726	265.94
277.957	262.94
278.189	234.94
278.421	227.94
278.652	225.94
278.884	228.94
279.115	236.94
279.347	202.94
279.579	232.94
279.81	231.94
280.042	229.94
280.273	210.94
280.505	218.94
280.736	228.94
280.968	220.94
281.199	221.94
281.431	206.94
281.662	226.94
281.894	216.94
282.125	212.94
282.356	220.94
282.588	249.94
282.819	239.94
283.051	248.94
283.282	218.94
283.513	229.94
283.745	220.94
283.976	233.94
284.207	234.94
284.439	227.94
284.67	230.94
284.901	226.94
285.132	229.94
285.364	232.94
285.595	232.94
285.826	225.94
286.057	224.94
286.288	220.94
286.52	229.94
286.751	220.94
286.982	215.94
287.213	225.94
287.444	229.94
287.675	223.94
287.906	237.94
288.138	251.94
288.369	254.94
288.6	247.94
288.831	248.94
289.062	247.94
289.293	229.94
289.524	240.94
289.755	230.94
289.986	232.94
290.217	236.94
290.448	238.94
290.679	213.94
290.91	246.94
291.141	234.94
291.371	253.94
291.602	233.94
291.833	219.94
292.064	238.94
292.295	234.94
292.526	227.94
292.757	221.94
292.987	239.94
293.218	237.94
293.449	230.94
293.68	238.94
293.91	228.94
294.141	232.94
294.372	224.94
294.603	223.94
294.833	222.94
295.064	229.94
295.295	241.94
295.525	239.94
295.756	236.94
295.987	248.94
296.217	246.94
296.448	247.94
296.679	240.94
296.909	239.94
297.14	227.94
297.37	236.94
297.601	223.94
297.831	243.94
298.062	230.94
298.292	252.94
298.523	241.94
298.753	241.94
298.984	230.94
299.214	234.94
299.445	252.94
299.675	248.94
299.905	248.94
300.136	253.94
300.366	243.94
300.597	248.94
300.827	264.94
301.057	260.94
301.288	245.94
301.518	259.94
301.748	251.94
301.979	275.94
302.209	269.94
302.439	270.94
302.669	249.94
302.9	271.94
303.13	262.94
303.36	272.94
303.59	261.94
303.82	289.94
304.051	261.94
304.281	257.94
304.511	245.94
304.741	256.94
304.971	246.94
305.201	262.94
305.431	253.94
305.661	258.94
305.891	265.94
306.121	255.94
306.352	269.94
306.582	254.94
306.812	265.94
307.042	274.94
307.272	263.94
307.502	253.94
307.731	264.94
307.961	282.94
308.191	274.94
308.421	241.94
308.651	272.94
308.881	276.94
309.111	273.94
309.341	270.94
309.571	267.94
309.8	266.94
310.03	301.94
310.26	292.94
310.49	284.94
310.72	308.94
310.949	311.94
311.179	319.94
311.409	313.94
311.639	294.94
311.868	300.94
312.098	301.94
312.328	320.94
312.557	296.94
312.787	318.94
313.017	332.94
313.246	312.94
313.476	289.94
313.706	311.94
313.935	313.94
314.165	320.94
314.394	308.94
314.624	310.94
314.853	303.94
315.083	321.94
315.312	309.94
315.542	295.94
315.771	284.94
316.001	285.94
316.23	298.94
316.46	276.94
316.689	305.94
316.919	301.94
317.148	295.94
317.377	324.94
317.607	322.94
317.836	315.94
318.065	298.94
318.295	298.94
318.524	302.94
318.753	275.94
318.983	297.94
319.212	315.94
319.441	302.94
319.67	319.94
319.9	286.94
320.129	297.94
320.358	310.94
320.587	320.94
320.816	334.94
321.046	319.94
321.275	309.94
321.504	308.94
321.733	334.94
321.962	326.94
322.191	343.94
322.42	337.94
322.649	380.94
322.878	344.94
323.108	346.94
323.337	376.94
323.566	378.94
323.795	410.94
324.024	457.94
324.253	535.94
324.482	725.94
324.71	1118.94
324.939	1601.94
325.168	1415.94
325.397	773.94
325.626	517.94
325.855	429.94
326.084	427.94
326.313	391.94
326.542	403.94
326.77	456.94
326.999	504.94
327.228	648.94
327.457	1006.94
327.686	1176.94
327.914	833.94
328.143	545.94
328.372	490.94
328.6	448.94
328.829	440.94
329.058	471.94
329.287	469.94
329.515	438.94
329.744	406.94
329.972	408.94
330.201	400.94
330.43	432.94
330.658	458.94
330.887	475.94
331.115	465.94
331.344	414.94
331.572	388.94
331.801	390.94
332.03	390.94
332.258	379.94
332.486	370.94
332.715	354.94
332.943	343.94
333.172	347.94
333.4	344.94
333.629	376.94
333.857	375.94
334.085	378.94
334.314	389.94
334.542	422.94
334.771	424.94
334.999	380.94
335.227	362.94
335.455	358.94
335.684	387.94
335.912	362.94
336.14	345.94
336.369	350.94
336.597	359.94
336.825	361.94
337.053	354.94
337.281	344.94
337.51	337.94
337.738	357.94
337.966	347.94
338.194	334.94
338.422	354.94
338.65	369.94
338.878	345.94
339.106	352.94
339.334	344.94
339.562	344.94
339.79	340.94
340.018	338.94
340.246	348.94
340.474	343.94
340.702	340.94
340.93	344.94
341.158	356.94
341.386	341.94
341.614	364.94
341.842	345.94
342.07	350.94
342.298	348.94
342.526	338.94
342.754	332.94
342.981	348.94
343.209	309.94
343.437	353.94
343.665	332.94
343.893	340.94
344.12	336.94
344.348	361.94
344.576	343.94
344.804	344.94
345.031	350.94
345.259	360.94
345.487	358.94
345.714	339.94
345.942	337.94
346.17	345.94
346.397	336.94
346.625	329.94
346.853	344.94
347.08	332.94
347.308	334.94
347.535	348.94
347.763	364.94
347.99	356.94
348.218	361.94
348.445	350.94
348.673	346.94
348.9	335.94
349.128	355.94
349.355	334.94
349.583	353.94
349.81	314.94
350.037	335.94
350.265	329.94
350.492	319.94
350.72	357.94
350.947	323.94
351.174	353.94
351.402	346.94
351.629	350.94
351.856	323.94
352.083	345.94
352.311	356.94
352.538	339.94
352.765	361.94
352.992	345.94
353.22	357.94
353.447	336.94
353.674	339.94
353.901	337.94
354.128	332.94
354.355	342.94
354.583	328.94
354.81	347.94
355.037	321.94
355.264	312.94
355.491	320.94
355.718	332.94
355.945	330.94
356.172	327.94
356.399	316.94
356.626	320.94
356.853	301.94
357.08	321.94
357.307	339.94
357.534	320.94
357.761	338.94
357.988	318.94
358.215	346.94
358.441	315.94
358.668	333.94
358.895	336.94
359.122	335.94
359.349	345.94
359.576	350.94
359.802	361.94
360.029	378.94
360.256	389.94
360.483	390.94
360.709	365.94
360.936	359.94
361.163	348.94
361.39	351.94
361.616	361.94
361.843	344.94
362.07	358.94
362.296	350.94
362.523	345.94
362.749	369.94
362.976	342.94
363.203	357.94
363.429	334.94
363.656	332.94
363.882	355.94
364.109	322.94
364.335	336.94
364.562	333.94
364.788	333.94
365.015	350.94
365.241	341.94
365.468	332.94
365.694	336.94
365.92	347.94
366.147	341.94
366.373	352.94
366.599	320.94
366.826	327.94
367.052	325.94
367.278	334.94
367.505	348.94
367.731	345.94
367.957	335.94
368.184	334.94
368.41	337.94
368.636	358.94
368.862	374.94
369.089	358.94
369.315	345.94
369.541	348.94
369.767	335.94
369.993	334.94
370.219	347.94
370.445	336.94
370.672	356.94
370.898	339.94
371.124	333.94
371.35	328.94
371.576	331.94
371.802	331.94
372.028	345.94
372.254	353.94
372.48	349.94
372.706	345.94
372.932	343.94
373.158	324.94
373.384	340.94
373.61	341.94
373.835	349.94
374.061	374.94
374.287	351.94
374.513	360.94
374.739	340.94
374.965	338.94
375.191	359.94
375.416	352.94
375.642	342.94
375.868	349.94
376.094	339.94
376.319	358.94
376.545	360.94
376.771	354.94
376.997	354.94
377.222	344.94
377.448	345.94
377.674	349.94
377.899	359.94
378.125	334.94
378.35	342.94
378.576	341.94
378.802	342.94
379.027	333.94
379.253	360.94
379.478	344.94
379.704	335.94
379.929	356.94
380.155	355.94
380.38	349.94
380.606	364.94
380.831	359.94
381.057	358.94
381.282	358.94
381.507	341.94
381.733	356.94
381.958	348.94
382.184	349.94
382.409	365.94
382.634	346.94
382.86	353.94
383.085	372.94
383.31	378.94
383.535	374.94
383.761	362.94
383.986	354.94
384.211	368.94
384.436	370.94
384.662	361.94
384.887	374.94
385.112	376.94
385.337	378.94
385.562	386.94
385.787	392.94
386.013	381.94
386.238	394.94
386.463	379.94
386.688	366.94
386.913	386.94
387.138	372.94
387.363	385.94
387.588	380.94
387.813	366.94
388.038	385.94
388.263	382.94
388.488	375.94
388.713	391.94
388.938	374.94
389.163	385.94
389.387	384.94
389.612	381.94
389.837	377.94
390.062	380.94
390.287	391.94
390.512	381.94
390.736	391.94
390.961	385.94
391.186	368.94
391.411	372.94
391.636	388.94
391.86	388.94
392.085	384.94
392.31	379.94
392.534	389.94
392.759	401.94
392.984	400.94
393.208	394.94
393.433	426.94
393.658	417.94
393.882	391.94
394.107	392.94
394.331	398.94
394.556	384.94
394.78	397.94
395.005	383.94
395.229	392.94
395.454	414.94
395.678	377.94
395.903	389.94
396.127	418.94
396.352	429.94
396.576	396.94
396.801	377.94
397.025	400.94
397.249	414.94
397.474	399.94
397.698	401.94
397.922	418.94
398.147	417.94
398.371	414.94
398.595	412.94
398.82	417.94
399.044	431.94
399.268	442.94
399.492	454.94
399.717	462.94
399.941	490.94
400.165	514.94
400.389	513.94
400.613	463.94
400.837	448.94
401.062	424.94
401.286	433.94
401.51	429.94
401.734	419.94
401.958	426.94
402.182	425.94
402.406	439.94
402.63	430.94
402.854	416.94
403.078	427.94
403.302	466.94
403.526	433.94
403.75	438.94
403.974	427.94
404.198	441.94
404.422	455.94
404.645	432.94
404.869	432.94
405.093	466.94
405.317	518.94
405.541	523.94
405.765	472.94
405.988	458.94
406.212	478.94
406.436	495.94
406.66	491.94
406.883	498.94
407.107	497.94
407.331	534.94
407.555	604.94
407.778	570.94
408.002	536.94
408.226	516.94
408.449	494.94
408.673	491.94
408.896	521.94
409.12	534.94
409.344	527.94
409.567	491.94
409.791	480.94
410.014	441.94
410.238	466.94
410.461	448.94
410.685	454.94
410.908	456.94
411.132	489.94
411.355	531.94
411.578	520.94
411.802	466.94
412.025	451.94
412.249	461.94
412.472	490.94
412.695	493.94
412.919	468.94
413.142	457.94
413.365	442.94
413.589	438.94
413.812	442.94
414.035	432.94
414.258	412.94
414.482	427.94
414.705	413.94
414.928	433.94
415.151	447.94
415.374	426.94
415.597	442.94
415.821	441.94
416.044	428.94
416.267	443.94
416.49	420.94
416.713	448.94
416.936	430.94
417.159	436.94
417.382	428.94
417.605	432.94
417.828	452.94
418.051	450.94
418.274	453.94
418.497	448.94
418.72	428.94
418.943	444.94
419.166	445.94
419.389	476.94
419.611	457.94
419.834	456.94
420.057	470.94
420.28	447.94
420.503	451.94
420.726	462.94
420.948	454.94
421.171	494.94
421.394	518.94
421.617	489.94
421.839	467.94
422.062	454.94
422.285	479.94
422.507	529.94
422.73	585.94
422.953	541.94
423.175	493.94
423.398	481.94
423.621	474.94
423.843	500.94
424.066	492.94
424.288	496.94
424.511	511.94
424.733	568.94
424.956	632.94
425.178	612.94
425.401	589.94
425.623	609.94
425.846	507.94
426.068	494.94
426.291	506.94
426.513	503.94
426.735	506.94
426.958	543.94
427.18	617.94
427.402	716.94
427.625	753.94
427.847	686.94
428.069	592.94
428.292	523.94
428.514	490.94
428.736	493.94
428.958	476.94
429.181	469.94
429.403	467.94
429.625	454.94
429.847	506.94
430.069	561.94
430.292	558.94
430.514	473.94
430.736	464.94
430.958	448.94
431.18	464.94
431.402	446.94
431.624	434.94
431.846	433.94
432.068	435.94
432.29	437.94
432.512	437.94
432.734	464.94
432.956	452.94
433.178	475.94
433.4	461.94
433.622	442.94
433.844	426.94
434.066	431.94
434.287	448.94
434.509	446.94
434.731	447.94
434.953	456.94
435.175	466.94
435.397	480.94
435.618	495.94
435.84	524.94
436.062	603.94
436.284	663.94
436.505	569.94
436.727	496.94
436.949	472.94
437.17	466.94
437.392	460.94
437.614	485.94
437.835	495.94
438.057	605.94
438.278	657.94
438.5	667.94
438.721	731.94
438.943	700.94
439.165	558.94
439.386	511.94
439.608	506.94
439.829	522.94
440.05	503.94
440.272	570.94
440.493	524.94
440.715	506.94
440.936	489.94
441.158	491.94
441.379	484.94
441.6	477.94
441.822	496.94
442.043	523.94
442.264	589.94
442.486	660.94
442.707	559.94
442.928	496.94
443.149	517.94
443.371	536.94
443.592	555.94
443.813	650.94
444.034	700.94
444.255	589.94
444.476	537.94
444.698	512.94
444.919	494.94
445.14	601.94
445.361	542.94
445.582	526.94
445.803	568.94
446.024	659.94
446.245	676.94
446.466	615.94
446.687	543.94
446.908	513.94
447.129	503.94
447.35	484.94
447.571	472.94
447.792	462.94
448.013	469.94
448.234	475.94
448.455	534.94
448.675	606.94
448.896	707.94
449.117	615.94
449.338	609.94
449.559	680.94
449.779	726.94
450	614.94
450.221	514.94
450.442	496.94
450.662	481.94
450.883	444.94
451.104	464.94
451.324	466.94
451.545	445.94
451.766	430.94
451.986	441.94
452.207	424.94
452.428	409.94
452.648	407.94
452.869	395.94
453.089	414.94
453.31	413.94
453.53	406.94
453.751	437.94
453.971	401.94
454.192	438.94
454.412	442.94
454.633	413.94
454.853	409.94
455.073	408.94
455.294	433.94
455.514	492.94
455.734	502.94
455.955	430.94
456.175	416.94
456.395	398.94
456.616	372.94
456.836	366.94
457.056	385.94
457.276	385.94
457.497	392.94
457.717	390.94
457.937	391.94
458.157	402.94
458.377	415.94
458.598	420.94
458.818	465.94
459.038	529.94
459.258	550.94
459.478	467.94
459.698	436.94
459.918	446.94
460.138	436.94
460.358	437.94
460.578	436.94
460.798	436.94
461.018	430.94
461.238	420.94
461.458	452.94
461.678	426.94
461.898	428.94
462.118	429.94
462.338	437.94
462.558	440.94
462.777	450.94
462.997	445.94
463.217	478.94
463.437	455.94
463.657	453.94
463.876	435.94
464.096	465.94
464.316	460.94
464.536	462.94
464.755	463.94
464.975	475.94
465.195	501.94
465.414	549.94
465.634	493.94
465.854	497.94
466.073	474.94
466.293	423.94
466.512	417.94
466.732	425.94
466.951	398.94
467.171	417.94
467.391	443.94
467.61	440.94
467.829	446.94
468.049	430.94
468.268	440.94
468.488	403.94
468.707	423.94
468.927	431.94
469.146	413.94
469.365	402.94
469.585	447.94
469.804	408.94
470.023	428.94
470.243	405.94
470.462	435.94
470.681	448.94
470.901	449.94
471.12	432.94
471.339	428.94
471.558	420.94
471.777	423.94
471.997	421.94
472.216	443.94
472.435	463.94
472.654	442.94
472.873	432.94
473.092	417.94
473.311	438.94
473.53	452.94
473.749	462.94
473.968	467.94
474.187	557.94
474.406	565.94
474.625	503.94
474.844	472.94
475.063	452.94
475.282	452.94
475.501	442.94
475.72	439.94
475.939	447.94
476.158	441.94
476.377	436.94
476.596	451.94
476.814	462.94
477.033	454.94
477.252	438.94
477.471	471.94
477.69	476.94
477.908	458.94
478.127	467.94
478.346	488.94
478.564	495.94
478.783	478.94
479.002	481.94
479.22	488.94
479.439	512.94
479.658	526.94
479.876	521.94
480.095	509.94
480.313	556.94
480.532	528.94
480.751	521.94
480.969	531.94
481.188	552.94
481.406	577.94
481.624	566.94
481.843	516.94
482.061	506.94
482.28	510.94
482.498	530.94
482.717	511.94
482.935	507.94
483.153	532.94
483.372	497.94
483.59	520.94
483.808	512.94
484.027	514.94
484.245	536.94
484.463	507.94
484.681	526.94
484.9	513.94
485.118	525.94
485.336	543.94
485.554	538.94
485.772	533.94
485.99	538.94
486.209	543.94
486.427	536.94
486.645	559.94
486.863	565.94
487.081	567.94
487.299	571.94
487.517	547.94
487.735	550.94
487.953	567.94
488.171	580.94
488.389	585.94
488.607	559.94
488.825	566.94
489.043	545.94
489.261	584.94
489.479	576.94
489.696	571.94
489.914	581.94
490.132	586.94
490.35	570.94
490.568	602.94
490.786	613.94
491.003	595.94
491.221	634.94
491.439	662.94
491.657	617.94
491.874	658.94
492.092	665.94
492.31	657.94
492.527	654.94
492.745	672.94
492.963	690.94
493.18	677.94
493.398	664.94
493.615	653.94
493.833	678.94
494.05	660.94
494.268	664.94
494.485	662.94
494.703	662.94
494.92	666.94
495.138	656.94
495.355	686.94
495.573	683.94
495.79	653.94
496.008	660.94
496.225	666.94
496.442	662.94
496.66	692.94
496.877	668.94
497.094	702.94
497.312	677.94
497.529	697.94
497.746	710.94
497.963	681.94
498.181	713.94
498.398	710.94
498.615	717.94
498.832	756.94
499.049	722.94
499.267	763.94
499.484	776.94
499.701	802.94
499.918	809.94
500.135	828.94
500.352	826.94
500.569	862.94
500.786	857.94
501.003	862.94
501.22	839.94
501.437	808.94
501.654	805.94
501.871	812.94
