Data from 1970.PennyLincolnUp.Lamp.En5.5.200Scan.071719.P1._HRD10591_15-15-38-842.txt Node
Date: Thu Jul 18 15:15:38 EDT 2019
User: cochatt
Spectrometer: HR+D1059
Trigger mode: 1
Integration Time (sec): 1.000000E-1
Scans to average: 1
Electric dark correction enabled: true
Nonlinearity correction enabled: false
Boxcar width: 0
XAxis mode: Wavelengths
Number of Pixels in Spectrum: 2048
>>>>>Begin Spectral Data<<<<<
223.165	-11.81
223.4	-11.81
223.635	-11.81
223.869	-24.81
224.104	-16.81
224.338	-19.81
224.573	-12.81
224.808	-17.81
225.042	-11.81
225.277	-5.81
225.511	-4.81
225.746	10.19
225.98	18.19
226.215	14.19
226.449	24.19
226.683	9.19
226.918	17.19
227.152	33.19
227.387	41.19
227.621	29.19
227.856	32.19
228.09	44.19
228.324	52.19
228.559	42.19
228.793	72.19
229.027	112.19
229.262	112.19
229.496	132.19
229.73	151.19
229.964	191.19
230.199	151.19
230.433	116.19
230.667	114.19
230.901	111.19
231.136	123.19
231.37	106.19
231.604	113.19
231.838	117.19
232.072	113.19
232.306	113.19
232.541	118.19
232.775	128.19
233.009	126.19
233.243	127.19
233.477	122.19
233.711	125.19
233.945	136.19
234.179	132.19
234.413	121.19
234.647	125.19
234.881	136.19
235.115	127.19
235.349	127.19
235.583	118.19
235.817	134.19
236.051	130.19
236.285	131.19
236.519	132.19
236.753	150.19
236.987	160.19
237.221	212.19
237.455	267.19
237.689	233.19
237.922	176.19
238.156	143.19
238.39	138.19
238.624	136.19
238.858	150.19
239.091	134.19
239.325	122.19
239.559	141.19
239.793	136.19
240.027	152.19
240.26	156.19
240.494	185.19
240.728	171.19
240.961	175.19
241.195	163.19
241.429	166.19
241.662	154.19
241.896	154.19
242.13	144.19
242.363	131.19
242.597	141.19
242.83	143.19
243.064	148.19
243.298	148.19
243.531	142.19
243.765	160.19
243.998	143.19
244.232	152.19
244.465	158.19
244.699	161.19
244.932	161.19
245.166	159.19
245.399	154.19
245.633	154.19
245.866	174.19
246.099	183.19
246.333	164.19
246.566	166.19
246.8	188.19
247.033	156.19
247.266	173.19
247.5	184.19
247.733	188.19
247.966	188.19
248.2	193.19
248.433	196.19
248.666	198.19
248.899	200.19
249.133	228.19
249.366	224.19
249.599	232.19
249.832	211.19
250.066	213.19
250.299	210.19
250.532	217.19
250.765	239.19
250.998	250.19
251.231	255.19
251.465	264.19
251.698	251.19
251.931	237.19
252.164	228.19
252.397	228.19
252.63	229.19
252.863	258.19
253.096	240.19
253.329	289.19
253.562	274.19
253.795	264.19
254.028	244.19
254.261	243.19
254.494	249.19
254.727	289.19
254.96	307.19
255.193	300.19
255.426	273.19
255.659	261.19
255.892	271.19
256.124	269.19
256.357	269.19
256.59	257.19
256.823	256.19
257.056	241.19
257.289	237.19
257.521	237.19
257.754	256.19
257.987	221.19
258.22	228.19
258.452	221.19
258.685	244.19
258.918	235.19
259.151	233.19
259.383	247.19
259.616	237.19
259.849	241.19
260.081	244.19
260.314	268.19
260.547	281.19
260.779	266.19
261.012	264.19
261.244	250.19
261.477	246.19
261.71	246.19
261.942	241.19
262.175	247.19
262.407	252.19
262.64	233.19
262.872	232.19
263.105	219.19
263.337	224.19
263.57	237.19
263.802	219.19
264.035	218.19
264.267	235.19
264.499	223.19
264.732	234.19
264.964	221.19
265.197	237.19
265.429	223.19
265.661	235.19
265.894	224.19
266.126	239.19
266.358	239.19
266.591	239.19
266.823	245.19
267.055	223.19
267.287	233.19
267.52	234.19
267.752	241.19
267.984	241.19
268.216	238.19
268.448	255.19
268.681	257.19
268.913	249.19
269.145	289.19
269.377	286.19
269.609	301.19
269.841	300.19
270.073	293.19
270.306	328.19
270.538	343.19
270.77	348.19
271.002	324.19
271.234	320.19
271.466	329.19
271.698	338.19
271.93	341.19
272.162	351.19
272.394	341.19
272.626	331.19
272.858	314.19
273.09	311.19
273.322	294.19
273.553	298.19
273.785	280.19
274.017	291.19
274.249	272.19
274.481	281.19
274.713	284.19
274.945	273.19
275.176	290.19
275.408	290.19
275.64	293.19
275.872	264.19
276.104	279.19
276.335	277.19
276.567	289.19
276.799	301.19
277.031	313.19
277.262	347.19
277.494	332.19
277.726	321.19
277.957	319.19
278.189	293.19
278.421	283.19
278.652	280.19
278.884	276.19
279.115	277.19
279.347	280.19
279.579	263.19
279.81	268.19
280.042	276.19
280.273	273.19
280.505	282.19
280.736	252.19
280.968	282.19
281.199	284.19
281.431	274.19
281.662	278.19
281.894	287.19
282.125	282.19
282.356	294.19
282.588	322.19
282.819	318.19
283.051	297.19
283.282	251.19
283.513	282.19
283.745	298.19
283.976	287.19
284.207	284.19
284.439	316.19
284.67	296.19
284.901	286.19
285.132	284.19
285.364	270.19
285.595	272.19
285.826	292.19
286.057	285.19
286.288	272.19
286.52	287.19
286.751	271.19
286.982	300.19
287.213	286.19
287.444	273.19
287.675	288.19
287.906	290.19
288.138	305.19
288.369	316.19
288.6	299.19
288.831	288.19
289.062	302.19
289.293	295.19
289.524	290.19
289.755	302.19
289.986	281.19
290.217	293.19
290.448	262.19
290.679	289.19
290.91	292.19
291.141	292.19
291.371	289.19
291.602	295.19
291.833	283.19
292.064	282.19
292.295	287.19
292.526	260.19
292.757	278.19
292.987	269.19
293.218	293.19
293.449	304.19
293.68	292.19
293.91	294.19
294.141	300.19
294.372	298.19
294.603	293.19
294.833	286.19
295.064	293.19
295.295	304.19
295.525	288.19
295.756	292.19
295.987	310.19
296.217	333.19
296.448	323.19
296.679	315.19
296.909	289.19
297.14	292.19
297.37	297.19
297.601	306.19
297.831	300.19
298.062	306.19
298.292	307.19
298.523	310.19
298.753	310.19
298.984	309.19
299.214	301.19
299.445	306.19
299.675	321.19
299.905	301.19
300.136	313.19
300.366	312.19
300.597	312.19
300.827	319.19
301.057	329.19
301.288	337.19
301.518	330.19
301.748	294.19
301.979	329.19
302.209	327.19
302.439	317.19
302.669	338.19
302.9	321.19
303.13	325.19
303.36	352.19
303.59	326.19
303.82	363.19
304.051	338.19
304.281	334.19
304.511	339.19
304.741	308.19
304.971	333.19
305.201	347.19
305.431	334.19
305.661	350.19
305.891	329.19
306.121	331.19
306.352	335.19
306.582	347.19
306.812	344.19
307.042	347.19
307.272	353.19
307.502	345.19
307.731	352.19
307.961	338.19
308.191	342.19
308.421	334.19
308.651	333.19
308.881	338.19
309.111	337.19
309.341	359.19
309.571	378.19
309.8	374.19
310.03	383.19
310.26	397.19
310.49	381.19
310.72	393.19
310.949	428.19
311.179	394.19
311.409	405.19
311.639	383.19
311.868	386.19
312.098	396.19
312.328	406.19
312.557	408.19
312.787	440.19
313.017	441.19
313.246	402.19
313.476	397.19
313.706	394.19
313.935	412.19
314.165	446.19
314.394	414.19
314.624	409.19
314.853	406.19
315.083	418.19
315.312	389.19
315.542	378.19
315.771	379.19
316.001	380.19
316.23	392.19
316.46	380.19
316.689	397.19
316.919	391.19
317.148	410.19
317.377	410.19
317.607	395.19
317.836	388.19
318.065	385.19
318.295	364.19
318.524	375.19
318.753	378.19
318.983	397.19
319.212	376.19
319.441	382.19
319.67	401.19
319.9	392.19
320.129	393.19
320.358	385.19
320.587	410.19
320.816	392.19
321.046	417.19
321.275	426.19
321.504	410.19
321.733	414.19
321.962	434.19
322.191	445.19
322.42	465.19
322.649	474.19
322.878	480.19
323.108	489.19
323.337	552.19
323.566	560.19
323.795	577.19
324.024	664.19
324.253	810.19
324.482	1150.19
324.71	1768.19
324.939	2508.19
325.168	2193.19
325.397	1184.19
325.626	782.19
325.855	634.19
326.084	577.19
326.313	549.19
326.542	556.19
326.77	633.19
326.999	753.19
327.228	1001.19
327.457	1535.19
327.686	1917.19
327.914	1305.19
328.143	848.19
328.372	749.19
328.6	701.19
328.829	680.19
329.058	659.19
329.287	676.19
329.515	624.19
329.744	577.19
329.972	574.19
330.201	601.19
330.43	651.19
330.658	671.19
330.887	698.19
331.115	704.19
331.344	599.19
331.572	540.19
331.801	519.19
332.03	542.19
332.258	527.19
332.486	489.19
332.715	494.19
332.943	462.19
333.172	453.19
333.4	494.19
333.629	471.19
333.857	492.19
334.085	518.19
334.314	539.19
334.542	593.19
334.771	615.19
334.999	532.19
335.227	497.19
335.455	474.19
335.684	485.19
335.912	470.19
336.14	437.19
336.369	453.19
336.597	469.19
336.825	458.19
337.053	464.19
337.281	462.19
337.51	459.19
337.738	446.19
337.966	453.19
338.194	461.19
338.422	470.19
338.65	461.19
338.878	452.19
339.106	430.19
339.334	437.19
339.562	441.19
339.79	458.19
340.018	421.19
340.246	446.19
340.474	446.19
340.702	454.19
340.93	429.19
341.158	458.19
341.386	448.19
341.614	460.19
341.842	439.19
342.07	430.19
342.298	424.19
342.526	430.19
342.754	448.19
342.981	440.19
343.209	431.19
343.437	457.19
343.665	430.19
343.893	461.19
344.12	469.19
344.348	452.19
344.576	451.19
344.804	443.19
345.031	466.19
345.259	474.19
345.487	471.19
345.714	442.19
345.942	438.19
346.17	459.19
346.397	433.19
346.625	438.19
346.853	430.19
347.08	431.19
347.308	431.19
347.535	449.19
347.763	461.19
347.99	477.19
348.218	465.19
348.445	454.19
348.673	449.19
348.9	443.19
349.128	446.19
349.355	431.19
349.583	410.19
349.81	431.19
350.037	423.19
350.265	433.19
350.492	425.19
350.72	413.19
350.947	409.19
351.174	448.19
351.402	471.19
351.629	447.19
351.856	465.19
352.083	460.19
352.311	472.19
352.538	478.19
352.765	478.19
352.992	460.19
353.22	465.19
353.447	452.19
353.674	441.19
353.901	420.19
354.128	409.19
354.355	408.19
354.583	394.19
354.81	403.19
355.037	410.19
355.264	409.19
355.491	405.19
355.718	399.19
355.945	397.19
356.172	383.19
356.399	402.19
356.626	396.19
356.853	417.19
357.08	417.19
357.307	408.19
357.534	418.19
357.761	424.19
357.988	419.19
358.215	413.19
358.441	426.19
358.668	409.19
358.895	436.19
359.122	444.19
359.349	455.19
359.576	450.19
359.802	494.19
360.029	513.19
360.256	548.19
360.483	520.19
360.709	469.19
360.936	462.19
361.163	452.19
361.39	477.19
361.616	461.19
361.843	452.19
362.07	449.19
362.296	451.19
362.523	452.19
362.749	454.19
362.976	445.19
363.203	425.19
363.429	434.19
363.656	442.19
363.882	434.19
364.109	413.19
364.335	416.19
364.562	430.19
364.788	419.19
365.015	425.19
365.241	420.19
365.468	436.19
365.694	442.19
365.92	440.19
366.147	424.19
366.373	427.19
366.599	432.19
366.826	438.19
367.052	420.19
367.278	419.19
367.505	439.19
367.731	425.19
367.957	440.19
368.184	436.19
368.41	441.19
368.636	424.19
368.862	441.19
369.089	431.19
369.315	432.19
369.541	420.19
369.767	416.19
369.993	421.19
370.219	423.19
370.445	431.19
370.672	420.19
370.898	426.19
371.124	429.19
371.35	409.19
371.576	404.19
371.802	391.19
372.028	421.19
372.254	420.19
372.48	405.19
372.706	416.19
372.932	433.19
373.158	434.19
373.384	426.19
373.61	423.19
373.835	407.19
374.061	430.19
374.287	427.19
374.513	440.19
374.739	426.19
374.965	444.19
375.191	418.19
375.416	412.19
375.642	425.19
375.868	441.19
376.094	421.19
376.319	426.19
376.545	414.19
376.771	426.19
376.997	412.19
377.222	424.19
377.448	429.19
377.674	402.19
377.899	412.19
378.125	419.19
378.35	421.19
378.576	421.19
378.802	415.19
379.027	408.19
379.253	416.19
379.478	415.19
379.704	436.19
379.929	406.19
380.155	430.19
380.38	432.19
380.606	434.19
380.831	428.19
381.057	439.19
381.282	406.19
381.507	442.19
381.733	445.19
381.958	435.19
382.184	427.19
382.409	438.19
382.634	442.19
382.86	438.19
383.085	413.19
383.31	442.19
383.535	442.19
383.761	445.19
383.986	425.19
384.211	428.19
384.436	447.19
384.662	428.19
384.887	456.19
385.112	450.19
385.337	457.19
385.562	446.19
385.787	451.19
386.013	462.19
386.238	485.19
386.463	447.19
386.688	457.19
386.913	449.19
387.138	448.19
387.363	449.19
387.588	450.19
387.813	430.19
388.038	451.19
388.263	455.19
388.488	466.19
388.713	464.19
388.938	438.19
389.163	440.19
389.387	459.19
389.612	459.19
389.837	451.19
390.062	464.19
390.287	449.19
390.512	472.19
390.736	468.19
390.961	455.19
391.186	460.19
391.411	461.19
391.636	440.19
391.86	475.19
392.085	464.19
392.31	445.19
392.534	464.19
392.759	454.19
392.984	459.19
393.208	460.19
393.433	456.19
393.658	462.19
393.882	445.19
394.107	445.19
394.331	453.19
394.556	444.19
394.78	426.19
395.005	457.19
395.229	453.19
395.454	460.19
395.678	472.19
395.903	477.19
396.127	500.19
396.352	521.19
396.576	500.19
396.801	481.19
397.025	493.19
397.249	486.19
397.474	486.19
397.698	493.19
397.922	491.19
398.147	494.19
398.371	524.19
398.595	500.19
398.82	497.19
399.044	518.19
399.268	526.19
399.492	533.19
399.717	535.19
399.941	595.19
400.165	630.19
400.389	637.19
400.613	597.19
400.837	562.19
401.062	541.19
401.286	530.19
401.51	531.19
401.734	522.19
401.958	552.19
402.182	539.19
402.406	552.19
402.63	558.19
402.854	535.19
403.078	538.19
403.302	529.19
403.526	520.19
403.75	536.19
403.974	574.19
404.198	554.19
404.422	542.19
404.645	565.19
404.869	560.19
405.093	608.19
405.317	610.19
405.541	652.19
405.765	598.19
405.988	573.19
406.212	601.19
406.436	610.19
406.66	637.19
406.883	591.19
407.107	619.19
407.331	654.19
407.555	724.19
407.778	739.19
408.002	657.19
408.226	630.19
408.449	609.19
408.673	613.19
408.896	621.19
409.12	687.19
409.344	640.19
409.567	593.19
409.791	569.19
410.014	570.19
410.238	544.19
410.461	537.19
410.685	566.19
410.908	582.19
411.132	635.19
411.355	622.19
411.578	602.19
411.802	577.19
412.025	570.19
412.249	541.19
412.472	544.19
412.695	626.19
412.919	628.19
413.142	580.19
413.365	543.19
413.589	529.19
413.812	542.19
414.035	527.19
414.258	548.19
414.482	540.19
414.705	484.19
414.928	518.19
415.151	523.19
415.374	504.19
415.597	506.19
415.821	531.19
416.044	538.19
416.267	517.19
416.49	548.19
416.713	507.19
416.936	516.19
417.159	518.19
417.382	551.19
417.605	561.19
417.828	584.19
418.051	540.19
418.274	556.19
418.497	540.19
418.72	517.19
418.943	526.19
419.166	539.19
419.389	557.19
419.611	561.19
419.834	559.19
420.057	568.19
420.28	560.19
420.503	545.19
420.726	561.19
420.948	584.19
421.171	637.19
421.394	646.19
421.617	586.19
421.839	556.19
422.062	574.19
422.285	568.19
422.507	637.19
422.73	736.19
422.953	702.19
423.175	607.19
423.398	596.19
423.621	594.19
423.843	607.19
424.066	630.19
424.288	592.19
424.511	641.19
424.733	684.19
424.956	784.19
425.178	759.19
425.401	762.19
425.623	767.19
425.846	658.19
426.068	629.19
426.291	626.19
426.513	619.19
426.735	632.19
426.958	650.19
427.18	752.19
427.402	886.19
427.625	998.19
427.847	909.19
428.069	794.19
428.292	685.19
428.514	637.19
428.736	613.19
428.958	605.19
429.181	570.19
429.403	576.19
429.625	592.19
429.847	636.19
430.069	699.19
430.292	719.19
430.514	604.19
430.736	577.19
430.958	578.19
431.18	551.19
431.402	549.19
431.624	550.19
431.846	540.19
432.068	527.19
432.29	529.19
432.512	538.19
432.734	534.19
432.956	529.19
433.178	534.19
433.4	538.19
433.622	574.19
433.844	529.19
434.066	536.19
434.287	554.19
434.509	542.19
434.731	541.19
434.953	547.19
435.175	571.19
435.397	600.19
435.618	625.19
435.84	683.19
436.062	760.19
436.284	851.19
436.505	712.19
436.727	631.19
436.949	613.19
437.17	595.19
437.392	589.19
437.614	601.19
437.835	618.19
438.057	769.19
438.278	856.19
438.5	866.19
438.721	920.19
438.943	873.19
439.165	708.19
439.386	640.19
439.608	670.19
439.829	642.19
440.05	691.19
440.272	721.19
440.493	687.19
440.715	615.19
440.936	588.19
441.158	589.19
441.379	598.19
441.6	605.19
441.822	630.19
442.043	665.19
442.264	774.19
442.486	794.19
442.707	698.19
442.928	653.19
443.149	639.19
443.371	665.19
443.592	721.19
443.813	817.19
444.034	858.19
444.255	756.19
444.476	636.19
444.698	631.19
444.919	622.19
445.14	760.19
445.361	678.19
445.582	685.19
445.803	776.19
446.024	850.19
446.245	855.19
446.466	801.19
446.687	669.19
446.908	649.19
447.129	608.19
447.35	598.19
447.571	589.19
447.792	599.19
448.013	580.19
448.234	600.19
448.455	664.19
448.675	797.19
448.896	897.19
449.117	766.19
449.338	751.19
449.559	857.19
449.779	912.19
450	770.19
450.221	650.19
450.442	596.19
450.662	586.19
450.883	572.19
451.104	596.19
451.324	583.19
451.545	572.19
451.766	566.19
451.986	517.19
452.207	535.19
452.428	510.19
452.648	516.19
452.869	526.19
453.089	537.19
453.31	556.19
453.53	548.19
453.751	529.19
453.971	538.19
454.192	562.19
454.412	533.19
454.633	532.19
454.853	495.19
455.073	515.19
455.294	553.19
455.514	621.19
455.734	617.19
455.955	533.19
456.175	503.19
456.395	467.19
456.616	484.19
456.836	487.19
457.056	485.19
457.276	478.19
457.497	490.19
457.717	500.19
457.937	484.19
458.157	493.19
458.377	472.19
458.598	536.19
458.818	621.19
459.038	697.19
459.258	694.19
459.478	599.19
459.698	556.19
459.918	538.19
460.138	530.19
460.358	532.19
460.578	536.19
460.798	545.19
461.018	529.19
461.238	519.19
461.458	531.19
461.678	523.19
461.898	524.19
462.118	541.19
462.338	536.19
462.558	502.19
462.777	549.19
462.997	555.19
463.217	557.19
463.437	551.19
463.657	546.19
463.876	554.19
464.096	540.19
464.316	538.19
464.536	555.19
464.755	578.19
464.975	580.19
465.195	634.19
465.414	753.19
465.634	676.19
465.854	590.19
466.073	552.19
466.293	546.19
466.512	532.19
466.732	529.19
466.951	511.19
467.171	508.19
467.391	523.19
467.61	534.19
467.829	557.19
468.049	562.19
468.268	559.19
468.488	548.19
468.707	510.19
468.927	506.19
469.146	504.19
469.365	518.19
469.585	514.19
469.804	516.19
470.023	548.19
470.243	527.19
470.462	546.19
470.681	560.19
470.901	577.19
471.12	566.19
471.339	525.19
471.558	526.19
471.777	541.19
471.997	538.19
472.216	548.19
472.435	588.19
472.654	596.19
472.873	528.19
473.092	528.19
473.311	542.19
473.53	544.19
473.749	549.19
473.968	603.19
474.187	719.19
474.406	713.19
474.625	627.19
474.844	556.19
475.063	541.19
475.282	536.19
475.501	533.19
475.72	531.19
475.939	538.19
476.158	572.19
476.377	574.19
476.596	552.19
476.814	570.19
477.033	590.19
477.252	569.19
477.471	591.19
477.69	574.19
477.908	588.19
478.127	588.19
478.346	577.19
478.564	582.19
478.783	591.19
479.002	587.19
479.22	599.19
479.439	632.19
479.658	628.19
479.876	659.19
480.095	652.19
480.313	681.19
480.532	658.19
480.751	660.19
480.969	654.19
481.188	746.19
481.406	827.19
481.624	742.19
481.843	692.19
482.061	658.19
482.28	664.19
482.498	623.19
482.717	631.19
482.935	636.19
483.153	610.19
483.372	636.19
483.59	652.19
483.808	634.19
484.027	639.19
484.245	624.19
484.463	636.19
484.681	687.19
484.9	680.19
485.118	669.19
485.336	676.19
485.554	667.19
485.772	670.19
485.99	665.19
486.209	656.19
486.427	666.19
486.645	694.19
486.863	693.19
487.081	708.19
487.299	708.19
487.517	686.19
487.735	687.19
487.953	699.19
488.171	700.19
488.389	710.19
488.607	683.19
488.825	685.19
489.043	686.19
489.261	689.19
489.479	684.19
489.696	704.19
489.914	707.19
490.132	737.19
490.35	727.19
490.568	751.19
490.786	747.19
491.003	783.19
491.221	792.19
491.439	776.19
491.657	824.19
491.874	818.19
492.092	817.19
492.31	833.19
492.527	826.19
492.745	811.19
492.963	850.19
493.18	850.19
493.398	855.19
493.615	878.19
493.833	850.19
494.05	846.19
494.268	861.19
494.485	830.19
494.703	847.19
494.92	832.19
495.138	842.19
495.355	830.19
495.573	842.19
495.79	869.19
496.008	842.19
496.225	845.19
496.442	838.19
496.66	866.19
496.877	837.19
497.094	834.19
497.312	857.19
497.529	884.19
497.746	858.19
497.963	891.19
498.181	931.19
498.398	908.19
498.615	893.19
498.832	911.19
499.049	900.19
499.267	925.19
499.484	923.19
499.701	939.19
499.918	955.19
500.135	974.19
500.352	988.19
500.569	1039.19
500.786	1036.19
501.003	1066.19
501.22	1021.19
501.437	1010.19
501.654	1005.19
