Data from 1970.PennyLincolnUp.Lamp.En5.5.200Scan.071719.P1._HRD10591_15-13-19-843.txt Node
Date: Thu Jul 18 15:13:19 EDT 2019
User: cochatt
Spectrometer: HR+D1059
Trigger mode: 1
Integration Time (sec): 1.000000E-1
Scans to average: 1
Electric dark correction enabled: true
Nonlinearity correction enabled: false
Boxcar width: 0
XAxis mode: Wavelengths
Number of Pixels in Spectrum: 2048
>>>>>Begin Spectral Data<<<<<
223.165	-21.69
223.4	-21.69
223.635	-21.69
223.869	-7.69
224.104	-20.69
224.338	-14.69
224.573	-14.69
224.808	-7.69
225.042	-15.69
225.277	0.31
225.511	-3.69
225.746	6.31
225.98	1.31
226.215	14.31
226.449	16.31
226.683	18.31
226.918	15.31
227.152	34.31
227.387	25.31
227.621	28.31
227.856	47.31
228.09	52.31
228.324	47.31
228.559	53.31
228.793	74.31
229.027	89.31
229.262	97.31
229.496	112.31
229.73	117.31
229.964	142.31
230.199	123.31
230.433	106.31
230.667	119.31
230.901	122.31
231.136	101.31
231.37	105.31
231.604	100.31
231.838	101.31
232.072	106.31
232.306	105.31
232.541	112.31
232.775	123.31
233.009	120.31
233.243	105.31
233.477	104.31
233.711	116.31
233.945	104.31
234.179	107.31
234.413	96.31
234.647	108.31
234.881	105.31
235.115	100.31
235.349	106.31
235.583	103.31
235.817	108.31
236.051	114.31
236.285	121.31
236.519	132.31
236.753	117.31
236.987	130.31
237.221	177.31
237.455	213.31
237.689	159.31
237.922	145.31
238.156	122.31
238.39	122.31
238.624	122.31
238.858	125.31
239.091	113.31
239.325	129.31
239.559	111.31
239.793	121.31
240.027	124.31
240.26	139.31
240.494	157.31
240.728	149.31
240.961	142.31
241.195	137.31
241.429	144.31
241.662	114.31
241.896	121.31
242.13	125.31
242.363	121.31
242.597	127.31
242.83	139.31
243.064	130.31
243.298	136.31
243.531	127.31
243.765	133.31
243.998	140.31
244.232	134.31
244.465	133.31
244.699	133.31
244.932	123.31
245.166	130.31
245.399	121.31
245.633	134.31
245.866	138.31
246.099	146.31
246.333	140.31
246.566	130.31
246.8	136.31
247.033	146.31
247.266	149.31
247.5	168.31
247.733	149.31
247.966	183.31
248.2	165.31
248.433	171.31
248.666	180.31
248.899	177.31
249.133	195.31
249.366	199.31
249.599	187.31
249.832	172.31
250.066	165.31
250.299	180.31
250.532	175.31
250.765	178.31
250.998	197.31
251.231	211.31
251.465	220.31
251.698	195.31
251.931	196.31
252.164	215.31
252.397	195.31
252.63	204.31
252.863	195.31
253.096	210.31
253.329	222.31
253.562	228.31
253.795	209.31
254.028	213.31
254.261	206.31
254.494	214.31
254.727	230.31
254.96	274.31
255.193	271.31
255.426	243.31
255.659	243.31
255.892	224.31
256.124	218.31
256.357	209.31
256.59	200.31
256.823	208.31
257.056	188.31
257.289	202.31
257.521	211.31
257.754	184.31
257.987	193.31
258.22	205.31
258.452	207.31
258.685	177.31
258.918	195.31
259.151	184.31
259.383	193.31
259.616	201.31
259.849	188.31
260.081	218.31
260.314	228.31
260.547	224.31
260.779	213.31
261.012	211.31
261.244	197.31
261.477	213.31
261.71	201.31
261.942	214.31
262.175	207.31
262.407	211.31
262.64	207.31
262.872	171.31
263.105	202.31
263.337	199.31
263.57	193.31
263.802	191.31
264.035	169.31
264.267	160.31
264.499	184.31
264.732	194.31
264.964	190.31
265.197	178.31
265.429	187.31
265.661	180.31
265.894	189.31
266.126	194.31
266.358	192.31
266.591	188.31
266.823	185.31
267.055	196.31
267.287	200.31
267.52	198.31
267.752	218.31
267.984	188.31
268.216	219.31
268.448	193.31
268.681	209.31
268.913	213.31
269.145	219.31
269.377	236.31
269.609	235.31
269.841	228.31
270.073	232.31
270.306	256.31
270.538	269.31
270.77	279.31
271.002	267.31
271.234	263.31
271.466	254.31
271.698	264.31
271.93	261.31
272.162	290.31
272.394	281.31
272.626	261.31
272.858	266.31
273.09	243.31
273.322	230.31
273.553	226.31
273.785	220.31
274.017	218.31
274.249	236.31
274.481	222.31
274.713	236.31
274.945	246.31
275.176	235.31
275.408	223.31
275.64	217.31
275.872	226.31
276.104	220.31
276.335	200.31
276.567	217.31
276.799	242.31
277.031	255.31
277.262	261.31
277.494	260.31
277.726	256.31
277.957	248.31
278.189	238.31
278.421	221.31
278.652	227.31
278.884	231.31
279.115	220.31
279.347	225.31
279.579	242.31
279.81	218.31
280.042	217.31
280.273	211.31
280.505	222.31
280.736	235.31
280.968	217.31
281.199	217.31
281.431	219.31
281.662	223.31
281.894	232.31
282.125	258.31
282.356	215.31
282.588	241.31
282.819	258.31
283.051	234.31
283.282	233.31
283.513	225.31
283.745	229.31
283.976	235.31
284.207	237.31
284.439	245.31
284.67	256.31
284.901	222.31
285.132	231.31
285.364	220.31
285.595	242.31
285.826	241.31
286.057	236.31
286.288	225.31
286.52	224.31
286.751	224.31
286.982	243.31
287.213	243.31
287.444	205.31
287.675	228.31
287.906	241.31
288.138	260.31
288.369	252.31
288.6	229.31
288.831	256.31
289.062	266.31
289.293	247.31
289.524	239.31
289.755	230.31
289.986	234.31
290.217	234.31
290.448	228.31
290.679	244.31
290.91	244.31
291.141	240.31
291.371	236.31
291.602	245.31
291.833	225.31
292.064	243.31
292.295	255.31
292.526	226.31
292.757	243.31
292.987	247.31
293.218	239.31
293.449	237.31
293.68	248.31
293.91	233.31
294.141	219.31
294.372	223.31
294.603	241.31
294.833	240.31
295.064	245.31
295.295	245.31
295.525	247.31
295.756	251.31
295.987	235.31
296.217	266.31
296.448	263.31
296.679	243.31
296.909	246.31
297.14	231.31
297.37	264.31
297.601	232.31
297.831	256.31
298.062	240.31
298.292	250.31
298.523	289.31
298.753	256.31
298.984	248.31
299.214	263.31
299.445	230.31
299.675	246.31
299.905	261.31
300.136	246.31
300.366	251.31
300.597	237.31
300.827	269.31
301.057	268.31
301.288	262.31
301.518	244.31
301.748	265.31
301.979	265.31
302.209	268.31
302.439	270.31
302.669	264.31
302.9	250.31
303.13	284.31
303.36	276.31
303.59	277.31
303.82	267.31
304.051	276.31
304.281	249.31
304.511	283.31
304.741	288.31
304.971	277.31
305.201	269.31
305.431	286.31
305.661	276.31
305.891	273.31
306.121	262.31
306.352	276.31
306.582	292.31
306.812	262.31
307.042	257.31
307.272	262.31
307.502	275.31
307.731	260.31
307.961	271.31
308.191	270.31
308.421	262.31
308.651	273.31
308.881	282.31
309.111	295.31
309.341	276.31
309.571	287.31
309.8	289.31
310.03	297.31
310.26	308.31
310.49	311.31
310.72	306.31
310.949	312.31
311.179	332.31
311.409	327.31
311.639	304.31
311.868	311.31
312.098	311.31
312.328	328.31
312.557	309.31
312.787	340.31
313.017	326.31
313.246	315.31
313.476	306.31
313.706	307.31
313.935	315.31
314.165	336.31
314.394	325.31
314.624	328.31
314.853	323.31
315.083	321.31
315.312	313.31
315.542	317.31
315.771	321.31
316.001	310.31
316.23	300.31
316.46	294.31
316.689	297.31
316.919	305.31
317.148	326.31
317.377	346.31
317.607	298.31
317.836	332.31
318.065	294.31
318.295	305.31
318.524	311.31
318.753	323.31
318.983	306.31
319.212	312.31
319.441	303.31
319.67	336.31
319.9	309.31
320.129	320.31
320.358	320.31
320.587	323.31
320.816	307.31
321.046	336.31
321.275	329.31
321.504	313.31
321.733	338.31
321.962	330.31
322.191	347.31
322.42	364.31
322.649	379.31
322.878	371.31
323.108	391.31
323.337	399.31
323.566	435.31
323.795	440.31
324.024	468.31
324.253	561.31
324.482	786.31
324.71	1172.31
324.939	1695.31
325.168	1421.31
325.397	790.31
325.626	553.31
325.855	454.31
326.084	405.31
326.313	421.31
326.542	424.31
326.77	465.31
326.999	538.31
327.228	693.31
327.457	1061.31
327.686	1273.31
327.914	883.31
328.143	616.31
328.372	509.31
328.6	474.31
328.829	458.31
329.058	461.31
329.287	466.31
329.515	456.31
329.744	426.31
329.972	412.31
330.201	420.31
330.43	453.31
330.658	461.31
330.887	500.31
331.115	485.31
331.344	433.31
331.572	419.31
331.801	391.31
332.03	404.31
332.258	383.31
332.486	403.31
332.715	355.31
332.943	362.31
333.172	361.31
333.4	387.31
333.629	382.31
333.857	390.31
334.085	397.31
334.314	393.31
334.542	427.31
334.771	432.31
334.999	389.31
335.227	403.31
335.455	380.31
335.684	379.31
335.912	372.31
336.14	370.31
336.369	369.31
336.597	365.31
336.825	392.31
337.053	366.31
337.281	355.31
337.51	349.31
337.738	384.31
337.966	363.31
338.194	357.31
338.422	361.31
338.65	377.31
338.878	355.31
339.106	348.31
339.334	337.31
339.562	368.31
339.79	348.31
340.018	362.31
340.246	377.31
340.474	384.31
340.702	368.31
340.93	358.31
341.158	369.31
341.386	338.31
341.614	352.31
341.842	347.31
342.07	341.31
342.298	355.31
342.526	341.31
342.754	345.31
342.981	362.31
343.209	356.31
343.437	338.31
343.665	348.31
343.893	341.31
344.12	354.31
344.348	360.31
344.576	354.31
344.804	385.31
345.031	371.31
345.259	378.31
345.487	381.31
345.714	373.31
345.942	368.31
346.17	347.31
346.397	360.31
346.625	341.31
346.853	354.31
347.08	360.31
347.308	371.31
347.535	350.31
347.763	345.31
347.99	361.31
348.218	359.31
348.445	368.31
348.673	354.31
348.9	343.31
349.128	358.31
349.355	344.31
349.583	332.31
349.81	357.31
350.037	338.31
350.265	346.31
350.492	339.31
350.72	337.31
350.947	349.31
351.174	357.31
351.402	363.31
351.629	359.31
351.856	377.31
352.083	351.31
352.311	363.31
352.538	376.31
352.765	351.31
352.992	359.31
353.22	353.31
353.447	343.31
353.674	338.31
353.901	332.31
354.128	321.31
354.355	349.31
354.583	332.31
354.81	348.31
355.037	333.31
355.264	321.31
355.491	322.31
355.718	335.31
355.945	347.31
356.172	317.31
356.399	340.31
356.626	335.31
356.853	336.31
357.08	314.31
357.307	331.31
357.534	329.31
357.761	341.31
357.988	347.31
358.215	352.31
358.441	336.31
358.668	348.31
358.895	341.31
359.122	356.31
359.349	337.31
359.576	357.31
359.802	377.31
360.029	381.31
360.256	384.31
360.483	405.31
360.709	361.31
360.936	353.31
361.163	370.31
361.39	356.31
361.616	355.31
361.843	371.31
362.07	349.31
362.296	369.31
362.523	346.31
362.749	337.31
362.976	370.31
363.203	349.31
363.429	360.31
363.656	337.31
363.882	349.31
364.109	369.31
364.335	349.31
364.562	336.31
364.788	359.31
365.015	350.31
365.241	334.31
365.468	336.31
365.694	332.31
365.92	365.31
366.147	355.31
366.373	356.31
366.599	343.31
366.826	337.31
367.052	364.31
367.278	361.31
367.505	334.31
367.731	327.31
367.957	343.31
368.184	362.31
368.41	350.31
368.636	360.31
368.862	367.31
369.089	356.31
369.315	360.31
369.541	348.31
369.767	348.31
369.993	353.31
370.219	340.31
370.445	338.31
370.672	344.31
370.898	362.31
371.124	343.31
371.35	348.31
371.576	350.31
371.802	341.31
372.028	368.31
372.254	360.31
372.48	337.31
372.706	343.31
372.932	345.31
373.158	363.31
373.384	349.31
373.61	345.31
373.835	371.31
374.061	343.31
374.287	359.31
374.513	352.31
374.739	377.31
374.965	357.31
375.191	357.31
375.416	353.31
375.642	335.31
375.868	372.31
376.094	360.31
376.319	353.31
376.545	351.31
376.771	346.31
376.997	349.31
377.222	371.31
377.448	364.31
377.674	359.31
377.899	339.31
378.125	351.31
378.35	378.31
378.576	361.31
378.802	354.31
379.027	368.31
379.253	369.31
379.478	360.31
379.704	367.31
379.929	375.31
380.155	341.31
380.38	371.31
380.606	373.31
380.831	357.31
381.057	383.31
381.282	346.31
381.507	351.31
381.733	367.31
381.958	343.31
382.184	360.31
382.409	352.31
382.634	367.31
382.86	362.31
383.085	371.31
383.31	359.31
383.535	374.31
383.761	388.31
383.986	356.31
384.211	377.31
384.436	377.31
384.662	383.31
384.887	365.31
385.112	367.31
385.337	377.31
385.562	372.31
385.787	391.31
386.013	391.31
386.238	382.31
386.463	380.31
386.688	393.31
386.913	389.31
387.138	400.31
387.363	383.31
387.588	395.31
387.813	384.31
388.038	397.31
388.263	397.31
388.488	385.31
388.713	391.31
388.938	383.31
389.163	391.31
389.387	384.31
389.612	393.31
389.837	379.31
390.062	373.31
390.287	379.31
390.512	403.31
390.736	385.31
390.961	385.31
391.186	383.31
391.411	369.31
391.636	383.31
391.86	409.31
392.085	391.31
392.31	384.31
392.534	380.31
392.759	405.31
392.984	403.31
393.208	406.31
393.433	400.31
393.658	408.31
393.882	408.31
394.107	400.31
394.331	400.31
394.556	385.31
394.78	386.31
395.005	398.31
395.229	394.31
395.454	383.31
395.678	390.31
395.903	416.31
396.127	439.31
396.352	423.31
396.576	410.31
396.801	405.31
397.025	431.31
397.249	408.31
397.474	411.31
397.698	407.31
397.922	439.31
398.147	426.31
398.371	431.31
398.595	435.31
398.82	430.31
399.044	427.31
399.268	433.31
399.492	450.31
399.717	474.31
399.941	509.31
400.165	496.31
400.389	512.31
400.613	511.31
400.837	480.31
401.062	464.31
401.286	453.31
401.51	453.31
401.734	416.31
401.958	420.31
402.182	447.31
402.406	450.31
402.63	442.31
402.854	453.31
403.078	453.31
403.302	447.31
403.526	458.31
403.75	442.31
403.974	458.31
404.198	438.31
404.422	462.31
404.645	468.31
404.869	453.31
405.093	475.31
405.317	513.31
405.541	549.31
405.765	530.31
405.988	471.31
406.212	473.31
406.436	509.31
406.66	515.31
406.883	494.31
407.107	530.31
407.331	547.31
407.555	601.31
407.778	610.31
408.002	541.31
408.226	537.31
408.449	495.31
408.673	472.31
408.896	529.31
409.12	574.31
409.344	553.31
409.567	487.31
409.791	477.31
410.014	464.31
410.238	449.31
410.461	464.31
410.685	484.31
410.908	494.31
411.132	513.31
411.355	532.31
411.578	532.31
411.802	479.31
412.025	477.31
412.249	485.31
412.472	476.31
412.695	517.31
412.919	519.31
413.142	485.31
413.365	458.31
413.589	461.31
413.812	437.31
414.035	460.31
414.258	441.31
414.482	436.31
414.705	435.31
414.928	415.31
415.151	436.31
415.374	435.31
415.597	423.31
415.821	427.31
416.044	432.31
416.267	431.31
416.49	447.31
416.713	421.31
416.936	440.31
417.159	437.31
417.382	437.31
417.605	438.31
417.828	479.31
418.051	469.31
418.274	453.31
418.497	445.31
418.72	452.31
418.943	447.31
419.166	443.31
419.389	480.31
419.611	449.31
419.834	460.31
420.057	438.31
420.28	482.31
420.503	456.31
420.726	462.31
420.948	497.31
421.171	511.31
421.394	530.31
421.617	503.31
421.839	469.31
422.062	461.31
422.285	500.31
422.507	531.31
422.73	567.31
422.953	590.31
423.175	511.31
423.398	496.31
423.621	499.31
423.843	516.31
424.066	502.31
424.288	513.31
424.511	497.31
424.733	559.31
424.956	642.31
425.178	603.31
425.401	611.31
425.623	615.31
425.846	562.31
426.068	513.31
426.291	526.31
426.513	504.31
426.735	500.31
426.958	547.31
427.18	625.31
427.402	739.31
427.625	792.31
427.847	709.31
428.069	643.31
428.292	560.31
428.514	547.31
428.736	498.31
428.958	497.31
429.181	470.31
429.403	477.31
429.625	471.31
429.847	509.31
430.069	601.31
430.292	553.31
430.514	509.31
430.736	465.31
430.958	476.31
431.18	462.31
431.402	447.31
431.624	441.31
431.846	439.31
432.068	436.31
432.29	466.31
432.512	422.31
432.734	437.31
432.956	447.31
433.178	466.31
433.4	504.31
433.622	444.31
433.844	443.31
434.066	434.31
434.287	449.31
434.509	470.31
434.731	478.31
434.953	468.31
435.175	485.31
435.397	513.31
435.618	519.31
435.84	534.31
436.062	630.31
436.284	697.31
436.505	587.31
436.727	530.31
436.949	519.31
437.17	480.31
437.392	485.31
437.614	499.31
437.835	528.31
438.057	618.31
438.278	697.31
438.5	721.31
438.721	754.31
438.943	727.31
439.165	564.31
439.386	536.31
439.608	525.31
439.829	518.31
440.05	551.31
440.272	571.31
440.493	560.31
440.715	529.31
440.936	501.31
441.158	482.31
441.379	485.31
441.6	492.31
441.822	490.31
442.043	538.31
442.264	625.31
442.486	631.31
442.707	544.31
442.928	527.31
443.149	530.31
443.371	555.31
443.592	591.31
443.813	661.31
444.034	689.31
444.255	592.31
444.476	556.31
444.698	548.31
444.919	514.31
445.14	625.31
445.361	565.31
445.582	551.31
445.803	596.31
446.024	689.31
446.245	690.31
446.466	635.31
446.687	565.31
446.908	529.31
447.129	495.31
447.35	471.31
447.571	495.31
447.792	481.31
448.013	467.31
448.234	478.31
448.455	553.31
448.675	619.31
448.896	730.31
449.117	645.31
449.338	630.31
449.559	687.31
449.779	765.31
450	616.31
450.221	505.31
450.442	460.31
450.662	485.31
450.883	482.31
451.104	490.31
451.324	485.31
451.545	476.31
451.766	469.31
451.986	440.31
452.207	433.31
452.428	402.31
452.648	423.31
452.869	416.31
453.089	421.31
453.31	452.31
453.53	443.31
453.751	441.31
453.971	421.31
454.192	460.31
454.412	421.31
454.633	415.31
454.853	422.31
455.073	419.31
455.294	449.31
455.514	503.31
455.734	488.31
455.955	438.31
456.175	410.31
456.395	396.31
456.616	414.31
456.836	397.31
457.056	392.31
457.276	406.31
457.497	394.31
457.717	405.31
457.937	397.31
458.157	409.31
458.377	425.31
458.598	428.31
458.818	497.31
459.038	523.31
459.258	556.31
459.478	482.31
459.698	469.31
459.918	451.31
460.138	437.31
460.358	447.31
460.578	450.31
460.798	433.31
461.018	434.31
461.238	455.31
461.458	457.31
461.678	438.31
461.898	465.31
462.118	454.31
462.338	460.31
462.558	461.31
462.777	458.31
462.997	469.31
463.217	453.31
463.437	477.31
463.657	471.31
463.876	458.31
464.096	495.31
464.316	476.31
464.536	469.31
464.755	472.31
464.975	489.31
465.195	484.31
465.414	543.31
465.634	515.31
465.854	496.31
466.073	468.31
466.293	461.31
466.512	440.31
466.732	421.31
466.951	439.31
467.171	439.31
467.391	433.31
467.61	428.31
467.829	447.31
468.049	424.31
468.268	429.31
468.488	449.31
468.707	417.31
468.927	438.31
469.146	424.31
469.365	438.31
469.585	449.31
469.804	435.31
470.023	445.31
470.243	442.31
470.462	448.31
470.681	460.31
470.901	457.31
471.12	454.31
471.339	447.31
471.558	456.31
471.777	464.31
471.997	442.31
472.216	451.31
472.435	444.31
472.654	451.31
472.873	424.31
473.092	442.31
473.311	438.31
473.53	448.31
473.749	440.31
473.968	486.31
474.187	594.31
474.406	572.31
474.625	517.31
474.844	468.31
475.063	460.31
475.282	448.31
475.501	461.31
475.72	468.31
475.939	452.31
476.158	448.31
476.377	446.31
476.596	464.31
476.814	475.31
477.033	482.31
477.252	470.31
477.471	477.31
477.69	465.31
477.908	496.31
478.127	484.31
478.346	488.31
478.564	481.31
478.783	504.31
479.002	504.31
479.22	493.31
479.439	515.31
479.658	536.31
479.876	535.31
480.095	514.31
480.313	556.31
480.532	554.31
480.751	522.31
480.969	519.31
481.188	604.31
481.406	597.31
481.624	567.31
481.843	518.31
482.061	523.31
482.28	521.31
482.498	523.31
482.717	523.31
482.935	543.31
483.153	545.31
483.372	529.31
483.59	538.31
483.808	520.31
484.027	513.31
484.245	525.31
484.463	537.31
484.681	545.31
484.9	545.31
485.118	547.31
485.336	535.31
485.554	526.31
485.772	535.31
485.99	541.31
486.209	551.31
486.427	559.31
486.645	553.31
486.863	596.31
487.081	576.31
487.299	575.31
487.517	574.31
487.735	566.31
487.953	588.31
488.171	586.31
488.389	581.31
488.607	575.31
488.825	599.31
489.043	588.31
489.261	600.31
489.479	582.31
489.696	595.31
489.914	607.31
490.132	620.31
490.35	619.31
490.568	632.31
490.786	615.31
491.003	613.31
491.221	652.31
491.439	645.31
491.657	654.31
491.874	674.31
492.092	668.31
492.31	680.31
492.527	701.31
492.745	684.31
492.963	663.31
493.18	695.31
493.398	697.31
493.615	683.31
493.833	685.31
494.05	705.31
494.268	701.31
494.485	689.31
494.703	703.31
494.92	704.31
495.138	696.31
495.355	703.31
495.573	700.31
495.79	689.31
496.008	703.31
496.225	723.31
496.442	696.31
496.66	713.31
496.877	662.31
497.094	701.31
497.312	716.31
497.529	724.31
497.746	715.31
497.963	716.31
498.181	748.31
498.398	738.31
498.615	752.31
498.832	740.31
499.049	744.31
499.267	792.31
499.484	815.31
499.701	799.31
499.918	832.31
500.135	863.31
500.352	877.31
500.569	891.31
500.786	881.31
501.003	891.31
501.22	857.31
501.437	877.31
501.654	804.31
501.871	833.31
502.088	820.31
