Data from 1970.PennyLincolnUp.Lamp.En5.5.200Scan.071719.P1._HRD10591_15-14-17-842.txt Node
Date: Thu Jul 18 15:14:17 EDT 2019
User: cochatt
Spectrometer: HR+D1059
Trigger mode: 1
Integration Time (sec): 1.000000E-1
Scans to average: 1
Electric dark correction enabled: true
Nonlinearity correction enabled: false
Boxcar width: 0
XAxis mode: Wavelengths
Number of Pixels in Spectrum: 2048
>>>>>Begin Spectral Data<<<<<
223.165	-3.12
223.4	-3.12
223.635	-3.12
223.869	-27.12
224.104	-24.12
224.338	-3.12
224.573	-12.12
224.808	-7.12
225.042	-10.12
225.277	-9.12
225.511	8.88
225.746	-7.12
225.98	8.88
226.215	8.88
226.449	17.88
226.683	16.88
226.918	17.88
227.152	23.88
227.387	46.88
227.621	42.88
227.856	43.88
228.09	42.88
228.324	49.88
228.559	57.88
228.793	66.88
229.027	115.88
229.262	110.88
229.496	126.88
229.73	143.88
229.964	172.88
230.199	143.88
230.433	113.88
230.667	122.88
230.901	117.88
231.136	112.88
231.37	112.88
231.604	113.88
231.838	106.88
232.072	114.88
232.306	118.88
232.541	110.88
232.775	101.88
233.009	121.88
233.243	113.88
233.477	121.88
233.711	124.88
233.945	130.88
234.179	129.88
234.413	121.88
234.647	120.88
234.881	112.88
235.115	126.88
235.349	137.88
235.583	130.88
235.817	120.88
236.051	134.88
236.285	142.88
236.519	129.88
236.753	139.88
236.987	160.88
237.221	198.88
237.455	261.88
237.689	217.88
237.922	160.88
238.156	150.88
238.39	151.88
238.624	141.88
238.858	133.88
239.091	140.88
239.325	125.88
239.559	136.88
239.793	134.88
240.027	142.88
240.26	147.88
240.494	181.88
240.728	171.88
240.961	152.88
241.195	149.88
241.429	160.88
241.662	136.88
241.896	130.88
242.13	140.88
242.363	143.88
242.597	140.88
242.83	144.88
243.064	138.88
243.298	149.88
243.531	158.88
243.765	165.88
243.998	135.88
244.232	139.88
244.465	132.88
244.699	155.88
244.932	151.88
245.166	157.88
245.399	149.88
245.633	139.88
245.866	159.88
246.099	168.88
246.333	161.88
246.566	167.88
246.8	164.88
247.033	169.88
247.266	174.88
247.5	173.88
247.733	192.88
247.966	190.88
248.2	183.88
248.433	202.88
248.666	200.88
248.899	192.88
249.133	215.88
249.366	242.88
249.599	222.88
249.832	201.88
250.066	216.88
250.299	192.88
250.532	217.88
250.765	222.88
250.998	244.88
251.231	251.88
251.465	242.88
251.698	235.88
251.931	228.88
252.164	219.88
252.397	214.88
252.63	225.88
252.863	233.88
253.096	247.88
253.329	254.88
253.562	251.88
253.795	233.88
254.028	234.88
254.261	234.88
254.494	269.88
254.727	277.88
254.96	296.88
255.193	295.88
255.426	283.88
255.659	260.88
255.892	265.88
256.124	240.88
256.357	248.88
256.59	247.88
256.823	244.88
257.056	248.88
257.289	220.88
257.521	249.88
257.754	232.88
257.987	224.88
258.22	240.88
258.452	209.88
258.685	221.88
258.918	232.88
259.151	236.88
259.383	230.88
259.616	232.88
259.849	235.88
260.081	246.88
260.314	271.88
260.547	272.88
260.779	258.88
261.012	253.88
261.244	245.88
261.477	236.88
261.71	250.88
261.942	272.88
262.175	268.88
262.407	248.88
262.64	230.88
262.872	237.88
263.105	228.88
263.337	229.88
263.57	199.88
263.802	210.88
264.035	224.88
264.267	206.88
264.499	225.88
264.732	232.88
264.964	206.88
265.197	217.88
265.429	209.88
265.661	220.88
265.894	226.88
266.126	211.88
266.358	216.88
266.591	228.88
266.823	235.88
267.055	242.88
267.287	240.88
267.52	225.88
267.752	232.88
267.984	228.88
268.216	218.88
268.448	253.88
268.681	240.88
268.913	265.88
269.145	274.88
269.377	296.88
269.609	300.88
269.841	281.88
270.073	292.88
270.306	309.88
270.538	331.88
270.77	333.88
271.002	325.88
271.234	334.88
271.466	338.88
271.698	355.88
271.93	342.88
272.162	325.88
272.394	331.88
272.626	333.88
272.858	306.88
273.09	282.88
273.322	285.88
273.553	288.88
273.785	275.88
274.017	277.88
274.249	269.88
274.481	275.88
274.713	261.88
274.945	276.88
275.176	271.88
275.408	268.88
275.64	260.88
275.872	273.88
276.104	264.88
276.335	280.88
276.567	291.88
276.799	288.88
277.031	312.88
277.262	321.88
277.494	313.88
277.726	311.88
277.957	294.88
278.189	292.88
278.421	267.88
278.652	280.88
278.884	264.88
279.115	276.88
279.347	264.88
279.579	279.88
279.81	282.88
280.042	260.88
280.273	264.88
280.505	274.88
280.736	279.88
280.968	268.88
281.199	261.88
281.431	244.88
281.662	274.88
281.894	266.88
282.125	269.88
282.356	278.88
282.588	299.88
282.819	320.88
283.051	293.88
283.282	297.88
283.513	271.88
283.745	252.88
283.976	261.88
284.207	269.88
284.439	279.88
284.67	281.88
284.901	266.88
285.132	278.88
285.364	243.88
285.595	269.88
285.826	270.88
286.057	278.88
286.288	275.88
286.52	287.88
286.751	284.88
286.982	283.88
287.213	288.88
287.444	283.88
287.675	274.88
287.906	285.88
288.138	296.88
288.369	279.88
288.6	293.88
288.831	275.88
289.062	287.88
289.293	284.88
289.524	266.88
289.755	285.88
289.986	292.88
290.217	274.88
290.448	280.88
290.679	269.88
290.91	303.88
291.141	288.88
291.371	273.88
291.602	275.88
291.833	285.88
292.064	281.88
292.295	268.88
292.526	290.88
292.757	270.88
292.987	281.88
293.218	283.88
293.449	267.88
293.68	274.88
293.91	260.88
294.141	288.88
294.372	288.88
294.603	298.88
294.833	298.88
295.064	281.88
295.295	274.88
295.525	283.88
295.756	312.88
295.987	310.88
296.217	328.88
296.448	329.88
296.679	294.88
296.909	294.88
297.14	290.88
297.37	289.88
297.601	296.88
297.831	295.88
298.062	308.88
298.292	276.88
298.523	307.88
298.753	288.88
298.984	294.88
299.214	306.88
299.445	312.88
299.675	310.88
299.905	308.88
300.136	314.88
300.366	281.88
300.597	323.88
300.827	312.88
301.057	306.88
301.288	305.88
301.518	315.88
301.748	311.88
301.979	330.88
302.209	291.88
302.439	321.88
302.669	324.88
302.9	311.88
303.13	313.88
303.36	313.88
303.59	329.88
303.82	340.88
304.051	324.88
304.281	325.88
304.511	331.88
304.741	293.88
304.971	318.88
305.201	315.88
305.431	318.88
305.661	329.88
305.891	333.88
306.121	323.88
306.352	321.88
306.582	336.88
306.812	324.88
307.042	336.88
307.272	330.88
307.502	318.88
307.731	325.88
307.961	324.88
308.191	329.88
308.421	348.88
308.651	333.88
308.881	320.88
309.111	356.88
309.341	330.88
309.571	352.88
309.8	354.88
310.03	360.88
310.26	386.88
310.49	365.88
310.72	386.88
310.949	400.88
311.179	395.88
311.409	364.88
311.639	395.88
311.868	377.88
312.098	386.88
312.328	374.88
312.557	421.88
312.787	436.88
313.017	407.88
313.246	386.88
313.476	374.88
313.706	371.88
313.935	379.88
314.165	397.88
314.394	406.88
314.624	399.88
314.853	378.88
315.083	397.88
315.312	380.88
315.542	361.88
315.771	388.88
316.001	372.88
316.23	376.88
316.46	381.88
316.689	392.88
316.919	389.88
317.148	395.88
317.377	385.88
317.607	397.88
317.836	378.88
318.065	362.88
318.295	386.88
318.524	370.88
318.753	382.88
318.983	390.88
319.212	364.88
319.441	382.88
319.67	374.88
319.9	364.88
320.129	375.88
320.358	394.88
320.587	393.88
320.816	388.88
321.046	421.88
321.275	404.88
321.504	406.88
321.733	409.88
321.962	423.88
322.191	431.88
322.42	452.88
322.649	444.88
322.878	484.88
323.108	499.88
323.337	506.88
323.566	538.88
323.795	562.88
324.024	586.88
324.253	760.88
324.482	1096.88
324.71	1661.88
324.939	2338.88
325.168	2068.88
325.397	1112.88
325.626	740.88
325.855	605.88
326.084	557.88
326.313	562.88
326.542	547.88
326.77	582.88
326.999	706.88
327.228	941.88
327.457	1472.88
327.686	1810.88
327.914	1226.88
328.143	802.88
328.372	722.88
328.6	658.88
328.829	617.88
329.058	628.88
329.287	662.88
329.515	602.88
329.744	560.88
329.972	546.88
330.201	575.88
330.43	637.88
330.658	656.88
330.887	674.88
331.115	640.88
331.344	568.88
331.572	541.88
331.801	534.88
332.03	513.88
332.258	497.88
332.486	468.88
332.715	454.88
332.943	466.88
333.172	459.88
333.4	470.88
333.629	485.88
333.857	496.88
334.085	494.88
334.314	512.88
334.542	552.88
334.771	572.88
334.999	527.88
335.227	500.88
335.455	476.88
335.684	468.88
335.912	458.88
336.14	442.88
336.369	449.88
336.597	456.88
336.825	450.88
337.053	436.88
337.281	441.88
337.51	444.88
337.738	455.88
337.966	454.88
338.194	451.88
338.422	448.88
338.65	436.88
338.878	432.88
339.106	432.88
339.334	427.88
339.562	433.88
339.79	441.88
340.018	413.88
340.246	442.88
340.474	452.88
340.702	442.88
340.93	425.88
341.158	440.88
341.386	419.88
341.614	441.88
341.842	440.88
342.07	442.88
342.298	436.88
342.526	416.88
342.754	417.88
342.981	427.88
343.209	414.88
343.437	412.88
343.665	411.88
343.893	436.88
344.12	428.88
344.348	434.88
344.576	443.88
344.804	440.88
345.031	449.88
345.259	481.88
345.487	450.88
345.714	457.88
345.942	436.88
346.17	454.88
346.397	433.88
346.625	418.88
346.853	426.88
347.08	418.88
347.308	439.88
347.535	450.88
347.763	456.88
347.99	457.88
348.218	432.88
348.445	453.88
348.673	444.88
348.9	427.88
349.128	429.88
349.355	424.88
349.583	420.88
349.81	417.88
350.037	413.88
350.265	445.88
350.492	413.88
350.72	410.88
350.947	437.88
351.174	444.88
351.402	433.88
351.629	439.88
351.856	429.88
352.083	430.88
352.311	451.88
352.538	464.88
352.765	471.88
352.992	444.88
353.22	460.88
353.447	437.88
353.674	416.88
353.901	410.88
354.128	393.88
354.355	408.88
354.583	413.88
354.81	411.88
355.037	382.88
355.264	393.88
355.491	385.88
355.718	379.88
355.945	398.88
356.172	393.88
356.399	407.88
356.626	394.88
356.853	408.88
357.08	411.88
357.307	394.88
357.534	397.88
357.761	402.88
357.988	385.88
358.215	391.88
358.441	389.88
358.668	393.88
358.895	399.88
359.122	413.88
359.349	440.88
359.576	438.88
359.802	466.88
360.029	493.88
360.256	530.88
360.483	497.88
360.709	450.88
360.936	450.88
361.163	433.88
361.39	450.88
361.616	456.88
361.843	448.88
362.07	438.88
362.296	464.88
362.523	433.88
362.749	435.88
362.976	413.88
363.203	415.88
363.429	416.88
363.656	429.88
363.882	420.88
364.109	421.88
364.335	417.88
364.562	435.88
364.788	409.88
365.015	392.88
365.241	409.88
365.468	421.88
365.694	408.88
365.92	440.88
366.147	409.88
366.373	399.88
366.599	418.88
366.826	408.88
367.052	412.88
367.278	412.88
367.505	406.88
367.731	416.88
367.957	420.88
368.184	427.88
368.41	409.88
368.636	445.88
368.862	450.88
369.089	432.88
369.315	413.88
369.541	418.88
369.767	412.88
369.993	414.88
370.219	425.88
370.445	412.88
370.672	407.88
370.898	406.88
371.124	402.88
371.35	425.88
371.576	422.88
371.802	405.88
372.028	410.88
372.254	418.88
372.48	396.88
372.706	397.88
372.932	374.88
373.158	397.88
373.384	403.88
373.61	425.88
373.835	410.88
374.061	409.88
374.287	442.88
374.513	415.88
374.739	402.88
374.965	438.88
375.191	414.88
375.416	414.88
375.642	432.88
375.868	418.88
376.094	425.88
376.319	411.88
376.545	420.88
376.771	399.88
376.997	406.88
377.222	404.88
377.448	403.88
377.674	413.88
377.899	395.88
378.125	430.88
378.35	395.88
378.576	388.88
378.802	393.88
379.027	400.88
379.253	408.88
379.478	401.88
379.704	394.88
379.929	399.88
380.155	402.88
380.38	406.88
380.606	399.88
380.831	411.88
381.057	399.88
381.282	424.88
381.507	405.88
381.733	416.88
381.958	411.88
382.184	424.88
382.409	424.88
382.634	432.88
382.86	410.88
383.085	422.88
383.31	418.88
383.535	393.88
383.761	431.88
383.986	412.88
384.211	428.88
384.436	431.88
384.662	446.88
384.887	420.88
385.112	432.88
385.337	424.88
385.562	434.88
385.787	440.88
386.013	456.88
386.238	457.88
386.463	439.88
386.688	458.88
386.913	449.88
387.138	421.88
387.363	453.88
387.588	429.88
387.813	459.88
388.038	452.88
388.263	424.88
388.488	430.88
388.713	439.88
388.938	454.88
389.163	453.88
389.387	450.88
389.612	438.88
389.837	437.88
390.062	459.88
390.287	468.88
390.512	439.88
390.736	459.88
390.961	457.88
391.186	417.88
391.411	464.88
391.636	456.88
391.86	442.88
392.085	451.88
392.31	434.88
392.534	456.88
392.759	450.88
392.984	453.88
393.208	466.88
393.433	461.88
393.658	464.88
393.882	456.88
394.107	452.88
394.331	441.88
394.556	435.88
394.78	448.88
395.005	445.88
395.229	453.88
395.454	442.88
395.678	455.88
395.903	494.88
396.127	500.88
396.352	491.88
396.576	484.88
396.801	456.88
397.025	501.88
397.249	481.88
397.474	440.88
397.698	468.88
397.922	481.88
398.147	511.88
398.371	494.88
398.595	470.88
398.82	501.88
399.044	512.88
399.268	536.88
399.492	544.88
399.717	562.88
399.941	577.88
400.165	632.88
400.389	644.88
400.613	585.88
400.837	555.88
401.062	527.88
401.286	520.88
401.51	526.88
401.734	506.88
401.958	531.88
402.182	506.88
402.406	533.88
402.63	513.88
402.854	514.88
403.078	549.88
403.302	514.88
403.526	528.88
403.75	514.88
403.974	531.88
404.198	547.88
404.422	531.88
404.645	556.88
404.869	544.88
405.093	578.88
405.317	626.88
405.541	641.88
405.765	610.88
405.988	580.88
406.212	570.88
406.436	604.88
406.66	633.88
406.883	581.88
407.107	617.88
407.331	671.88
407.555	706.88
407.778	712.88
408.002	668.88
408.226	619.88
408.449	595.88
408.673	610.88
408.896	608.88
409.12	668.88
409.344	646.88
409.567	574.88
409.791	568.88
410.014	537.88
410.238	532.88
410.461	544.88
410.685	540.88
410.908	575.88
411.132	604.88
411.355	644.88
411.578	592.88
411.802	578.88
412.025	560.88
412.249	550.88
412.472	578.88
412.695	632.88
412.919	626.88
413.142	571.88
413.365	558.88
413.589	527.88
413.812	524.88
414.035	495.88
414.258	508.88
414.482	520.88
414.705	506.88
414.928	522.88
415.151	512.88
415.374	506.88
415.597	514.88
415.821	523.88
416.044	515.88
416.267	522.88
416.49	507.88
416.713	526.88
416.936	519.88
417.159	512.88
417.382	525.88
417.605	511.88
417.828	540.88
418.051	552.88
418.274	525.88
418.497	522.88
418.72	503.88
418.943	504.88
419.166	532.88
419.389	559.88
419.611	536.88
419.834	531.88
420.057	546.88
420.28	568.88
420.503	555.88
420.726	548.88
420.948	572.88
421.171	613.88
421.394	649.88
421.617	582.88
421.839	557.88
422.062	578.88
422.285	568.88
422.507	651.88
422.73	706.88
422.953	688.88
423.175	634.88
423.398	604.88
423.621	592.88
423.843	605.88
424.066	597.88
424.288	582.88
424.511	624.88
424.733	678.88
424.956	763.88
425.178	749.88
425.401	721.88
425.623	738.88
425.846	660.88
426.068	594.88
426.291	600.88
426.513	612.88
426.735	603.88
426.958	651.88
427.18	739.88
427.402	850.88
427.625	973.88
427.847	880.88
428.069	781.88
428.292	682.88
428.514	614.88
428.736	594.88
428.958	581.88
429.181	566.88
429.403	549.88
429.625	560.88
429.847	608.88
430.069	690.88
430.292	676.88
430.514	609.88
430.736	569.88
430.958	562.88
431.18	567.88
431.402	536.88
431.624	520.88
431.846	517.88
432.068	516.88
432.29	518.88
432.512	518.88
432.734	536.88
432.956	534.88
433.178	552.88
433.4	544.88
433.622	532.88
433.844	538.88
434.066	529.88
434.287	516.88
434.509	522.88
434.731	544.88
434.953	555.88
435.175	584.88
435.397	581.88
435.618	603.88
435.84	659.88
436.062	759.88
436.284	810.88
436.505	674.88
436.727	617.88
436.949	589.88
437.17	576.88
437.392	572.88
437.614	570.88
437.835	618.88
438.057	734.88
438.278	834.88
438.5	865.88
438.721	910.88
438.943	858.88
439.165	710.88
439.386	642.88
439.608	629.88
439.829	647.88
440.05	646.88
440.272	706.88
440.493	649.88
440.715	613.88
440.936	589.88
441.158	566.88
441.379	575.88
441.6	577.88
441.822	617.88
442.043	664.88
442.264	755.88
442.486	789.88
442.707	648.88
442.928	659.88
443.149	624.88
443.371	675.88
443.592	725.88
443.813	773.88
444.034	812.88
444.255	702.88
444.476	647.88
444.698	608.88
444.919	620.88
445.14	725.88
445.361	698.88
445.582	656.88
445.803	718.88
446.024	848.88
446.245	861.88
446.466	770.88
446.687	650.88
446.908	625.88
447.129	590.88
447.35	587.88
447.571	575.88
447.792	560.88
448.013	554.88
448.234	575.88
448.455	650.88
448.675	769.88
448.896	857.88
449.117	768.88
449.338	744.88
449.559	837.88
449.779	906.88
450	742.88
450.221	639.88
450.442	627.88
450.662	589.88
450.883	569.88
451.104	587.88
451.324	596.88
451.545	548.88
451.766	534.88
451.986	523.88
452.207	519.88
452.428	513.88
452.648	520.88
452.869	528.88
453.089	523.88
453.31	540.88
453.53	518.88
453.751	503.88
453.971	522.88
454.192	550.88
454.412	534.88
454.633	550.88
454.853	508.88
455.073	529.88
455.294	532.88
455.514	597.88
455.734	610.88
455.955	509.88
456.175	511.88
456.395	470.88
456.616	500.88
456.836	457.88
457.056	442.88
457.276	461.88
457.497	473.88
457.717	476.88
457.937	463.88
458.157	475.88
458.377	494.88
458.598	538.88
458.818	603.88
459.038	683.88
459.258	681.88
459.478	590.88
459.698	544.88
459.918	554.88
460.138	526.88
460.358	517.88
460.578	523.88
460.798	525.88
461.018	540.88
461.238	517.88
461.458	547.88
461.678	521.88
461.898	516.88
462.118	520.88
462.338	515.88
462.558	527.88
462.777	518.88
462.997	546.88
463.217	556.88
463.437	548.88
463.657	550.88
463.876	526.88
464.096	555.88
464.316	536.88
464.536	582.88
464.755	580.88
464.975	573.88
465.195	608.88
465.414	718.88
465.634	635.88
465.854	587.88
466.073	566.88
466.293	547.88
466.512	527.88
466.732	516.88
466.951	500.88
467.171	488.88
467.391	532.88
467.61	534.88
467.829	544.88
468.049	537.88
468.268	523.88
468.488	511.88
468.707	500.88
468.927	511.88
469.146	484.88
469.365	505.88
469.585	498.88
469.804	504.88
470.023	523.88
470.243	529.88
470.462	537.88
470.681	554.88
470.901	548.88
471.12	541.88
471.339	526.88
471.558	510.88
471.777	531.88
471.997	534.88
472.216	524.88
472.435	562.88
472.654	544.88
472.873	532.88
473.092	533.88
473.311	534.88
473.53	542.88
473.749	529.88
473.968	595.88
474.187	688.88
474.406	727.88
474.625	589.88
474.844	543.88
475.063	542.88
475.282	551.88
475.501	562.88
475.72	532.88
475.939	532.88
476.158	551.88
476.377	558.88
476.596	519.88
476.814	542.88
477.033	542.88
477.252	543.88
477.471	566.88
477.69	555.88
477.908	556.88
478.127	567.88
478.346	567.88
478.564	577.88
478.783	568.88
479.002	615.88
479.22	595.88
479.439	615.88
479.658	630.88
479.876	652.88
480.095	640.88
480.313	681.88
480.532	652.88
480.751	642.88
480.969	668.88
481.188	726.88
481.406	795.88
481.624	712.88
481.843	644.88
482.061	662.88
482.28	666.88
482.498	639.88
482.717	634.88
482.935	624.88
483.153	649.88
483.372	644.88
483.59	630.88
483.808	616.88
484.027	636.88
484.245	651.88
484.463	634.88
484.681	662.88
484.9	656.88
485.118	638.88
485.336	632.88
485.554	622.88
485.772	646.88
485.99	656.88
486.209	642.88
486.427	653.88
486.645	673.88
486.863	715.88
487.081	708.88
487.299	688.88
487.517	669.88
487.735	686.88
487.953	696.88
488.171	706.88
488.389	662.88
488.607	699.88
488.825	702.88
489.043	665.88
489.261	703.88
489.479	718.88
489.696	690.88
489.914	712.88
490.132	699.88
490.35	721.88
490.568	740.88
490.786	733.88
491.003	745.88
491.221	772.88
491.439	797.88
491.657	802.88
491.874	801.88
492.092	803.88
492.31	810.88
492.527	791.88
492.745	783.88
492.963	827.88
493.18	856.88
493.398	838.88
493.615	814.88
493.833	829.88
494.05	831.88
494.268	830.88
494.485	812.88
494.703	837.88
494.92	816.88
495.138	827.88
495.355	834.88
495.573	858.88
495.79	850.88
496.008	804.88
496.225	830.88
496.442	839.88
496.66	845.88
496.877	816.88
497.094	833.88
497.312	842.88
497.529	846.88
497.746	846.88
497.963	863.88
498.181	871.88
498.398	867.88
498.615	886.88
498.832	894.88
499.049	903.88
499.267	896.88
499.484	950.88
499.701	934.88
499.918	949.88
500.135	983.88
500.352	1008.88
500.569	1005.88
500.786	1030.88
501.003	1026.88
501.22	1016.88
501.437	1002.88
501.654	963.88
501.871	1005.88
