Data from 1970.PennyLincolnUp.Lamp.En5.5.200Scan.071719.P1._HRD10591_15-14-14-842.txt Node
Date: Thu Jul 18 15:14:14 EDT 2019
User: cochatt
Spectrometer: HR+D1059
Trigger mode: 1
Integration Time (sec): 1.000000E-1
Scans to average: 1
Electric dark correction enabled: true
Nonlinearity correction enabled: false
Boxcar width: 0
XAxis mode: Wavelengths
Number of Pixels in Spectrum: 2048
>>>>>Begin Spectral Data<<<<<
223.165	1.44
223.4	1.44
223.635	1.44
223.869	-7.56
224.104	-12.56
224.338	-17.56
224.573	-18.56
224.808	-20.56
225.042	-13.56
225.277	0.44
225.511	-5.56
225.746	-3.56
225.98	6.44
226.215	10.44
226.449	10.44
226.683	26.44
226.918	20.44
227.152	23.44
227.387	34.44
227.621	31.44
227.856	38.44
228.09	46.44
228.324	50.44
228.559	59.44
228.793	65.44
229.027	109.44
229.262	110.44
229.496	131.44
229.73	137.44
229.964	158.44
230.199	141.44
230.433	128.44
230.667	126.44
230.901	139.44
231.136	109.44
231.37	113.44
231.604	104.44
231.838	127.44
232.072	105.44
232.306	133.44
232.541	123.44
232.775	125.44
233.009	130.44
233.243	127.44
233.477	115.44
233.711	118.44
233.945	115.44
234.179	103.44
234.413	129.44
234.647	127.44
234.881	113.44
235.115	124.44
235.349	122.44
235.583	134.44
235.817	148.44
236.051	122.44
236.285	121.44
236.519	149.44
236.753	142.44
236.987	158.44
237.221	188.44
237.455	239.44
237.689	204.44
237.922	150.44
238.156	135.44
238.39	149.44
238.624	125.44
238.858	129.44
239.091	125.44
239.325	128.44
239.559	138.44
239.793	127.44
240.027	141.44
240.26	159.44
240.494	158.44
240.728	171.44
240.961	173.44
241.195	161.44
241.429	150.44
241.662	154.44
241.896	131.44
242.13	127.44
242.363	133.44
242.597	133.44
242.83	141.44
243.064	161.44
243.298	139.44
243.531	146.44
243.765	149.44
243.998	161.44
244.232	139.44
244.465	145.44
244.699	157.44
244.932	175.44
245.166	148.44
245.399	161.44
245.633	162.44
245.866	162.44
246.099	167.44
246.333	173.44
246.566	170.44
246.8	156.44
247.033	173.44
247.266	172.44
247.5	185.44
247.733	189.44
247.966	179.44
248.2	205.44
248.433	190.44
248.666	181.44
248.899	192.44
249.133	210.44
249.366	221.44
249.599	196.44
249.832	209.44
250.066	186.44
250.299	217.44
250.532	204.44
250.765	221.44
250.998	246.44
251.231	269.44
251.465	233.44
251.698	220.44
251.931	224.44
252.164	213.44
252.397	222.44
252.63	218.44
252.863	222.44
253.096	222.44
253.329	237.44
253.562	223.44
253.795	242.44
254.028	244.44
254.261	236.44
254.494	267.44
254.727	294.44
254.96	313.44
255.193	305.44
255.426	274.44
255.659	244.44
255.892	262.44
256.124	277.44
256.357	265.44
256.59	257.44
256.823	239.44
257.056	242.44
257.289	248.44
257.521	227.44
257.754	244.44
257.987	227.44
258.22	234.44
258.452	229.44
258.685	215.44
258.918	226.44
259.151	235.44
259.383	228.44
259.616	244.44
259.849	225.44
260.081	239.44
260.314	272.44
260.547	291.44
260.779	278.44
261.012	272.44
261.244	223.44
261.477	229.44
261.71	230.44
261.942	256.44
262.175	248.44
262.407	229.44
262.64	208.44
262.872	220.44
263.105	207.44
263.337	242.44
263.57	212.44
263.802	227.44
264.035	245.44
264.267	219.44
264.499	197.44
264.732	224.44
264.964	220.44
265.197	215.44
265.429	230.44
265.661	218.44
265.894	229.44
266.126	222.44
266.358	208.44
266.591	214.44
266.823	235.44
267.055	226.44
267.287	240.44
267.52	231.44
267.752	230.44
267.984	238.44
268.216	249.44
268.448	231.44
268.681	238.44
268.913	251.44
269.145	255.44
269.377	270.44
269.609	283.44
269.841	282.44
270.073	276.44
270.306	303.44
270.538	339.44
270.77	334.44
271.002	318.44
271.234	318.44
271.466	317.44
271.698	321.44
271.93	335.44
272.162	352.44
272.394	340.44
272.626	318.44
272.858	302.44
273.09	280.44
273.322	306.44
273.553	266.44
273.785	281.44
274.017	283.44
274.249	297.44
274.481	266.44
274.713	287.44
274.945	281.44
275.176	277.44
275.408	260.44
275.64	262.44
275.872	255.44
276.104	275.44
276.335	271.44
276.567	285.44
276.799	283.44
277.031	327.44
277.262	316.44
277.494	318.44
277.726	298.44
277.957	285.44
278.189	290.44
278.421	284.44
278.652	259.44
278.884	265.44
279.115	270.44
279.347	269.44
279.579	275.44
279.81	273.44
280.042	272.44
280.273	286.44
280.505	275.44
280.736	270.44
280.968	273.44
281.199	272.44
281.431	267.44
281.662	269.44
281.894	253.44
282.125	265.44
282.356	267.44
282.588	306.44
282.819	309.44
283.051	273.44
283.282	273.44
283.513	280.44
283.745	273.44
283.976	262.44
284.207	279.44
284.439	275.44
284.67	262.44
284.901	278.44
285.132	283.44
285.364	268.44
285.595	287.44
285.826	261.44
286.057	281.44
286.288	253.44
286.52	281.44
286.751	253.44
286.982	281.44
287.213	275.44
287.444	296.44
287.675	275.44
287.906	300.44
288.138	304.44
288.369	308.44
288.6	300.44
288.831	317.44
289.062	295.44
289.293	284.44
289.524	284.44
289.755	268.44
289.986	288.44
290.217	285.44
290.448	273.44
290.679	278.44
290.91	272.44
291.141	290.44
291.371	275.44
291.602	276.44
291.833	274.44
292.064	285.44
292.295	274.44
292.526	289.44
292.757	291.44
292.987	297.44
293.218	266.44
293.449	285.44
293.68	291.44
293.91	277.44
294.141	292.44
294.372	285.44
294.603	279.44
294.833	280.44
295.064	292.44
295.295	291.44
295.525	299.44
295.756	296.44
295.987	313.44
296.217	333.44
296.448	329.44
296.679	313.44
296.909	287.44
297.14	295.44
297.37	297.44
297.601	299.44
297.831	297.44
298.062	299.44
298.292	282.44
298.523	290.44
298.753	293.44
298.984	286.44
299.214	296.44
299.445	299.44
299.675	323.44
299.905	310.44
300.136	295.44
300.366	296.44
300.597	299.44
300.827	315.44
301.057	323.44
301.288	323.44
301.518	327.44
301.748	335.44
301.979	329.44
302.209	328.44
302.439	327.44
302.669	332.44
302.9	314.44
303.13	313.44
303.36	316.44
303.59	330.44
303.82	325.44
304.051	332.44
304.281	310.44
304.511	322.44
304.741	298.44
304.971	323.44
305.201	326.44
305.431	313.44
305.661	311.44
305.891	327.44
306.121	333.44
306.352	337.44
306.582	334.44
306.812	326.44
307.042	329.44
307.272	342.44
307.502	334.44
307.731	329.44
307.961	324.44
308.191	324.44
308.421	328.44
308.651	339.44
308.881	353.44
309.111	328.44
309.341	357.44
309.571	352.44
309.8	385.44
310.03	385.44
310.26	383.44
310.49	370.44
310.72	385.44
310.949	402.44
311.179	413.44
311.409	378.44
311.639	380.44
311.868	374.44
312.098	388.44
312.328	381.44
312.557	407.44
312.787	426.44
313.017	405.44
313.246	394.44
313.476	398.44
313.706	374.44
313.935	413.44
314.165	384.44
314.394	405.44
314.624	414.44
314.853	380.44
315.083	394.44
315.312	361.44
315.542	355.44
315.771	366.44
316.001	378.44
316.23	342.44
316.46	359.44
316.689	363.44
316.919	370.44
317.148	381.44
317.377	383.44
317.607	379.44
317.836	383.44
318.065	370.44
318.295	390.44
318.524	378.44
318.753	377.44
318.983	373.44
319.212	390.44
319.441	422.44
319.67	388.44
319.9	398.44
320.129	388.44
320.358	386.44
320.587	379.44
320.816	398.44
321.046	404.44
321.275	405.44
321.504	405.44
321.733	401.44
321.962	404.44
322.191	453.44
322.42	443.44
322.649	467.44
322.878	454.44
323.108	466.44
323.337	508.44
323.566	527.44
323.795	569.44
324.024	620.44
324.253	740.44
324.482	1061.44
324.71	1603.44
324.939	2291.44
325.168	1992.44
325.397	1105.44
325.626	725.44
325.855	597.44
326.084	534.44
326.313	522.44
326.542	550.44
326.77	597.44
326.999	662.44
327.228	941.44
327.457	1430.44
327.686	1741.44
327.914	1239.44
328.143	817.44
328.372	699.44
328.6	647.44
328.829	600.44
329.058	634.44
329.287	651.44
329.515	595.44
329.744	545.44
329.972	550.44
330.201	550.44
330.43	619.44
330.658	631.44
330.887	648.44
331.115	652.44
331.344	553.44
331.572	530.44
331.801	522.44
332.03	511.44
332.258	493.44
332.486	487.44
332.715	459.44
332.943	479.44
333.172	462.44
333.4	473.44
333.629	479.44
333.857	493.44
334.085	492.44
334.314	518.44
334.542	537.44
334.771	554.44
334.999	513.44
335.227	473.44
335.455	451.44
335.684	459.44
335.912	454.44
336.14	442.44
336.369	453.44
336.597	459.44
336.825	459.44
337.053	469.44
337.281	449.44
337.51	446.44
337.738	453.44
337.966	433.44
338.194	461.44
338.422	435.44
338.65	454.44
338.878	461.44
339.106	436.44
339.334	428.44
339.562	429.44
339.79	433.44
340.018	418.44
340.246	430.44
340.474	444.44
340.702	449.44
340.93	441.44
341.158	414.44
341.386	418.44
341.614	465.44
341.842	441.44
342.07	438.44
342.298	431.44
342.526	426.44
342.754	418.44
342.981	415.44
343.209	427.44
343.437	438.44
343.665	449.44
343.893	433.44
344.12	428.44
344.348	435.44
344.576	430.44
344.804	442.44
345.031	469.44
345.259	449.44
345.487	454.44
345.714	437.44
345.942	429.44
346.17	426.44
346.397	427.44
346.625	426.44
346.853	428.44
347.08	438.44
347.308	441.44
347.535	441.44
347.763	470.44
347.99	437.44
348.218	446.44
348.445	447.44
348.673	460.44
348.9	443.44
349.128	409.44
349.355	420.44
349.583	429.44
349.81	418.44
350.037	420.44
350.265	411.44
350.492	433.44
350.72	429.44
350.947	423.44
351.174	443.44
351.402	457.44
351.629	428.44
351.856	453.44
352.083	451.44
352.311	442.44
352.538	447.44
352.765	458.44
352.992	441.44
353.22	440.44
353.447	429.44
353.674	446.44
353.901	408.44
354.128	433.44
354.355	414.44
354.583	428.44
354.81	400.44
355.037	417.44
355.264	413.44
355.491	393.44
355.718	388.44
355.945	393.44
356.172	381.44
356.399	385.44
356.626	373.44
356.853	396.44
357.08	407.44
357.307	393.44
357.534	402.44
357.761	412.44
357.988	391.44
358.215	408.44
358.441	415.44
358.668	420.44
358.895	428.44
359.122	408.44
359.349	413.44
359.576	428.44
359.802	462.44
360.029	484.44
360.256	484.44
360.483	498.44
360.709	456.44
360.936	443.44
361.163	449.44
361.39	437.44
361.616	430.44
361.843	428.44
362.07	450.44
362.296	457.44
362.523	460.44
362.749	439.44
362.976	436.44
363.203	431.44
363.429	427.44
363.656	401.44
363.882	426.44
364.109	415.44
364.335	406.44
364.562	426.44
364.788	427.44
365.015	425.44
365.241	411.44
365.468	439.44
365.694	435.44
365.92	421.44
366.147	425.44
366.373	428.44
366.599	418.44
366.826	425.44
367.052	410.44
367.278	414.44
367.505	415.44
367.731	425.44
367.957	390.44
368.184	411.44
368.41	439.44
368.636	450.44
368.862	439.44
369.089	442.44
369.315	421.44
369.541	407.44
369.767	434.44
369.993	423.44
370.219	415.44
370.445	422.44
370.672	411.44
370.898	443.44
371.124	425.44
371.35	410.44
371.576	401.44
371.802	418.44
372.028	404.44
372.254	405.44
372.48	450.44
372.706	426.44
372.932	417.44
373.158	424.44
373.384	395.44
373.61	409.44
373.835	431.44
374.061	443.44
374.287	431.44
374.513	449.44
374.739	433.44
374.965	431.44
375.191	433.44
375.416	421.44
375.642	429.44
375.868	423.44
376.094	416.44
376.319	411.44
376.545	411.44
376.771	418.44
376.997	415.44
377.222	406.44
377.448	410.44
377.674	409.44
377.899	411.44
378.125	400.44
378.35	423.44
378.576	407.44
378.802	415.44
379.027	392.44
379.253	415.44
379.478	439.44
379.704	419.44
379.929	409.44
380.155	435.44
380.38	424.44
380.606	429.44
380.831	440.44
381.057	435.44
381.282	429.44
381.507	439.44
381.733	412.44
381.958	441.44
382.184	405.44
382.409	426.44
382.634	427.44
382.86	426.44
383.085	433.44
383.31	444.44
383.535	432.44
383.761	426.44
383.986	411.44
384.211	434.44
384.436	435.44
384.662	429.44
384.887	407.44
385.112	446.44
385.337	437.44
385.562	454.44
385.787	449.44
386.013	452.44
386.238	451.44
386.463	477.44
386.688	454.44
386.913	431.44
387.138	435.44
387.363	451.44
387.588	434.44
387.813	454.44
388.038	439.44
388.263	455.44
388.488	416.44
388.713	436.44
388.938	449.44
389.163	470.44
389.387	454.44
389.612	469.44
389.837	454.44
390.062	439.44
390.287	434.44
390.512	443.44
390.736	434.44
390.961	445.44
391.186	469.44
391.411	460.44
391.636	465.44
391.86	463.44
392.085	451.44
392.31	449.44
392.534	459.44
392.759	443.44
392.984	466.44
393.208	454.44
393.433	476.44
393.658	466.44
393.882	458.44
394.107	451.44
394.331	471.44
394.556	465.44
394.78	469.44
395.005	450.44
395.229	470.44
395.454	475.44
395.678	476.44
395.903	497.44
396.127	526.44
396.352	490.44
396.576	467.44
396.801	491.44
397.025	484.44
397.249	489.44
397.474	496.44
397.698	505.44
397.922	501.44
398.147	530.44
398.371	530.44
398.595	489.44
398.82	511.44
399.044	538.44
399.268	531.44
399.492	545.44
399.717	558.44
399.941	594.44
400.165	609.44
400.389	616.44
400.613	593.44
400.837	553.44
401.062	519.44
401.286	525.44
401.51	521.44
401.734	501.44
401.958	524.44
402.182	533.44
402.406	545.44
402.63	545.44
402.854	533.44
403.078	531.44
403.302	556.44
403.526	556.44
403.75	541.44
403.974	555.44
404.198	530.44
404.422	547.44
404.645	558.44
404.869	557.44
405.093	593.44
405.317	613.44
405.541	656.44
405.765	607.44
405.988	561.44
406.212	593.44
406.436	617.44
406.66	631.44
406.883	577.44
407.107	617.44
407.331	666.44
407.555	717.44
407.778	697.44
408.002	641.44
408.226	641.44
408.449	594.44
408.673	595.44
408.896	638.44
409.12	662.44
409.344	647.44
409.567	582.44
409.791	552.44
410.014	528.44
410.238	552.44
410.461	558.44
410.685	556.44
410.908	563.44
411.132	598.44
411.355	647.44
411.578	621.44
411.802	571.44
412.025	532.44
412.249	565.44
412.472	596.44
412.695	613.44
412.919	641.44
413.142	573.44
413.365	523.44
413.589	556.44
413.812	509.44
414.035	526.44
414.258	532.44
414.482	525.44
414.705	502.44
414.928	533.44
415.151	518.44
415.374	521.44
415.597	530.44
415.821	531.44
416.044	522.44
416.267	532.44
416.49	510.44
416.713	514.44
416.936	531.44
417.159	521.44
417.382	535.44
417.605	526.44
417.828	545.44
418.051	564.44
418.274	545.44
418.497	515.44
418.72	506.44
418.943	512.44
419.166	546.44
419.389	553.44
419.611	574.44
419.834	575.44
420.057	547.44
420.28	565.44
420.503	565.44
420.726	572.44
420.948	578.44
421.171	609.44
421.394	643.44
421.617	574.44
421.839	557.44
422.062	558.44
422.285	550.44
422.507	644.44
422.73	718.44
422.953	708.44
423.175	611.44
423.398	599.44
423.621	571.44
423.843	599.44
424.066	589.44
424.288	598.44
424.511	625.44
424.733	693.44
424.956	742.44
425.178	743.44
425.401	724.44
425.623	743.44
425.846	659.44
426.068	617.44
426.291	613.44
426.513	599.44
426.735	601.44
426.958	660.44
427.18	724.44
427.402	891.44
427.625	965.44
427.847	901.44
428.069	756.44
428.292	694.44
428.514	639.44
428.736	581.44
428.958	597.44
429.181	566.44
429.403	554.44
429.625	591.44
429.847	628.44
430.069	709.44
430.292	665.44
430.514	614.44
430.736	591.44
430.958	563.44
431.18	531.44
431.402	539.44
431.624	559.44
431.846	532.44
432.068	516.44
432.29	536.44
432.512	516.44
432.734	521.44
432.956	543.44
433.178	541.44
433.4	555.44
433.622	544.44
433.844	526.44
434.066	530.44
434.287	531.44
434.509	527.44
434.731	539.44
434.953	575.44
435.175	557.44
435.397	588.44
435.618	631.44
435.84	668.44
436.062	760.44
436.284	823.44
436.505	695.44
436.727	613.44
436.949	594.44
437.17	570.44
437.392	587.44
437.614	587.44
437.835	631.44
438.057	752.44
438.278	845.44
438.5	833.44
438.721	893.44
438.943	873.44
439.165	701.44
439.386	645.44
439.608	629.44
439.829	652.44
440.05	664.44
440.272	697.44
440.493	651.44
440.715	627.44
440.936	605.44
441.158	580.44
441.379	564.44
441.6	601.44
441.822	595.44
442.043	668.44
442.264	762.44
442.486	771.44
442.707	680.44
442.928	630.44
443.149	649.44
443.371	657.44
443.592	690.44
443.813	805.44
444.034	858.44
444.255	731.44
444.476	637.44
444.698	622.44
444.919	614.44
445.14	715.44
445.361	682.44
445.582	654.44
445.803	718.44
446.024	830.44
446.245	854.44
446.466	768.44
446.687	673.44
446.908	622.44
447.129	595.44
447.35	583.44
447.571	569.44
447.792	573.44
448.013	583.44
448.234	613.44
448.455	635.44
448.675	783.44
448.896	861.44
449.117	741.44
449.338	728.44
449.559	850.44
449.779	895.44
450	759.44
450.221	650.44
450.442	589.44
450.662	571.44
450.883	568.44
451.104	596.44
451.324	578.44
451.545	539.44
451.766	533.44
451.986	515.44
452.207	508.44
452.428	507.44
452.648	519.44
452.869	517.44
453.089	522.44
453.31	542.44
453.53	522.44
453.751	516.44
453.971	511.44
454.192	535.44
454.412	520.44
454.633	504.44
454.853	511.44
455.073	501.44
455.294	537.44
455.514	614.44
455.734	606.44
455.955	521.44
456.175	500.44
456.395	452.44
456.616	466.44
456.836	492.44
457.056	477.44
457.276	464.44
457.497	483.44
457.717	468.44
457.937	467.44
458.157	489.44
458.377	514.44
458.598	537.44
458.818	612.44
459.038	666.44
459.258	676.44
459.478	633.44
459.698	524.44
459.918	512.44
460.138	517.44
460.358	516.44
460.578	526.44
460.798	526.44
461.018	524.44
461.238	533.44
461.458	526.44
461.678	525.44
461.898	538.44
462.118	528.44
462.338	547.44
462.558	521.44
462.777	533.44
462.997	552.44
463.217	532.44
463.437	566.44
463.657	551.44
463.876	551.44
464.096	518.44
464.316	559.44
464.536	569.44
464.755	583.44
464.975	555.44
465.195	619.44
465.414	719.44
465.634	629.44
465.854	591.44
466.073	573.44
466.293	550.44
466.512	528.44
466.732	499.44
466.951	523.44
467.171	524.44
467.391	536.44
467.61	550.44
467.829	563.44
468.049	530.44
468.268	524.44
468.488	522.44
468.707	531.44
468.927	510.44
469.146	520.44
469.365	513.44
469.585	507.44
469.804	522.44
470.023	542.44
470.243	528.44
470.462	527.44
470.681	559.44
470.901	548.44
471.12	535.44
471.339	545.44
471.558	522.44
471.777	533.44
471.997	533.44
472.216	515.44
472.435	583.44
472.654	551.44
472.873	526.44
473.092	516.44
473.311	538.44
473.53	536.44
473.749	542.44
473.968	603.44
474.187	705.44
474.406	757.44
474.625	602.44
474.844	561.44
475.063	537.44
475.282	538.44
475.501	541.44
475.72	550.44
475.939	537.44
476.158	554.44
476.377	556.44
476.596	553.44
476.814	572.44
477.033	579.44
477.252	572.44
477.471	574.44
477.69	565.44
477.908	571.44
478.127	574.44
478.346	567.44
478.564	591.44
478.783	597.44
479.002	589.44
479.22	595.44
479.439	607.44
479.658	635.44
479.876	637.44
480.095	668.44
480.313	690.44
480.532	680.44
480.751	645.44
480.969	690.44
481.188	739.44
481.406	788.44
481.624	705.44
481.843	660.44
482.061	638.44
482.28	643.44
482.498	643.44
482.717	641.44
482.935	645.44
483.153	613.44
483.372	617.44
483.59	628.44
483.808	656.44
484.027	633.44
484.245	617.44
484.463	659.44
484.681	641.44
484.9	620.44
485.118	641.44
485.336	650.44
485.554	667.44
485.772	640.44
485.99	665.44
486.209	653.44
486.427	659.44
486.645	695.44
486.863	715.44
487.081	696.44
487.299	686.44
487.517	683.44
487.735	670.44
487.953	707.44
488.171	677.44
488.389	685.44
488.607	694.44
488.825	703.44
489.043	683.44
489.261	682.44
489.479	675.44
489.696	692.44
489.914	684.44
490.132	708.44
490.35	749.44
490.568	727.44
490.786	759.44
491.003	742.44
491.221	765.44
491.439	782.44
491.657	782.44
491.874	818.44
492.092	783.44
492.31	790.44
492.527	825.44
492.745	789.44
492.963	832.44
493.18	819.44
493.398	849.44
493.615	821.44
493.833	818.44
494.05	816.44
494.268	845.44
494.485	811.44
494.703	848.44
494.92	853.44
495.138	809.44
495.355	830.44
495.573	825.44
495.79	825.44
496.008	844.44
496.225	847.44
496.442	827.44
496.66	841.44
496.877	842.44
497.094	836.44
497.312	858.44
497.529	869.44
497.746	841.44
497.963	852.44
498.181	890.44
498.398	873.44
498.615	897.44
498.832	928.44
499.049	915.44
499.267	911.44
499.484	948.44
499.701	953.44
499.918	972.44
500.135	990.44
500.352	1045.44
500.569	1038.44
500.786	1045.44
501.003	1033.44
501.22	1011.44
501.437	972.44
501.654	1000.44
501.871	988.44
