Data from 1970.PennyLincolnUp.Lamp.En5.5.200Scan.071719.P1._HRD10591_15-15-19-841.txt Node
Date: Thu Jul 18 15:15:19 EDT 2019
User: cochatt
Spectrometer: HR+D1059
Trigger mode: 1
Integration Time (sec): 1.000000E-1
Scans to average: 1
Electric dark correction enabled: true
Nonlinearity correction enabled: false
Boxcar width: 0
XAxis mode: Wavelengths
Number of Pixels in Spectrum: 2048
>>>>>Begin Spectral Data<<<<<
223.165	-11.5
223.4	-11.5
223.635	-11.5
223.869	-17.5
224.104	-9.5
224.338	-9.5
224.573	-10.5
224.808	-10.5
225.042	-1.5
225.277	-5.5
225.511	4.5
225.746	-12.5
225.98	-2.5
226.215	12.5
226.449	7.5
226.683	10.5
226.918	20.5
227.152	35.5
227.387	32.5
227.621	26.5
227.856	42.5
228.09	50.5
228.324	56.5
228.559	60.5
228.793	69.5
229.027	106.5
229.262	99.5
229.496	117.5
229.73	153.5
229.964	153.5
230.199	133.5
230.433	139.5
230.667	115.5
230.901	106.5
231.136	118.5
231.37	120.5
231.604	104.5
231.838	116.5
232.072	128.5
232.306	130.5
232.541	116.5
232.775	114.5
233.009	125.5
233.243	120.5
233.477	132.5
233.711	128.5
233.945	121.5
234.179	128.5
234.413	128.5
234.647	115.5
234.881	121.5
235.115	122.5
235.349	132.5
235.583	130.5
235.817	124.5
236.051	121.5
236.285	138.5
236.519	118.5
236.753	137.5
236.987	148.5
237.221	192.5
237.455	260.5
237.689	187.5
237.922	148.5
238.156	142.5
238.39	163.5
238.624	128.5
238.858	124.5
239.091	114.5
239.325	139.5
239.559	127.5
239.793	148.5
240.027	144.5
240.26	157.5
240.494	166.5
240.728	160.5
240.961	150.5
241.195	159.5
241.429	154.5
241.662	139.5
241.896	158.5
242.13	128.5
242.363	148.5
242.597	144.5
242.83	145.5
243.064	149.5
243.298	148.5
243.531	160.5
243.765	149.5
243.998	148.5
244.232	160.5
244.465	171.5
244.699	167.5
244.932	157.5
245.166	151.5
245.399	152.5
245.633	151.5
245.866	171.5
246.099	160.5
246.333	154.5
246.566	174.5
246.8	161.5
247.033	160.5
247.266	169.5
247.5	180.5
247.733	180.5
247.966	188.5
248.2	179.5
248.433	196.5
248.666	192.5
248.899	222.5
249.133	220.5
249.366	233.5
249.599	222.5
249.832	217.5
250.066	202.5
250.299	192.5
250.532	203.5
250.765	233.5
250.998	259.5
251.231	253.5
251.465	254.5
251.698	224.5
251.931	228.5
252.164	200.5
252.397	220.5
252.63	224.5
252.863	223.5
253.096	259.5
253.329	245.5
253.562	240.5
253.795	249.5
254.028	244.5
254.261	256.5
254.494	253.5
254.727	306.5
254.96	299.5
255.193	300.5
255.426	259.5
255.659	256.5
255.892	272.5
256.124	260.5
256.357	278.5
256.59	264.5
256.823	238.5
257.056	236.5
257.289	225.5
257.521	232.5
257.754	243.5
257.987	227.5
258.22	238.5
258.452	221.5
258.685	224.5
258.918	240.5
259.151	236.5
259.383	242.5
259.616	236.5
259.849	238.5
260.081	246.5
260.314	280.5
260.547	284.5
260.779	266.5
261.012	264.5
261.244	254.5
261.477	237.5
261.71	242.5
261.942	253.5
262.175	244.5
262.407	264.5
262.64	240.5
262.872	210.5
263.105	219.5
263.337	230.5
263.57	229.5
263.802	220.5
264.035	228.5
264.267	219.5
264.499	216.5
264.732	227.5
264.964	227.5
265.197	217.5
265.429	234.5
265.661	220.5
265.894	212.5
266.126	224.5
266.358	232.5
266.591	240.5
266.823	230.5
267.055	229.5
267.287	221.5
267.52	219.5
267.752	262.5
267.984	252.5
268.216	248.5
268.448	240.5
268.681	232.5
268.913	250.5
269.145	286.5
269.377	310.5
269.609	280.5
269.841	291.5
270.073	295.5
270.306	299.5
270.538	322.5
270.77	334.5
271.002	325.5
271.234	326.5
271.466	342.5
271.698	337.5
271.93	359.5
272.162	341.5
272.394	354.5
272.626	336.5
272.858	311.5
273.09	297.5
273.322	289.5
273.553	265.5
273.785	275.5
274.017	284.5
274.249	284.5
274.481	270.5
274.713	280.5
274.945	265.5
275.176	265.5
275.408	274.5
275.64	261.5
275.872	275.5
276.104	276.5
276.335	283.5
276.567	278.5
276.799	293.5
277.031	324.5
277.262	338.5
277.494	333.5
277.726	337.5
277.957	313.5
278.189	290.5
278.421	294.5
278.652	290.5
278.884	277.5
279.115	269.5
279.347	300.5
279.579	254.5
279.81	268.5
280.042	270.5
280.273	276.5
280.505	270.5
280.736	274.5
280.968	281.5
281.199	261.5
281.431	275.5
281.662	271.5
281.894	277.5
282.125	292.5
282.356	305.5
282.588	311.5
282.819	308.5
283.051	276.5
283.282	280.5
283.513	270.5
283.745	267.5
283.976	284.5
284.207	288.5
284.439	283.5
284.67	283.5
284.901	260.5
285.132	281.5
285.364	272.5
285.595	277.5
285.826	292.5
286.057	279.5
286.288	274.5
286.52	279.5
286.751	281.5
286.982	284.5
287.213	286.5
287.444	282.5
287.675	278.5
287.906	320.5
288.138	302.5
288.369	300.5
288.6	314.5
288.831	299.5
289.062	284.5
289.293	292.5
289.524	300.5
289.755	287.5
289.986	280.5
290.217	296.5
290.448	290.5
290.679	282.5
290.91	289.5
291.141	289.5
291.371	273.5
291.602	276.5
291.833	277.5
292.064	285.5
292.295	299.5
292.526	291.5
292.757	274.5
292.987	302.5
293.218	270.5
293.449	293.5
293.68	297.5
293.91	285.5
294.141	289.5
294.372	281.5
294.603	278.5
294.833	297.5
295.064	297.5
295.295	292.5
295.525	293.5
295.756	300.5
295.987	294.5
296.217	323.5
296.448	349.5
296.679	338.5
296.909	293.5
297.14	299.5
297.37	286.5
297.601	279.5
297.831	293.5
298.062	311.5
298.292	310.5
298.523	302.5
298.753	316.5
298.984	304.5
299.214	291.5
299.445	288.5
299.675	325.5
299.905	320.5
300.136	318.5
300.366	318.5
300.597	293.5
300.827	314.5
301.057	328.5
301.288	322.5
301.518	337.5
301.748	322.5
301.979	329.5
302.209	330.5
302.439	316.5
302.669	316.5
302.9	326.5
303.13	329.5
303.36	327.5
303.59	336.5
303.82	324.5
304.051	332.5
304.281	308.5
304.511	323.5
304.741	318.5
304.971	333.5
305.201	323.5
305.431	324.5
305.661	328.5
305.891	331.5
306.121	329.5
306.352	327.5
306.582	324.5
306.812	326.5
307.042	327.5
307.272	332.5
307.502	341.5
307.731	312.5
307.961	328.5
308.191	334.5
308.421	333.5
308.651	332.5
308.881	329.5
309.111	338.5
309.341	334.5
309.571	354.5
309.8	363.5
310.03	378.5
310.26	388.5
310.49	392.5
310.72	386.5
310.949	404.5
311.179	433.5
311.409	380.5
311.639	386.5
311.868	390.5
312.098	394.5
312.328	398.5
312.557	413.5
312.787	416.5
313.017	436.5
313.246	402.5
313.476	380.5
313.706	392.5
313.935	381.5
314.165	421.5
314.394	422.5
314.624	379.5
314.853	412.5
315.083	378.5
315.312	386.5
315.542	388.5
315.771	378.5
316.001	378.5
316.23	379.5
316.46	384.5
316.689	387.5
316.919	396.5
317.148	404.5
317.377	394.5
317.607	400.5
317.836	399.5
318.065	392.5
318.295	384.5
318.524	398.5
318.753	392.5
318.983	378.5
319.212	370.5
319.441	402.5
319.67	403.5
319.9	393.5
320.129	399.5
320.358	392.5
320.587	396.5
320.816	415.5
321.046	410.5
321.275	403.5
321.504	398.5
321.733	421.5
321.962	428.5
322.191	459.5
322.42	445.5
322.649	482.5
322.878	505.5
323.108	522.5
323.337	535.5
323.566	552.5
323.795	572.5
324.024	666.5
324.253	792.5
324.482	1162.5
324.71	1714.5
324.939	2436.5
325.168	2120.5
325.397	1164.5
325.626	760.5
325.855	635.5
326.084	574.5
326.313	558.5
326.542	537.5
326.77	611.5
326.999	711.5
327.228	1009.5
327.457	1537.5
327.686	1863.5
327.914	1264.5
328.143	826.5
328.372	705.5
328.6	670.5
328.829	661.5
329.058	674.5
329.287	646.5
329.515	600.5
329.744	570.5
329.972	558.5
330.201	616.5
330.43	635.5
330.658	672.5
330.887	683.5
331.115	682.5
331.344	569.5
331.572	543.5
331.801	545.5
332.03	517.5
332.258	494.5
332.486	479.5
332.715	460.5
332.943	466.5
333.172	446.5
333.4	466.5
333.629	497.5
333.857	517.5
334.085	506.5
334.314	512.5
334.542	572.5
334.771	602.5
334.999	525.5
335.227	491.5
335.455	476.5
335.684	454.5
335.912	452.5
336.14	447.5
336.369	451.5
336.597	484.5
336.825	480.5
337.053	456.5
337.281	458.5
337.51	445.5
337.738	470.5
337.966	460.5
338.194	468.5
338.422	457.5
338.65	454.5
338.878	436.5
339.106	443.5
339.334	436.5
339.562	433.5
339.79	420.5
340.018	447.5
340.246	445.5
340.474	465.5
340.702	460.5
340.93	438.5
341.158	429.5
341.386	412.5
341.614	426.5
341.842	453.5
342.07	446.5
342.298	435.5
342.526	436.5
342.754	416.5
342.981	427.5
343.209	409.5
343.437	424.5
343.665	436.5
343.893	435.5
344.12	447.5
344.348	441.5
344.576	432.5
344.804	451.5
345.031	446.5
345.259	504.5
345.487	463.5
345.714	434.5
345.942	443.5
346.17	429.5
346.397	421.5
346.625	444.5
346.853	427.5
347.08	428.5
347.308	436.5
347.535	447.5
347.763	455.5
347.99	456.5
348.218	446.5
348.445	465.5
348.673	449.5
348.9	445.5
349.128	428.5
349.355	400.5
349.583	426.5
349.81	424.5
350.037	419.5
350.265	437.5
350.492	413.5
350.72	438.5
350.947	436.5
351.174	459.5
351.402	450.5
351.629	465.5
351.856	450.5
352.083	451.5
352.311	477.5
352.538	470.5
352.765	460.5
352.992	451.5
353.22	437.5
353.447	437.5
353.674	419.5
353.901	421.5
354.128	411.5
354.355	426.5
354.583	422.5
354.81	386.5
355.037	413.5
355.264	408.5
355.491	400.5
355.718	395.5
355.945	408.5
356.172	407.5
356.399	416.5
356.626	390.5
356.853	397.5
357.08	396.5
357.307	378.5
357.534	413.5
357.761	409.5
357.988	397.5
358.215	395.5
358.441	424.5
358.668	430.5
358.895	419.5
359.122	414.5
359.349	418.5
359.576	442.5
359.802	468.5
360.029	498.5
360.256	523.5
360.483	488.5
360.709	451.5
360.936	455.5
361.163	453.5
361.39	455.5
361.616	462.5
361.843	446.5
362.07	449.5
362.296	444.5
362.523	431.5
362.749	448.5
362.976	445.5
363.203	439.5
363.429	420.5
363.656	434.5
363.882	443.5
364.109	420.5
364.335	417.5
364.562	422.5
364.788	444.5
365.015	426.5
365.241	420.5
365.468	424.5
365.694	416.5
365.92	444.5
366.147	409.5
366.373	418.5
366.599	434.5
366.826	409.5
367.052	409.5
367.278	416.5
367.505	433.5
367.731	426.5
367.957	430.5
368.184	412.5
368.41	439.5
368.636	443.5
368.862	438.5
369.089	446.5
369.315	427.5
369.541	423.5
369.767	437.5
369.993	429.5
370.219	444.5
370.445	423.5
370.672	414.5
370.898	391.5
371.124	409.5
371.35	416.5
371.576	423.5
371.802	405.5
372.028	438.5
372.254	412.5
372.48	420.5
372.706	400.5
372.932	405.5
373.158	403.5
373.384	417.5
373.61	401.5
373.835	419.5
374.061	427.5
374.287	420.5
374.513	400.5
374.739	435.5
374.965	427.5
375.191	420.5
375.416	439.5
375.642	420.5
375.868	443.5
376.094	415.5
376.319	406.5
376.545	421.5
376.771	426.5
376.997	426.5
377.222	396.5
377.448	408.5
377.674	424.5
377.899	428.5
378.125	416.5
378.35	414.5
378.576	422.5
378.802	417.5
379.027	418.5
379.253	414.5
379.478	418.5
379.704	419.5
379.929	441.5
380.155	422.5
380.38	405.5
380.606	412.5
380.831	420.5
381.057	429.5
381.282	424.5
381.507	442.5
381.733	442.5
381.958	422.5
382.184	408.5
382.409	429.5
382.634	437.5
382.86	418.5
383.085	445.5
383.31	434.5
383.535	429.5
383.761	423.5
383.986	438.5
384.211	446.5
384.436	429.5
384.662	440.5
384.887	432.5
385.112	421.5
385.337	436.5
385.562	454.5
385.787	453.5
386.013	450.5
386.238	460.5
386.463	459.5
386.688	482.5
386.913	446.5
387.138	441.5
387.363	456.5
387.588	459.5
387.813	457.5
388.038	440.5
388.263	453.5
388.488	451.5
388.713	446.5
388.938	438.5
389.163	458.5
389.387	456.5
389.612	443.5
389.837	477.5
390.062	458.5
390.287	437.5
390.512	461.5
390.736	444.5
390.961	467.5
391.186	462.5
391.411	464.5
391.636	450.5
391.86	461.5
392.085	476.5
392.31	461.5
392.534	474.5
392.759	457.5
392.984	451.5
393.208	455.5
393.433	451.5
393.658	441.5
393.882	444.5
394.107	456.5
394.331	473.5
394.556	465.5
394.78	453.5
395.005	469.5
395.229	458.5
395.454	460.5
395.678	480.5
395.903	498.5
396.127	487.5
396.352	493.5
396.576	489.5
396.801	494.5
397.025	471.5
397.249	462.5
397.474	470.5
397.698	515.5
397.922	491.5
398.147	492.5
398.371	503.5
398.595	497.5
398.82	515.5
399.044	517.5
399.268	527.5
399.492	526.5
399.717	581.5
399.941	593.5
400.165	631.5
400.389	638.5
400.613	572.5
400.837	564.5
401.062	533.5
401.286	533.5
401.51	537.5
401.734	527.5
401.958	534.5
402.182	520.5
402.406	537.5
402.63	532.5
402.854	533.5
403.078	529.5
403.302	542.5
403.526	546.5
403.75	553.5
403.974	545.5
404.198	551.5
404.422	548.5
404.645	557.5
404.869	547.5
405.093	582.5
405.317	626.5
405.541	664.5
405.765	618.5
405.988	599.5
406.212	596.5
406.436	640.5
406.66	648.5
406.883	595.5
407.107	620.5
407.331	652.5
407.555	721.5
407.778	708.5
408.002	674.5
408.226	606.5
408.449	603.5
408.673	612.5
408.896	629.5
409.12	694.5
409.344	660.5
409.567	608.5
409.791	574.5
410.014	540.5
410.238	541.5
410.461	580.5
410.685	542.5
410.908	576.5
411.132	594.5
411.355	649.5
411.578	628.5
411.802	588.5
412.025	548.5
412.249	562.5
412.472	602.5
412.695	605.5
412.919	613.5
413.142	581.5
413.365	544.5
413.589	536.5
413.812	541.5
414.035	558.5
414.258	542.5
414.482	526.5
414.705	523.5
414.928	554.5
415.151	521.5
415.374	523.5
415.597	506.5
415.821	504.5
416.044	509.5
416.267	538.5
416.49	508.5
416.713	517.5
416.936	544.5
417.159	515.5
417.382	540.5
417.605	532.5
417.828	553.5
418.051	552.5
418.274	539.5
418.497	525.5
418.72	557.5
418.943	522.5
419.166	562.5
419.389	581.5
419.611	575.5
419.834	569.5
420.057	578.5
420.28	576.5
420.503	567.5
420.726	562.5
420.948	564.5
421.171	619.5
421.394	641.5
421.617	594.5
421.839	560.5
422.062	569.5
422.285	568.5
422.507	647.5
422.73	736.5
422.953	705.5
423.175	618.5
423.398	596.5
423.621	570.5
423.843	612.5
424.066	613.5
424.288	603.5
424.511	612.5
424.733	688.5
424.956	771.5
425.178	776.5
425.401	742.5
425.623	759.5
425.846	663.5
426.068	609.5
426.291	616.5
426.513	638.5
426.735	628.5
426.958	685.5
427.18	749.5
427.402	888.5
427.625	987.5
427.847	914.5
428.069	782.5
428.292	716.5
428.514	650.5
428.736	613.5
428.958	589.5
429.181	571.5
429.403	571.5
429.625	577.5
429.847	629.5
430.069	719.5
430.292	698.5
430.514	588.5
430.736	582.5
430.958	555.5
431.18	562.5
431.402	558.5
431.624	546.5
431.846	525.5
432.068	507.5
432.29	556.5
432.512	547.5
432.734	536.5
432.956	554.5
433.178	573.5
433.4	565.5
433.622	557.5
433.844	566.5
434.066	570.5
434.287	527.5
434.509	549.5
434.731	542.5
434.953	564.5
435.175	582.5
435.397	620.5
435.618	617.5
435.84	647.5
436.062	758.5
436.284	825.5
436.505	726.5
436.727	621.5
436.949	607.5
437.17	580.5
437.392	562.5
437.614	583.5
437.835	634.5
438.057	755.5
438.278	850.5
438.5	883.5
438.721	910.5
438.943	850.5
439.165	708.5
439.386	676.5
439.608	628.5
439.829	649.5
440.05	650.5
440.272	715.5
440.493	676.5
440.715	642.5
440.936	581.5
441.158	617.5
441.379	593.5
441.6	606.5
441.822	631.5
442.043	650.5
442.264	749.5
442.486	805.5
442.707	679.5
442.928	661.5
443.149	655.5
443.371	690.5
443.592	710.5
443.813	809.5
444.034	882.5
444.255	736.5
444.476	628.5
444.698	624.5
444.919	613.5
445.14	719.5
445.361	666.5
445.582	646.5
445.803	748.5
446.024	860.5
446.245	890.5
446.466	810.5
446.687	678.5
446.908	653.5
447.129	608.5
447.35	588.5
447.571	621.5
447.792	574.5
448.013	579.5
448.234	610.5
448.455	673.5
448.675	789.5
448.896	889.5
449.117	764.5
449.338	735.5
449.559	822.5
449.779	938.5
450	758.5
450.221	650.5
450.442	571.5
450.662	577.5
450.883	583.5
451.104	608.5
451.324	581.5
451.545	578.5
451.766	540.5
451.986	523.5
452.207	514.5
452.428	519.5
452.648	499.5
452.869	522.5
453.089	532.5
453.31	553.5
453.53	537.5
453.751	519.5
453.971	524.5
454.192	527.5
454.412	524.5
454.633	501.5
454.853	506.5
455.073	506.5
455.294	568.5
455.514	620.5
455.734	588.5
455.955	538.5
456.175	489.5
456.395	494.5
456.616	493.5
456.836	483.5
457.056	476.5
457.276	450.5
457.497	496.5
457.717	493.5
457.937	500.5
458.157	498.5
458.377	501.5
458.598	540.5
458.818	618.5
459.038	723.5
459.258	702.5
459.478	610.5
459.698	554.5
459.918	534.5
460.138	535.5
460.358	524.5
460.578	528.5
460.798	538.5
461.018	532.5
461.238	507.5
461.458	521.5
461.678	495.5
461.898	537.5
462.118	510.5
462.338	533.5
462.558	537.5
462.777	517.5
462.997	564.5
463.217	578.5
463.437	557.5
463.657	554.5
463.876	547.5
464.096	551.5
464.316	556.5
464.536	565.5
464.755	567.5
464.975	592.5
465.195	626.5
465.414	734.5
465.634	637.5
465.854	603.5
466.073	585.5
466.293	542.5
466.512	544.5
466.732	527.5
466.951	525.5
467.171	516.5
467.391	539.5
467.61	529.5
467.829	547.5
468.049	565.5
468.268	545.5
468.488	533.5
468.707	512.5
468.927	483.5
469.146	517.5
469.365	511.5
469.585	512.5
469.804	544.5
470.023	537.5
470.243	523.5
470.462	537.5
470.681	574.5
470.901	573.5
471.12	536.5
471.339	534.5
471.558	530.5
471.777	546.5
471.997	533.5
472.216	533.5
472.435	596.5
472.654	564.5
472.873	535.5
473.092	538.5
473.311	543.5
473.53	552.5
473.749	545.5
473.968	608.5
474.187	723.5
474.406	726.5
474.625	594.5
474.844	559.5
475.063	540.5
475.282	533.5
475.501	544.5
475.72	550.5
475.939	546.5
476.158	555.5
476.377	554.5
476.596	541.5
476.814	577.5
477.033	562.5
477.252	568.5
477.471	571.5
477.69	568.5
477.908	562.5
478.127	572.5
478.346	572.5
478.564	609.5
478.783	597.5
479.002	604.5
479.22	594.5
479.439	618.5
479.658	648.5
479.876	664.5
480.095	643.5
480.313	694.5
480.532	651.5
480.751	670.5
480.969	679.5
481.188	758.5
481.406	817.5
481.624	734.5
481.843	682.5
482.061	662.5
482.28	685.5
482.498	650.5
482.717	648.5
482.935	670.5
483.153	627.5
483.372	642.5
483.59	642.5
483.808	661.5
484.027	638.5
484.245	629.5
484.463	644.5
484.681	658.5
484.9	665.5
485.118	659.5
485.336	658.5
485.554	655.5
485.772	685.5
485.99	648.5
486.209	669.5
486.427	698.5
486.645	673.5
486.863	726.5
487.081	715.5
487.299	726.5
487.517	721.5
487.735	698.5
487.953	717.5
488.171	688.5
488.389	704.5
488.607	728.5
488.825	717.5
489.043	698.5
489.261	712.5
489.479	729.5
489.696	712.5
489.914	717.5
490.132	697.5
490.35	750.5
490.568	722.5
490.786	744.5
491.003	752.5
491.221	753.5
491.439	781.5
491.657	819.5
491.874	808.5
492.092	822.5
492.31	834.5
492.527	835.5
492.745	826.5
492.963	848.5
493.18	833.5
493.398	852.5
493.615	841.5
493.833	858.5
494.05	849.5
494.268	847.5
494.485	863.5
494.703	818.5
494.92	864.5
495.138	851.5
495.355	838.5
495.573	836.5
495.79	845.5
496.008	837.5
496.225	844.5
496.442	866.5
496.66	836.5
496.877	822.5
497.094	857.5
497.312	854.5
497.529	861.5
497.746	865.5
497.963	864.5
498.181	896.5
498.398	912.5
498.615	908.5
498.832	896.5
499.049	914.5
499.267	919.5
499.484	950.5
499.701	973.5
499.918	982.5
500.135	986.5
500.352	1048.5
500.569	1019.5
500.786	1047.5
501.003	1047.5
501.22	1025.5
501.437	994.5
501.654	1018.5
501.871	985.5
502.088	982.5
502.305	950.5
502.522	914.5
502.739	909.5
502.956	878.5
503.172	882.5
503.389	876.5
503.606	893.5
503.823	884.5
504.04	857.5
504.256	862.5
504.473	841.5
504.69	826.5
504.907	829.5
505.123	819.5
505.34	819.5
505.557	818.5
505.773	824.5
505.99	822.5
506.207	834.5
506.423	787.5
506.64	807.5
506.856	801.5
507.073	795.5
507.289	795.5
507.506	779.5
507.722	812.5
507.939	801.5
508.155	816.5
508.372	797.5
508.588	776.5
508.805	760.5
509.021	802.5
509.238	800.5
509.454	790.5
509.67	789.5
509.887	786.5
510.103	819.5
510.319	802.5
510.536	916.5
510.752	1472.5
510.968	1244.5
511.184	812.5
511.401	766.5
511.617	778.5
511.833	772.5
512.049	752.5
512.265	730.5
512.481	741.5
512.698	742.5
512.914	751.5
513.13	730.5
513.346	735.5
513.562	729.5
513.778	728.5
513.994	756.5
514.21	770.5
514.426	792.5
514.642	843.5
514.858	894.5
515.074	949.5
515.29	1111.5
515.506	1687.5
515.721	1374.5
515.937	905.5
516.153	861.5
516.369	784.5
516.585	761.5
516.801	734.5
517.016	748.5
517.232	742.5
517.448	734.5
517.664	729.5
517.879	737.5
518.095	746.5
518.311	734.5
518.527	746.5
518.742	747.5
518.958	734.5
519.173	714.5
519.389	752.5
519.605	730.5
