Data from 1970.PennyLincolnUp.Lamp.En5.5.200Scan.071719.P1._HRD10591_15-15-02-841.txt Node
Date: Thu Jul 18 15:15:02 EDT 2019
User: cochatt
Spectrometer: HR+D1059
Trigger mode: 1
Integration Time (sec): 1.000000E-1
Scans to average: 1
Electric dark correction enabled: true
Nonlinearity correction enabled: false
Boxcar width: 0
XAxis mode: Wavelengths
Number of Pixels in Spectrum: 2048
>>>>>Begin Spectral Data<<<<<
223.165	-6.94
223.4	-6.94
223.635	-6.94
223.869	-9.94
224.104	-16.94
224.338	-6.94
224.573	-7.94
224.808	-22.94
225.042	-17.94
225.277	3.06
225.511	-0.94
225.746	10.06
225.98	-2.94
226.215	-7.94
226.449	8.06
226.683	12.06
226.918	30.06
227.152	38.06
227.387	30.06
227.621	37.06
227.856	37.06
228.09	44.06
228.324	57.06
228.559	66.06
228.793	62.06
229.027	100.06
229.262	121.06
229.496	128.06
229.73	152.06
229.964	159.06
230.199	159.06
230.433	129.06
230.667	109.06
230.901	110.06
231.136	116.06
231.37	114.06
231.604	140.06
231.838	123.06
232.072	117.06
232.306	126.06
232.541	122.06
232.775	119.06
233.009	129.06
233.243	121.06
233.477	119.06
233.711	121.06
233.945	118.06
234.179	136.06
234.413	117.06
234.647	131.06
234.881	128.06
235.115	131.06
235.349	144.06
235.583	117.06
235.817	135.06
236.051	129.06
236.285	141.06
236.519	132.06
236.753	147.06
236.987	153.06
237.221	203.06
237.455	266.06
237.689	227.06
237.922	170.06
238.156	151.06
238.39	143.06
238.624	138.06
238.858	123.06
239.091	143.06
239.325	158.06
239.559	136.06
239.793	147.06
240.027	142.06
240.26	169.06
240.494	187.06
240.728	178.06
240.961	172.06
241.195	157.06
241.429	147.06
241.662	146.06
241.896	143.06
242.13	142.06
242.363	145.06
242.597	149.06
242.83	158.06
243.064	146.06
243.298	146.06
243.531	140.06
243.765	140.06
243.998	161.06
244.232	146.06
244.465	146.06
244.699	171.06
244.932	152.06
245.166	156.06
245.399	145.06
245.633	152.06
245.866	164.06
246.099	154.06
246.333	162.06
246.566	166.06
246.8	158.06
247.033	183.06
247.266	183.06
247.5	184.06
247.733	189.06
247.966	192.06
248.2	185.06
248.433	203.06
248.666	200.06
248.899	217.06
249.133	233.06
249.366	224.06
249.599	227.06
249.832	194.06
250.066	205.06
250.299	216.06
250.532	207.06
250.765	223.06
250.998	258.06
251.231	271.06
251.465	245.06
251.698	237.06
251.931	216.06
252.164	216.06
252.397	226.06
252.63	229.06
252.863	234.06
253.096	247.06
253.329	254.06
253.562	254.06
253.795	255.06
254.028	268.06
254.261	259.06
254.494	278.06
254.727	287.06
254.96	317.06
255.193	334.06
255.426	312.06
255.659	247.06
255.892	237.06
256.124	274.06
256.357	253.06
256.59	251.06
256.823	253.06
257.056	234.06
257.289	230.06
257.521	241.06
257.754	227.06
257.987	233.06
258.22	229.06
258.452	226.06
258.685	222.06
258.918	237.06
259.151	227.06
259.383	251.06
259.616	245.06
259.849	251.06
260.081	275.06
260.314	282.06
260.547	294.06
260.779	268.06
261.012	264.06
261.244	261.06
261.477	243.06
261.71	252.06
261.942	258.06
262.175	268.06
262.407	262.06
262.64	235.06
262.872	235.06
263.105	238.06
263.337	219.06
263.57	223.06
263.802	224.06
264.035	224.06
264.267	226.06
264.499	231.06
264.732	230.06
264.964	226.06
265.197	214.06
265.429	226.06
265.661	229.06
265.894	221.06
266.126	230.06
266.358	220.06
266.591	238.06
266.823	223.06
267.055	257.06
267.287	239.06
267.52	268.06
267.752	228.06
267.984	239.06
268.216	248.06
268.448	245.06
268.681	240.06
268.913	257.06
269.145	272.06
269.377	288.06
269.609	307.06
269.841	301.06
270.073	295.06
270.306	304.06
270.538	345.06
270.77	333.06
271.002	330.06
271.234	335.06
271.466	321.06
271.698	350.06
271.93	360.06
272.162	344.06
272.394	343.06
272.626	337.06
272.858	326.06
273.09	287.06
273.322	299.06
273.553	298.06
273.785	288.06
274.017	277.06
274.249	293.06
274.481	286.06
274.713	273.06
274.945	290.06
275.176	272.06
275.408	268.06
275.64	273.06
275.872	276.06
276.104	279.06
276.335	268.06
276.567	285.06
276.799	292.06
277.031	307.06
277.262	337.06
277.494	315.06
277.726	310.06
277.957	306.06
278.189	270.06
278.421	291.06
278.652	274.06
278.884	285.06
279.115	263.06
279.347	305.06
279.579	271.06
279.81	271.06
280.042	257.06
280.273	273.06
280.505	281.06
280.736	287.06
280.968	273.06
281.199	270.06
281.431	272.06
281.662	271.06
281.894	264.06
282.125	282.06
282.356	280.06
282.588	295.06
282.819	322.06
283.051	279.06
283.282	272.06
283.513	272.06
283.745	292.06
283.976	302.06
284.207	289.06
284.439	290.06
284.67	289.06
284.901	275.06
285.132	269.06
285.364	274.06
285.595	264.06
285.826	262.06
286.057	279.06
286.288	247.06
286.52	283.06
286.751	273.06
286.982	280.06
287.213	298.06
287.444	270.06
287.675	297.06
287.906	302.06
288.138	286.06
288.369	305.06
288.6	311.06
288.831	309.06
289.062	290.06
289.293	290.06
289.524	301.06
289.755	299.06
289.986	292.06
290.217	302.06
290.448	281.06
290.679	286.06
290.91	287.06
291.141	283.06
291.371	280.06
291.602	288.06
291.833	270.06
292.064	295.06
292.295	280.06
292.526	295.06
292.757	294.06
292.987	297.06
293.218	290.06
293.449	299.06
293.68	304.06
293.91	275.06
294.141	293.06
294.372	299.06
294.603	281.06
294.833	282.06
295.064	271.06
295.295	282.06
295.525	294.06
295.756	299.06
295.987	312.06
296.217	325.06
296.448	344.06
296.679	307.06
296.909	287.06
297.14	297.06
297.37	318.06
297.601	304.06
297.831	298.06
298.062	304.06
298.292	307.06
298.523	310.06
298.753	307.06
298.984	317.06
299.214	321.06
299.445	313.06
299.675	299.06
299.905	298.06
300.136	321.06
300.366	303.06
300.597	290.06
300.827	305.06
301.057	311.06
301.288	339.06
301.518	333.06
301.748	320.06
301.979	344.06
302.209	306.06
302.439	320.06
302.669	324.06
302.9	324.06
303.13	347.06
303.36	344.06
303.59	339.06
303.82	327.06
304.051	335.06
304.281	335.06
304.511	334.06
304.741	330.06
304.971	304.06
305.201	326.06
305.431	347.06
305.661	331.06
305.891	332.06
306.121	333.06
306.352	331.06
306.582	330.06
306.812	332.06
307.042	331.06
307.272	344.06
307.502	342.06
307.731	338.06
307.961	340.06
308.191	329.06
308.421	335.06
308.651	339.06
308.881	348.06
309.111	327.06
309.341	355.06
309.571	354.06
309.8	346.06
310.03	390.06
310.26	379.06
310.49	368.06
310.72	386.06
310.949	397.06
311.179	397.06
311.409	390.06
311.639	380.06
311.868	371.06
312.098	403.06
312.328	399.06
312.557	424.06
312.787	427.06
313.017	439.06
313.246	407.06
313.476	397.06
313.706	394.06
313.935	387.06
314.165	423.06
314.394	419.06
314.624	427.06
314.853	406.06
315.083	395.06
315.312	380.06
315.542	373.06
315.771	362.06
316.001	380.06
316.23	389.06
316.46	401.06
316.689	386.06
316.919	396.06
317.148	401.06
317.377	395.06
317.607	383.06
317.836	387.06
318.065	383.06
318.295	383.06
318.524	376.06
318.753	377.06
318.983	385.06
319.212	386.06
319.441	383.06
319.67	416.06
319.9	395.06
320.129	410.06
320.358	400.06
320.587	393.06
320.816	378.06
321.046	410.06
321.275	428.06
321.504	414.06
321.733	423.06
321.962	419.06
322.191	442.06
322.42	463.06
322.649	483.06
322.878	486.06
323.108	497.06
323.337	518.06
323.566	561.06
323.795	579.06
324.024	629.06
324.253	793.06
324.482	1106.06
324.71	1733.06
324.939	2433.06
325.168	2112.06
325.397	1132.06
325.626	749.06
325.855	618.06
326.084	577.06
326.313	560.06
326.542	560.06
326.77	620.06
326.999	720.06
327.228	979.06
327.457	1483.06
327.686	1807.06
327.914	1265.06
328.143	817.06
328.372	727.06
328.6	683.06
328.829	613.06
329.058	634.06
329.287	630.06
329.515	613.06
329.744	571.06
329.972	589.06
330.201	603.06
330.43	625.06
330.658	647.06
330.887	696.06
331.115	659.06
331.344	580.06
331.572	533.06
331.801	550.06
332.03	535.06
332.258	518.06
332.486	488.06
332.715	457.06
332.943	465.06
333.172	462.06
333.4	481.06
333.629	479.06
333.857	486.06
334.085	499.06
334.314	520.06
334.542	535.06
334.771	579.06
334.999	497.06
335.227	513.06
335.455	486.06
335.684	458.06
335.912	480.06
336.14	443.06
336.369	434.06
336.597	466.06
336.825	466.06
337.053	471.06
337.281	441.06
337.51	463.06
337.738	431.06
337.966	449.06
338.194	459.06
338.422	459.06
338.65	465.06
338.878	426.06
339.106	439.06
339.334	429.06
339.562	442.06
339.79	443.06
340.018	447.06
340.246	455.06
340.474	442.06
340.702	445.06
340.93	447.06
341.158	426.06
341.386	442.06
341.614	433.06
341.842	458.06
342.07	423.06
342.298	417.06
342.526	427.06
342.754	418.06
342.981	393.06
343.209	423.06
343.437	429.06
343.665	443.06
343.893	425.06
344.12	429.06
344.348	449.06
344.576	456.06
344.804	447.06
345.031	441.06
345.259	489.06
345.487	457.06
345.714	441.06
345.942	441.06
346.17	446.06
346.397	437.06
346.625	426.06
346.853	404.06
347.08	421.06
347.308	437.06
347.535	463.06
347.763	450.06
347.99	463.06
348.218	455.06
348.445	452.06
348.673	467.06
348.9	444.06
349.128	423.06
349.355	441.06
349.583	426.06
349.81	424.06
350.037	429.06
350.265	429.06
350.492	427.06
350.72	438.06
350.947	437.06
351.174	444.06
351.402	456.06
351.629	471.06
351.856	457.06
352.083	440.06
352.311	440.06
352.538	464.06
352.765	458.06
352.992	437.06
353.22	462.06
353.447	451.06
353.674	436.06
353.901	410.06
354.128	403.06
354.355	416.06
354.583	408.06
354.81	406.06
355.037	433.06
355.264	402.06
355.491	388.06
355.718	414.06
355.945	409.06
356.172	417.06
356.399	402.06
356.626	403.06
356.853	401.06
357.08	429.06
357.307	402.06
357.534	394.06
357.761	425.06
357.988	411.06
358.215	402.06
358.441	398.06
358.668	399.06
358.895	438.06
359.122	413.06
359.349	427.06
359.576	426.06
359.802	482.06
360.029	520.06
360.256	505.06
360.483	504.06
360.709	443.06
360.936	457.06
361.163	439.06
361.39	453.06
361.616	472.06
361.843	460.06
362.07	445.06
362.296	432.06
362.523	427.06
362.749	446.06
362.976	445.06
363.203	443.06
363.429	417.06
363.656	431.06
363.882	432.06
364.109	413.06
364.335	407.06
364.562	428.06
364.788	433.06
365.015	421.06
365.241	422.06
365.468	441.06
365.694	447.06
365.92	434.06
366.147	422.06
366.373	429.06
366.599	441.06
366.826	415.06
367.052	413.06
367.278	415.06
367.505	426.06
367.731	428.06
367.957	406.06
368.184	433.06
368.41	435.06
368.636	430.06
368.862	441.06
369.089	452.06
369.315	423.06
369.541	434.06
369.767	416.06
369.993	417.06
370.219	416.06
370.445	430.06
370.672	416.06
370.898	414.06
371.124	433.06
371.35	449.06
371.576	419.06
371.802	417.06
372.028	415.06
372.254	430.06
372.48	422.06
372.706	429.06
372.932	429.06
373.158	409.06
373.384	434.06
373.61	417.06
373.835	432.06
374.061	433.06
374.287	434.06
374.513	422.06
374.739	431.06
374.965	413.06
375.191	429.06
375.416	416.06
375.642	428.06
375.868	421.06
376.094	427.06
376.319	424.06
376.545	397.06
376.771	421.06
376.997	439.06
377.222	418.06
377.448	422.06
377.674	409.06
377.899	429.06
378.125	409.06
378.35	412.06
378.576	412.06
378.802	408.06
379.027	426.06
379.253	433.06
379.478	426.06
379.704	409.06
379.929	434.06
380.155	424.06
380.38	427.06
380.606	421.06
380.831	435.06
381.057	418.06
381.282	419.06
381.507	424.06
381.733	422.06
381.958	430.06
382.184	425.06
382.409	422.06
382.634	434.06
382.86	440.06
383.085	419.06
383.31	444.06
383.535	439.06
383.761	450.06
383.986	416.06
384.211	431.06
384.436	431.06
384.662	428.06
384.887	445.06
385.112	426.06
385.337	443.06
385.562	469.06
385.787	444.06
386.013	459.06
386.238	464.06
386.463	482.06
386.688	476.06
386.913	433.06
387.138	475.06
387.363	442.06
387.588	439.06
387.813	453.06
388.038	458.06
388.263	455.06
388.488	441.06
388.713	477.06
388.938	461.06
389.163	455.06
389.387	457.06
389.612	443.06
389.837	443.06
390.062	445.06
390.287	457.06
390.512	438.06
390.736	460.06
390.961	444.06
391.186	437.06
391.411	459.06
391.636	433.06
391.86	461.06
392.085	475.06
392.31	453.06
392.534	449.06
392.759	462.06
392.984	481.06
393.208	465.06
393.433	472.06
393.658	479.06
393.882	481.06
394.107	446.06
394.331	460.06
394.556	448.06
394.78	482.06
395.005	474.06
395.229	462.06
395.454	457.06
395.678	474.06
395.903	501.06
396.127	519.06
396.352	497.06
396.576	495.06
396.801	492.06
397.025	487.06
397.249	497.06
397.474	478.06
397.698	481.06
397.922	504.06
398.147	527.06
398.371	515.06
398.595	521.06
398.82	523.06
399.044	523.06
399.268	498.06
399.492	547.06
399.717	579.06
399.941	593.06
400.165	626.06
400.389	655.06
400.613	589.06
400.837	558.06
401.062	534.06
401.286	520.06
401.51	513.06
401.734	517.06
401.958	531.06
402.182	559.06
402.406	521.06
402.63	557.06
402.854	547.06
403.078	539.06
403.302	550.06
403.526	540.06
403.75	543.06
403.974	523.06
404.198	562.06
404.422	547.06
404.645	537.06
404.869	574.06
405.093	582.06
405.317	622.06
405.541	682.06
405.765	611.06
405.988	592.06
406.212	580.06
406.436	598.06
406.66	636.06
406.883	609.06
407.107	612.06
407.331	682.06
407.555	697.06
407.778	734.06
408.002	677.06
408.226	590.06
408.449	618.06
408.673	611.06
408.896	644.06
409.12	699.06
409.344	643.06
409.567	599.06
409.791	566.06
410.014	553.06
410.238	585.06
410.461	543.06
410.685	562.06
410.908	576.06
411.132	644.06
411.355	655.06
411.578	619.06
411.802	573.06
412.025	538.06
412.249	549.06
412.472	585.06
412.695	652.06
412.919	618.06
413.142	582.06
413.365	537.06
413.589	562.06
413.812	548.06
414.035	518.06
414.258	516.06
414.482	526.06
414.705	528.06
414.928	520.06
415.151	533.06
415.374	516.06
415.597	513.06
415.821	504.06
416.044	540.06
416.267	549.06
416.49	515.06
416.713	521.06
416.936	516.06
417.159	560.06
417.382	513.06
417.605	522.06
417.828	543.06
418.051	542.06
418.274	543.06
418.497	528.06
418.72	517.06
418.943	539.06
419.166	535.06
419.389	561.06
419.611	599.06
419.834	546.06
420.057	577.06
420.28	575.06
420.503	577.06
420.726	565.06
420.948	569.06
421.171	605.06
421.394	650.06
421.617	601.06
421.839	552.06
422.062	542.06
422.285	577.06
422.507	624.06
422.73	725.06
422.953	689.06
423.175	630.06
423.398	579.06
423.621	600.06
423.843	618.06
424.066	618.06
424.288	621.06
424.511	625.06
424.733	702.06
424.956	747.06
425.178	734.06
425.401	746.06
425.623	755.06
425.846	672.06
426.068	620.06
426.291	613.06
426.513	624.06
426.735	613.06
426.958	670.06
427.18	747.06
427.402	870.06
427.625	965.06
427.847	874.06
428.069	771.06
428.292	706.06
428.514	651.06
428.736	601.06
428.958	603.06
429.181	594.06
429.403	577.06
429.625	609.06
429.847	629.06
430.069	707.06
430.292	683.06
430.514	608.06
430.736	581.06
430.958	565.06
431.18	541.06
431.402	545.06
431.624	532.06
431.846	549.06
432.068	511.06
432.29	520.06
432.512	547.06
432.734	563.06
432.956	573.06
433.178	560.06
433.4	553.06
433.622	542.06
433.844	541.06
434.066	539.06
434.287	533.06
434.509	548.06
434.731	549.06
434.953	534.06
435.175	592.06
435.397	589.06
435.618	606.06
435.84	669.06
436.062	777.06
436.284	849.06
436.505	695.06
436.727	631.06
436.949	595.06
437.17	593.06
437.392	572.06
437.614	590.06
437.835	649.06
438.057	743.06
438.278	864.06
438.5	850.06
438.721	921.06
438.943	895.06
439.165	727.06
439.386	668.06
439.608	661.06
439.829	672.06
440.05	675.06
440.272	700.06
440.493	670.06
440.715	635.06
440.936	585.06
441.158	577.06
441.379	582.06
441.6	615.06
441.822	629.06
442.043	667.06
442.264	754.06
442.486	792.06
442.707	681.06
442.928	651.06
443.149	678.06
443.371	675.06
443.592	712.06
443.813	832.06
444.034	869.06
444.255	738.06
444.476	651.06
444.698	632.06
444.919	613.06
445.14	715.06
445.361	695.06
445.582	685.06
445.803	726.06
446.024	837.06
446.245	850.06
446.466	777.06
446.687	679.06
446.908	651.06
447.129	590.06
447.35	587.06
447.571	583.06
447.792	557.06
448.013	582.06
448.234	619.06
448.455	651.06
448.675	807.06
448.896	898.06
449.117	772.06
449.338	736.06
449.559	865.06
449.779	933.06
450	751.06
450.221	632.06
450.442	625.06
450.662	592.06
450.883	594.06
451.104	619.06
451.324	592.06
451.545	571.06
451.766	541.06
451.986	521.06
452.207	525.06
452.428	515.06
452.648	520.06
452.869	538.06
453.089	536.06
453.31	533.06
453.53	553.06
453.751	507.06
453.971	522.06
454.192	536.06
454.412	569.06
454.633	521.06
454.853	519.06
455.073	519.06
455.294	572.06
455.514	609.06
455.734	610.06
455.955	538.06
456.175	499.06
456.395	489.06
456.616	497.06
456.836	487.06
457.056	474.06
457.276	485.06
457.497	471.06
457.717	467.06
457.937	465.06
458.157	504.06
458.377	501.06
458.598	535.06
458.818	596.06
459.038	687.06
459.258	713.06
459.478	617.06
459.698	531.06
459.918	515.06
460.138	529.06
460.358	546.06
460.578	524.06
460.798	538.06
461.018	537.06
461.238	519.06
461.458	531.06
461.678	519.06
461.898	530.06
462.118	520.06
462.338	553.06
462.558	517.06
462.777	557.06
462.997	559.06
463.217	551.06
463.437	555.06
463.657	561.06
463.876	552.06
464.096	549.06
464.316	562.06
464.536	557.06
464.755	574.06
464.975	593.06
465.195	618.06
465.414	740.06
465.634	654.06
465.854	601.06
466.073	575.06
466.293	549.06
466.512	515.06
466.732	544.06
466.951	558.06
467.171	524.06
467.391	538.06
467.61	537.06
467.829	553.06
468.049	559.06
468.268	557.06
468.488	529.06
468.707	514.06
468.927	498.06
469.146	502.06
469.365	525.06
469.585	503.06
469.804	539.06
470.023	557.06
470.243	541.06
470.462	550.06
470.681	569.06
470.901	561.06
471.12	518.06
471.339	531.06
471.558	537.06
471.777	543.06
471.997	521.06
472.216	558.06
472.435	607.06
472.654	601.06
472.873	547.06
473.092	552.06
473.311	549.06
473.53	529.06
473.749	554.06
473.968	595.06
474.187	731.06
474.406	744.06
474.625	643.06
474.844	578.06
475.063	559.06
475.282	545.06
475.501	558.06
475.72	563.06
475.939	542.06
476.158	574.06
476.377	553.06
476.596	568.06
476.814	569.06
477.033	562.06
477.252	587.06
477.471	571.06
477.69	572.06
477.908	575.06
478.127	575.06
478.346	578.06
478.564	572.06
478.783	595.06
479.002	604.06
479.22	633.06
479.439	635.06
479.658	631.06
479.876	652.06
480.095	642.06
480.313	705.06
480.532	657.06
480.751	666.06
480.969	679.06
481.188	759.06
481.406	808.06
481.624	713.06
481.843	682.06
482.061	658.06
482.28	672.06
482.498	659.06
482.717	660.06
482.935	659.06
483.153	637.06
483.372	637.06
483.59	652.06
483.808	635.06
484.027	638.06
484.245	659.06
484.463	647.06
484.681	651.06
484.9	651.06
485.118	645.06
485.336	664.06
485.554	642.06
485.772	648.06
485.99	682.06
486.209	685.06
486.427	673.06
486.645	699.06
486.863	715.06
487.081	711.06
487.299	713.06
487.517	696.06
487.735	708.06
487.953	718.06
488.171	726.06
488.389	747.06
488.607	705.06
488.825	707.06
489.043	706.06
489.261	691.06
489.479	713.06
489.696	753.06
489.914	723.06
490.132	726.06
490.35	731.06
490.568	744.06
490.786	757.06
491.003	772.06
491.221	796.06
491.439	797.06
491.657	810.06
491.874	819.06
492.092	845.06
492.31	826.06
492.527	830.06
492.745	821.06
492.963	868.06
493.18	840.06
493.398	859.06
493.615	839.06
493.833	846.06
494.05	862.06
494.268	867.06
494.485	852.06
494.703	866.06
494.92	876.06
495.138	851.06
495.355	869.06
495.573	860.06
495.79	861.06
496.008	858.06
496.225	837.06
496.442	833.06
496.66	839.06
496.877	850.06
497.094	843.06
497.312	874.06
497.529	869.06
497.746	859.06
497.963	866.06
498.181	895.06
498.398	898.06
498.615	913.06
498.832	900.06
499.049	924.06
499.267	895.06
499.484	934.06
499.701	962.06
499.918	987.06
500.135	1008.06
500.352	1032.06
500.569	1019.06
500.786	1050.06
501.003	1035.06
501.22	982.06
501.437	1014.06
501.654	988.06
501.871	1017.06
