Data from 1970.PennyLincolnUp.Lamp.En5.5.200Scan.071719.P1._HRD10591_15-14-20-842.txt Node
Date: Thu Jul 18 15:14:20 EDT 2019
User: cochatt
Spectrometer: HR+D1059
Trigger mode: 1
Integration Time (sec): 1.000000E-1
Scans to average: 1
Electric dark correction enabled: true
Nonlinearity correction enabled: false
Boxcar width: 0
XAxis mode: Wavelengths
Number of Pixels in Spectrum: 2048
>>>>>Begin Spectral Data<<<<<
223.165	-2.38
223.4	-2.38
223.635	-2.38
223.869	-24.38
224.104	-7.38
224.338	-20.38
224.573	-17.38
224.808	-23.38
225.042	1.62
225.277	-1.38
225.511	-4.38
225.746	-4.38
225.98	5.62
226.215	17.62
226.449	6.62
226.683	23.62
226.918	32.62
227.152	17.62
227.387	37.62
227.621	39.62
227.856	45.62
228.09	57.62
228.324	46.62
228.559	49.62
228.793	70.62
229.027	100.62
229.262	114.62
229.496	103.62
229.73	124.62
229.964	167.62
230.199	133.62
230.433	125.62
230.667	125.62
230.901	119.62
231.136	102.62
231.37	109.62
231.604	128.62
231.838	116.62
232.072	110.62
232.306	124.62
232.541	138.62
232.775	133.62
233.009	110.62
233.243	121.62
233.477	107.62
233.711	128.62
233.945	132.62
234.179	118.62
234.413	113.62
234.647	117.62
234.881	122.62
235.115	114.62
235.349	130.62
235.583	123.62
235.817	123.62
236.051	131.62
236.285	122.62
236.519	140.62
236.753	133.62
236.987	164.62
237.221	197.62
237.455	237.62
237.689	195.62
237.922	144.62
238.156	148.62
238.39	142.62
238.624	138.62
238.858	143.62
239.091	159.62
239.325	145.62
239.559	129.62
239.793	134.62
240.027	146.62
240.26	145.62
240.494	166.62
240.728	157.62
240.961	158.62
241.195	149.62
241.429	140.62
241.662	148.62
241.896	146.62
242.13	142.62
242.363	151.62
242.597	160.62
242.83	152.62
243.064	158.62
243.298	144.62
243.531	162.62
243.765	160.62
243.998	140.62
244.232	150.62
244.465	149.62
244.699	162.62
244.932	162.62
245.166	163.62
245.399	149.62
245.633	148.62
245.866	138.62
246.099	158.62
246.333	165.62
246.566	173.62
246.8	166.62
247.033	161.62
247.266	170.62
247.5	168.62
247.733	190.62
247.966	189.62
248.2	187.62
248.433	178.62
248.666	189.62
248.899	189.62
249.133	217.62
249.366	230.62
249.599	211.62
249.832	195.62
250.066	187.62
250.299	204.62
250.532	219.62
250.765	235.62
250.998	256.62
251.231	250.62
251.465	240.62
251.698	215.62
251.931	220.62
252.164	206.62
252.397	204.62
252.63	212.62
252.863	224.62
253.096	238.62
253.329	248.62
253.562	260.62
253.795	253.62
254.028	242.62
254.261	237.62
254.494	252.62
254.727	289.62
254.96	320.62
255.193	296.62
255.426	274.62
255.659	261.62
255.892	239.62
256.124	256.62
256.357	246.62
256.59	230.62
256.823	249.62
257.056	244.62
257.289	243.62
257.521	220.62
257.754	222.62
257.987	229.62
258.22	218.62
258.452	226.62
258.685	219.62
258.918	224.62
259.151	231.62
259.383	246.62
259.616	244.62
259.849	227.62
260.081	252.62
260.314	265.62
260.547	276.62
260.779	280.62
261.012	244.62
261.244	255.62
261.477	242.62
261.71	253.62
261.942	242.62
262.175	264.62
262.407	255.62
262.64	240.62
262.872	230.62
263.105	234.62
263.337	228.62
263.57	230.62
263.802	214.62
264.035	223.62
264.267	237.62
264.499	207.62
264.732	208.62
264.964	221.62
265.197	215.62
265.429	228.62
265.661	237.62
265.894	221.62
266.126	218.62
266.358	215.62
266.591	217.62
266.823	226.62
267.055	222.62
267.287	242.62
267.52	237.62
267.752	232.62
267.984	231.62
268.216	237.62
268.448	248.62
268.681	232.62
268.913	254.62
269.145	271.62
269.377	298.62
269.609	313.62
269.841	291.62
270.073	299.62
270.306	317.62
270.538	334.62
270.77	324.62
271.002	325.62
271.234	296.62
271.466	308.62
271.698	320.62
271.93	334.62
272.162	342.62
272.394	313.62
272.626	328.62
272.858	296.62
273.09	301.62
273.322	292.62
273.553	284.62
273.785	267.62
274.017	288.62
274.249	260.62
274.481	283.62
274.713	269.62
274.945	276.62
275.176	274.62
275.408	260.62
275.64	288.62
275.872	266.62
276.104	282.62
276.335	293.62
276.567	288.62
276.799	321.62
277.031	317.62
277.262	330.62
277.494	327.62
277.726	305.62
277.957	284.62
278.189	302.62
278.421	283.62
278.652	265.62
278.884	277.62
279.115	259.62
279.347	254.62
279.579	289.62
279.81	282.62
280.042	262.62
280.273	267.62
280.505	283.62
280.736	259.62
280.968	255.62
281.199	288.62
281.431	274.62
281.662	276.62
281.894	262.62
282.125	269.62
282.356	292.62
282.588	297.62
282.819	306.62
283.051	260.62
283.282	276.62
283.513	265.62
283.745	277.62
283.976	282.62
284.207	284.62
284.439	283.62
284.67	258.62
284.901	283.62
285.132	289.62
285.364	274.62
285.595	281.62
285.826	284.62
286.057	279.62
286.288	278.62
286.52	300.62
286.751	280.62
286.982	269.62
287.213	278.62
287.444	274.62
287.675	289.62
287.906	294.62
288.138	288.62
288.369	313.62
288.6	300.62
288.831	308.62
289.062	294.62
289.293	294.62
289.524	301.62
289.755	295.62
289.986	293.62
290.217	282.62
290.448	270.62
290.679	291.62
290.91	292.62
291.141	284.62
291.371	283.62
291.602	282.62
291.833	274.62
292.064	297.62
292.295	281.62
292.526	299.62
292.757	281.62
292.987	314.62
293.218	268.62
293.449	298.62
293.68	265.62
293.91	290.62
294.141	265.62
294.372	293.62
294.603	286.62
294.833	295.62
295.064	293.62
295.295	294.62
295.525	282.62
295.756	293.62
295.987	310.62
296.217	331.62
296.448	332.62
296.679	312.62
296.909	283.62
297.14	290.62
297.37	294.62
297.601	317.62
297.831	295.62
298.062	300.62
298.292	309.62
298.523	306.62
298.753	285.62
298.984	306.62
299.214	306.62
299.445	300.62
299.675	304.62
299.905	316.62
300.136	301.62
300.366	301.62
300.597	298.62
300.827	308.62
301.057	311.62
301.288	318.62
301.518	316.62
301.748	322.62
301.979	317.62
302.209	321.62
302.439	321.62
302.669	325.62
302.9	312.62
303.13	344.62
303.36	328.62
303.59	310.62
303.82	356.62
304.051	325.62
304.281	317.62
304.511	304.62
304.741	329.62
304.971	329.62
305.201	324.62
305.431	331.62
305.661	314.62
305.891	325.62
306.121	315.62
306.352	331.62
306.582	330.62
306.812	306.62
307.042	315.62
307.272	329.62
307.502	321.62
307.731	341.62
307.961	331.62
308.191	338.62
308.421	348.62
308.651	338.62
308.881	339.62
309.111	353.62
309.341	327.62
309.571	341.62
309.8	376.62
310.03	376.62
310.26	385.62
310.49	376.62
310.72	372.62
310.949	418.62
311.179	418.62
311.409	385.62
311.639	392.62
311.868	376.62
312.098	382.62
312.328	405.62
312.557	413.62
312.787	408.62
313.017	436.62
313.246	402.62
313.476	392.62
313.706	404.62
313.935	395.62
314.165	397.62
314.394	408.62
314.624	408.62
314.853	390.62
315.083	416.62
315.312	396.62
315.542	376.62
315.771	385.62
316.001	368.62
316.23	381.62
316.46	365.62
316.689	392.62
316.919	379.62
317.148	391.62
317.377	405.62
317.607	405.62
317.836	367.62
318.065	386.62
318.295	385.62
318.524	388.62
318.753	385.62
318.983	380.62
319.212	382.62
319.441	405.62
319.67	412.62
319.9	373.62
320.129	392.62
320.358	399.62
320.587	385.62
320.816	404.62
321.046	406.62
321.275	425.62
321.504	402.62
321.733	421.62
321.962	435.62
322.191	442.62
322.42	454.62
322.649	483.62
322.878	480.62
323.108	487.62
323.337	479.62
323.566	538.62
323.795	575.62
324.024	640.62
324.253	778.62
324.482	1077.62
324.71	1685.62
324.939	2368.62
325.168	2098.62
325.397	1133.62
325.626	746.62
325.855	606.62
326.084	555.62
326.313	540.62
326.542	540.62
326.77	596.62
326.999	711.62
327.228	978.62
327.457	1460.62
327.686	1803.62
327.914	1218.62
328.143	806.62
328.372	708.62
328.6	638.62
328.829	626.62
329.058	668.62
329.287	640.62
329.515	606.62
329.744	546.62
329.972	542.62
330.201	581.62
330.43	605.62
330.658	613.62
330.887	682.62
331.115	669.62
331.344	585.62
331.572	554.62
331.801	537.62
332.03	494.62
332.258	504.62
332.486	469.62
332.715	464.62
332.943	446.62
333.172	468.62
333.4	465.62
333.629	505.62
333.857	477.62
334.085	512.62
334.314	516.62
334.542	561.62
334.771	577.62
334.999	532.62
335.227	471.62
335.455	475.62
335.684	469.62
335.912	468.62
336.14	427.62
336.369	424.62
336.597	459.62
336.825	467.62
337.053	450.62
337.281	454.62
337.51	429.62
337.738	438.62
337.966	444.62
338.194	457.62
338.422	438.62
338.65	438.62
338.878	453.62
339.106	409.62
339.334	424.62
339.562	425.62
339.79	444.62
340.018	454.62
340.246	434.62
340.474	434.62
340.702	457.62
340.93	464.62
341.158	423.62
341.386	436.62
341.614	464.62
341.842	429.62
342.07	432.62
342.298	437.62
342.526	436.62
342.754	414.62
342.981	433.62
343.209	436.62
343.437	432.62
343.665	420.62
343.893	430.62
344.12	458.62
344.348	465.62
344.576	447.62
344.804	438.62
345.031	461.62
345.259	484.62
345.487	468.62
345.714	453.62
345.942	442.62
346.17	443.62
346.397	439.62
346.625	456.62
346.853	436.62
347.08	433.62
347.308	453.62
347.535	443.62
347.763	446.62
347.99	462.62
348.218	452.62
348.445	443.62
348.673	452.62
348.9	418.62
349.128	469.62
349.355	422.62
349.583	429.62
349.81	418.62
350.037	431.62
350.265	418.62
350.492	390.62
350.72	413.62
350.947	435.62
351.174	453.62
351.402	453.62
351.629	449.62
351.856	434.62
352.083	465.62
352.311	471.62
352.538	461.62
352.765	444.62
352.992	446.62
353.22	428.62
353.447	441.62
353.674	438.62
353.901	419.62
354.128	411.62
354.355	415.62
354.583	421.62
354.81	424.62
355.037	399.62
355.264	392.62
355.491	422.62
355.718	404.62
355.945	410.62
356.172	394.62
356.399	408.62
356.626	399.62
356.853	405.62
357.08	380.62
357.307	395.62
357.534	395.62
357.761	400.62
357.988	390.62
358.215	402.62
358.441	406.62
358.668	401.62
358.895	424.62
359.122	406.62
359.349	421.62
359.576	424.62
359.802	477.62
360.029	515.62
360.256	512.62
360.483	491.62
360.709	451.62
360.936	439.62
361.163	457.62
361.39	448.62
361.616	461.62
361.843	437.62
362.07	439.62
362.296	443.62
362.523	451.62
362.749	425.62
362.976	437.62
363.203	417.62
363.429	419.62
363.656	418.62
363.882	419.62
364.109	444.62
364.335	414.62
364.562	417.62
364.788	433.62
365.015	420.62
365.241	418.62
365.468	428.62
365.694	434.62
365.92	439.62
366.147	446.62
366.373	432.62
366.599	438.62
366.826	414.62
367.052	401.62
367.278	410.62
367.505	425.62
367.731	439.62
367.957	429.62
368.184	422.62
368.41	445.62
368.636	453.62
368.862	443.62
369.089	435.62
369.315	421.62
369.541	420.62
369.767	425.62
369.993	429.62
370.219	447.62
370.445	407.62
370.672	424.62
370.898	419.62
371.124	409.62
371.35	420.62
371.576	416.62
371.802	434.62
372.028	399.62
372.254	396.62
372.48	412.62
372.706	406.62
372.932	435.62
373.158	426.62
373.384	428.62
373.61	415.62
373.835	450.62
374.061	433.62
374.287	412.62
374.513	422.62
374.739	419.62
374.965	419.62
375.191	427.62
375.416	424.62
375.642	420.62
375.868	447.62
376.094	421.62
376.319	431.62
376.545	421.62
376.771	406.62
376.997	411.62
377.222	439.62
377.448	438.62
377.674	414.62
377.899	433.62
378.125	401.62
378.35	427.62
378.576	422.62
378.802	408.62
379.027	410.62
379.253	433.62
379.478	410.62
379.704	425.62
379.929	412.62
380.155	400.62
380.38	415.62
380.606	439.62
380.831	416.62
381.057	430.62
381.282	421.62
381.507	436.62
381.733	431.62
381.958	445.62
382.184	434.62
382.409	434.62
382.634	448.62
382.86	439.62
383.085	457.62
383.31	429.62
383.535	427.62
383.761	425.62
383.986	441.62
384.211	421.62
384.436	447.62
384.662	464.62
384.887	454.62
385.112	443.62
385.337	475.62
385.562	437.62
385.787	464.62
386.013	456.62
386.238	462.62
386.463	458.62
386.688	458.62
386.913	443.62
387.138	452.62
387.363	458.62
387.588	465.62
387.813	458.62
388.038	453.62
388.263	450.62
388.488	455.62
388.713	458.62
388.938	462.62
389.163	462.62
389.387	466.62
389.612	440.62
389.837	458.62
390.062	438.62
390.287	456.62
390.512	444.62
390.736	454.62
390.961	465.62
391.186	454.62
391.411	472.62
391.636	472.62
391.86	462.62
392.085	492.62
392.31	476.62
392.534	459.62
392.759	448.62
392.984	444.62
393.208	467.62
393.433	472.62
393.658	473.62
393.882	452.62
394.107	477.62
394.331	468.62
394.556	481.62
394.78	469.62
395.005	449.62
395.229	459.62
395.454	456.62
395.678	471.62
395.903	486.62
396.127	514.62
396.352	511.62
396.576	493.62
396.801	491.62
397.025	496.62
397.249	484.62
397.474	487.62
397.698	499.62
397.922	489.62
398.147	534.62
398.371	539.62
398.595	520.62
398.82	514.62
399.044	528.62
399.268	532.62
399.492	562.62
399.717	568.62
399.941	601.62
400.165	594.62
400.389	647.62
400.613	600.62
400.837	558.62
401.062	543.62
401.286	532.62
401.51	528.62
401.734	515.62
401.958	521.62
402.182	540.62
402.406	532.62
402.63	551.62
402.854	543.62
403.078	530.62
403.302	540.62
403.526	546.62
403.75	540.62
403.974	533.62
404.198	553.62
404.422	570.62
404.645	569.62
404.869	570.62
405.093	585.62
405.317	645.62
405.541	675.62
405.765	609.62
405.988	589.62
406.212	601.62
406.436	627.62
406.66	660.62
406.883	619.62
407.107	637.62
407.331	672.62
407.555	739.62
407.778	715.62
408.002	644.62
408.226	652.62
408.449	610.62
408.673	635.62
408.896	635.62
409.12	698.62
409.344	647.62
409.567	586.62
409.791	555.62
410.014	544.62
410.238	558.62
410.461	574.62
410.685	579.62
410.908	566.62
411.132	611.62
411.355	641.62
411.578	625.62
411.802	582.62
412.025	570.62
412.249	550.62
412.472	605.62
412.695	629.62
412.919	632.62
413.142	596.62
413.365	570.62
413.589	557.62
413.812	531.62
414.035	551.62
414.258	522.62
414.482	522.62
414.705	521.62
414.928	532.62
415.151	504.62
415.374	534.62
415.597	500.62
415.821	524.62
416.044	526.62
416.267	528.62
416.49	524.62
416.713	501.62
416.936	545.62
417.159	529.62
417.382	519.62
417.605	543.62
417.828	536.62
418.051	575.62
418.274	539.62
418.497	546.62
418.72	533.62
418.943	530.62
419.166	541.62
419.389	558.62
419.611	577.62
419.834	564.62
420.057	572.62
420.28	586.62
420.503	563.62
420.726	560.62
420.948	586.62
421.171	632.62
421.394	671.62
421.617	604.62
421.839	565.62
422.062	566.62
422.285	594.62
422.507	638.62
422.73	696.62
422.953	685.62
423.175	628.62
423.398	610.62
423.621	588.62
423.843	609.62
424.066	609.62
424.288	600.62
424.511	612.62
424.733	694.62
424.956	787.62
425.178	749.62
425.401	732.62
425.623	766.62
425.846	663.62
426.068	612.62
426.291	618.62
426.513	622.62
426.735	625.62
426.958	675.62
427.18	768.62
427.402	910.62
427.625	990.62
427.847	921.62
428.069	793.62
428.292	703.62
428.514	636.62
428.736	602.62
428.958	574.62
429.181	588.62
429.403	560.62
429.625	562.62
429.847	638.62
430.069	683.62
430.292	694.62
430.514	584.62
430.736	568.62
430.958	538.62
431.18	553.62
431.402	530.62
431.624	520.62
431.846	538.62
432.068	550.62
432.29	540.62
432.512	520.62
432.734	535.62
432.956	552.62
433.178	539.62
433.4	541.62
433.622	525.62
433.844	540.62
434.066	542.62
434.287	548.62
434.509	519.62
434.731	540.62
434.953	555.62
435.175	557.62
435.397	588.62
435.618	642.62
435.84	666.62
436.062	785.62
436.284	828.62
436.505	716.62
436.727	609.62
436.949	598.62
437.17	571.62
437.392	578.62
437.614	600.62
437.835	648.62
438.057	759.62
438.278	848.62
438.5	853.62
438.721	917.62
438.943	885.62
439.165	711.62
439.386	663.62
439.608	640.62
439.829	649.62
440.05	684.62
440.272	704.62
440.493	674.62
440.715	616.62
440.936	604.62
441.158	589.62
441.379	593.62
441.6	597.62
441.822	649.62
442.043	675.62
442.264	798.62
442.486	817.62
442.707	677.62
442.928	630.62
443.149	681.62
443.371	708.62
443.592	717.62
443.813	816.62
444.034	853.62
444.255	741.62
444.476	672.62
444.698	631.62
444.919	626.62
445.14	736.62
445.361	688.62
445.582	662.62
445.803	731.62
446.024	836.62
446.245	854.62
446.466	809.62
446.687	670.62
446.908	635.62
447.129	578.62
447.35	602.62
447.571	589.62
447.792	570.62
448.013	606.62
448.234	609.62
448.455	663.62
448.675	762.62
448.896	860.62
449.117	778.62
449.338	726.62
449.559	830.62
449.779	937.62
450	792.62
450.221	646.62
450.442	598.62
450.662	588.62
450.883	560.62
451.104	608.62
451.324	606.62
451.545	548.62
451.766	538.62
451.986	551.62
452.207	527.62
452.428	486.62
452.648	502.62
452.869	531.62
453.089	556.62
453.31	535.62
453.53	558.62
453.751	529.62
453.971	526.62
454.192	551.62
454.412	545.62
454.633	521.62
454.853	512.62
455.073	524.62
455.294	555.62
455.514	620.62
455.734	592.62
455.955	539.62
456.175	501.62
456.395	490.62
456.616	480.62
456.836	467.62
457.056	480.62
457.276	472.62
457.497	464.62
457.717	483.62
457.937	479.62
458.157	537.62
458.377	496.62
458.598	526.62
458.818	608.62
459.038	683.62
459.258	701.62
459.478	618.62
459.698	548.62
459.918	547.62
460.138	539.62
460.358	536.62
460.578	524.62
460.798	522.62
461.018	546.62
461.238	537.62
461.458	553.62
461.678	545.62
461.898	535.62
462.118	518.62
462.338	538.62
462.558	532.62
462.777	549.62
462.997	539.62
463.217	566.62
463.437	574.62
463.657	583.62
463.876	557.62
464.096	557.62
464.316	578.62
464.536	579.62
464.755	572.62
464.975	586.62
465.195	653.62
465.414	742.62
465.634	641.62
465.854	584.62
466.073	562.62
466.293	550.62
466.512	532.62
466.732	541.62
466.951	549.62
467.171	525.62
467.391	526.62
467.61	545.62
467.829	554.62
468.049	537.62
468.268	539.62
468.488	545.62
468.707	527.62
468.927	535.62
469.146	507.62
469.365	537.62
469.585	517.62
469.804	518.62
470.023	528.62
470.243	540.62
470.462	562.62
470.681	578.62
470.901	562.62
471.12	555.62
471.339	549.62
471.558	521.62
471.777	539.62
471.997	532.62
472.216	546.62
472.435	582.62
472.654	590.62
472.873	567.62
473.092	520.62
473.311	537.62
473.53	570.62
473.749	564.62
473.968	613.62
474.187	722.62
474.406	729.62
474.625	617.62
474.844	555.62
475.063	537.62
475.282	547.62
475.501	538.62
475.72	527.62
475.939	533.62
476.158	569.62
476.377	547.62
476.596	545.62
476.814	584.62
477.033	568.62
477.252	573.62
477.471	571.62
477.69	602.62
477.908	583.62
478.127	580.62
478.346	596.62
478.564	576.62
478.783	593.62
479.002	608.62
479.22	608.62
479.439	637.62
479.658	634.62
479.876	641.62
480.095	655.62
480.313	666.62
480.532	655.62
480.751	648.62
480.969	651.62
481.188	764.62
481.406	795.62
481.624	711.62
481.843	684.62
482.061	661.62
482.28	646.62
482.498	646.62
482.717	629.62
482.935	645.62
483.153	634.62
483.372	636.62
483.59	660.62
483.808	661.62
484.027	626.62
484.245	633.62
484.463	648.62
484.681	666.62
484.9	658.62
485.118	641.62
485.336	647.62
485.554	659.62
485.772	670.62
485.99	665.62
486.209	669.62
486.427	692.62
486.645	669.62
486.863	711.62
487.081	720.62
487.299	724.62
487.517	704.62
487.735	703.62
487.953	718.62
488.171	716.62
488.389	701.62
488.607	702.62
488.825	689.62
489.043	708.62
489.261	716.62
489.479	709.62
489.696	720.62
489.914	721.62
490.132	736.62
490.35	727.62
490.568	738.62
490.786	749.62
491.003	780.62
491.221	788.62
491.439	791.62
491.657	802.62
491.874	816.62
492.092	832.62
492.31	826.62
492.527	823.62
492.745	836.62
492.963	840.62
493.18	838.62
493.398	851.62
493.615	848.62
493.833	833.62
494.05	844.62
494.268	849.62
494.485	845.62
494.703	855.62
494.92	836.62
495.138	868.62
495.355	884.62
495.573	844.62
495.79	814.62
496.008	862.62
496.225	819.62
496.442	828.62
496.66	875.62
496.877	847.62
497.094	851.62
497.312	858.62
497.529	872.62
497.746	888.62
497.963	851.62
498.181	882.62
498.398	908.62
498.615	903.62
498.832	898.62
499.049	901.62
499.267	904.62
499.484	954.62
499.701	950.62
499.918	1009.62
500.135	1022.62
500.352	1047.62
500.569	1030.62
500.786	1028.62
501.003	1054.62
501.22	1044.62
501.437	1050.62
501.654	1034.62
501.871	993.62
