Data from 1970.PennyLincolnUp.Lamp.En5.5.200Scan.071719.P1._HRD10591_15-15-39-841.txt Node
Date: Thu Jul 18 15:15:39 EDT 2019
User: cochatt
Spectrometer: HR+D1059
Trigger mode: 1
Integration Time (sec): 1.000000E-1
Scans to average: 1
Electric dark correction enabled: true
Nonlinearity correction enabled: false
Boxcar width: 0
XAxis mode: Wavelengths
Number of Pixels in Spectrum: 2048
>>>>>Begin Spectral Data<<<<<
223.165	-15.19
223.4	-15.19
223.635	-15.19
223.869	-9.19
224.104	-19.19
224.338	-17.19
224.573	-9.19
224.808	-20.19
225.042	-14.19
225.277	-19.19
225.511	-0.19
225.746	7.81
225.98	18.81
226.215	11.81
226.449	13.81
226.683	22.81
226.918	27.81
227.152	20.81
227.387	26.81
227.621	33.81
227.856	22.81
228.09	43.81
228.324	42.81
228.559	54.81
228.793	74.81
229.027	94.81
229.262	121.81
229.496	119.81
229.73	149.81
229.964	178.81
230.199	140.81
230.433	121.81
230.667	119.81
230.901	131.81
231.136	117.81
231.37	124.81
231.604	121.81
231.838	105.81
232.072	127.81
232.306	127.81
232.541	123.81
232.775	122.81
233.009	108.81
233.243	116.81
233.477	132.81
233.711	129.81
233.945	125.81
234.179	116.81
234.413	99.81
234.647	119.81
234.881	121.81
235.115	120.81
235.349	124.81
235.583	133.81
235.817	136.81
236.051	136.81
236.285	135.81
236.519	135.81
236.753	142.81
236.987	136.81
237.221	198.81
237.455	258.81
237.689	211.81
237.922	171.81
238.156	156.81
238.39	150.81
238.624	154.81
238.858	139.81
239.091	141.81
239.325	134.81
239.559	145.81
239.793	136.81
240.027	142.81
240.26	156.81
240.494	183.81
240.728	175.81
240.961	168.81
241.195	147.81
241.429	137.81
241.662	147.81
241.896	145.81
242.13	141.81
242.363	127.81
242.597	127.81
242.83	156.81
243.064	151.81
243.298	159.81
243.531	154.81
243.765	155.81
243.998	152.81
244.232	158.81
244.465	162.81
244.699	148.81
244.932	152.81
245.166	147.81
245.399	170.81
245.633	145.81
245.866	154.81
246.099	161.81
246.333	161.81
246.566	168.81
246.8	174.81
247.033	168.81
247.266	168.81
247.5	188.81
247.733	189.81
247.966	184.81
248.2	183.81
248.433	197.81
248.666	193.81
248.899	201.81
249.133	224.81
249.366	236.81
249.599	219.81
249.832	214.81
250.066	202.81
250.299	196.81
250.532	202.81
250.765	231.81
250.998	265.81
251.231	262.81
251.465	246.81
251.698	223.81
251.931	221.81
252.164	223.81
252.397	206.81
252.63	220.81
252.863	234.81
253.096	242.81
253.329	242.81
253.562	248.81
253.795	248.81
254.028	261.81
254.261	246.81
254.494	243.81
254.727	294.81
254.96	317.81
255.193	315.81
255.426	290.81
255.659	275.81
255.892	267.81
256.124	277.81
256.357	273.81
256.59	263.81
256.823	245.81
257.056	237.81
257.289	246.81
257.521	238.81
257.754	225.81
257.987	242.81
258.22	229.81
258.452	242.81
258.685	224.81
258.918	238.81
259.151	229.81
259.383	237.81
259.616	245.81
259.849	239.81
260.081	261.81
260.314	268.81
260.547	268.81
260.779	265.81
261.012	247.81
261.244	255.81
261.477	244.81
261.71	261.81
261.942	243.81
262.175	252.81
262.407	231.81
262.64	236.81
262.872	230.81
263.105	228.81
263.337	239.81
263.57	238.81
263.802	225.81
264.035	231.81
264.267	239.81
264.499	211.81
264.732	210.81
264.964	219.81
265.197	233.81
265.429	217.81
265.661	219.81
265.894	224.81
266.126	220.81
266.358	227.81
266.591	233.81
266.823	235.81
267.055	230.81
267.287	246.81
267.52	231.81
267.752	241.81
267.984	228.81
268.216	257.81
268.448	246.81
268.681	248.81
268.913	259.81
269.145	271.81
269.377	296.81
269.609	302.81
269.841	275.81
270.073	292.81
270.306	291.81
270.538	348.81
270.77	355.81
271.002	346.81
271.234	302.81
271.466	309.81
271.698	348.81
271.93	346.81
272.162	355.81
272.394	354.81
272.626	342.81
272.858	316.81
273.09	298.81
273.322	270.81
273.553	282.81
273.785	273.81
274.017	281.81
274.249	279.81
274.481	261.81
274.713	247.81
274.945	287.81
275.176	266.81
275.408	264.81
275.64	286.81
275.872	279.81
276.104	269.81
276.335	272.81
276.567	276.81
276.799	306.81
277.031	325.81
277.262	329.81
277.494	338.81
277.726	303.81
277.957	303.81
278.189	273.81
278.421	289.81
278.652	286.81
278.884	285.81
279.115	292.81
279.347	285.81
279.579	279.81
279.81	270.81
280.042	291.81
280.273	283.81
280.505	276.81
280.736	253.81
280.968	289.81
281.199	275.81
281.431	297.81
281.662	285.81
281.894	247.81
282.125	283.81
282.356	319.81
282.588	335.81
282.819	327.81
283.051	299.81
283.282	294.81
283.513	295.81
283.745	281.81
283.976	276.81
284.207	278.81
284.439	284.81
284.67	281.81
284.901	305.81
285.132	284.81
285.364	285.81
285.595	277.81
285.826	300.81
286.057	291.81
286.288	283.81
286.52	280.81
286.751	260.81
286.982	274.81
287.213	298.81
287.444	284.81
287.675	291.81
287.906	298.81
288.138	309.81
288.369	316.81
288.6	305.81
288.831	309.81
289.062	280.81
289.293	287.81
289.524	299.81
289.755	298.81
289.986	282.81
290.217	291.81
290.448	307.81
290.679	304.81
290.91	293.81
291.141	307.81
291.371	298.81
291.602	299.81
291.833	310.81
292.064	294.81
292.295	289.81
292.526	289.81
292.757	289.81
292.987	292.81
293.218	266.81
293.449	284.81
293.68	278.81
293.91	289.81
294.141	293.81
294.372	284.81
294.603	310.81
294.833	292.81
295.064	282.81
295.295	293.81
295.525	291.81
295.756	288.81
295.987	309.81
296.217	329.81
296.448	315.81
296.679	329.81
296.909	296.81
297.14	280.81
297.37	295.81
297.601	297.81
297.831	289.81
298.062	299.81
298.292	317.81
298.523	289.81
298.753	308.81
298.984	304.81
299.214	282.81
299.445	311.81
299.675	288.81
299.905	321.81
300.136	310.81
300.366	327.81
300.597	323.81
300.827	304.81
301.057	325.81
301.288	330.81
301.518	322.81
301.748	319.81
301.979	323.81
302.209	325.81
302.439	337.81
302.669	331.81
302.9	319.81
303.13	331.81
303.36	335.81
303.59	322.81
303.82	356.81
304.051	355.81
304.281	323.81
304.511	300.81
304.741	319.81
304.971	319.81
305.201	305.81
305.431	321.81
305.661	314.81
305.891	333.81
306.121	329.81
306.352	347.81
306.582	354.81
306.812	341.81
307.042	333.81
307.272	331.81
307.502	330.81
307.731	334.81
307.961	328.81
308.191	329.81
308.421	328.81
308.651	310.81
308.881	322.81
309.111	335.81
309.341	333.81
309.571	356.81
309.8	374.81
310.03	385.81
310.26	361.81
310.49	385.81
310.72	407.81
310.949	407.81
311.179	408.81
311.409	407.81
311.639	396.81
311.868	396.81
312.098	410.81
312.328	410.81
312.557	430.81
312.787	440.81
313.017	417.81
313.246	425.81
313.476	399.81
313.706	395.81
313.935	391.81
314.165	408.81
314.394	409.81
314.624	429.81
314.853	406.81
315.083	389.81
315.312	367.81
315.542	372.81
315.771	366.81
316.001	393.81
316.23	383.81
316.46	386.81
316.689	379.81
316.919	391.81
317.148	398.81
317.377	394.81
317.607	398.81
317.836	388.81
318.065	389.81
318.295	382.81
318.524	397.81
318.753	385.81
318.983	371.81
319.212	409.81
319.441	391.81
319.67	403.81
319.9	404.81
320.129	392.81
320.358	383.81
320.587	398.81
320.816	399.81
321.046	425.81
321.275	418.81
321.504	410.81
321.733	437.81
321.962	438.81
322.191	447.81
322.42	455.81
322.649	487.81
322.878	475.81
323.108	487.81
323.337	546.81
323.566	565.81
323.795	597.81
324.024	649.81
324.253	808.81
324.482	1129.81
324.71	1796.81
324.939	2544.81
325.168	2221.81
325.397	1182.81
325.626	778.81
325.855	630.81
326.084	563.81
326.313	565.81
326.542	546.81
326.77	605.81
326.999	753.81
327.228	1014.81
327.457	1541.81
327.686	1868.81
327.914	1301.81
328.143	864.81
328.372	737.81
328.6	668.81
328.829	663.81
329.058	688.81
329.287	693.81
329.515	619.81
329.744	583.81
329.972	559.81
330.201	580.81
330.43	654.81
330.658	690.81
330.887	701.81
331.115	703.81
331.344	566.81
331.572	537.81
331.801	544.81
332.03	549.81
332.258	518.81
332.486	486.81
332.715	479.81
332.943	461.81
333.172	472.81
333.4	485.81
333.629	480.81
333.857	495.81
334.085	511.81
334.314	547.81
334.542	587.81
334.771	599.81
334.999	531.81
335.227	502.81
335.455	459.81
335.684	479.81
335.912	462.81
336.14	452.81
336.369	449.81
336.597	465.81
336.825	476.81
337.053	472.81
337.281	468.81
337.51	462.81
337.738	442.81
337.966	439.81
338.194	463.81
338.422	471.81
338.65	447.81
338.878	457.81
339.106	431.81
339.334	440.81
339.562	425.81
339.79	448.81
340.018	448.81
340.246	449.81
340.474	433.81
340.702	466.81
340.93	439.81
341.158	416.81
341.386	435.81
341.614	451.81
341.842	448.81
342.07	447.81
342.298	431.81
342.526	438.81
342.754	423.81
342.981	411.81
343.209	430.81
343.437	441.81
343.665	425.81
343.893	441.81
344.12	455.81
344.348	454.81
344.576	431.81
344.804	470.81
345.031	470.81
345.259	502.81
345.487	449.81
345.714	430.81
345.942	437.81
346.17	449.81
346.397	447.81
346.625	451.81
346.853	437.81
347.08	421.81
347.308	464.81
347.535	445.81
347.763	446.81
347.99	455.81
348.218	444.81
348.445	468.81
348.673	468.81
348.9	458.81
349.128	446.81
349.355	434.81
349.583	415.81
349.81	418.81
350.037	448.81
350.265	428.81
350.492	441.81
350.72	437.81
350.947	430.81
351.174	429.81
351.402	455.81
351.629	474.81
351.856	452.81
352.083	450.81
352.311	468.81
352.538	467.81
352.765	452.81
352.992	441.81
353.22	466.81
353.447	436.81
353.674	447.81
353.901	434.81
354.128	421.81
354.355	415.81
354.583	403.81
354.81	396.81
355.037	421.81
355.264	406.81
355.491	404.81
355.718	408.81
355.945	411.81
356.172	404.81
356.399	415.81
356.626	393.81
356.853	396.81
357.08	397.81
357.307	404.81
357.534	403.81
357.761	411.81
357.988	395.81
358.215	405.81
358.441	413.81
358.668	402.81
358.895	414.81
359.122	418.81
359.349	429.81
359.576	446.81
359.802	469.81
360.029	524.81
360.256	519.81
360.483	513.81
360.709	450.81
360.936	448.81
361.163	439.81
361.39	433.81
361.616	430.81
361.843	460.81
362.07	457.81
362.296	451.81
362.523	453.81
362.749	454.81
362.976	446.81
363.203	424.81
363.429	418.81
363.656	458.81
363.882	436.81
364.109	422.81
364.335	441.81
364.562	421.81
364.788	416.81
365.015	420.81
365.241	434.81
365.468	444.81
365.694	434.81
365.92	434.81
366.147	420.81
366.373	425.81
366.599	416.81
366.826	441.81
367.052	413.81
367.278	427.81
367.505	400.81
367.731	436.81
367.957	410.81
368.184	446.81
368.41	436.81
368.636	443.81
368.862	455.81
369.089	449.81
369.315	437.81
369.541	426.81
369.767	426.81
369.993	444.81
370.219	437.81
370.445	418.81
370.672	395.81
370.898	410.81
371.124	423.81
371.35	411.81
371.576	407.81
371.802	411.81
372.028	406.81
372.254	429.81
372.48	420.81
372.706	434.81
372.932	430.81
373.158	414.81
373.384	440.81
373.61	434.81
373.835	412.81
374.061	427.81
374.287	423.81
374.513	430.81
374.739	437.81
374.965	454.81
375.191	417.81
375.416	453.81
375.642	419.81
375.868	397.81
376.094	422.81
376.319	418.81
376.545	423.81
376.771	434.81
376.997	404.81
377.222	420.81
377.448	407.81
377.674	420.81
377.899	406.81
378.125	423.81
378.35	418.81
378.576	435.81
378.802	399.81
379.027	418.81
379.253	423.81
379.478	412.81
379.704	434.81
379.929	404.81
380.155	420.81
380.38	414.81
380.606	415.81
380.831	421.81
381.057	438.81
381.282	422.81
381.507	421.81
381.733	408.81
381.958	426.81
382.184	464.81
382.409	444.81
382.634	432.81
382.86	442.81
383.085	411.81
383.31	421.81
383.535	455.81
383.761	431.81
383.986	428.81
384.211	445.81
384.436	431.81
384.662	441.81
384.887	443.81
385.112	430.81
385.337	449.81
385.562	464.81
385.787	460.81
386.013	449.81
386.238	454.81
386.463	473.81
386.688	444.81
386.913	437.81
387.138	439.81
387.363	451.81
387.588	449.81
387.813	459.81
388.038	475.81
388.263	465.81
388.488	449.81
388.713	465.81
388.938	463.81
389.163	461.81
389.387	448.81
389.612	448.81
389.837	460.81
390.062	434.81
390.287	454.81
390.512	464.81
390.736	449.81
390.961	467.81
391.186	443.81
391.411	443.81
391.636	457.81
391.86	454.81
392.085	466.81
392.31	444.81
392.534	471.81
392.759	468.81
392.984	464.81
393.208	466.81
393.433	455.81
393.658	473.81
393.882	481.81
394.107	460.81
394.331	480.81
394.556	464.81
394.78	450.81
395.005	445.81
395.229	451.81
395.454	471.81
395.678	469.81
395.903	468.81
396.127	509.81
396.352	515.81
396.576	500.81
396.801	487.81
397.025	478.81
397.249	475.81
397.474	492.81
397.698	492.81
397.922	509.81
398.147	487.81
398.371	513.81
398.595	502.81
398.82	512.81
399.044	516.81
399.268	521.81
399.492	545.81
399.717	547.81
399.941	594.81
400.165	612.81
400.389	635.81
400.613	599.81
400.837	571.81
401.062	528.81
401.286	547.81
401.51	520.81
401.734	521.81
401.958	546.81
402.182	539.81
402.406	530.81
402.63	551.81
402.854	537.81
403.078	540.81
403.302	554.81
403.526	556.81
403.75	569.81
403.974	547.81
404.198	552.81
404.422	571.81
404.645	544.81
404.869	563.81
405.093	591.81
405.317	646.81
405.541	675.81
405.765	614.81
405.988	609.81
406.212	602.81
406.436	643.81
406.66	602.81
406.883	601.81
407.107	601.81
407.331	660.81
407.555	723.81
407.778	722.81
408.002	670.81
408.226	620.81
408.449	601.81
408.673	608.81
408.896	621.81
409.12	669.81
409.344	643.81
409.567	566.81
409.791	589.81
410.014	566.81
410.238	534.81
410.461	548.81
410.685	548.81
410.908	597.81
411.132	618.81
411.355	693.81
411.578	633.81
411.802	579.81
412.025	567.81
412.249	547.81
412.472	578.81
412.695	625.81
412.919	627.81
413.142	594.81
413.365	565.81
413.589	555.81
413.812	542.81
414.035	530.81
414.258	519.81
414.482	519.81
414.705	540.81
414.928	544.81
415.151	533.81
415.374	527.81
415.597	508.81
415.821	500.81
416.044	523.81
416.267	519.81
416.49	531.81
416.713	522.81
416.936	525.81
417.159	527.81
417.382	523.81
417.605	568.81
417.828	554.81
418.051	543.81
418.274	536.81
418.497	543.81
418.72	550.81
418.943	515.81
419.166	547.81
419.389	555.81
419.611	593.81
419.834	567.81
420.057	566.81
420.28	579.81
420.503	566.81
420.726	558.81
420.948	609.81
421.171	641.81
421.394	669.81
421.617	591.81
421.839	557.81
422.062	596.81
422.285	569.81
422.507	646.81
422.73	718.81
422.953	700.81
423.175	623.81
423.398	577.81
423.621	600.81
423.843	618.81
424.066	598.81
424.288	602.81
424.511	654.81
424.733	691.81
424.956	767.81
425.178	755.81
425.401	738.81
425.623	765.81
425.846	656.81
426.068	650.81
426.291	635.81
426.513	622.81
426.735	628.81
426.958	683.81
427.18	782.81
427.402	907.81
427.625	967.81
427.847	878.81
428.069	784.81
428.292	707.81
428.514	632.81
428.736	590.81
428.958	586.81
429.181	543.81
429.403	583.81
429.625	585.81
429.847	635.81
430.069	701.81
430.292	680.81
430.514	603.81
430.736	586.81
430.958	549.81
431.18	561.81
431.402	544.81
431.624	545.81
431.846	537.81
432.068	508.81
432.29	535.81
432.512	567.81
432.734	532.81
432.956	535.81
433.178	548.81
433.4	555.81
433.622	561.81
433.844	540.81
434.066	545.81
434.287	507.81
434.509	546.81
434.731	564.81
434.953	536.81
435.175	565.81
435.397	587.81
435.618	640.81
435.84	679.81
436.062	796.81
436.284	827.81
436.505	721.81
436.727	655.81
436.949	625.81
437.17	593.81
437.392	603.81
437.614	595.81
437.835	653.81
438.057	762.81
438.278	830.81
438.5	857.81
438.721	913.81
438.943	878.81
439.165	741.81
439.386	659.81
439.608	647.81
439.829	665.81
440.05	696.81
440.272	714.81
440.493	719.81
440.715	630.81
440.936	615.81
441.158	587.81
441.379	603.81
441.6	594.81
441.822	647.81
442.043	655.81
442.264	757.81
442.486	837.81
442.707	706.81
442.928	664.81
443.149	663.81
443.371	683.81
443.592	714.81
443.813	825.81
444.034	857.81
444.255	731.81
444.476	670.81
444.698	633.81
444.919	626.81
445.14	764.81
445.361	686.81
445.582	676.81
445.803	742.81
446.024	860.81
446.245	889.81
446.466	796.81
446.687	681.81
446.908	669.81
447.129	607.81
447.35	583.81
447.571	600.81
447.792	573.81
448.013	589.81
448.234	616.81
448.455	666.81
448.675	762.81
448.896	898.81
449.117	793.81
449.338	737.81
449.559	878.81
449.779	929.81
450	787.81
450.221	662.81
450.442	600.81
450.662	599.81
450.883	610.81
451.104	616.81
451.324	608.81
451.545	557.81
451.766	553.81
451.986	539.81
452.207	530.81
452.428	523.81
452.648	532.81
452.869	542.81
453.089	540.81
453.31	563.81
453.53	551.81
453.751	541.81
453.971	538.81
454.192	559.81
454.412	563.81
454.633	538.81
454.853	519.81
455.073	529.81
455.294	577.81
455.514	630.81
455.734	627.81
455.955	528.81
456.175	523.81
456.395	470.81
456.616	484.81
456.836	479.81
457.056	489.81
457.276	483.81
457.497	466.81
457.717	491.81
457.937	501.81
458.157	494.81
458.377	511.81
458.598	551.81
458.818	605.81
459.038	714.81
459.258	723.81
459.478	616.81
459.698	572.81
459.918	538.81
460.138	523.81
460.358	559.81
460.578	537.81
460.798	542.81
461.018	514.81
461.238	537.81
461.458	507.81
461.678	519.81
461.898	497.81
462.118	517.81
462.338	531.81
462.558	542.81
462.777	537.81
462.997	548.81
463.217	568.81
463.437	562.81
463.657	555.81
463.876	547.81
464.096	544.81
464.316	557.81
464.536	576.81
464.755	563.81
464.975	581.81
465.195	612.81
465.414	744.81
465.634	653.81
465.854	615.81
466.073	579.81
466.293	547.81
466.512	525.81
466.732	539.81
466.951	540.81
467.171	509.81
467.391	512.81
467.61	531.81
467.829	553.81
468.049	567.81
468.268	574.81
468.488	537.81
468.707	536.81
468.927	529.81
469.146	523.81
469.365	524.81
469.585	512.81
469.804	533.81
470.023	545.81
470.243	534.81
470.462	551.81
470.681	555.81
470.901	561.81
471.12	553.81
471.339	516.81
471.558	564.81
471.777	563.81
471.997	548.81
472.216	522.81
472.435	626.81
472.654	592.81
472.873	540.81
473.092	529.81
473.311	528.81
473.53	541.81
473.749	546.81
473.968	607.81
474.187	734.81
474.406	709.81
474.625	601.81
474.844	564.81
475.063	567.81
475.282	572.81
475.501	538.81
475.72	550.81
475.939	542.81
476.158	568.81
476.377	547.81
476.596	565.81
476.814	570.81
477.033	599.81
477.252	575.81
477.471	585.81
477.69	573.81
477.908	580.81
478.127	597.81
478.346	610.81
478.564	600.81
478.783	598.81
479.002	593.81
479.22	622.81
479.439	641.81
479.658	665.81
479.876	639.81
480.095	651.81
480.313	705.81
480.532	693.81
480.751	650.81
480.969	677.81
481.188	767.81
481.406	825.81
481.624	744.81
481.843	676.81
482.061	687.81
482.28	654.81
482.498	666.81
482.717	661.81
482.935	633.81
483.153	638.81
483.372	638.81
483.59	669.81
483.808	651.81
484.027	643.81
484.245	659.81
484.463	666.81
484.681	667.81
484.9	655.81
485.118	634.81
485.336	656.81
485.554	673.81
485.772	667.81
485.99	673.81
486.209	649.81
486.427	681.81
486.645	686.81
486.863	714.81
487.081	718.81
487.299	715.81
487.517	707.81
487.735	711.81
487.953	713.81
488.171	709.81
488.389	693.81
488.607	735.81
488.825	690.81
489.043	708.81
489.261	693.81
489.479	701.81
489.696	723.81
489.914	748.81
490.132	715.81
490.35	748.81
490.568	759.81
490.786	771.81
491.003	780.81
491.221	801.81
491.439	798.81
491.657	809.81
491.874	829.81
492.092	814.81
492.31	802.81
492.527	827.81
492.745	820.81
492.963	818.81
493.18	834.81
493.398	879.81
493.615	846.81
493.833	848.81
494.05	866.81
494.268	826.81
494.485	867.81
494.703	866.81
494.92	825.81
495.138	876.81
495.355	856.81
495.573	863.81
495.79	851.81
496.008	839.81
496.225	828.81
496.442	835.81
496.66	849.81
496.877	844.81
497.094	869.81
497.312	853.81
497.529	872.81
497.746	878.81
497.963	857.81
498.181	897.81
498.398	913.81
498.615	896.81
498.832	902.81
499.049	918.81
499.267	925.81
499.484	969.81
499.701	966.81
499.918	980.81
500.135	1021.81
500.352	1015.81
500.569	1037.81
500.786	1043.81
501.003	1075.81
501.22	1027.81
501.437	1011.81
501.654	1003.81
501.871	998.81
