Data from 1970.PennyLincolnUp.Lamp.En5.5.200Scan.071719.P1._HRD10591_15-14-35-842.txt Node
Date: Thu Jul 18 15:14:35 EDT 2019
User: cochatt
Spectrometer: HR+D1059
Trigger mode: 1
Integration Time (sec): 1.000000E-1
Scans to average: 1
Electric dark correction enabled: true
Nonlinearity correction enabled: false
Boxcar width: 0
XAxis mode: Wavelengths
Number of Pixels in Spectrum: 2048
>>>>>Begin Spectral Data<<<<<
223.165	-15.06
223.4	-15.06
223.635	-15.06
223.869	-22.06
224.104	-23.06
224.338	-16.06
224.573	-26.06
224.808	-1.06
225.042	9.94
225.277	-2.06
225.511	-11.06
225.746	4.94
225.98	3.94
226.215	7.94
226.449	7.94
226.683	25.94
226.918	33.94
227.152	21.94
227.387	21.94
227.621	36.94
227.856	35.94
228.09	39.94
228.324	55.94
228.559	62.94
228.793	59.94
229.027	106.94
229.262	112.94
229.496	119.94
229.73	141.94
229.964	164.94
230.199	131.94
230.433	121.94
230.667	103.94
230.901	111.94
231.136	118.94
231.37	105.94
231.604	103.94
231.838	111.94
232.072	115.94
232.306	105.94
232.541	84.94
232.775	107.94
233.009	106.94
233.243	101.94
233.477	121.94
233.711	114.94
233.945	122.94
234.179	122.94
234.413	123.94
234.647	109.94
234.881	125.94
235.115	120.94
235.349	112.94
235.583	123.94
235.817	115.94
236.051	137.94
236.285	124.94
236.519	107.94
236.753	123.94
236.987	133.94
237.221	194.94
237.455	251.94
237.689	190.94
237.922	149.94
238.156	147.94
238.39	142.94
238.624	111.94
238.858	118.94
239.091	123.94
239.325	125.94
239.559	118.94
239.793	122.94
240.027	124.94
240.26	145.94
240.494	166.94
240.728	166.94
240.961	169.94
241.195	151.94
241.429	137.94
241.662	124.94
241.896	140.94
242.13	139.94
242.363	136.94
242.597	130.94
242.83	131.94
243.064	135.94
243.298	145.94
243.531	135.94
243.765	140.94
243.998	140.94
244.232	139.94
244.465	147.94
244.699	143.94
244.932	133.94
245.166	146.94
245.399	137.94
245.633	147.94
245.866	145.94
246.099	145.94
246.333	161.94
246.566	150.94
246.8	165.94
247.033	165.94
247.266	146.94
247.5	166.94
247.733	164.94
247.966	172.94
248.2	174.94
248.433	179.94
248.666	190.94
248.899	180.94
249.133	185.94
249.366	203.94
249.599	203.94
249.832	180.94
250.066	182.94
250.299	185.94
250.532	191.94
250.765	235.94
250.998	221.94
251.231	231.94
251.465	221.94
251.698	213.94
251.931	204.94
252.164	224.94
252.397	211.94
252.63	211.94
252.863	213.94
253.096	252.94
253.329	233.94
253.562	243.94
253.795	225.94
254.028	211.94
254.261	239.94
254.494	233.94
254.727	255.94
254.96	277.94
255.193	284.94
255.426	283.94
255.659	233.94
255.892	250.94
256.124	235.94
256.357	255.94
256.59	240.94
256.823	231.94
257.056	226.94
257.289	216.94
257.521	213.94
257.754	215.94
257.987	198.94
258.22	211.94
258.452	202.94
258.685	224.94
258.918	208.94
259.151	224.94
259.383	234.94
259.616	228.94
259.849	218.94
260.081	230.94
260.314	249.94
260.547	257.94
260.779	272.94
261.012	251.94
261.244	241.94
261.477	221.94
261.71	234.94
261.942	220.94
262.175	235.94
262.407	220.94
262.64	215.94
262.872	225.94
263.105	228.94
263.337	216.94
263.57	212.94
263.802	216.94
264.035	205.94
264.267	220.94
264.499	210.94
264.732	213.94
264.964	197.94
265.197	212.94
265.429	210.94
265.661	210.94
265.894	201.94
266.126	208.94
266.358	210.94
266.591	208.94
266.823	212.94
267.055	226.94
267.287	215.94
267.52	218.94
267.752	206.94
267.984	202.94
268.216	225.94
268.448	236.94
268.681	211.94
268.913	244.94
269.145	251.94
269.377	246.94
269.609	267.94
269.841	264.94
270.073	270.94
270.306	294.94
270.538	321.94
270.77	309.94
271.002	297.94
271.234	297.94
271.466	291.94
271.698	283.94
271.93	311.94
272.162	295.94
272.394	303.94
272.626	291.94
272.858	287.94
273.09	275.94
273.322	265.94
273.553	255.94
273.785	256.94
274.017	245.94
274.249	247.94
274.481	253.94
274.713	269.94
274.945	274.94
275.176	253.94
275.408	253.94
275.64	235.94
275.872	243.94
276.104	237.94
276.335	247.94
276.567	243.94
276.799	285.94
277.031	301.94
277.262	299.94
277.494	306.94
277.726	295.94
277.957	275.94
278.189	244.94
278.421	263.94
278.652	252.94
278.884	253.94
279.115	270.94
279.347	255.94
279.579	258.94
279.81	252.94
280.042	240.94
280.273	243.94
280.505	244.94
280.736	226.94
280.968	245.94
281.199	257.94
281.431	245.94
281.662	224.94
281.894	246.94
282.125	237.94
282.356	270.94
282.588	285.94
282.819	270.94
283.051	268.94
283.282	254.94
283.513	251.94
283.745	264.94
283.976	253.94
284.207	253.94
284.439	256.94
284.67	264.94
284.901	252.94
285.132	249.94
285.364	232.94
285.595	256.94
285.826	232.94
286.057	234.94
286.288	277.94
286.52	261.94
286.751	259.94
286.982	266.94
287.213	266.94
287.444	258.94
287.675	239.94
287.906	276.94
288.138	288.94
288.369	262.94
288.6	268.94
288.831	281.94
289.062	283.94
289.293	255.94
289.524	255.94
289.755	250.94
289.986	260.94
290.217	274.94
290.448	278.94
290.679	250.94
290.91	269.94
291.141	252.94
291.371	260.94
291.602	254.94
291.833	251.94
292.064	261.94
292.295	253.94
292.526	261.94
292.757	259.94
292.987	253.94
293.218	259.94
293.449	252.94
293.68	275.94
293.91	264.94
294.141	253.94
294.372	262.94
294.603	265.94
294.833	269.94
295.064	256.94
295.295	263.94
295.525	273.94
295.756	278.94
295.987	264.94
296.217	309.94
296.448	330.94
296.679	291.94
296.909	261.94
297.14	249.94
297.37	280.94
297.601	273.94
297.831	279.94
298.062	261.94
298.292	253.94
298.523	266.94
298.753	277.94
298.984	276.94
299.214	272.94
299.445	252.94
299.675	282.94
299.905	282.94
300.136	285.94
300.366	277.94
300.597	278.94
300.827	279.94
301.057	286.94
301.288	286.94
301.518	292.94
301.748	288.94
301.979	279.94
302.209	283.94
302.439	291.94
302.669	293.94
302.9	288.94
303.13	282.94
303.36	281.94
303.59	310.94
303.82	291.94
304.051	307.94
304.281	271.94
304.511	272.94
304.741	284.94
304.971	276.94
305.201	292.94
305.431	288.94
305.661	286.94
305.891	281.94
306.121	290.94
306.352	287.94
306.582	292.94
306.812	303.94
307.042	300.94
307.272	307.94
307.502	301.94
307.731	308.94
307.961	309.94
308.191	296.94
308.421	292.94
308.651	309.94
308.881	309.94
309.111	300.94
309.341	307.94
309.571	315.94
309.8	319.94
310.03	338.94
310.26	359.94
310.49	355.94
310.72	354.94
310.949	370.94
311.179	378.94
311.409	359.94
311.639	367.94
311.868	363.94
312.098	353.94
312.328	354.94
312.557	389.94
312.787	391.94
313.017	385.94
313.246	367.94
313.476	338.94
313.706	342.94
313.935	351.94
314.165	373.94
314.394	379.94
314.624	386.94
314.853	357.94
315.083	353.94
315.312	351.94
315.542	342.94
315.771	345.94
316.001	316.94
316.23	340.94
316.46	340.94
316.689	337.94
316.919	351.94
317.148	360.94
317.377	347.94
317.607	353.94
317.836	362.94
318.065	350.94
318.295	336.94
318.524	349.94
318.753	335.94
318.983	355.94
319.212	336.94
319.441	336.94
319.67	345.94
319.9	343.94
320.129	345.94
320.358	360.94
320.587	338.94
320.816	345.94
321.046	364.94
321.275	396.94
321.504	372.94
321.733	367.94
321.962	378.94
322.191	391.94
322.42	403.94
322.649	419.94
322.878	429.94
323.108	454.94
323.337	479.94
323.566	501.94
323.795	546.94
324.024	587.94
324.253	703.94
324.482	1031.94
324.71	1559.94
324.939	2222.94
325.168	1929.94
325.397	1047.94
325.626	724.94
325.855	579.94
326.084	517.94
326.313	518.94
326.542	509.94
326.77	567.94
326.999	659.94
327.228	917.94
327.457	1400.94
327.686	1669.94
327.914	1171.94
328.143	791.94
328.372	675.94
328.6	624.94
328.829	573.94
329.058	594.94
329.287	593.94
329.515	554.94
329.744	521.94
329.972	517.94
330.201	548.94
330.43	585.94
330.658	609.94
330.887	629.94
331.115	613.94
331.344	523.94
331.572	479.94
331.801	489.94
332.03	493.94
332.258	438.94
332.486	430.94
332.715	420.94
332.943	424.94
333.172	436.94
333.4	429.94
333.629	433.94
333.857	441.94
334.085	442.94
334.314	476.94
334.542	504.94
334.771	504.94
334.999	479.94
335.227	439.94
335.455	426.94
335.684	435.94
335.912	421.94
336.14	417.94
336.369	403.94
336.597	437.94
336.825	415.94
337.053	409.94
337.281	396.94
337.51	404.94
337.738	393.94
337.966	398.94
338.194	396.94
338.422	415.94
338.65	408.94
338.878	389.94
339.106	387.94
339.334	386.94
339.562	378.94
339.79	395.94
340.018	407.94
340.246	362.94
340.474	391.94
340.702	383.94
340.93	395.94
341.158	389.94
341.386	407.94
341.614	416.94
341.842	399.94
342.07	390.94
342.298	393.94
342.526	390.94
342.754	386.94
342.981	382.94
343.209	364.94
343.437	370.94
343.665	381.94
343.893	376.94
344.12	384.94
344.348	364.94
344.576	389.94
344.804	415.94
345.031	412.94
345.259	445.94
345.487	412.94
345.714	415.94
345.942	408.94
346.17	400.94
346.397	384.94
346.625	387.94
346.853	393.94
347.08	388.94
347.308	391.94
347.535	405.94
347.763	411.94
347.99	411.94
348.218	405.94
348.445	403.94
348.673	398.94
348.9	395.94
349.128	414.94
349.355	375.94
349.583	370.94
349.81	377.94
350.037	367.94
350.265	371.94
350.492	405.94
350.72	388.94
350.947	395.94
351.174	389.94
351.402	405.94
351.629	388.94
351.856	397.94
352.083	389.94
352.311	424.94
352.538	424.94
352.765	422.94
352.992	416.94
353.22	419.94
353.447	380.94
353.674	412.94
353.901	351.94
354.128	351.94
354.355	369.94
354.583	382.94
354.81	364.94
355.037	371.94
355.264	357.94
355.491	385.94
355.718	356.94
355.945	365.94
356.172	358.94
356.399	337.94
356.626	371.94
356.853	351.94
357.08	372.94
357.307	376.94
357.534	361.94
357.761	359.94
357.988	351.94
358.215	364.94
358.441	367.94
358.668	349.94
358.895	372.94
359.122	372.94
359.349	371.94
359.576	405.94
359.802	434.94
360.029	433.94
360.256	449.94
360.483	447.94
360.709	392.94
360.936	405.94
361.163	397.94
361.39	390.94
361.616	403.94
361.843	390.94
362.07	389.94
362.296	390.94
362.523	400.94
362.749	411.94
362.976	382.94
363.203	397.94
363.429	378.94
363.656	375.94
363.882	410.94
364.109	377.94
364.335	383.94
364.562	373.94
364.788	374.94
365.015	379.94
365.241	391.94
365.468	385.94
365.694	392.94
365.92	396.94
366.147	376.94
366.373	374.94
366.599	375.94
366.826	369.94
367.052	360.94
367.278	377.94
367.505	377.94
367.731	387.94
367.957	386.94
368.184	376.94
368.41	380.94
368.636	395.94
368.862	396.94
369.089	405.94
369.315	408.94
369.541	401.94
369.767	378.94
369.993	383.94
370.219	378.94
370.445	377.94
370.672	366.94
370.898	363.94
371.124	373.94
371.35	360.94
371.576	370.94
371.802	353.94
372.028	377.94
372.254	375.94
372.48	373.94
372.706	365.94
372.932	369.94
373.158	361.94
373.384	373.94
373.61	378.94
373.835	393.94
374.061	375.94
374.287	363.94
374.513	387.94
374.739	393.94
374.965	386.94
375.191	369.94
375.416	364.94
375.642	382.94
375.868	371.94
376.094	383.94
376.319	393.94
376.545	381.94
376.771	379.94
376.997	369.94
377.222	375.94
377.448	373.94
377.674	377.94
377.899	360.94
378.125	357.94
378.35	372.94
378.576	373.94
378.802	378.94
379.027	377.94
379.253	395.94
379.478	375.94
379.704	362.94
379.929	393.94
380.155	379.94
380.38	373.94
380.606	384.94
380.831	378.94
381.057	376.94
381.282	377.94
381.507	368.94
381.733	408.94
381.958	382.94
382.184	404.94
382.409	375.94
382.634	387.94
382.86	381.94
383.085	388.94
383.31	384.94
383.535	389.94
383.761	392.94
383.986	387.94
384.211	382.94
384.436	362.94
384.662	379.94
384.887	386.94
385.112	397.94
385.337	387.94
385.562	389.94
385.787	414.94
386.013	417.94
386.238	416.94
386.463	385.94
386.688	407.94
386.913	398.94
387.138	384.94
387.363	389.94
387.588	407.94
387.813	384.94
388.038	401.94
388.263	407.94
388.488	397.94
388.713	413.94
388.938	394.94
389.163	392.94
389.387	411.94
389.612	411.94
389.837	404.94
390.062	400.94
390.287	392.94
390.512	396.94
390.736	385.94
390.961	410.94
391.186	392.94
391.411	403.94
391.636	418.94
391.86	403.94
392.085	399.94
392.31	408.94
392.534	398.94
392.759	396.94
392.984	402.94
393.208	396.94
393.433	433.94
393.658	417.94
393.882	396.94
394.107	413.94
394.331	409.94
394.556	388.94
394.78	404.94
395.005	396.94
395.229	411.94
395.454	407.94
395.678	429.94
395.903	442.94
396.127	444.94
396.352	451.94
396.576	418.94
396.801	421.94
397.025	430.94
397.249	423.94
397.474	435.94
397.698	427.94
397.922	435.94
398.147	439.94
398.371	454.94
398.595	449.94
398.82	435.94
399.044	455.94
399.268	441.94
399.492	475.94
399.717	501.94
399.941	523.94
400.165	570.94
400.389	563.94
400.613	513.94
400.837	464.94
401.062	471.94
401.286	454.94
401.51	448.94
401.734	444.94
401.958	456.94
402.182	472.94
402.406	480.94
402.63	476.94
402.854	483.94
403.078	483.94
403.302	475.94
403.526	479.94
403.75	477.94
403.974	467.94
404.198	488.94
404.422	482.94
404.645	489.94
404.869	484.94
405.093	522.94
405.317	559.94
405.541	581.94
405.765	540.94
405.988	534.94
406.212	544.94
406.436	557.94
406.66	554.94
406.883	538.94
407.107	548.94
407.331	591.94
407.555	626.94
407.778	628.94
408.002	600.94
408.226	542.94
408.449	554.94
408.673	529.94
408.896	545.94
409.12	560.94
409.344	565.94
409.567	507.94
409.791	498.94
410.014	496.94
410.238	475.94
410.461	512.94
410.685	506.94
410.908	493.94
411.132	545.94
411.355	580.94
411.578	539.94
411.802	502.94
412.025	493.94
412.249	527.94
412.472	529.94
412.695	555.94
412.919	561.94
413.142	528.94
413.365	498.94
413.589	491.94
413.812	453.94
414.035	474.94
414.258	483.94
414.482	466.94
414.705	442.94
414.928	465.94
415.151	473.94
415.374	448.94
415.597	462.94
415.821	452.94
416.044	460.94
416.267	482.94
416.49	451.94
416.713	450.94
416.936	476.94
417.159	448.94
417.382	456.94
417.605	470.94
417.828	495.94
418.051	480.94
418.274	476.94
418.497	468.94
418.72	450.94
418.943	474.94
419.166	505.94
419.389	487.94
419.611	514.94
419.834	481.94
420.057	498.94
420.28	507.94
420.503	503.94
420.726	502.94
420.948	513.94
421.171	539.94
421.394	591.94
421.617	524.94
421.839	473.94
422.062	514.94
422.285	521.94
422.507	572.94
422.73	620.94
422.953	628.94
423.175	557.94
423.398	517.94
423.621	531.94
423.843	523.94
424.066	522.94
424.288	543.94
424.511	559.94
424.733	591.94
424.956	700.94
425.178	677.94
425.401	697.94
425.623	680.94
425.846	580.94
426.068	555.94
426.291	556.94
426.513	542.94
426.735	551.94
426.958	617.94
427.18	661.94
427.402	791.94
427.625	869.94
427.847	804.94
428.069	696.94
428.292	612.94
428.514	528.94
428.736	516.94
428.958	511.94
429.181	501.94
429.403	523.94
429.625	535.94
429.847	546.94
430.069	616.94
430.292	611.94
430.514	564.94
430.736	523.94
430.958	507.94
431.18	509.94
431.402	510.94
431.624	468.94
431.846	450.94
432.068	471.94
432.29	475.94
432.512	500.94
432.734	479.94
432.956	487.94
433.178	492.94
433.4	512.94
433.622	480.94
433.844	504.94
434.066	488.94
434.287	478.94
434.509	478.94
434.731	471.94
434.953	484.94
435.175	504.94
435.397	524.94
435.618	564.94
435.84	601.94
436.062	673.94
436.284	740.94
436.505	621.94
436.727	569.94
436.949	530.94
437.17	511.94
437.392	535.94
437.614	544.94
437.835	569.94
438.057	688.94
438.278	799.94
438.5	758.94
438.721	818.94
438.943	789.94
439.165	660.94
439.386	603.94
439.608	567.94
439.829	599.94
440.05	595.94
440.272	633.94
440.493	612.94
440.715	557.94
440.936	550.94
441.158	524.94
441.379	524.94
441.6	539.94
441.822	554.94
442.043	611.94
442.264	673.94
442.486	716.94
442.707	598.94
442.928	580.94
443.149	582.94
443.371	605.94
443.592	641.94
443.813	697.94
444.034	747.94
444.255	629.94
444.476	573.94
444.698	556.94
444.919	559.94
445.14	671.94
445.361	598.94
445.582	608.94
445.803	647.94
446.024	768.94
446.245	782.94
446.466	661.94
446.687	610.94
446.908	563.94
447.129	535.94
447.35	530.94
447.571	525.94
447.792	497.94
448.013	521.94
448.234	555.94
448.455	597.94
448.675	698.94
448.896	798.94
449.117	709.94
449.338	642.94
449.559	726.94
449.779	813.94
450	689.94
450.221	587.94
450.442	552.94
450.662	524.94
450.883	547.94
451.104	555.94
451.324	527.94
451.545	506.94
451.766	502.94
451.986	459.94
452.207	481.94
452.428	453.94
452.648	476.94
452.869	468.94
453.089	483.94
453.31	477.94
453.53	471.94
453.751	478.94
453.971	473.94
454.192	488.94
454.412	482.94
454.633	463.94
454.853	460.94
455.073	471.94
455.294	516.94
455.514	572.94
455.734	547.94
455.955	480.94
456.175	455.94
456.395	427.94
456.616	443.94
456.836	441.94
457.056	415.94
457.276	412.94
457.497	433.94
457.717	422.94
457.937	435.94
458.157	431.94
458.377	451.94
458.598	476.94
458.818	533.94
459.038	656.94
459.258	637.94
459.478	563.94
459.698	487.94
459.918	462.94
460.138	453.94
460.358	448.94
460.578	441.94
460.798	475.94
461.018	467.94
461.238	471.94
461.458	461.94
461.678	454.94
461.898	474.94
462.118	458.94
462.338	486.94
462.558	456.94
462.777	466.94
462.997	477.94
463.217	487.94
463.437	477.94
463.657	500.94
463.876	470.94
464.096	484.94
464.316	521.94
464.536	499.94
464.755	514.94
464.975	501.94
465.195	565.94
465.414	648.94
465.634	608.94
465.854	545.94
466.073	482.94
466.293	475.94
466.512	473.94
466.732	475.94
466.951	468.94
467.171	456.94
467.391	459.94
467.61	498.94
467.829	491.94
468.049	488.94
468.268	509.94
468.488	475.94
468.707	468.94
468.927	466.94
469.146	455.94
469.365	469.94
469.585	458.94
469.804	477.94
470.023	474.94
470.243	479.94
470.462	490.94
470.681	509.94
470.901	512.94
471.12	468.94
471.339	486.94
471.558	477.94
471.777	481.94
471.997	475.94
472.216	491.94
472.435	547.94
472.654	526.94
472.873	481.94
473.092	488.94
473.311	486.94
473.53	485.94
473.749	472.94
473.968	521.94
474.187	659.94
474.406	646.94
474.625	537.94
474.844	507.94
475.063	475.94
475.282	489.94
475.501	497.94
475.72	511.94
475.939	487.94
476.158	500.94
476.377	501.94
476.596	497.94
476.814	491.94
477.033	500.94
477.252	506.94
477.471	528.94
477.69	515.94
477.908	540.94
478.127	501.94
478.346	525.94
478.564	513.94
478.783	528.94
479.002	537.94
479.22	530.94
479.439	552.94
479.658	578.94
479.876	568.94
480.095	580.94
480.313	597.94
480.532	629.94
480.751	576.94
480.969	601.94
481.188	682.94
481.406	746.94
481.624	643.94
481.843	602.94
482.061	583.94
482.28	581.94
482.498	580.94
482.717	577.94
482.935	585.94
483.153	583.94
483.372	586.94
483.59	587.94
483.808	593.94
484.027	574.94
484.245	575.94
484.463	564.94
484.681	593.94
484.9	571.94
485.118	579.94
485.336	583.94
485.554	589.94
485.772	588.94
485.99	596.94
486.209	594.94
486.427	585.94
486.645	588.94
486.863	630.94
487.081	647.94
487.299	623.94
487.517	627.94
487.735	629.94
487.953	621.94
488.171	643.94
488.389	626.94
488.607	627.94
488.825	639.94
489.043	627.94
489.261	635.94
489.479	631.94
489.696	656.94
489.914	641.94
490.132	665.94
490.35	653.94
490.568	667.94
490.786	682.94
491.003	696.94
491.221	733.94
491.439	697.94
491.657	715.94
491.874	746.94
492.092	723.94
492.31	730.94
492.527	745.94
492.745	744.94
492.963	726.94
493.18	755.94
493.398	758.94
493.615	774.94
493.833	752.94
494.05	769.94
494.268	748.94
494.485	745.94
494.703	752.94
494.92	749.94
495.138	765.94
495.355	749.94
495.573	746.94
495.79	763.94
496.008	749.94
496.225	770.94
496.442	755.94
496.66	785.94
496.877	763.94
497.094	767.94
497.312	753.94
497.529	755.94
497.746	764.94
497.963	777.94
498.181	795.94
498.398	796.94
498.615	761.94
498.832	795.94
499.049	802.94
499.267	801.94
499.484	844.94
499.701	835.94
499.918	835.94
500.135	867.94
500.352	908.94
500.569	899.94
500.786	914.94
501.003	898.94
501.22	928.94
501.437	898.94
501.654	890.94
501.871	886.94
