Data from 1970.PennyLincolnUp.Lamp.En5.5.200Scan.071719.P1._HRD10591_15-13-25-843.txt Node
Date: Thu Jul 18 15:13:25 EDT 2019
User: cochatt
Spectrometer: HR+D1059
Trigger mode: 1
Integration Time (sec): 1.000000E-1
Scans to average: 1
Electric dark correction enabled: true
Nonlinearity correction enabled: false
Boxcar width: 0
XAxis mode: Wavelengths
Number of Pixels in Spectrum: 2048
>>>>>Begin Spectral Data<<<<<
223.165	-15.56
223.4	-15.56
223.635	-15.56
223.869	-11.56
224.104	-26.56
224.338	-5.56
224.573	-7.56
224.808	-9.56
225.042	-2.56
225.277	-9.56
225.511	2.44
225.746	7.44
225.98	3.44
226.215	4.44
226.449	-1.56
226.683	16.44
226.918	29.44
227.152	26.44
227.387	40.44
227.621	50.44
227.856	48.44
228.09	43.44
228.324	55.44
228.559	52.44
228.793	67.44
229.027	100.44
229.262	104.44
229.496	113.44
229.73	141.44
229.964	158.44
230.199	136.44
230.433	110.44
230.667	101.44
230.901	123.44
231.136	118.44
231.37	110.44
231.604	111.44
231.838	107.44
232.072	95.44
232.306	113.44
232.541	120.44
232.775	111.44
233.009	118.44
233.243	116.44
233.477	106.44
233.711	111.44
233.945	116.44
234.179	110.44
234.413	118.44
234.647	108.44
234.881	108.44
235.115	109.44
235.349	112.44
235.583	116.44
235.817	124.44
236.051	129.44
236.285	116.44
236.519	126.44
236.753	124.44
236.987	139.44
237.221	193.44
237.455	228.44
237.689	182.44
237.922	139.44
238.156	125.44
238.39	157.44
238.624	133.44
238.858	130.44
239.091	118.44
239.325	121.44
239.559	132.44
239.793	127.44
240.027	136.44
240.26	138.44
240.494	152.44
240.728	172.44
240.961	136.44
241.195	143.44
241.429	145.44
241.662	128.44
241.896	128.44
242.13	126.44
242.363	132.44
242.597	136.44
242.83	122.44
243.064	133.44
243.298	151.44
243.531	134.44
243.765	134.44
243.998	137.44
244.232	148.44
244.465	145.44
244.699	154.44
244.932	134.44
245.166	145.44
245.399	148.44
245.633	150.44
245.866	161.44
246.099	151.44
246.333	152.44
246.566	150.44
246.8	132.44
247.033	142.44
247.266	156.44
247.5	171.44
247.733	164.44
247.966	179.44
248.2	168.44
248.433	160.44
248.666	175.44
248.899	181.44
249.133	184.44
249.366	206.44
249.599	205.44
249.832	174.44
250.066	177.44
250.299	184.44
250.532	200.44
250.765	200.44
250.998	219.44
251.231	240.44
251.465	218.44
251.698	206.44
251.931	214.44
252.164	201.44
252.397	191.44
252.63	191.44
252.863	211.44
253.096	201.44
253.329	215.44
253.562	226.44
253.795	228.44
254.028	226.44
254.261	235.44
254.494	235.44
254.727	235.44
254.96	275.44
255.193	274.44
255.426	241.44
255.659	238.44
255.892	228.44
256.124	225.44
256.357	214.44
256.59	220.44
256.823	201.44
257.056	216.44
257.289	205.44
257.521	209.44
257.754	206.44
257.987	206.44
258.22	202.44
258.452	199.44
258.685	219.44
258.918	215.44
259.151	214.44
259.383	200.44
259.616	210.44
259.849	230.44
260.081	238.44
260.314	221.44
260.547	230.44
260.779	217.44
261.012	221.44
261.244	228.44
261.477	222.44
261.71	210.44
261.942	220.44
262.175	224.44
262.407	225.44
262.64	210.44
262.872	202.44
263.105	222.44
263.337	199.44
263.57	207.44
263.802	188.44
264.035	199.44
264.267	191.44
264.499	209.44
264.732	194.44
264.964	206.44
265.197	205.44
265.429	195.44
265.661	183.44
265.894	203.44
266.126	214.44
266.358	188.44
266.591	208.44
266.823	202.44
267.055	200.44
267.287	216.44
267.52	206.44
267.752	201.44
267.984	220.44
268.216	213.44
268.448	213.44
268.681	214.44
268.913	234.44
269.145	226.44
269.377	250.44
269.609	261.44
269.841	252.44
270.073	248.44
270.306	270.44
270.538	298.44
270.77	305.44
271.002	282.44
271.234	259.44
271.466	298.44
271.698	281.44
271.93	295.44
272.162	300.44
272.394	302.44
272.626	308.44
272.858	276.44
273.09	241.44
273.322	274.44
273.553	244.44
273.785	243.44
274.017	245.44
274.249	246.44
274.481	253.44
274.713	233.44
274.945	239.44
275.176	248.44
275.408	231.44
275.64	248.44
275.872	232.44
276.104	248.44
276.335	238.44
276.567	237.44
276.799	256.44
277.031	266.44
277.262	282.44
277.494	284.44
277.726	273.44
277.957	258.44
278.189	268.44
278.421	256.44
278.652	231.44
278.884	246.44
279.115	228.44
279.347	248.44
279.579	241.44
279.81	248.44
280.042	238.44
280.273	256.44
280.505	247.44
280.736	240.44
280.968	241.44
281.199	237.44
281.431	252.44
281.662	232.44
281.894	226.44
282.125	236.44
282.356	239.44
282.588	264.44
282.819	270.44
283.051	244.44
283.282	217.44
283.513	249.44
283.745	264.44
283.976	259.44
284.207	248.44
284.439	246.44
284.67	234.44
284.901	247.44
285.132	249.44
285.364	245.44
285.595	234.44
285.826	253.44
286.057	239.44
286.288	247.44
286.52	252.44
286.751	234.44
286.982	235.44
287.213	238.44
287.444	245.44
287.675	244.44
287.906	258.44
288.138	282.44
288.369	249.44
288.6	271.44
288.831	255.44
289.062	273.44
289.293	253.44
289.524	264.44
289.755	261.44
289.986	244.44
290.217	252.44
290.448	235.44
290.679	249.44
290.91	246.44
291.141	255.44
291.371	244.44
291.602	275.44
291.833	241.44
292.064	241.44
292.295	253.44
292.526	269.44
292.757	244.44
292.987	248.44
293.218	261.44
293.449	258.44
293.68	247.44
293.91	247.44
294.141	257.44
294.372	252.44
294.603	268.44
294.833	260.44
295.064	229.44
295.295	255.44
295.525	248.44
295.756	250.44
295.987	251.44
296.217	284.44
296.448	296.44
296.679	270.44
296.909	269.44
297.14	264.44
297.37	277.44
297.601	267.44
297.831	272.44
298.062	269.44
298.292	276.44
298.523	262.44
298.753	264.44
298.984	259.44
299.214	263.44
299.445	257.44
299.675	274.44
299.905	275.44
300.136	270.44
300.366	266.44
300.597	262.44
300.827	272.44
301.057	278.44
301.288	271.44
301.518	284.44
301.748	272.44
301.979	288.44
302.209	272.44
302.439	277.44
302.669	290.44
302.9	306.44
303.13	281.44
303.36	265.44
303.59	284.44
303.82	294.44
304.051	288.44
304.281	274.44
304.511	271.44
304.741	260.44
304.971	290.44
305.201	277.44
305.431	273.44
305.661	272.44
305.891	282.44
306.121	289.44
306.352	274.44
306.582	292.44
306.812	271.44
307.042	278.44
307.272	268.44
307.502	275.44
307.731	288.44
307.961	301.44
308.191	295.44
308.421	300.44
308.651	296.44
308.881	279.44
309.111	293.44
309.341	280.44
309.571	300.44
309.8	313.44
310.03	322.44
310.26	323.44
310.49	308.44
310.72	327.44
310.949	343.44
311.179	344.44
311.409	341.44
311.639	340.44
311.868	319.44
312.098	340.44
312.328	313.44
312.557	340.44
312.787	369.44
313.017	362.44
313.246	339.44
313.476	316.44
313.706	332.44
313.935	338.44
314.165	350.44
314.394	350.44
314.624	334.44
314.853	332.44
315.083	332.44
315.312	330.44
315.542	326.44
315.771	336.44
316.001	310.44
316.23	316.44
316.46	334.44
316.689	315.44
316.919	344.44
317.148	329.44
317.377	337.44
317.607	333.44
317.836	361.44
318.065	336.44
318.295	336.44
318.524	349.44
318.753	336.44
318.983	347.44
319.212	324.44
319.441	344.44
319.67	345.44
319.9	329.44
320.129	318.44
320.358	344.44
320.587	318.44
320.816	348.44
321.046	345.44
321.275	341.44
321.504	348.44
321.733	339.44
321.962	355.44
322.191	376.44
322.42	386.44
322.649	392.44
322.878	400.44
323.108	408.44
323.337	414.44
323.566	443.44
323.795	478.44
324.024	496.44
324.253	619.44
324.482	861.44
324.71	1299.44
324.939	1855.44
325.168	1636.44
325.397	878.44
325.626	593.44
325.855	496.44
326.084	455.44
326.313	445.44
326.542	452.44
326.77	489.44
326.999	584.44
327.228	774.44
327.457	1162.44
327.686	1428.44
327.914	973.44
328.143	661.44
328.372	548.44
328.6	504.44
328.829	528.44
329.058	534.44
329.287	535.44
329.515	507.44
329.744	454.44
329.972	452.44
330.201	469.44
330.43	496.44
330.658	500.44
330.887	560.44
331.115	544.44
331.344	461.44
331.572	429.44
331.801	436.44
332.03	424.44
332.258	404.44
332.486	406.44
332.715	404.44
332.943	380.44
333.172	397.44
333.4	401.44
333.629	412.44
333.857	424.44
334.085	406.44
334.314	420.44
334.542	459.44
334.771	465.44
334.999	442.44
335.227	418.44
335.455	384.44
335.684	365.44
335.912	404.44
336.14	372.44
336.369	378.44
336.597	400.44
336.825	410.44
337.053	383.44
337.281	401.44
337.51	384.44
337.738	381.44
337.966	382.44
338.194	377.44
338.422	394.44
338.65	388.44
338.878	369.44
339.106	365.44
339.334	395.44
339.562	398.44
339.79	384.44
340.018	382.44
340.246	370.44
340.474	383.44
340.702	392.44
340.93	408.44
341.158	368.44
341.386	367.44
341.614	373.44
341.842	388.44
342.07	377.44
342.298	370.44
342.526	376.44
342.754	376.44
342.981	365.44
343.209	375.44
343.437	368.44
343.665	388.44
343.893	396.44
344.12	380.44
344.348	366.44
344.576	378.44
344.804	395.44
345.031	376.44
345.259	398.44
345.487	395.44
345.714	400.44
345.942	381.44
346.17	362.44
346.397	357.44
346.625	366.44
346.853	378.44
347.08	384.44
347.308	364.44
347.535	366.44
347.763	379.44
347.99	366.44
348.218	383.44
348.445	392.44
348.673	380.44
348.9	389.44
349.128	374.44
349.355	357.44
349.583	353.44
349.81	382.44
350.037	360.44
350.265	349.44
350.492	365.44
350.72	377.44
350.947	366.44
351.174	362.44
351.402	390.44
351.629	382.44
351.856	385.44
352.083	376.44
352.311	369.44
352.538	393.44
352.765	408.44
352.992	388.44
353.22	369.44
353.447	388.44
353.674	357.44
353.901	358.44
354.128	353.44
354.355	353.44
354.583	363.44
354.81	350.44
355.037	353.44
355.264	346.44
355.491	357.44
355.718	348.44
355.945	334.44
356.172	338.44
356.399	349.44
356.626	346.44
356.853	344.44
357.08	330.44
357.307	340.44
357.534	350.44
357.761	349.44
357.988	360.44
358.215	339.44
358.441	342.44
358.668	362.44
358.895	359.44
359.122	360.44
359.349	365.44
359.576	385.44
359.802	398.44
360.029	401.44
360.256	426.44
360.483	417.44
360.709	364.44
360.936	382.44
361.163	380.44
361.39	382.44
361.616	401.44
361.843	384.44
362.07	376.44
362.296	384.44
362.523	394.44
362.749	385.44
362.976	394.44
363.203	364.44
363.429	360.44
363.656	366.44
363.882	376.44
364.109	363.44
364.335	371.44
364.562	365.44
364.788	362.44
365.015	377.44
365.241	365.44
365.468	396.44
365.694	359.44
365.92	378.44
366.147	382.44
366.373	369.44
366.599	335.44
366.826	349.44
367.052	359.44
367.278	378.44
367.505	348.44
367.731	372.44
367.957	378.44
368.184	359.44
368.41	380.44
368.636	384.44
368.862	395.44
369.089	388.44
369.315	383.44
369.541	368.44
369.767	356.44
369.993	399.44
370.219	371.44
370.445	374.44
370.672	378.44
370.898	358.44
371.124	359.44
371.35	376.44
371.576	371.44
371.802	365.44
372.028	349.44
372.254	376.44
372.48	372.44
372.706	376.44
372.932	352.44
373.158	352.44
373.384	382.44
373.61	372.44
373.835	368.44
374.061	372.44
374.287	394.44
374.513	382.44
374.739	376.44
374.965	373.44
375.191	385.44
375.416	378.44
375.642	395.44
375.868	394.44
376.094	372.44
376.319	380.44
376.545	370.44
376.771	353.44
376.997	371.44
377.222	381.44
377.448	359.44
377.674	349.44
377.899	366.44
378.125	362.44
378.35	372.44
378.576	379.44
378.802	357.44
379.027	375.44
379.253	368.44
379.478	361.44
379.704	377.44
379.929	366.44
380.155	388.44
380.38	380.44
380.606	391.44
380.831	368.44
381.057	356.44
381.282	370.44
381.507	395.44
381.733	382.44
381.958	374.44
382.184	394.44
382.409	368.44
382.634	392.44
382.86	386.44
383.085	378.44
383.31	380.44
383.535	391.44
383.761	388.44
383.986	377.44
384.211	398.44
384.436	389.44
384.662	409.44
384.887	391.44
385.112	402.44
385.337	392.44
385.562	402.44
385.787	392.44
386.013	402.44
386.238	432.44
386.463	413.44
386.688	405.44
386.913	398.44
387.138	398.44
387.363	419.44
387.588	412.44
387.813	401.44
388.038	392.44
388.263	405.44
388.488	405.44
388.713	414.44
388.938	401.44
389.163	422.44
389.387	400.44
389.612	388.44
389.837	414.44
390.062	420.44
390.287	410.44
390.512	382.44
390.736	386.44
390.961	402.44
391.186	404.44
391.411	409.44
391.636	385.44
391.86	414.44
392.085	411.44
392.31	404.44
392.534	417.44
392.759	415.44
392.984	411.44
393.208	425.44
393.433	409.44
393.658	434.44
393.882	416.44
394.107	396.44
394.331	403.44
394.556	402.44
394.78	408.44
395.005	400.44
395.229	407.44
395.454	403.44
395.678	427.44
395.903	423.44
396.127	454.44
396.352	442.44
396.576	429.44
396.801	436.44
397.025	433.44
397.249	425.44
397.474	417.44
397.698	425.44
397.922	456.44
398.147	444.44
398.371	457.44
398.595	452.44
398.82	457.44
399.044	451.44
399.268	460.44
399.492	473.44
399.717	513.44
399.941	544.44
400.165	557.44
400.389	578.44
400.613	523.44
400.837	494.44
401.062	458.44
401.286	473.44
401.51	469.44
401.734	468.44
401.958	448.44
402.182	468.44
402.406	484.44
402.63	460.44
402.854	457.44
403.078	474.44
403.302	449.44
403.526	484.44
403.75	471.44
403.974	508.44
404.198	472.44
404.422	496.44
404.645	466.44
404.869	499.44
405.093	499.44
405.317	546.44
405.541	563.44
405.765	529.44
405.988	519.44
406.212	512.44
406.436	532.44
406.66	550.44
406.883	534.44
407.107	538.44
407.331	570.44
407.555	658.44
407.778	650.44
408.002	583.44
408.226	548.44
408.449	534.44
408.673	522.44
408.896	565.44
409.12	589.44
409.344	553.44
409.567	530.44
409.791	484.44
410.014	496.44
410.238	477.44
410.461	470.44
410.685	497.44
410.908	490.44
411.132	545.44
411.355	551.44
411.578	529.44
411.802	503.44
412.025	502.44
412.249	492.44
412.472	478.44
412.695	542.44
412.919	528.44
413.142	488.44
413.365	460.44
413.589	472.44
413.812	469.44
414.035	472.44
414.258	450.44
414.482	446.44
414.705	466.44
414.928	452.44
415.151	468.44
415.374	457.44
415.597	466.44
415.821	433.44
416.044	452.44
416.267	453.44
416.49	455.44
416.713	466.44
416.936	461.44
417.159	453.44
417.382	468.44
417.605	489.44
417.828	490.44
418.051	462.44
418.274	470.44
418.497	452.44
418.72	477.44
418.943	453.44
419.166	477.44
419.389	516.44
419.611	502.44
419.834	481.44
420.057	493.44
420.28	498.44
420.503	500.44
420.726	486.44
420.948	498.44
421.171	542.44
421.394	582.44
421.617	509.44
421.839	482.44
422.062	492.44
422.285	505.44
422.507	570.44
422.73	633.44
422.953	609.44
423.175	536.44
423.398	525.44
423.621	514.44
423.843	541.44
424.066	540.44
424.288	545.44
424.511	540.44
424.733	597.44
424.956	684.44
425.178	634.44
425.401	606.44
425.623	671.44
425.846	570.44
426.068	551.44
426.291	546.44
426.513	557.44
426.735	548.44
426.958	577.44
427.18	660.44
427.402	732.44
427.625	828.44
427.847	766.44
428.069	677.44
428.292	577.44
428.514	548.44
428.736	516.44
428.958	524.44
429.181	504.44
429.403	495.44
429.625	516.44
429.847	544.44
430.069	575.44
430.292	601.44
430.514	512.44
430.736	514.44
430.958	495.44
431.18	471.44
431.402	476.44
431.624	462.44
431.846	463.44
432.068	463.44
432.29	475.44
432.512	491.44
432.734	497.44
432.956	484.44
433.178	479.44
433.4	502.44
433.622	484.44
433.844	472.44
434.066	455.44
434.287	466.44
434.509	506.44
434.731	494.44
434.953	472.44
435.175	503.44
435.397	540.44
435.618	550.44
435.84	577.44
436.062	655.44
436.284	713.44
436.505	607.44
436.727	548.44
436.949	516.44
437.17	510.44
437.392	506.44
437.614	529.44
437.835	575.44
438.057	630.44
438.278	722.44
438.5	717.44
438.721	785.44
438.943	764.44
439.165	617.44
439.386	564.44
439.608	557.44
439.829	576.44
440.05	577.44
440.272	617.44
440.493	567.44
440.715	544.44
440.936	518.44
441.158	496.44
441.379	504.44
441.6	518.44
441.822	516.44
442.043	589.44
442.264	634.44
442.486	692.44
442.707	608.44
442.928	552.44
443.149	586.44
443.371	568.44
443.592	628.44
443.813	699.44
444.034	761.44
444.255	623.44
444.476	563.44
444.698	548.44
444.919	527.44
445.14	646.44
445.361	593.44
445.582	572.44
445.803	616.44
446.024	734.44
446.245	726.44
446.466	683.44
446.687	569.44
446.908	568.44
447.129	522.44
447.35	515.44
447.571	496.44
447.792	503.44
448.013	512.44
448.234	496.44
448.455	576.44
448.675	680.44
448.896	789.44
449.117	673.44
449.338	632.44
449.559	728.44
449.779	784.44
450	640.44
450.221	547.44
450.442	535.44
450.662	509.44
450.883	510.44
451.104	521.44
451.324	528.44
451.545	501.44
451.766	474.44
451.986	446.44
452.207	445.44
452.428	437.44
452.648	462.44
452.869	447.44
453.089	478.44
453.31	455.44
453.53	474.44
453.751	461.44
453.971	459.44
454.192	438.44
454.412	479.44
454.633	468.44
454.853	456.44
455.073	429.44
455.294	478.44
455.514	540.44
455.734	512.44
455.955	448.44
456.175	433.44
456.395	430.44
456.616	435.44
456.836	425.44
457.056	414.44
457.276	411.44
457.497	426.44
457.717	425.44
457.937	433.44
458.157	432.44
458.377	429.44
458.598	464.44
458.818	512.44
459.038	573.44
459.258	603.44
459.478	504.44
459.698	461.44
459.918	465.44
460.138	473.44
460.358	464.44
460.578	469.44
460.798	452.44
461.018	474.44
461.238	464.44
461.458	472.44
461.678	461.44
461.898	475.44
462.118	450.44
462.338	485.44
462.558	489.44
462.777	474.44
462.997	480.44
463.217	486.44
463.437	498.44
463.657	482.44
463.876	481.44
464.096	481.44
464.316	466.44
464.536	502.44
464.755	486.44
464.975	504.44
465.195	552.44
465.414	612.44
465.634	550.44
465.854	498.44
466.073	490.44
466.293	478.44
466.512	452.44
466.732	444.44
466.951	460.44
467.171	452.44
467.391	468.44
467.61	471.44
467.829	472.44
468.049	464.44
468.268	476.44
468.488	453.44
468.707	458.44
468.927	470.44
469.146	455.44
469.365	433.44
469.585	439.44
469.804	450.44
470.023	480.44
470.243	474.44
470.462	479.44
470.681	495.44
470.901	497.44
471.12	470.44
471.339	473.44
471.558	488.44
471.777	473.44
471.997	493.44
472.216	474.44
472.435	488.44
472.654	460.44
472.873	465.44
473.092	448.44
473.311	451.44
473.53	469.44
473.749	488.44
473.968	511.44
474.187	592.44
474.406	626.44
474.625	529.44
474.844	490.44
475.063	460.44
475.282	479.44
475.501	474.44
475.72	484.44
475.939	483.44
476.158	470.44
476.377	493.44
476.596	477.44
476.814	491.44
477.033	505.44
477.252	499.44
477.471	495.44
477.69	491.44
477.908	502.44
478.127	501.44
478.346	508.44
478.564	532.44
478.783	520.44
479.002	541.44
479.22	527.44
479.439	574.44
479.658	540.44
479.876	557.44
480.095	544.44
480.313	591.44
480.532	594.44
480.751	542.44
480.969	552.44
481.188	616.44
481.406	688.44
481.624	605.44
481.843	604.44
482.061	552.44
482.28	579.44
482.498	559.44
482.717	553.44
482.935	541.44
483.153	565.44
483.372	559.44
483.59	558.44
483.808	566.44
484.027	540.44
484.245	572.44
484.463	564.44
484.681	562.44
484.9	568.44
485.118	582.44
485.336	575.44
485.554	585.44
485.772	585.44
485.99	552.44
486.209	564.44
486.427	593.44
486.645	602.44
486.863	612.44
487.081	618.44
487.299	614.44
487.517	607.44
487.735	602.44
487.953	615.44
488.171	629.44
488.389	599.44
488.607	617.44
488.825	630.44
489.043	625.44
489.261	598.44
489.479	612.44
489.696	630.44
489.914	627.44
490.132	632.44
490.35	631.44
490.568	636.44
490.786	646.44
491.003	678.44
491.221	679.44
491.439	698.44
491.657	701.44
491.874	703.44
492.092	685.44
492.31	703.44
492.527	726.44
492.745	690.44
492.963	713.44
493.18	696.44
493.398	721.44
493.615	718.44
493.833	745.44
494.05	733.44
494.268	730.44
494.485	728.44
494.703	717.44
494.92	731.44
495.138	726.44
495.355	740.44
495.573	749.44
495.79	732.44
496.008	714.44
496.225	724.44
496.442	753.44
496.66	752.44
496.877	729.44
497.094	749.44
497.312	741.44
497.529	749.44
497.746	756.44
497.963	750.44
498.181	757.44
498.398	782.44
498.615	785.44
498.832	794.44
499.049	807.44
499.267	795.44
499.484	854.44
499.701	855.44
499.918	844.44
500.135	872.44
500.352	914.44
500.569	947.44
500.786	921.44
501.003	917.44
501.22	919.44
501.437	870.44
501.654	872.44
501.871	878.44
502.088	845.44
