Data from 1970.PennyLincolnUp.Lamp.En5.5.200Scan.071719.P1._HRD10591_15-13-02-843.txt Node
Date: Thu Jul 18 15:13:02 EDT 2019
User: cochatt
Spectrometer: HR+D1059
Trigger mode: 1
Integration Time (sec): 1.000000E-1
Scans to average: 1
Electric dark correction enabled: true
Nonlinearity correction enabled: false
Boxcar width: 0
XAxis mode: Wavelengths
Number of Pixels in Spectrum: 2048
>>>>>Begin Spectral Data<<<<<
223.165	-10.88
223.4	-10.88
223.635	-10.88
223.869	-8.88
224.104	-25.88
224.338	-11.88
224.573	-11.88
224.808	-9.88
225.042	-16.88
225.277	-4.88
225.511	3.12
225.746	9.12
225.98	15.12
226.215	6.12
226.449	11.12
226.683	5.12
226.918	21.12
227.152	30.12
227.387	27.12
227.621	38.12
227.856	45.12
228.09	53.12
228.324	43.12
228.559	56.12
228.793	73.12
229.027	82.12
229.262	87.12
229.496	103.12
229.73	97.12
229.964	139.12
230.199	121.12
230.433	104.12
230.667	99.12
230.901	107.12
231.136	115.12
231.37	99.12
231.604	98.12
231.838	111.12
232.072	108.12
232.306	111.12
232.541	106.12
232.775	120.12
233.009	104.12
233.243	99.12
233.477	107.12
233.711	118.12
233.945	113.12
234.179	120.12
234.413	122.12
234.647	117.12
234.881	112.12
235.115	104.12
235.349	119.12
235.583	100.12
235.817	125.12
236.051	117.12
236.285	124.12
236.519	123.12
236.753	124.12
236.987	133.12
237.221	147.12
237.455	198.12
237.689	172.12
237.922	129.12
238.156	143.12
238.39	117.12
238.624	129.12
238.858	111.12
239.091	123.12
239.325	124.12
239.559	110.12
239.793	120.12
240.027	132.12
240.26	130.12
240.494	134.12
240.728	143.12
240.961	144.12
241.195	136.12
241.429	144.12
241.662	130.12
241.896	131.12
242.13	133.12
242.363	116.12
242.597	118.12
242.83	122.12
243.064	130.12
243.298	130.12
243.531	127.12
243.765	130.12
243.998	122.12
244.232	122.12
244.465	152.12
244.699	134.12
244.932	130.12
245.166	143.12
245.399	126.12
245.633	128.12
245.866	138.12
246.099	140.12
246.333	138.12
246.566	135.12
246.8	141.12
247.033	155.12
247.266	152.12
247.5	139.12
247.733	156.12
247.966	157.12
248.2	158.12
248.433	140.12
248.666	175.12
248.899	157.12
249.133	166.12
249.366	175.12
249.599	173.12
249.832	174.12
250.066	174.12
250.299	169.12
250.532	173.12
250.765	198.12
250.998	203.12
251.231	193.12
251.465	197.12
251.698	182.12
251.931	176.12
252.164	179.12
252.397	190.12
252.63	178.12
252.863	179.12
253.096	201.12
253.329	199.12
253.562	208.12
253.795	199.12
254.028	191.12
254.261	196.12
254.494	198.12
254.727	209.12
254.96	244.12
255.193	251.12
255.426	216.12
255.659	205.12
255.892	198.12
256.124	195.12
256.357	205.12
256.59	192.12
256.823	188.12
257.056	193.12
257.289	184.12
257.521	195.12
257.754	181.12
257.987	175.12
258.22	192.12
258.452	182.12
258.685	186.12
258.918	193.12
259.151	193.12
259.383	202.12
259.616	188.12
259.849	188.12
260.081	217.12
260.314	222.12
260.547	235.12
260.779	212.12
261.012	211.12
261.244	187.12
261.477	193.12
261.71	202.12
261.942	184.12
262.175	196.12
262.407	207.12
262.64	199.12
262.872	185.12
263.105	184.12
263.337	189.12
263.57	206.12
263.802	189.12
264.035	195.12
264.267	190.12
264.499	173.12
264.732	183.12
264.964	184.12
265.197	191.12
265.429	165.12
265.661	180.12
265.894	173.12
266.126	188.12
266.358	181.12
266.591	186.12
266.823	186.12
267.055	205.12
267.287	200.12
267.52	178.12
267.752	201.12
267.984	190.12
268.216	197.12
268.448	201.12
268.681	203.12
268.913	196.12
269.145	234.12
269.377	223.12
269.609	232.12
269.841	214.12
270.073	235.12
270.306	222.12
270.538	254.12
270.77	263.12
271.002	234.12
271.234	234.12
271.466	254.12
271.698	247.12
271.93	237.12
272.162	244.12
272.394	249.12
272.626	266.12
272.858	246.12
273.09	235.12
273.322	215.12
273.553	216.12
273.785	227.12
274.017	234.12
274.249	221.12
274.481	215.12
274.713	215.12
274.945	221.12
275.176	220.12
275.408	231.12
275.64	231.12
275.872	207.12
276.104	216.12
276.335	225.12
276.567	220.12
276.799	236.12
277.031	261.12
277.262	262.12
277.494	248.12
277.726	243.12
277.957	249.12
278.189	246.12
278.421	218.12
278.652	226.12
278.884	216.12
279.115	235.12
279.347	212.12
279.579	235.12
279.81	270.12
280.042	247.12
280.273	248.12
280.505	245.12
280.736	247.12
280.968	220.12
281.199	223.12
281.431	198.12
281.662	220.12
281.894	219.12
282.125	220.12
282.356	227.12
282.588	216.12
282.819	252.12
283.051	220.12
283.282	233.12
283.513	217.12
283.745	213.12
283.976	227.12
284.207	221.12
284.439	233.12
284.67	242.12
284.901	226.12
285.132	234.12
285.364	218.12
285.595	230.12
285.826	229.12
286.057	222.12
286.288	227.12
286.52	218.12
286.751	221.12
286.982	224.12
287.213	235.12
287.444	246.12
287.675	215.12
287.906	225.12
288.138	240.12
288.369	239.12
288.6	248.12
288.831	234.12
289.062	242.12
289.293	250.12
289.524	242.12
289.755	230.12
289.986	232.12
290.217	232.12
290.448	227.12
290.679	221.12
290.91	238.12
291.141	226.12
291.371	231.12
291.602	229.12
291.833	223.12
292.064	212.12
292.295	228.12
292.526	243.12
292.757	229.12
292.987	230.12
293.218	218.12
293.449	235.12
293.68	244.12
293.91	229.12
294.141	242.12
294.372	235.12
294.603	235.12
294.833	244.12
295.064	220.12
295.295	242.12
295.525	238.12
295.756	207.12
295.987	230.12
296.217	269.12
296.448	273.12
296.679	242.12
296.909	221.12
297.14	234.12
297.37	235.12
297.601	240.12
297.831	237.12
298.062	221.12
298.292	258.12
298.523	248.12
298.753	244.12
298.984	257.12
299.214	256.12
299.445	236.12
299.675	246.12
299.905	247.12
300.136	251.12
300.366	243.12
300.597	242.12
300.827	267.12
301.057	248.12
301.288	258.12
301.518	261.12
301.748	255.12
301.979	240.12
302.209	258.12
302.439	228.12
302.669	276.12
302.9	249.12
303.13	238.12
303.36	253.12
303.59	264.12
303.82	253.12
304.051	260.12
304.281	280.12
304.511	256.12
304.741	262.12
304.971	240.12
305.201	245.12
305.431	255.12
305.661	261.12
305.891	274.12
306.121	256.12
306.352	260.12
306.582	247.12
306.812	273.12
307.042	259.12
307.272	272.12
307.502	259.12
307.731	277.12
307.961	276.12
308.191	252.12
308.421	276.12
308.651	274.12
308.881	284.12
309.111	281.12
309.341	286.12
309.571	279.12
309.8	291.12
310.03	285.12
310.26	296.12
310.49	294.12
310.72	299.12
310.949	291.12
311.179	329.12
311.409	296.12
311.639	279.12
311.868	293.12
312.098	272.12
312.328	314.12
312.557	315.12
312.787	316.12
313.017	333.12
313.246	293.12
313.476	288.12
313.706	302.12
313.935	295.12
314.165	306.12
314.394	340.12
314.624	313.12
314.853	320.12
315.083	296.12
315.312	297.12
315.542	293.12
315.771	286.12
316.001	310.12
316.23	298.12
316.46	294.12
316.689	310.12
316.919	304.12
317.148	324.12
317.377	302.12
317.607	311.12
317.836	301.12
318.065	308.12
318.295	322.12
318.524	311.12
318.753	302.12
318.983	310.12
319.212	288.12
319.441	308.12
319.67	295.12
319.9	298.12
320.129	300.12
320.358	297.12
320.587	309.12
320.816	291.12
321.046	328.12
321.275	303.12
321.504	318.12
321.733	318.12
321.962	319.12
322.191	341.12
322.42	331.12
322.649	333.12
322.878	350.12
323.108	349.12
323.337	384.12
323.566	378.12
323.795	424.12
324.024	454.12
324.253	525.12
324.482	753.12
324.71	1124.12
324.939	1590.12
325.168	1390.12
325.397	719.12
325.626	505.12
325.855	426.12
326.084	395.12
326.313	389.12
326.542	406.12
326.77	424.12
326.999	499.12
327.228	663.12
327.457	980.12
327.686	1194.12
327.914	816.12
328.143	550.12
328.372	507.12
328.6	438.12
328.829	409.12
329.058	442.12
329.287	449.12
329.515	422.12
329.744	391.12
329.972	397.12
330.201	386.12
330.43	422.12
330.658	425.12
330.887	466.12
331.115	470.12
331.344	407.12
331.572	374.12
331.801	376.12
332.03	389.12
332.258	362.12
332.486	355.12
332.715	358.12
332.943	365.12
333.172	365.12
333.4	353.12
333.629	340.12
333.857	370.12
334.085	373.12
334.314	368.12
334.542	384.12
334.771	384.12
334.999	400.12
335.227	370.12
335.455	352.12
335.684	357.12
335.912	354.12
336.14	356.12
336.369	359.12
336.597	343.12
336.825	352.12
337.053	348.12
337.281	358.12
337.51	339.12
337.738	350.12
337.966	343.12
338.194	349.12
338.422	369.12
338.65	356.12
338.878	363.12
339.106	328.12
339.334	356.12
339.562	335.12
339.79	360.12
340.018	351.12
340.246	329.12
340.474	324.12
340.702	371.12
340.93	352.12
341.158	337.12
341.386	342.12
341.614	342.12
341.842	347.12
342.07	331.12
342.298	339.12
342.526	361.12
342.754	326.12
342.981	332.12
343.209	342.12
343.437	343.12
343.665	322.12
343.893	341.12
344.12	342.12
344.348	365.12
344.576	354.12
344.804	365.12
345.031	363.12
345.259	364.12
345.487	353.12
345.714	337.12
345.942	359.12
346.17	336.12
346.397	352.12
346.625	327.12
346.853	328.12
347.08	319.12
347.308	343.12
347.535	352.12
347.763	350.12
347.99	351.12
348.218	330.12
348.445	355.12
348.673	351.12
348.9	348.12
349.128	332.12
349.355	322.12
349.583	319.12
349.81	326.12
350.037	340.12
350.265	324.12
350.492	339.12
350.72	335.12
350.947	335.12
351.174	339.12
351.402	361.12
351.629	348.12
351.856	349.12
352.083	350.12
352.311	347.12
352.538	360.12
352.765	348.12
352.992	367.12
353.22	349.12
353.447	335.12
353.674	331.12
353.901	330.12
354.128	339.12
354.355	329.12
354.583	318.12
354.81	324.12
355.037	339.12
355.264	337.12
355.491	345.12
355.718	329.12
355.945	329.12
356.172	326.12
356.399	301.12
356.626	353.12
356.853	319.12
357.08	312.12
357.307	323.12
357.534	329.12
357.761	328.12
357.988	341.12
358.215	356.12
358.441	330.12
358.668	341.12
358.895	345.12
359.122	350.12
359.349	357.12
359.576	359.12
359.802	368.12
360.029	380.12
360.256	380.12
360.483	389.12
360.709	343.12
360.936	354.12
361.163	347.12
361.39	355.12
361.616	364.12
361.843	340.12
362.07	346.12
362.296	354.12
362.523	355.12
362.749	371.12
362.976	343.12
363.203	349.12
363.429	330.12
363.656	342.12
363.882	334.12
364.109	333.12
364.335	345.12
364.562	357.12
364.788	346.12
365.015	347.12
365.241	330.12
365.468	336.12
365.694	339.12
365.92	370.12
366.147	331.12
366.373	338.12
366.599	336.12
366.826	340.12
367.052	340.12
367.278	333.12
367.505	333.12
367.731	341.12
367.957	339.12
368.184	354.12
368.41	343.12
368.636	346.12
368.862	358.12
369.089	338.12
369.315	321.12
369.541	338.12
369.767	340.12
369.993	324.12
370.219	327.12
370.445	338.12
370.672	338.12
370.898	338.12
371.124	342.12
371.35	353.12
371.576	317.12
371.802	373.12
372.028	367.12
372.254	346.12
372.48	350.12
372.706	358.12
372.932	357.12
373.158	364.12
373.384	367.12
373.61	359.12
373.835	378.12
374.061	358.12
374.287	370.12
374.513	374.12
374.739	355.12
374.965	349.12
375.191	368.12
375.416	348.12
375.642	357.12
375.868	369.12
376.094	379.12
376.319	359.12
376.545	360.12
376.771	357.12
376.997	350.12
377.222	348.12
377.448	336.12
377.674	355.12
377.899	347.12
378.125	354.12
378.35	338.12
378.576	355.12
378.802	350.12
379.027	348.12
379.253	335.12
379.478	347.12
379.704	357.12
379.929	356.12
380.155	374.12
380.38	352.12
380.606	357.12
380.831	354.12
381.057	361.12
381.282	377.12
381.507	370.12
381.733	355.12
381.958	345.12
382.184	345.12
382.409	357.12
382.634	380.12
382.86	358.12
383.085	384.12
383.31	365.12
383.535	354.12
383.761	378.12
383.986	375.12
384.211	365.12
384.436	369.12
384.662	380.12
384.887	388.12
385.112	380.12
385.337	380.12
385.562	389.12
385.787	385.12
386.013	418.12
386.238	402.12
386.463	395.12
386.688	382.12
386.913	412.12
387.138	400.12
387.363	385.12
387.588	380.12
387.813	386.12
388.038	374.12
388.263	384.12
388.488	376.12
388.713	362.12
388.938	391.12
389.163	385.12
389.387	396.12
389.612	397.12
389.837	390.12
390.062	379.12
390.287	382.12
390.512	390.12
390.736	379.12
390.961	379.12
391.186	390.12
391.411	422.12
391.636	398.12
391.86	400.12
392.085	402.12
392.31	404.12
392.534	410.12
392.759	402.12
392.984	456.12
393.208	517.12
393.433	694.12
393.658	706.12
393.882	507.12
394.107	438.12
394.331	418.12
394.556	396.12
394.78	392.12
395.005	411.12
395.229	383.12
395.454	382.12
395.678	381.12
395.903	424.12
396.127	427.12
396.352	446.12
396.576	468.12
396.801	518.12
397.025	611.12
397.249	535.12
397.474	454.12
397.698	426.12
397.922	434.12
398.147	449.12
398.371	441.12
398.595	446.12
398.82	414.12
399.044	426.12
399.268	439.12
399.492	474.12
399.717	502.12
399.941	507.12
400.165	541.12
400.389	547.12
400.613	482.12
400.837	468.12
401.062	446.12
401.286	457.12
401.51	436.12
401.734	451.12
401.958	445.12
402.182	446.12
402.406	457.12
402.63	444.12
402.854	446.12
403.078	437.12
403.302	444.12
403.526	463.12
403.75	467.12
403.974	431.12
404.198	464.12
404.422	442.12
404.645	490.12
404.869	459.12
405.093	491.12
405.317	530.12
405.541	549.12
405.765	501.12
405.988	477.12
406.212	498.12
406.436	487.12
406.66	517.12
406.883	517.12
407.107	520.12
407.331	542.12
407.555	618.12
407.778	601.12
408.002	549.12
408.226	504.12
408.449	505.12
408.673	499.12
408.896	523.12
409.12	547.12
409.344	520.12
409.567	491.12
409.791	478.12
410.014	468.12
410.238	450.12
410.461	476.12
410.685	466.12
410.908	485.12
411.132	492.12
411.355	553.12
411.578	490.12
411.802	472.12
412.025	451.12
412.249	440.12
412.472	483.12
412.695	485.12
412.919	499.12
413.142	458.12
413.365	461.12
413.589	457.12
413.812	432.12
414.035	446.12
414.258	425.12
414.482	442.12
414.705	444.12
414.928	418.12
415.151	458.12
415.374	428.12
415.597	436.12
415.821	411.12
416.044	441.12
416.267	436.12
416.49	461.12
416.713	452.12
416.936	452.12
417.159	425.12
417.382	448.12
417.605	436.12
417.828	450.12
418.051	469.12
418.274	461.12
418.497	442.12
418.72	461.12
418.943	442.12
419.166	452.12
419.389	466.12
419.611	453.12
419.834	458.12
420.057	465.12
420.28	454.12
420.503	463.12
420.726	460.12
420.948	447.12
421.171	511.12
421.394	546.12
421.617	498.12
421.839	464.12
422.062	474.12
422.285	462.12
422.507	532.12
422.73	639.12
422.953	598.12
423.175	534.12
423.398	485.12
423.621	481.12
423.843	493.12
424.066	484.12
424.288	498.12
424.511	495.12
424.733	554.12
424.956	624.12
425.178	599.12
425.401	585.12
425.623	601.12
425.846	532.12
426.068	487.12
426.291	489.12
426.513	499.12
426.735	518.12
426.958	540.12
427.18	617.12
427.402	704.12
427.625	794.12
427.847	703.12
428.069	562.12
428.292	536.12
428.514	499.12
428.736	492.12
428.958	465.12
429.181	458.12
429.403	466.12
429.625	486.12
429.847	495.12
430.069	557.12
430.292	553.12
430.514	480.12
430.736	441.12
430.958	457.12
431.18	470.12
431.402	442.12
431.624	425.12
431.846	432.12
432.068	436.12
432.29	446.12
432.512	431.12
432.734	431.12
432.956	456.12
433.178	467.12
433.4	442.12
433.622	442.12
433.844	423.12
434.066	444.12
434.287	455.12
434.509	463.12
434.731	448.12
434.953	434.12
435.175	448.12
435.397	500.12
435.618	487.12
435.84	549.12
436.062	609.12
436.284	666.12
436.505	570.12
436.727	514.12
436.949	505.12
437.17	461.12
437.392	470.12
437.614	475.12
437.835	510.12
438.057	600.12
438.278	704.12
438.5	665.12
438.721	742.12
438.943	703.12
439.165	567.12
439.386	536.12
439.608	516.12
439.829	504.12
440.05	531.12
440.272	578.12
440.493	546.12
440.715	500.12
440.936	474.12
441.158	458.12
441.379	487.12
441.6	482.12
441.822	499.12
442.043	548.12
442.264	627.12
442.486	640.12
442.707	570.12
442.928	530.12
443.149	511.12
443.371	527.12
443.592	568.12
443.813	645.12
444.034	695.12
444.255	607.12
444.476	549.12
444.698	487.12
444.919	517.12
445.14	630.12
445.361	573.12
445.582	525.12
445.803	595.12
446.024	668.12
446.245	682.12
446.466	617.12
446.687	547.12
446.908	511.12
447.129	484.12
447.35	468.12
447.571	470.12
447.792	442.12
448.013	473.12
448.234	482.12
448.455	519.12
448.675	626.12
448.896	728.12
449.117	634.12
449.338	578.12
449.559	658.12
449.779	720.12
450	593.12
450.221	500.12
450.442	488.12
450.662	452.12
450.883	482.12
451.104	473.12
451.324	456.12
451.545	448.12
451.766	446.12
451.986	412.12
452.207	413.12
452.428	425.12
452.648	413.12
452.869	421.12
453.089	424.12
453.31	445.12
453.53	443.12
453.751	403.12
453.971	413.12
454.192	426.12
454.412	439.12
454.633	420.12
454.853	407.12
455.073	427.12
455.294	448.12
455.514	486.12
455.734	494.12
455.955	416.12
456.175	401.12
456.395	396.12
456.616	371.12
456.836	397.12
457.056	394.12
457.276	375.12
457.497	396.12
457.717	410.12
457.937	405.12
458.157	430.12
458.377	400.12
458.598	423.12
458.818	464.12
459.038	523.12
459.258	528.12
459.478	476.12
459.698	454.12
459.918	416.12
460.138	451.12
460.358	454.12
460.578	464.12
460.798	430.12
461.018	452.12
461.238	401.12
461.458	455.12
461.678	453.12
461.898	455.12
462.118	433.12
462.338	455.12
462.558	457.12
462.777	474.12
462.997	471.12
463.217	458.12
463.437	484.12
463.657	478.12
463.876	472.12
464.096	477.12
464.316	480.12
464.536	484.12
464.755	464.12
464.975	474.12
465.195	514.12
465.414	572.12
465.634	499.12
465.854	483.12
466.073	471.12
466.293	439.12
466.512	426.12
466.732	434.12
466.951	454.12
467.171	423.12
467.391	423.12
467.61	441.12
467.829	430.12
468.049	429.12
468.268	428.12
468.488	449.12
468.707	423.12
468.927	415.12
469.146	425.12
469.365	416.12
469.585	443.12
469.804	436.12
470.023	443.12
470.243	451.12
470.462	450.12
470.681	455.12
470.901	449.12
471.12	418.12
471.339	451.12
471.558	438.12
471.777	450.12
471.997	434.12
472.216	426.12
472.435	440.12
472.654	454.12
472.873	431.12
473.092	441.12
473.311	432.12
473.53	424.12
473.749	431.12
473.968	474.12
474.187	570.12
474.406	575.12
474.625	495.12
474.844	455.12
475.063	458.12
475.282	448.12
475.501	458.12
475.72	447.12
475.939	451.12
476.158	454.12
476.377	463.12
476.596	460.12
476.814	469.12
477.033	465.12
477.252	465.12
477.471	469.12
477.69	484.12
477.908	485.12
478.127	466.12
478.346	492.12
478.564	491.12
478.783	480.12
479.002	479.12
479.22	492.12
479.439	504.12
479.658	542.12
479.876	524.12
480.095	533.12
480.313	555.12
480.532	534.12
480.751	527.12
480.969	516.12
481.188	568.12
481.406	583.12
481.624	563.12
481.843	537.12
482.061	512.12
482.28	526.12
482.498	526.12
482.717	511.12
482.935	506.12
483.153	516.12
483.372	534.12
483.59	540.12
483.808	506.12
484.027	540.12
484.245	520.12
484.463	536.12
484.681	540.12
484.9	538.12
485.118	550.12
485.336	532.12
485.554	504.12
485.772	524.12
485.99	539.12
486.209	560.12
486.427	548.12
486.645	570.12
486.863	558.12
487.081	563.12
487.299	578.12
487.517	568.12
487.735	566.12
487.953	575.12
488.171	603.12
488.389	584.12
488.607	584.12
488.825	587.12
489.043	554.12
489.261	569.12
489.479	578.12
489.696	574.12
489.914	577.12
490.132	605.12
490.35	598.12
490.568	614.12
490.786	619.12
491.003	640.12
491.221	642.12
491.439	620.12
491.657	622.12
491.874	644.12
492.092	638.12
492.31	681.12
492.527	650.12
492.745	657.12
492.963	650.12
493.18	659.12
493.398	679.12
493.615	665.12
493.833	659.12
494.05	662.12
494.268	668.12
494.485	663.12
494.703	671.12
494.92	680.12
495.138	655.12
495.355	668.12
495.573	666.12
495.79	689.12
496.008	709.12
496.225	699.12
496.442	696.12
496.66	695.12
496.877	688.12
497.094	686.12
497.312	687.12
497.529	686.12
497.746	690.12
497.963	699.12
498.181	696.12
498.398	742.12
498.615	719.12
498.832	744.12
499.049	768.12
499.267	758.12
499.484	788.12
499.701	792.12
499.918	828.12
500.135	842.12
500.352	895.12
500.569	879.12
500.786	888.12
501.003	882.12
501.22	867.12
501.437	870.12
501.654	821.12
501.871	826.12
502.088	801.12
