Data from 1970.PennyLincolnUp.Lamp.En5.5.200Scan.071719.P1._HRD10591_15-15-59-841.txt Node
Date: Thu Jul 18 15:15:59 EDT 2019
User: cochatt
Spectrometer: HR+D1059
Trigger mode: 1
Integration Time (sec): 1.000000E-1
Scans to average: 1
Electric dark correction enabled: true
Nonlinearity correction enabled: false
Boxcar width: 0
XAxis mode: Wavelengths
Number of Pixels in Spectrum: 2048
>>>>>Begin Spectral Data<<<<<
223.165	-1.12
223.4	-1.12
223.635	-1.12
223.869	-17.12
224.104	-18.12
224.338	-12.12
224.573	-9.12
224.808	-0.12
225.042	-10.12
225.277	-15.12
225.511	-15.12
225.746	2.88
225.98	3.88
226.215	14.88
226.449	15.88
226.683	12.88
226.918	23.88
227.152	23.88
227.387	30.88
227.621	40.88
227.856	43.88
228.09	38.88
228.324	41.88
228.559	70.88
228.793	72.88
229.027	104.88
229.262	115.88
229.496	131.88
229.73	164.88
229.964	172.88
230.199	143.88
230.433	143.88
230.667	129.88
230.901	119.88
231.136	123.88
231.37	127.88
231.604	129.88
231.838	125.88
232.072	115.88
232.306	133.88
232.541	131.88
232.775	123.88
233.009	123.88
233.243	128.88
233.477	114.88
233.711	121.88
233.945	103.88
234.179	124.88
234.413	125.88
234.647	125.88
234.881	127.88
235.115	132.88
235.349	139.88
235.583	135.88
235.817	129.88
236.051	151.88
236.285	145.88
236.519	146.88
236.753	153.88
236.987	154.88
237.221	196.88
237.455	253.88
237.689	222.88
237.922	157.88
238.156	153.88
238.39	138.88
238.624	136.88
238.858	137.88
239.091	151.88
239.325	132.88
239.559	139.88
239.793	134.88
240.027	150.88
240.26	146.88
240.494	195.88
240.728	162.88
240.961	179.88
241.195	158.88
241.429	162.88
241.662	131.88
241.896	151.88
242.13	137.88
242.363	145.88
242.597	139.88
242.83	158.88
243.064	142.88
243.298	149.88
243.531	138.88
243.765	138.88
243.998	154.88
244.232	172.88
244.465	158.88
244.699	149.88
244.932	169.88
245.166	149.88
245.399	152.88
245.633	152.88
245.866	158.88
246.099	159.88
246.333	183.88
246.566	175.88
246.8	163.88
247.033	164.88
247.266	169.88
247.5	181.88
247.733	207.88
247.966	198.88
248.2	194.88
248.433	197.88
248.666	200.88
248.899	208.88
249.133	225.88
249.366	232.88
249.599	231.88
249.832	211.88
250.066	198.88
250.299	200.88
250.532	214.88
250.765	239.88
250.998	260.88
251.231	247.88
251.465	256.88
251.698	233.88
251.931	228.88
252.164	211.88
252.397	234.88
252.63	220.88
252.863	232.88
253.096	244.88
253.329	245.88
253.562	245.88
253.795	238.88
254.028	239.88
254.261	240.88
254.494	260.88
254.727	292.88
254.96	327.88
255.193	308.88
255.426	296.88
255.659	290.88
255.892	276.88
256.124	271.88
256.357	293.88
256.59	260.88
256.823	263.88
257.056	239.88
257.289	237.88
257.521	237.88
257.754	243.88
257.987	228.88
258.22	240.88
258.452	228.88
258.685	224.88
258.918	214.88
259.151	240.88
259.383	234.88
259.616	244.88
259.849	249.88
260.081	249.88
260.314	285.88
260.547	283.88
260.779	266.88
261.012	279.88
261.244	261.88
261.477	231.88
261.71	245.88
261.942	247.88
262.175	255.88
262.407	251.88
262.64	233.88
262.872	227.88
263.105	219.88
263.337	239.88
263.57	225.88
263.802	228.88
264.035	210.88
264.267	232.88
264.499	234.88
264.732	236.88
264.964	223.88
265.197	231.88
265.429	220.88
265.661	222.88
265.894	238.88
266.126	231.88
266.358	223.88
266.591	216.88
266.823	232.88
267.055	234.88
267.287	243.88
267.52	238.88
267.752	241.88
267.984	249.88
268.216	255.88
268.448	264.88
268.681	237.88
268.913	252.88
269.145	291.88
269.377	292.88
269.609	296.88
269.841	309.88
270.073	295.88
270.306	325.88
270.538	328.88
270.77	325.88
271.002	335.88
271.234	299.88
271.466	333.88
271.698	343.88
271.93	348.88
272.162	354.88
272.394	365.88
272.626	342.88
272.858	307.88
273.09	318.88
273.322	294.88
273.553	279.88
273.785	284.88
274.017	288.88
274.249	276.88
274.481	276.88
274.713	303.88
274.945	287.88
275.176	284.88
275.408	256.88
275.64	281.88
275.872	293.88
276.104	294.88
276.335	307.88
276.567	267.88
276.799	297.88
277.031	333.88
277.262	350.88
277.494	319.88
277.726	313.88
277.957	305.88
278.189	304.88
278.421	284.88
278.652	286.88
278.884	284.88
279.115	301.88
279.347	285.88
279.579	285.88
279.81	278.88
280.042	279.88
280.273	273.88
280.505	276.88
280.736	273.88
280.968	277.88
281.199	271.88
281.431	270.88
281.662	274.88
281.894	279.88
282.125	277.88
282.356	307.88
282.588	325.88
282.819	323.88
283.051	288.88
283.282	265.88
283.513	263.88
283.745	290.88
283.976	291.88
284.207	291.88
284.439	287.88
284.67	279.88
284.901	292.88
285.132	281.88
285.364	291.88
285.595	287.88
285.826	277.88
286.057	269.88
286.288	271.88
286.52	265.88
286.751	278.88
286.982	281.88
287.213	272.88
287.444	259.88
287.675	283.88
287.906	304.88
288.138	293.88
288.369	293.88
288.6	305.88
288.831	317.88
289.062	303.88
289.293	310.88
289.524	296.88
289.755	269.88
289.986	288.88
290.217	298.88
290.448	304.88
290.679	297.88
290.91	265.88
291.141	279.88
291.371	286.88
291.602	277.88
291.833	301.88
292.064	293.88
292.295	275.88
292.526	278.88
292.757	299.88
292.987	304.88
293.218	281.88
293.449	304.88
293.68	303.88
293.91	279.88
294.141	297.88
294.372	315.88
294.603	293.88
294.833	299.88
295.064	308.88
295.295	272.88
295.525	291.88
295.756	315.88
295.987	317.88
296.217	345.88
296.448	340.88
296.679	315.88
296.909	300.88
297.14	287.88
297.37	286.88
297.601	317.88
297.831	309.88
298.062	308.88
298.292	311.88
298.523	319.88
298.753	317.88
298.984	303.88
299.214	292.88
299.445	305.88
299.675	312.88
299.905	309.88
300.136	310.88
300.366	326.88
300.597	300.88
300.827	308.88
301.057	320.88
301.288	329.88
301.518	324.88
301.748	327.88
301.979	340.88
302.209	319.88
302.439	319.88
302.669	298.88
302.9	320.88
303.13	320.88
303.36	323.88
303.59	335.88
303.82	328.88
304.051	353.88
304.281	319.88
304.511	341.88
304.741	317.88
304.971	330.88
305.201	331.88
305.431	319.88
305.661	335.88
305.891	313.88
306.121	331.88
306.352	347.88
306.582	342.88
306.812	337.88
307.042	321.88
307.272	319.88
307.502	354.88
307.731	358.88
307.961	315.88
308.191	336.88
308.421	348.88
308.651	342.88
308.881	355.88
309.111	357.88
309.341	342.88
309.571	371.88
309.8	370.88
310.03	383.88
310.26	391.88
310.49	397.88
310.72	401.88
310.949	420.88
311.179	428.88
311.409	399.88
311.639	394.88
311.868	396.88
312.098	384.88
312.328	412.88
312.557	428.88
312.787	430.88
313.017	416.88
313.246	395.88
313.476	390.88
313.706	385.88
313.935	383.88
314.165	429.88
314.394	440.88
314.624	430.88
314.853	409.88
315.083	395.88
315.312	377.88
315.542	398.88
315.771	393.88
316.001	389.88
316.23	374.88
316.46	378.88
316.689	379.88
316.919	395.88
317.148	394.88
317.377	404.88
317.607	395.88
317.836	392.88
318.065	403.88
318.295	395.88
318.524	393.88
318.753	374.88
318.983	415.88
319.212	394.88
319.441	393.88
319.67	417.88
319.9	413.88
320.129	394.88
320.358	397.88
320.587	395.88
320.816	375.88
321.046	429.88
321.275	437.88
321.504	409.88
321.733	414.88
321.962	437.88
322.191	445.88
322.42	464.88
322.649	471.88
322.878	471.88
323.108	467.88
323.337	521.88
323.566	543.88
323.795	595.88
324.024	675.88
324.253	832.88
324.482	1135.88
324.71	1788.88
324.939	2502.88
325.168	2173.88
325.397	1161.88
325.626	787.88
325.855	649.88
326.084	577.88
326.313	591.88
326.542	574.88
326.77	624.88
326.999	738.88
327.228	1012.88
327.457	1573.88
327.686	1899.88
327.914	1279.88
328.143	862.88
328.372	756.88
328.6	695.88
328.829	641.88
329.058	687.88
329.287	700.88
329.515	636.88
329.744	594.88
329.972	570.88
330.201	598.88
330.43	655.88
330.658	671.88
330.887	733.88
331.115	680.88
331.344	589.88
331.572	549.88
331.801	543.88
332.03	540.88
332.258	504.88
332.486	503.88
332.715	462.88
332.943	470.88
333.172	491.88
333.4	463.88
333.629	487.88
333.857	515.88
334.085	518.88
334.314	554.88
334.542	573.88
334.771	621.88
334.999	551.88
335.227	504.88
335.455	473.88
335.684	465.88
335.912	479.88
336.14	473.88
336.369	454.88
336.597	484.88
336.825	477.88
337.053	456.88
337.281	470.88
337.51	477.88
337.738	471.88
337.966	460.88
338.194	504.88
338.422	470.88
338.65	470.88
338.878	442.88
339.106	447.88
339.334	433.88
339.562	446.88
339.79	452.88
340.018	434.88
340.246	457.88
340.474	445.88
340.702	447.88
340.93	423.88
341.158	454.88
341.386	441.88
341.614	443.88
341.842	457.88
342.07	454.88
342.298	432.88
342.526	447.88
342.754	423.88
342.981	434.88
343.209	413.88
343.437	414.88
343.665	437.88
343.893	441.88
344.12	431.88
344.348	438.88
344.576	455.88
344.804	443.88
345.031	471.88
345.259	470.88
345.487	474.88
345.714	460.88
345.942	449.88
346.17	460.88
346.397	423.88
346.625	451.88
346.853	445.88
347.08	424.88
347.308	435.88
347.535	441.88
347.763	486.88
347.99	466.88
348.218	458.88
348.445	476.88
348.673	468.88
348.9	463.88
349.128	435.88
349.355	404.88
349.583	423.88
349.81	415.88
350.037	416.88
350.265	417.88
350.492	423.88
350.72	447.88
350.947	417.88
351.174	463.88
351.402	463.88
351.629	454.88
351.856	452.88
352.083	457.88
352.311	473.88
352.538	460.88
352.765	453.88
352.992	437.88
353.22	449.88
353.447	446.88
353.674	445.88
353.901	427.88
354.128	405.88
354.355	424.88
354.583	414.88
354.81	415.88
355.037	395.88
355.264	408.88
355.491	381.88
355.718	399.88
355.945	399.88
356.172	407.88
356.399	397.88
356.626	414.88
356.853	405.88
357.08	391.88
357.307	400.88
357.534	409.88
357.761	420.88
357.988	408.88
358.215	417.88
358.441	409.88
358.668	429.88
358.895	426.88
359.122	396.88
359.349	425.88
359.576	459.88
359.802	462.88
360.029	507.88
360.256	535.88
360.483	489.88
360.709	447.88
360.936	430.88
361.163	435.88
361.39	473.88
361.616	441.88
361.843	431.88
362.07	436.88
362.296	462.88
362.523	446.88
362.749	463.88
362.976	424.88
363.203	433.88
363.429	441.88
363.656	439.88
363.882	432.88
364.109	416.88
364.335	446.88
364.562	447.88
364.788	442.88
365.015	441.88
365.241	421.88
365.468	419.88
365.694	427.88
365.92	444.88
366.147	422.88
366.373	395.88
366.599	433.88
366.826	446.88
367.052	415.88
367.278	430.88
367.505	429.88
367.731	422.88
367.957	424.88
368.184	443.88
368.41	447.88
368.636	455.88
368.862	446.88
369.089	438.88
369.315	433.88
369.541	426.88
369.767	447.88
369.993	432.88
370.219	428.88
370.445	428.88
370.672	419.88
370.898	427.88
371.124	416.88
371.35	427.88
371.576	412.88
371.802	398.88
372.028	424.88
372.254	415.88
372.48	420.88
372.706	425.88
372.932	425.88
373.158	414.88
373.384	423.88
373.61	432.88
373.835	409.88
374.061	419.88
374.287	445.88
374.513	425.88
374.739	426.88
374.965	411.88
375.191	421.88
375.416	405.88
375.642	413.88
375.868	414.88
376.094	429.88
376.319	412.88
376.545	436.88
376.771	415.88
376.997	416.88
377.222	413.88
377.448	427.88
377.674	411.88
377.899	409.88
378.125	416.88
378.35	420.88
378.576	413.88
378.802	417.88
379.027	417.88
379.253	420.88
379.478	439.88
379.704	412.88
379.929	417.88
380.155	447.88
380.38	438.88
380.606	441.88
380.831	409.88
381.057	409.88
381.282	404.88
381.507	422.88
381.733	420.88
381.958	427.88
382.184	422.88
382.409	419.88
382.634	429.88
382.86	427.88
383.085	431.88
383.31	420.88
383.535	449.88
383.761	410.88
383.986	444.88
384.211	439.88
384.436	420.88
384.662	423.88
384.887	424.88
385.112	453.88
385.337	455.88
385.562	445.88
385.787	453.88
386.013	469.88
386.238	448.88
386.463	454.88
386.688	464.88
386.913	457.88
387.138	455.88
387.363	479.88
387.588	425.88
387.813	456.88
388.038	458.88
388.263	463.88
388.488	445.88
388.713	451.88
388.938	463.88
389.163	456.88
389.387	463.88
389.612	456.88
389.837	453.88
390.062	446.88
390.287	447.88
390.512	466.88
390.736	452.88
390.961	455.88
391.186	472.88
391.411	462.88
391.636	449.88
391.86	455.88
392.085	473.88
392.31	452.88
392.534	439.88
392.759	456.88
392.984	449.88
393.208	479.88
393.433	460.88
393.658	465.88
393.882	461.88
394.107	461.88
394.331	462.88
394.556	455.88
394.78	448.88
395.005	464.88
395.229	448.88
395.454	460.88
395.678	473.88
395.903	475.88
396.127	501.88
396.352	526.88
396.576	480.88
396.801	483.88
397.025	495.88
397.249	488.88
397.474	480.88
397.698	503.88
397.922	503.88
398.147	526.88
398.371	529.88
398.595	517.88
398.82	506.88
399.044	503.88
399.268	521.88
399.492	551.88
399.717	572.88
399.941	602.88
400.165	638.88
400.389	669.88
400.613	581.88
400.837	567.88
401.062	528.88
401.286	521.88
401.51	536.88
401.734	503.88
401.958	525.88
402.182	548.88
402.406	543.88
402.63	560.88
402.854	546.88
403.078	534.88
403.302	544.88
403.526	552.88
403.75	525.88
403.974	562.88
404.198	553.88
404.422	562.88
404.645	576.88
404.869	565.88
405.093	600.88
405.317	644.88
405.541	696.88
405.765	617.88
405.988	611.88
406.212	617.88
406.436	640.88
406.66	648.88
406.883	601.88
407.107	628.88
407.331	675.88
407.555	704.88
407.778	719.88
408.002	662.88
408.226	618.88
408.449	620.88
408.673	616.88
408.896	636.88
409.12	667.88
409.344	654.88
409.567	588.88
409.791	551.88
410.014	568.88
410.238	564.88
410.461	565.88
410.685	555.88
410.908	583.88
411.132	599.88
411.355	655.88
411.578	631.88
411.802	573.88
412.025	565.88
412.249	566.88
412.472	582.88
412.695	629.88
412.919	624.88
413.142	581.88
413.365	567.88
413.589	553.88
413.812	531.88
414.035	548.88
414.258	545.88
414.482	523.88
414.705	508.88
414.928	495.88
415.151	519.88
415.374	527.88
415.597	529.88
415.821	528.88
416.044	519.88
416.267	531.88
416.49	527.88
416.713	529.88
416.936	525.88
417.159	524.88
417.382	505.88
417.605	563.88
417.828	547.88
418.051	569.88
418.274	552.88
418.497	516.88
418.72	515.88
418.943	543.88
419.166	541.88
419.389	568.88
419.611	563.88
419.834	559.88
420.057	575.88
420.28	577.88
420.503	580.88
420.726	569.88
420.948	581.88
421.171	637.88
421.394	635.88
421.617	576.88
421.839	579.88
422.062	573.88
422.285	582.88
422.507	661.88
422.73	735.88
422.953	709.88
423.175	621.88
423.398	584.88
423.621	584.88
423.843	627.88
424.066	607.88
424.288	602.88
424.511	603.88
424.733	700.88
424.956	775.88
425.178	764.88
425.401	748.88
425.623	784.88
425.846	687.88
426.068	627.88
426.291	617.88
426.513	597.88
426.735	634.88
426.958	697.88
427.18	745.88
427.402	870.88
427.625	967.88
427.847	913.88
428.069	775.88
428.292	672.88
428.514	639.88
428.736	609.88
428.958	606.88
429.181	568.88
429.403	569.88
429.625	606.88
429.847	607.88
430.069	707.88
430.292	721.88
430.514	600.88
430.736	589.88
430.958	579.88
431.18	537.88
431.402	549.88
431.624	539.88
431.846	533.88
432.068	529.88
432.29	522.88
432.512	549.88
432.734	552.88
432.956	554.88
433.178	575.88
433.4	555.88
433.622	568.88
433.844	549.88
434.066	519.88
434.287	575.88
434.509	532.88
434.731	560.88
434.953	554.88
435.175	561.88
435.397	614.88
435.618	614.88
435.84	684.88
436.062	777.88
436.284	843.88
436.505	727.88
436.727	663.88
436.949	596.88
437.17	581.88
437.392	574.88
437.614	623.88
437.835	639.88
438.057	755.88
438.278	863.88
438.5	876.88
438.721	919.88
438.943	886.88
439.165	711.88
439.386	676.88
439.608	656.88
439.829	653.88
440.05	663.88
440.272	732.88
440.493	675.88
440.715	615.88
440.936	605.88
441.158	599.88
441.379	572.88
441.6	603.88
441.822	647.88
442.043	676.88
442.264	778.88
442.486	812.88
442.707	691.88
442.928	655.88
443.149	633.88
443.371	665.88
443.592	735.88
443.813	847.88
444.034	853.88
444.255	760.88
444.476	640.88
444.698	628.88
444.919	599.88
445.14	776.88
445.361	682.88
445.582	672.88
445.803	728.88
446.024	857.88
446.245	875.88
446.466	790.88
446.687	678.88
446.908	666.88
447.129	614.88
447.35	609.88
447.571	577.88
447.792	574.88
448.013	598.88
448.234	621.88
448.455	685.88
448.675	783.88
448.896	889.88
449.117	784.88
449.338	739.88
449.559	825.88
449.779	925.88
450	791.88
450.221	653.88
450.442	612.88
450.662	559.88
450.883	595.88
451.104	630.88
451.324	601.88
451.545	572.88
451.766	533.88
451.986	533.88
452.207	518.88
452.428	532.88
452.648	504.88
452.869	524.88
453.089	554.88
453.31	558.88
453.53	542.88
453.751	528.88
453.971	534.88
454.192	557.88
454.412	573.88
454.633	530.88
454.853	541.88
455.073	511.88
455.294	555.88
455.514	664.88
455.734	633.88
455.955	531.88
456.175	496.88
456.395	502.88
456.616	479.88
456.836	492.88
457.056	488.88
457.276	470.88
457.497	483.88
457.717	469.88
457.937	493.88
458.157	505.88
458.377	525.88
458.598	530.88
458.818	605.88
459.038	743.88
459.258	721.88
459.478	626.88
459.698	551.88
459.918	543.88
460.138	556.88
460.358	544.88
460.578	547.88
460.798	539.88
461.018	534.88
461.238	540.88
461.458	527.88
461.678	536.88
461.898	519.88
462.118	513.88
462.338	531.88
462.558	536.88
462.777	554.88
462.997	526.88
463.217	561.88
463.437	571.88
463.657	517.88
463.876	530.88
464.096	553.88
464.316	544.88
464.536	569.88
464.755	568.88
464.975	565.88
465.195	638.88
465.414	728.88
465.634	645.88
465.854	622.88
466.073	558.88
466.293	533.88
466.512	536.88
466.732	527.88
466.951	537.88
467.171	536.88
467.391	531.88
467.61	528.88
467.829	572.88
468.049	550.88
468.268	539.88
468.488	557.88
468.707	525.88
468.927	533.88
469.146	517.88
469.365	508.88
469.585	535.88
469.804	525.88
470.023	544.88
470.243	540.88
470.462	544.88
470.681	568.88
470.901	557.88
471.12	547.88
471.339	552.88
471.558	564.88
471.777	543.88
471.997	532.88
472.216	551.88
472.435	614.88
472.654	568.88
472.873	529.88
473.092	551.88
473.311	549.88
473.53	544.88
473.749	552.88
473.968	598.88
474.187	720.88
474.406	715.88
474.625	601.88
474.844	565.88
475.063	543.88
475.282	549.88
475.501	546.88
475.72	565.88
475.939	549.88
476.158	558.88
476.377	567.88
476.596	553.88
476.814	550.88
477.033	574.88
477.252	578.88
477.471	583.88
477.69	575.88
477.908	575.88
478.127	580.88
478.346	567.88
478.564	590.88
478.783	624.88
479.002	598.88
479.22	590.88
479.439	628.88
479.658	649.88
479.876	662.88
480.095	653.88
480.313	696.88
480.532	651.88
480.751	663.88
480.969	651.88
481.188	773.88
481.406	861.88
481.624	723.88
481.843	682.88
482.061	672.88
482.28	628.88
482.498	635.88
482.717	643.88
482.935	660.88
483.153	637.88
483.372	636.88
483.59	630.88
483.808	654.88
484.027	654.88
484.245	633.88
484.463	665.88
484.681	661.88
484.9	661.88
485.118	649.88
485.336	667.88
485.554	643.88
485.772	669.88
485.99	668.88
486.209	672.88
486.427	691.88
486.645	683.88
486.863	715.88
487.081	696.88
487.299	710.88
487.517	683.88
487.735	729.88
487.953	692.88
488.171	716.88
488.389	739.88
488.607	693.88
488.825	691.88
489.043	713.88
489.261	745.88
489.479	740.88
489.696	715.88
489.914	743.88
490.132	735.88
490.35	734.88
490.568	753.88
490.786	790.88
491.003	769.88
491.221	775.88
491.439	804.88
491.657	805.88
491.874	814.88
492.092	843.88
492.31	858.88
492.527	847.88
492.745	835.88
492.963	817.88
493.18	815.88
493.398	845.88
493.615	858.88
493.833	849.88
494.05	864.88
494.268	865.88
494.485	849.88
494.703	864.88
494.92	843.88
495.138	817.88
495.355	853.88
495.573	832.88
495.79	864.88
496.008	825.88
496.225	868.88
496.442	842.88
496.66	827.88
496.877	836.88
497.094	859.88
497.312	852.88
497.529	853.88
497.746	879.88
497.963	880.88
498.181	899.88
498.398	899.88
498.615	892.88
498.832	916.88
499.049	913.88
499.267	903.88
499.484	951.88
499.701	951.88
499.918	984.88
500.135	969.88
500.352	1027.88
500.569	1024.88
500.786	1009.88
501.003	1013.88
501.22	1025.88
501.437	1003.88
501.654	985.88
501.871	1009.88
