Data from 1971.PennyLincolnUp.Lamp.En5.5.200Scan.071719.P1.Scan 2. Changed Angle._HRD10591_15-23-32-842.txt Node
Date: Thu Jul 18 15:23:32 EDT 2019
User: cochatt
Spectrometer: HR+D1059
Trigger mode: 1
Integration Time (sec): 1.000000E-1
Scans to average: 1
Electric dark correction enabled: true
Nonlinearity correction enabled: false
Boxcar width: 0
XAxis mode: Wavelengths
Number of Pixels in Spectrum: 2048
>>>>>Begin Spectral Data<<<<<
223.165	-2.88
223.4	-2.88
223.635	-2.88
223.869	-29.88
224.104	-20.88
224.338	-18.88
224.573	-3.88
224.808	-11.88
225.042	-0.88
225.277	-12.88
225.511	2.12
225.746	-8.88
225.98	-1.88
226.215	14.12
226.449	14.12
226.683	16.12
226.918	27.12
227.152	39.12
227.387	36.12
227.621	31.12
227.856	47.12
228.09	50.12
228.324	52.12
228.559	60.12
228.793	63.12
229.027	113.12
229.262	136.12
229.496	131.12
229.73	151.12
229.964	176.12
230.199	148.12
230.433	122.12
230.667	106.12
230.901	124.12
231.136	109.12
231.37	112.12
231.604	130.12
231.838	123.12
232.072	111.12
232.306	109.12
232.541	117.12
232.775	103.12
233.009	124.12
233.243	114.12
233.477	115.12
233.711	122.12
233.945	123.12
234.179	127.12
234.413	116.12
234.647	132.12
234.881	124.12
235.115	134.12
235.349	129.12
235.583	125.12
235.817	118.12
236.051	131.12
236.285	120.12
236.519	125.12
236.753	145.12
236.987	173.12
237.221	207.12
237.455	274.12
237.689	203.12
237.922	156.12
238.156	149.12
238.39	135.12
238.624	147.12
238.858	134.12
239.091	130.12
239.325	134.12
239.559	142.12
239.793	133.12
240.027	156.12
240.26	168.12
240.494	160.12
240.728	172.12
240.961	156.12
241.195	147.12
241.429	149.12
241.662	132.12
241.896	127.12
242.13	139.12
242.363	150.12
242.597	141.12
242.83	152.12
243.064	158.12
243.298	140.12
243.531	132.12
243.765	138.12
243.998	149.12
244.232	150.12
244.465	149.12
244.699	151.12
244.932	157.12
245.166	148.12
245.399	142.12
245.633	145.12
245.866	156.12
246.099	150.12
246.333	159.12
246.566	159.12
246.8	156.12
247.033	158.12
247.266	154.12
247.5	172.12
247.733	167.12
247.966	172.12
248.2	203.12
248.433	171.12
248.666	190.12
248.899	218.12
249.133	205.12
249.366	233.12
249.599	221.12
249.832	189.12
250.066	211.12
250.299	198.12
250.532	197.12
250.765	223.12
250.998	224.12
251.231	246.12
251.465	232.12
251.698	242.12
251.931	217.12
252.164	216.12
252.397	218.12
252.63	220.12
252.863	231.12
253.096	232.12
253.329	255.12
253.562	237.12
253.795	230.12
254.028	241.12
254.261	242.12
254.494	246.12
254.727	280.12
254.96	284.12
255.193	307.12
255.426	287.12
255.659	261.12
255.892	252.12
256.124	244.12
256.357	255.12
256.59	217.12
256.823	227.12
257.056	239.12
257.289	224.12
257.521	214.12
257.754	221.12
257.987	223.12
258.22	220.12
258.452	226.12
258.685	219.12
258.918	217.12
259.151	219.12
259.383	214.12
259.616	221.12
259.849	239.12
260.081	239.12
260.314	277.12
260.547	295.12
260.779	260.12
261.012	265.12
261.244	248.12
261.477	253.12
261.71	237.12
261.942	243.12
262.175	269.12
262.407	251.12
262.64	215.12
262.872	224.12
263.105	206.12
263.337	229.12
263.57	204.12
263.802	217.12
264.035	208.12
264.267	224.12
264.499	208.12
264.732	209.12
264.964	238.12
265.197	228.12
265.429	229.12
265.661	220.12
265.894	205.12
266.126	216.12
266.358	246.12
266.591	226.12
266.823	234.12
267.055	235.12
267.287	226.12
267.52	216.12
267.752	222.12
267.984	217.12
268.216	239.12
268.448	246.12
268.681	219.12
268.913	256.12
269.145	263.12
269.377	287.12
269.609	299.12
269.841	260.12
270.073	290.12
270.306	304.12
270.538	333.12
270.77	335.12
271.002	319.12
271.234	307.12
271.466	324.12
271.698	318.12
271.93	324.12
272.162	338.12
272.394	343.12
272.626	318.12
272.858	316.12
273.09	286.12
273.322	296.12
273.553	278.12
273.785	267.12
274.017	254.12
274.249	275.12
274.481	272.12
274.713	272.12
274.945	275.12
275.176	256.12
275.408	269.12
275.64	269.12
275.872	270.12
276.104	260.12
276.335	276.12
276.567	271.12
276.799	287.12
277.031	312.12
277.262	324.12
277.494	323.12
277.726	318.12
277.957	314.12
278.189	285.12
278.421	282.12
278.652	276.12
278.884	292.12
279.115	275.12
279.347	271.12
279.579	264.12
279.81	275.12
280.042	253.12
280.273	264.12
280.505	246.12
280.736	258.12
280.968	261.12
281.199	272.12
281.431	235.12
281.662	262.12
281.894	273.12
282.125	277.12
282.356	285.12
282.588	311.12
282.819	318.12
283.051	292.12
283.282	258.12
283.513	272.12
283.745	274.12
283.976	260.12
284.207	259.12
284.439	276.12
284.67	247.12
284.901	270.12
285.132	265.12
285.364	272.12
285.595	268.12
285.826	276.12
286.057	263.12
286.288	272.12
286.52	266.12
286.751	270.12
286.982	271.12
287.213	277.12
287.444	276.12
287.675	278.12
287.906	281.12
288.138	308.12
288.369	294.12
288.6	293.12
288.831	285.12
289.062	285.12
289.293	273.12
289.524	295.12
289.755	274.12
289.986	262.12
290.217	291.12
290.448	284.12
290.679	271.12
290.91	301.12
291.141	283.12
291.371	278.12
291.602	262.12
291.833	267.12
292.064	272.12
292.295	280.12
292.526	281.12
292.757	277.12
292.987	282.12
293.218	263.12
293.449	276.12
293.68	286.12
293.91	283.12
294.141	281.12
294.372	266.12
294.603	294.12
294.833	280.12
295.064	255.12
295.295	293.12
295.525	283.12
295.756	293.12
295.987	291.12
296.217	325.12
296.448	334.12
296.679	295.12
296.909	302.12
297.14	279.12
297.37	298.12
297.601	312.12
297.831	285.12
298.062	278.12
298.292	278.12
298.523	282.12
298.753	292.12
298.984	307.12
299.214	298.12
299.445	306.12
299.675	300.12
299.905	298.12
300.136	322.12
300.366	277.12
300.597	289.12
300.827	289.12
301.057	303.12
301.288	333.12
301.518	314.12
301.748	296.12
301.979	324.12
302.209	297.12
302.439	301.12
302.669	313.12
302.9	297.12
303.13	296.12
303.36	313.12
303.59	302.12
303.82	338.12
304.051	318.12
304.281	310.12
304.511	310.12
304.741	301.12
304.971	315.12
305.201	320.12
305.431	306.12
305.661	313.12
305.891	310.12
306.121	324.12
306.352	310.12
306.582	324.12
306.812	312.12
307.042	312.12
307.272	326.12
307.502	331.12
307.731	325.12
307.961	318.12
308.191	320.12
308.421	333.12
308.651	331.12
308.881	335.12
309.111	336.12
309.341	322.12
309.571	335.12
309.8	355.12
310.03	357.12
310.26	393.12
310.49	376.12
310.72	390.12
310.949	409.12
311.179	401.12
311.409	379.12
311.639	360.12
311.868	394.12
312.098	400.12
312.328	374.12
312.557	406.12
312.787	420.12
313.017	426.12
313.246	397.12
313.476	371.12
313.706	369.12
313.935	389.12
314.165	410.12
314.394	409.12
314.624	415.12
314.853	385.12
315.083	378.12
315.312	372.12
315.542	372.12
315.771	377.12
316.001	360.12
316.23	365.12
316.46	343.12
316.689	375.12
316.919	379.12
317.148	393.12
317.377	393.12
317.607	380.12
317.836	384.12
318.065	378.12
318.295	374.12
318.524	376.12
318.753	377.12
318.983	382.12
319.212	379.12
319.441	407.12
319.67	393.12
319.9	381.12
320.129	373.12
320.358	372.12
320.587	380.12
320.816	390.12
321.046	386.12
321.275	401.12
321.504	410.12
321.733	421.12
321.962	420.12
322.191	429.12
322.42	446.12
322.649	471.12
322.878	466.12
323.108	483.12
323.337	519.12
323.566	533.12
323.795	591.12
324.024	639.12
324.253	780.12
324.482	1129.12
324.71	1776.12
324.939	2549.12
325.168	2182.12
325.397	1151.12
325.626	783.12
325.855	623.12
326.084	563.12
326.313	511.12
326.542	555.12
326.77	587.12
326.999	734.12
327.228	1040.12
327.457	1580.12
327.686	1990.12
327.914	1322.12
328.143	847.12
328.372	751.12
328.6	660.12
328.829	640.12
329.058	636.12
329.287	639.12
329.515	608.12
329.744	562.12
329.972	550.12
330.201	575.12
330.43	610.12
330.658	658.12
330.887	716.12
331.115	670.12
331.344	592.12
331.572	528.12
331.801	520.12
332.03	495.12
332.258	479.12
332.486	472.12
332.715	438.12
332.943	435.12
333.172	457.12
333.4	453.12
333.629	455.12
333.857	483.12
334.085	485.12
334.314	474.12
334.542	531.12
334.771	553.12
334.999	516.12
335.227	471.12
335.455	469.12
335.684	446.12
335.912	438.12
336.14	439.12
336.369	440.12
336.597	457.12
336.825	446.12
337.053	456.12
337.281	438.12
337.51	423.12
337.738	428.12
337.966	426.12
338.194	444.12
338.422	438.12
338.65	430.12
338.878	447.12
339.106	416.12
339.334	402.12
339.562	415.12
339.79	437.12
340.018	459.12
340.246	423.12
340.474	424.12
340.702	455.12
340.93	438.12
341.158	429.12
341.386	409.12
341.614	442.12
341.842	415.12
342.07	435.12
342.298	416.12
342.526	392.12
342.754	408.12
342.981	418.12
343.209	417.12
343.437	400.12
343.665	392.12
343.893	416.12
344.12	439.12
344.348	439.12
344.576	435.12
344.804	442.12
345.031	443.12
345.259	448.12
345.487	453.12
345.714	428.12
345.942	446.12
346.17	426.12
346.397	423.12
346.625	413.12
346.853	435.12
347.08	414.12
347.308	435.12
347.535	444.12
347.763	422.12
347.99	423.12
348.218	430.12
348.445	446.12
348.673	444.12
348.9	441.12
349.128	412.12
349.355	415.12
349.583	399.12
349.81	412.12
350.037	408.12
350.265	407.12
350.492	407.12
350.72	410.12
350.947	404.12
351.174	429.12
351.402	449.12
351.629	418.12
351.856	459.12
352.083	458.12
352.311	446.12
352.538	453.12
352.765	449.12
352.992	454.12
353.22	442.12
353.447	425.12
353.674	428.12
353.901	419.12
354.128	399.12
354.355	404.12
354.583	398.12
354.81	399.12
355.037	396.12
355.264	419.12
355.491	407.12
355.718	380.12
355.945	383.12
356.172	388.12
356.399	388.12
356.626	415.12
356.853	413.12
357.08	398.12
357.307	400.12
357.534	379.12
357.761	380.12
357.988	372.12
358.215	381.12
358.441	395.12
358.668	405.12
358.895	399.12
359.122	407.12
359.349	418.12
359.576	430.12
359.802	463.12
360.029	504.12
360.256	525.12
360.483	485.12
360.709	430.12
360.936	439.12
361.163	445.12
361.39	425.12
361.616	453.12
361.843	456.12
362.07	451.12
362.296	425.12
362.523	438.12
362.749	422.12
362.976	401.12
363.203	413.12
363.429	409.12
363.656	408.12
363.882	398.12
364.109	389.12
364.335	408.12
364.562	422.12
364.788	409.12
365.015	415.12
365.241	415.12
365.468	411.12
365.694	439.12
365.92	412.12
366.147	395.12
366.373	404.12
366.599	410.12
366.826	404.12
367.052	410.12
367.278	392.12
367.505	400.12
367.731	400.12
367.957	410.12
368.184	422.12
368.41	430.12
368.636	435.12
368.862	455.12
369.089	421.12
369.315	424.12
369.541	411.12
369.767	415.12
369.993	402.12
370.219	404.12
370.445	400.12
370.672	416.12
370.898	392.12
371.124	392.12
371.35	389.12
371.576	389.12
371.802	401.12
372.028	410.12
372.254	402.12
372.48	389.12
372.706	397.12
372.932	391.12
373.158	401.12
373.384	408.12
373.61	423.12
373.835	414.12
374.061	413.12
374.287	424.12
374.513	430.12
374.739	411.12
374.965	413.12
375.191	404.12
375.416	406.12
375.642	405.12
375.868	416.12
376.094	417.12
376.319	410.12
376.545	418.12
376.771	419.12
376.997	414.12
377.222	420.12
377.448	402.12
377.674	394.12
377.899	404.12
378.125	397.12
378.35	388.12
378.576	410.12
378.802	394.12
379.027	388.12
379.253	414.12
379.478	396.12
379.704	415.12
379.929	400.12
380.155	411.12
380.38	433.12
380.606	401.12
380.831	430.12
381.057	425.12
381.282	408.12
381.507	407.12
381.733	429.12
381.958	419.12
382.184	421.12
382.409	414.12
382.634	425.12
382.86	434.12
383.085	407.12
383.31	418.12
383.535	418.12
383.761	431.12
383.986	439.12
384.211	399.12
384.436	426.12
384.662	454.12
384.887	459.12
385.112	438.12
385.337	430.12
385.562	449.12
385.787	438.12
386.013	453.12
386.238	460.12
386.463	457.12
386.688	446.12
386.913	416.12
387.138	458.12
387.363	455.12
387.588	428.12
387.813	439.12
388.038	438.12
388.263	447.12
388.488	427.12
388.713	439.12
388.938	449.12
389.163	456.12
389.387	464.12
389.612	444.12
389.837	461.12
390.062	443.12
390.287	435.12
390.512	452.12
390.736	440.12
390.961	429.12
391.186	446.12
391.411	443.12
391.636	436.12
391.86	443.12
392.085	423.12
392.31	450.12
392.534	458.12
392.759	474.12
392.984	445.12
393.208	448.12
393.433	458.12
393.658	459.12
393.882	457.12
394.107	452.12
394.331	445.12
394.556	432.12
394.78	453.12
395.005	446.12
395.229	441.12
395.454	457.12
395.678	443.12
395.903	465.12
396.127	495.12
396.352	485.12
396.576	461.12
396.801	481.12
397.025	456.12
397.249	455.12
397.474	464.12
397.698	483.12
397.922	505.12
398.147	506.12
398.371	520.12
398.595	495.12
398.82	488.12
399.044	501.12
399.268	515.12
399.492	531.12
399.717	558.12
399.941	540.12
400.165	619.12
400.389	620.12
400.613	558.12
400.837	530.12
401.062	519.12
401.286	524.12
401.51	507.12
401.734	476.12
401.958	528.12
402.182	500.12
402.406	549.12
402.63	540.12
402.854	528.12
403.078	517.12
403.302	529.12
403.526	540.12
403.75	534.12
403.974	514.12
404.198	525.12
404.422	554.12
404.645	547.12
404.869	555.12
405.093	585.12
405.317	606.12
405.541	642.12
405.765	614.12
405.988	568.12
406.212	562.12
406.436	584.12
406.66	607.12
406.883	577.12
407.107	608.12
407.331	655.12
407.555	720.12
407.778	746.12
408.002	652.12
408.226	628.12
408.449	611.12
408.673	570.12
408.896	634.12
409.12	659.12
409.344	628.12
409.567	568.12
409.791	570.12
410.014	535.12
410.238	550.12
410.461	550.12
410.685	542.12
410.908	554.12
411.132	588.12
411.355	620.12
411.578	598.12
411.802	538.12
412.025	521.12
412.249	544.12
412.472	542.12
412.695	595.12
412.919	597.12
413.142	562.12
413.365	518.12
413.589	525.12
413.812	522.12
414.035	520.12
414.258	520.12
414.482	501.12
414.705	518.12
414.928	506.12
415.151	503.12
415.374	509.12
415.597	509.12
415.821	499.12
416.044	491.12
416.267	519.12
416.49	484.12
416.713	510.12
416.936	508.12
417.159	502.12
417.382	531.12
417.605	530.12
417.828	534.12
418.051	531.12
418.274	554.12
418.497	522.12
418.72	523.12
418.943	495.12
419.166	534.12
419.389	543.12
419.611	531.12
419.834	536.12
420.057	535.12
420.28	541.12
420.503	543.12
420.726	528.12
420.948	534.12
421.171	596.12
421.394	633.12
421.617	589.12
421.839	550.12
422.062	549.12
422.285	576.12
422.507	618.12
422.73	709.12
422.953	676.12
423.175	616.12
423.398	573.12
423.621	585.12
423.843	614.12
424.066	610.12
424.288	589.12
424.511	624.12
424.733	675.12
424.956	754.12
425.178	748.12
425.401	743.12
425.623	771.12
425.846	653.12
426.068	592.12
426.291	585.12
426.513	593.12
426.735	628.12
426.958	654.12
427.18	754.12
427.402	895.12
427.625	997.12
427.847	892.12
428.069	791.12
428.292	668.12
428.514	632.12
428.736	611.12
428.958	574.12
429.181	554.12
429.403	576.12
429.625	560.12
429.847	623.12
430.069	678.12
430.292	680.12
430.514	606.12
430.736	546.12
430.958	545.12
431.18	540.12
431.402	524.12
431.624	514.12
431.846	507.12
432.068	510.12
432.29	500.12
432.512	552.12
432.734	546.12
432.956	540.12
433.178	531.12
433.4	548.12
433.622	528.12
433.844	526.12
434.066	496.12
434.287	492.12
434.509	530.12
434.731	532.12
434.953	547.12
435.175	557.12
435.397	579.12
435.618	600.12
435.84	635.12
436.062	728.12
436.284	822.12
436.505	725.12
436.727	634.12
436.949	594.12
437.17	574.12
437.392	579.12
437.614	578.12
437.835	614.12
438.057	739.12
438.278	877.12
438.5	841.12
438.721	938.12
438.943	901.12
439.165	681.12
439.386	658.12
439.608	662.12
439.829	623.12
440.05	678.12
440.272	714.12
440.493	655.12
440.715	614.12
440.936	579.12
441.158	557.12
441.379	578.12
441.6	594.12
441.822	615.12
442.043	668.12
442.264	801.12
442.486	778.12
442.707	681.12
442.928	633.12
443.149	653.12
443.371	668.12
443.592	724.12
443.813	800.12
444.034	892.12
444.255	719.12
444.476	646.12
444.698	600.12
444.919	606.12
445.14	705.12
445.361	669.12
445.582	667.12
445.803	770.12
446.024	855.12
446.245	879.12
446.466	818.12
446.687	662.12
446.908	613.12
447.129	586.12
447.35	589.12
447.571	583.12
447.792	579.12
448.013	591.12
448.234	575.12
448.455	644.12
448.675	758.12
448.896	864.12
449.117	785.12
449.338	725.12
449.559	847.12
449.779	943.12
450	749.12
450.221	664.12
450.442	590.12
450.662	575.12
450.883	582.12
451.104	606.12
451.324	586.12
451.545	556.12
451.766	541.12
451.986	516.12
452.207	493.12
452.428	504.12
452.648	520.12
452.869	518.12
453.089	514.12
453.31	547.12
453.53	522.12
453.751	508.12
453.971	506.12
454.192	578.12
454.412	525.12
454.633	518.12
454.853	510.12
455.073	509.12
455.294	542.12
455.514	601.12
455.734	604.12
455.955	521.12
456.175	487.12
456.395	487.12
456.616	472.12
456.836	476.12
457.056	463.12
457.276	464.12
457.497	460.12
457.717	472.12
457.937	498.12
458.157	477.12
458.377	502.12
458.598	519.12
458.818	602.12
459.038	687.12
459.258	688.12
459.478	591.12
459.698	563.12
459.918	519.12
460.138	549.12
460.358	522.12
460.578	503.12
460.798	529.12
461.018	546.12
461.238	504.12
461.458	510.12
461.678	492.12
461.898	529.12
462.118	512.12
462.338	528.12
462.558	510.12
462.777	538.12
462.997	536.12
463.217	535.12
463.437	551.12
463.657	571.12
463.876	541.12
464.096	545.12
464.316	526.12
464.536	545.12
464.755	554.12
464.975	572.12
465.195	631.12
465.414	729.12
465.634	658.12
465.854	596.12
466.073	566.12
466.293	550.12
466.512	544.12
466.732	516.12
466.951	506.12
467.171	509.12
467.391	519.12
467.61	544.12
467.829	554.12
468.049	552.12
468.268	539.12
468.488	511.12
468.707	524.12
468.927	516.12
469.146	503.12
469.365	493.12
469.585	512.12
469.804	540.12
470.023	538.12
470.243	522.12
470.462	542.12
470.681	551.12
470.901	556.12
471.12	527.12
471.339	543.12
471.558	524.12
471.777	518.12
471.997	491.12
472.216	534.12
472.435	578.12
472.654	562.12
472.873	531.12
473.092	534.12
473.311	511.12
473.53	512.12
473.749	537.12
473.968	587.12
474.187	711.12
474.406	730.12
474.625	618.12
474.844	573.12
475.063	556.12
475.282	535.12
475.501	536.12
475.72	545.12
475.939	538.12
476.158	554.12
476.377	562.12
476.596	525.12
476.814	566.12
477.033	554.12
477.252	548.12
477.471	532.12
477.69	559.12
477.908	572.12
478.127	557.12
478.346	578.12
478.564	559.12
478.783	574.12
479.002	598.12
479.22	603.12
479.439	618.12
479.658	646.12
479.876	654.12
480.095	639.12
480.313	707.12
480.532	680.12
480.751	628.12
480.969	642.12
481.188	717.12
481.406	778.12
481.624	693.12
481.843	655.12
482.061	650.12
482.28	630.12
482.498	633.12
482.717	628.12
482.935	604.12
483.153	628.12
483.372	591.12
483.59	622.12
483.808	638.12
484.027	613.12
484.245	632.12
484.463	646.12
484.681	652.12
484.9	653.12
485.118	628.12
485.336	640.12
485.554	643.12
485.772	636.12
485.99	641.12
486.209	629.12
486.427	645.12
486.645	686.12
486.863	687.12
487.081	701.12
487.299	683.12
487.517	679.12
487.735	664.12
487.953	701.12
488.171	706.12
488.389	668.12
488.607	695.12
488.825	666.12
489.043	699.12
489.261	699.12
489.479	694.12
489.696	695.12
489.914	708.12
490.132	699.12
490.35	733.12
490.568	736.12
490.786	754.12
491.003	735.12
491.221	748.12
491.439	781.12
491.657	794.12
491.874	802.12
492.092	779.12
492.31	806.12
492.527	797.12
492.745	820.12
492.963	815.12
493.18	819.12
493.398	802.12
493.615	810.12
493.833	825.12
494.05	820.12
494.268	807.12
494.485	825.12
494.703	828.12
494.92	839.12
495.138	818.12
495.355	801.12
495.573	813.12
495.79	826.12
496.008	815.12
496.225	830.12
496.442	836.12
496.66	821.12
496.877	820.12
497.094	818.12
497.312	831.12
497.529	854.12
497.746	846.12
497.963	860.12
498.181	858.12
498.398	863.12
498.615	891.12
498.832	901.12
499.049	900.12
499.267	915.12
499.484	902.12
499.701	936.12
499.918	938.12
500.135	987.12
500.352	992.12
500.569	1045.12
500.786	1019.12
501.003	1012.12
501.22	1008.12
501.437	981.12
