Data from 1971.PennyLincolnUp.Lamp.En5.5.200Scan.071719.P1._HRD10591_15-18-03-842.txt Node
Date: Thu Jul 18 15:18:03 EDT 2019
User: cochatt
Spectrometer: HR+D1059
Trigger mode: 1
Integration Time (sec): 1.000000E-1
Scans to average: 1
Electric dark correction enabled: true
Nonlinearity correction enabled: false
Boxcar width: 0
XAxis mode: Wavelengths
Number of Pixels in Spectrum: 2048
>>>>>Begin Spectral Data<<<<<
223.165	-9.94
223.4	-9.94
223.635	-9.94
223.869	-19.94
224.104	-6.94
224.338	0.06
224.573	-19.94
224.808	-19.94
225.042	-12.94
225.277	-11.94
225.511	-1.94
225.746	-6.94
225.98	2.06
226.215	22.06
226.449	22.06
226.683	18.06
226.918	17.06
227.152	29.06
227.387	36.06
227.621	45.06
227.856	34.06
228.09	49.06
228.324	43.06
228.559	49.06
228.793	56.06
229.027	87.06
229.262	94.06
229.496	94.06
229.73	115.06
229.964	123.06
230.199	99.06
230.433	107.06
230.667	93.06
230.901	102.06
231.136	93.06
231.37	91.06
231.604	101.06
231.838	92.06
232.072	108.06
232.306	103.06
232.541	104.06
232.775	106.06
233.009	107.06
233.243	121.06
233.477	97.06
233.711	103.06
233.945	95.06
234.179	110.06
234.413	101.06
234.647	103.06
234.881	106.06
235.115	108.06
235.349	106.06
235.583	120.06
235.817	119.06
236.051	107.06
236.285	111.06
236.519	102.06
236.753	125.06
236.987	115.06
237.221	149.06
237.455	168.06
237.689	148.06
237.922	115.06
238.156	103.06
238.39	131.06
238.624	118.06
238.858	117.06
239.091	115.06
239.325	105.06
239.559	128.06
239.793	108.06
240.027	115.06
240.26	125.06
240.494	126.06
240.728	147.06
240.961	130.06
241.195	123.06
241.429	115.06
241.662	126.06
241.896	135.06
242.13	122.06
242.363	126.06
242.597	116.06
242.83	108.06
243.064	142.06
243.298	134.06
243.531	130.06
243.765	150.06
243.998	126.06
244.232	130.06
244.465	125.06
244.699	137.06
244.932	139.06
245.166	138.06
245.399	122.06
245.633	148.06
245.866	119.06
246.099	152.06
246.333	143.06
246.566	141.06
246.8	131.06
247.033	137.06
247.266	149.06
247.5	136.06
247.733	160.06
247.966	161.06
248.2	147.06
248.433	156.06
248.666	157.06
248.899	168.06
249.133	175.06
249.366	181.06
249.599	171.06
249.832	166.06
250.066	156.06
250.299	181.06
250.532	168.06
250.765	183.06
250.998	184.06
251.231	191.06
251.465	196.06
251.698	205.06
251.931	191.06
252.164	171.06
252.397	179.06
252.63	188.06
252.863	173.06
253.096	200.06
253.329	201.06
253.562	194.06
253.795	206.06
254.028	206.06
254.261	194.06
254.494	207.06
254.727	229.06
254.96	225.06
255.193	237.06
255.426	225.06
255.659	207.06
255.892	204.06
256.124	213.06
256.357	219.06
256.59	201.06
256.823	203.06
257.056	195.06
257.289	195.06
257.521	192.06
257.754	193.06
257.987	178.06
258.22	196.06
258.452	202.06
258.685	207.06
258.918	196.06
259.151	202.06
259.383	188.06
259.616	214.06
259.849	204.06
260.081	198.06
260.314	214.06
260.547	223.06
260.779	213.06
261.012	207.06
261.244	197.06
261.477	197.06
261.71	207.06
261.942	198.06
262.175	206.06
262.407	207.06
262.64	191.06
262.872	177.06
263.105	194.06
263.337	197.06
263.57	193.06
263.802	202.06
264.035	205.06
264.267	197.06
264.499	205.06
264.732	201.06
264.964	206.06
265.197	210.06
265.429	200.06
265.661	202.06
265.894	188.06
266.126	196.06
266.358	199.06
266.591	206.06
266.823	206.06
267.055	202.06
267.287	210.06
267.52	208.06
267.752	201.06
267.984	206.06
268.216	217.06
268.448	218.06
268.681	228.06
268.913	230.06
269.145	224.06
269.377	243.06
269.609	250.06
269.841	242.06
270.073	230.06
270.306	246.06
270.538	282.06
270.77	283.06
271.002	264.06
271.234	271.06
271.466	243.06
271.698	271.06
271.93	267.06
272.162	267.06
272.394	263.06
272.626	263.06
272.858	255.06
273.09	258.06
273.322	267.06
273.553	227.06
273.785	245.06
274.017	226.06
274.249	253.06
274.481	222.06
274.713	252.06
274.945	238.06
275.176	242.06
275.408	236.06
275.64	225.06
275.872	245.06
276.104	237.06
276.335	229.06
276.567	248.06
276.799	270.06
277.031	258.06
277.262	292.06
277.494	255.06
277.726	268.06
277.957	270.06
278.189	250.06
278.421	237.06
278.652	245.06
278.884	234.06
279.115	241.06
279.347	247.06
279.579	258.06
279.81	233.06
280.042	241.06
280.273	257.06
280.505	254.06
280.736	229.06
280.968	248.06
281.199	239.06
281.431	247.06
281.662	241.06
281.894	249.06
282.125	245.06
282.356	266.06
282.588	267.06
282.819	243.06
283.051	245.06
283.282	266.06
283.513	259.06
283.745	270.06
283.976	268.06
284.207	245.06
284.439	273.06
284.67	258.06
284.901	269.06
285.132	244.06
285.364	270.06
285.595	252.06
285.826	259.06
286.057	263.06
286.288	252.06
286.52	255.06
286.751	243.06
286.982	281.06
287.213	275.06
287.444	266.06
287.675	262.06
287.906	256.06
288.138	279.06
288.369	278.06
288.6	263.06
288.831	289.06
289.062	268.06
289.293	270.06
289.524	273.06
289.755	261.06
289.986	261.06
290.217	249.06
290.448	257.06
290.679	269.06
290.91	265.06
291.141	246.06
291.371	254.06
291.602	252.06
291.833	269.06
292.064	272.06
292.295	280.06
292.526	276.06
292.757	249.06
292.987	257.06
293.218	285.06
293.449	264.06
293.68	271.06
293.91	269.06
294.141	270.06
294.372	255.06
294.603	259.06
294.833	250.06
295.064	275.06
295.295	265.06
295.525	291.06
295.756	277.06
295.987	272.06
296.217	262.06
296.448	291.06
296.679	274.06
296.909	265.06
297.14	274.06
297.37	267.06
297.601	269.06
297.831	277.06
298.062	295.06
298.292	283.06
298.523	263.06
298.753	262.06
298.984	281.06
299.214	289.06
299.445	274.06
299.675	280.06
299.905	285.06
300.136	275.06
300.366	289.06
300.597	286.06
300.827	296.06
301.057	299.06
301.288	338.06
301.518	300.06
301.748	306.06
301.979	293.06
302.209	308.06
302.439	317.06
302.669	294.06
302.9	283.06
303.13	302.06
303.36	297.06
303.59	298.06
303.82	297.06
304.051	309.06
304.281	318.06
304.511	287.06
304.741	300.06
304.971	305.06
305.201	297.06
305.431	276.06
305.661	301.06
305.891	317.06
306.121	313.06
306.352	290.06
306.582	283.06
306.812	298.06
307.042	290.06
307.272	298.06
307.502	290.06
307.731	321.06
307.961	318.06
308.191	305.06
308.421	309.06
308.651	293.06
308.881	311.06
309.111	309.06
309.341	292.06
309.571	311.06
309.8	311.06
310.03	319.06
310.26	321.06
310.49	314.06
310.72	347.06
310.949	339.06
311.179	347.06
311.409	335.06
311.639	333.06
311.868	323.06
312.098	338.06
312.328	326.06
312.557	330.06
312.787	347.06
313.017	337.06
313.246	346.06
313.476	338.06
313.706	318.06
313.935	337.06
314.165	346.06
314.394	351.06
314.624	332.06
314.853	347.06
315.083	332.06
315.312	328.06
315.542	342.06
315.771	339.06
316.001	331.06
316.23	330.06
316.46	342.06
316.689	327.06
316.919	350.06
317.148	345.06
317.377	345.06
317.607	345.06
317.836	334.06
318.065	334.06
318.295	347.06
318.524	342.06
318.753	341.06
318.983	333.06
319.212	323.06
319.441	331.06
319.67	329.06
319.9	339.06
320.129	341.06
320.358	341.06
320.587	333.06
320.816	354.06
321.046	338.06
321.275	349.06
321.504	345.06
321.733	360.06
321.962	360.06
322.191	377.06
322.42	359.06
322.649	387.06
322.878	360.06
323.108	391.06
323.337	403.06
323.566	383.06
323.795	417.06
324.024	482.06
324.253	539.06
324.482	725.06
324.71	1064.06
324.939	1422.06
325.168	1222.06
325.397	659.06
325.626	493.06
325.855	435.06
326.084	424.06
326.313	420.06
326.542	410.06
326.77	438.06
326.999	513.06
327.228	651.06
327.457	932.06
327.686	1081.06
327.914	739.06
328.143	529.06
328.372	469.06
328.6	451.06
328.829	432.06
329.058	459.06
329.287	438.06
329.515	415.06
329.744	410.06
329.972	420.06
330.201	417.06
330.43	430.06
330.658	427.06
330.887	459.06
331.115	431.06
331.344	418.06
331.572	386.06
331.801	410.06
332.03	395.06
332.258	394.06
332.486	383.06
332.715	407.06
332.943	378.06
333.172	394.06
333.4	377.06
333.629	388.06
333.857	401.06
334.085	388.06
334.314	393.06
334.542	427.06
334.771	444.06
334.999	413.06
335.227	399.06
335.455	391.06
335.684	376.06
335.912	380.06
336.14	378.06
336.369	352.06
336.597	383.06
336.825	400.06
337.053	403.06
337.281	377.06
337.51	389.06
337.738	385.06
337.966	377.06
338.194	380.06
338.422	355.06
338.65	351.06
338.878	359.06
339.106	370.06
339.334	360.06
339.562	369.06
339.79	361.06
340.018	379.06
340.246	364.06
340.474	371.06
340.702	353.06
340.93	375.06
341.158	361.06
341.386	389.06
341.614	360.06
341.842	371.06
342.07	363.06
342.298	375.06
342.526	367.06
342.754	348.06
342.981	356.06
343.209	360.06
343.437	354.06
343.665	369.06
343.893	383.06
344.12	395.06
344.348	376.06
344.576	364.06
344.804	379.06
345.031	366.06
345.259	377.06
345.487	377.06
345.714	355.06
345.942	363.06
346.17	364.06
346.397	362.06
346.625	337.06
346.853	361.06
347.08	370.06
347.308	359.06
347.535	353.06
347.763	349.06
347.99	352.06
348.218	349.06
348.445	350.06
348.673	360.06
348.9	351.06
349.128	345.06
349.355	357.06
349.583	330.06
349.81	321.06
350.037	341.06
350.265	343.06
350.492	340.06
350.72	363.06
350.947	339.06
351.174	350.06
351.402	353.06
351.629	373.06
351.856	358.06
352.083	356.06
352.311	345.06
352.538	350.06
352.765	337.06
352.992	355.06
353.22	344.06
353.447	354.06
353.674	332.06
353.901	348.06
354.128	351.06
354.355	322.06
354.583	321.06
354.81	330.06
355.037	325.06
355.264	330.06
355.491	322.06
355.718	316.06
355.945	329.06
356.172	344.06
356.399	322.06
356.626	321.06
356.853	326.06
357.08	344.06
357.307	329.06
357.534	328.06
357.761	317.06
357.988	336.06
358.215	329.06
358.441	311.06
358.668	323.06
358.895	323.06
359.122	323.06
359.349	349.06
359.576	355.06
359.802	340.06
360.029	366.06
360.256	379.06
360.483	349.06
360.709	340.06
360.936	327.06
361.163	325.06
361.39	341.06
361.616	339.06
361.843	319.06
362.07	345.06
362.296	321.06
362.523	342.06
362.749	317.06
362.976	321.06
363.203	329.06
363.429	336.06
363.656	348.06
363.882	339.06
364.109	341.06
364.335	322.06
364.562	330.06
364.788	309.06
365.015	330.06
365.241	345.06
365.468	341.06
365.694	333.06
365.92	335.06
366.147	324.06
366.373	317.06
366.599	327.06
366.826	335.06
367.052	323.06
367.278	312.06
367.505	323.06
367.731	324.06
367.957	325.06
368.184	323.06
368.41	311.06
368.636	336.06
368.862	342.06
369.089	342.06
369.315	328.06
369.541	321.06
369.767	316.06
369.993	317.06
370.219	343.06
370.445	335.06
370.672	321.06
370.898	317.06
371.124	328.06
371.35	330.06
371.576	341.06
371.802	321.06
372.028	322.06
372.254	315.06
372.48	326.06
372.706	339.06
372.932	326.06
373.158	315.06
373.384	327.06
373.61	342.06
373.835	335.06
374.061	319.06
374.287	329.06
374.513	310.06
374.739	326.06
374.965	332.06
375.191	335.06
375.416	311.06
375.642	334.06
375.868	343.06
376.094	332.06
376.319	311.06
376.545	320.06
376.771	321.06
376.997	317.06
377.222	314.06
377.448	303.06
377.674	313.06
377.899	319.06
378.125	321.06
378.35	314.06
378.576	331.06
378.802	312.06
379.027	319.06
379.253	341.06
379.478	309.06
379.704	318.06
379.929	326.06
380.155	320.06
380.38	318.06
380.606	331.06
380.831	316.06
381.057	311.06
381.282	318.06
381.507	317.06
381.733	315.06
381.958	300.06
382.184	307.06
382.409	315.06
382.634	335.06
382.86	321.06
383.085	328.06
383.31	341.06
383.535	322.06
383.761	332.06
383.986	310.06
384.211	310.06
384.436	346.06
384.662	322.06
384.887	335.06
385.112	317.06
385.337	325.06
385.562	315.06
385.787	335.06
386.013	354.06
386.238	339.06
386.463	345.06
386.688	342.06
386.913	351.06
387.138	334.06
387.363	327.06
387.588	348.06
387.813	335.06
388.038	326.06
388.263	359.06
388.488	329.06
388.713	333.06
388.938	345.06
389.163	337.06
389.387	357.06
389.612	343.06
389.837	333.06
390.062	325.06
390.287	333.06
390.512	334.06
390.736	330.06
390.961	356.06
391.186	347.06
391.411	326.06
391.636	323.06
391.86	338.06
392.085	336.06
392.31	356.06
392.534	342.06
392.759	346.06
392.984	331.06
393.208	355.06
393.433	354.06
393.658	359.06
393.882	325.06
394.107	327.06
394.331	350.06
394.556	335.06
394.78	330.06
395.005	362.06
395.229	337.06
395.454	355.06
395.678	347.06
395.903	370.06
396.127	376.06
396.352	348.06
396.576	356.06
396.801	346.06
397.025	354.06
397.249	360.06
397.474	371.06
397.698	347.06
397.922	362.06
398.147	373.06
398.371	379.06
398.595	363.06
398.82	354.06
399.044	381.06
399.268	391.06
399.492	410.06
399.717	439.06
399.941	458.06
400.165	451.06
400.389	444.06
400.613	418.06
400.837	391.06
401.062	398.06
401.286	381.06
401.51	377.06
401.734	357.06
401.958	371.06
402.182	373.06
402.406	393.06
402.63	404.06
402.854	381.06
403.078	388.06
403.302	381.06
403.526	385.06
403.75	372.06
403.974	381.06
404.198	380.06
404.422	364.06
404.645	395.06
404.869	383.06
405.093	409.06
405.317	433.06
405.541	453.06
405.765	405.06
405.988	385.06
406.212	407.06
406.436	420.06
406.66	428.06
406.883	412.06
407.107	428.06
407.331	454.06
407.555	499.06
407.778	494.06
408.002	444.06
408.226	417.06
408.449	398.06
408.673	427.06
408.896	435.06
409.12	470.06
409.344	436.06
409.567	405.06
409.791	391.06
410.014	398.06
410.238	392.06
410.461	381.06
410.685	390.06
410.908	385.06
411.132	437.06
411.355	428.06
411.578	421.06
411.802	380.06
412.025	378.06
412.249	394.06
412.472	394.06
412.695	404.06
412.919	405.06
413.142	378.06
413.365	393.06
413.589	381.06
413.812	388.06
414.035	376.06
414.258	348.06
414.482	348.06
414.705	356.06
414.928	347.06
415.151	356.06
415.374	366.06
415.597	351.06
415.821	356.06
416.044	362.06
416.267	359.06
416.49	362.06
416.713	379.06
416.936	377.06
417.159	356.06
417.382	359.06
417.605	345.06
417.828	371.06
418.051	382.06
418.274	359.06
418.497	354.06
418.72	365.06
418.943	379.06
419.166	387.06
419.389	391.06
419.611	386.06
419.834	388.06
420.057	381.06
420.28	382.06
420.503	374.06
420.726	366.06
420.948	364.06
421.171	407.06
421.394	433.06
421.617	379.06
421.839	378.06
422.062	379.06
422.285	353.06
422.507	439.06
422.73	469.06
422.953	449.06
423.175	408.06
423.398	379.06
423.621	385.06
423.843	414.06
424.066	389.06
424.288	419.06
424.511	413.06
424.733	461.06
424.956	508.06
425.178	475.06
425.401	465.06
425.623	473.06
425.846	420.06
426.068	384.06
426.291	398.06
426.513	386.06
426.735	418.06
426.958	442.06
427.18	475.06
427.402	551.06
427.625	620.06
427.847	526.06
428.069	460.06
428.292	415.06
428.514	387.06
428.736	382.06
428.958	396.06
429.181	384.06
429.403	370.06
429.625	361.06
429.847	392.06
430.069	422.06
430.292	439.06
430.514	392.06
430.736	373.06
430.958	352.06
431.18	362.06
431.402	361.06
431.624	338.06
431.846	339.06
432.068	324.06
432.29	354.06
432.512	336.06
432.734	363.06
432.956	355.06
433.178	354.06
433.4	382.06
433.622	357.06
433.844	367.06
434.066	355.06
434.287	337.06
434.509	346.06
434.731	355.06
434.953	375.06
435.175	379.06
435.397	393.06
435.618	406.06
435.84	443.06
436.062	481.06
436.284	533.06
436.505	448.06
436.727	409.06
436.949	372.06
437.17	355.06
437.392	379.06
437.614	392.06
437.835	405.06
438.057	458.06
438.278	511.06
438.5	537.06
438.721	561.06
438.943	528.06
439.165	437.06
439.386	403.06
439.608	400.06
439.829	399.06
440.05	421.06
440.272	420.06
440.493	417.06
440.715	387.06
440.936	374.06
441.158	357.06
441.379	369.06
441.6	398.06
441.822	413.06
442.043	406.06
442.264	483.06
442.486	497.06
442.707	452.06
442.928	399.06
443.149	412.06
443.371	428.06
443.592	450.06
443.813	509.06
444.034	545.06
444.255	469.06
444.476	428.06
444.698	407.06
444.919	397.06
445.14	511.06
445.361	441.06
445.582	445.06
445.803	462.06
446.024	514.06
446.245	512.06
446.466	497.06
446.687	425.06
446.908	386.06
447.129	404.06
447.35	369.06
447.571	368.06
447.792	368.06
448.013	368.06
448.234	403.06
448.455	421.06
448.675	477.06
448.896	561.06
449.117	493.06
449.338	460.06
449.559	549.06
449.779	599.06
450	485.06
450.221	407.06
450.442	394.06
450.662	387.06
450.883	376.06
451.104	381.06
451.324	359.06
451.545	344.06
451.766	348.06
451.986	341.06
452.207	337.06
452.428	312.06
452.648	317.06
452.869	329.06
453.089	328.06
453.31	335.06
453.53	338.06
453.751	328.06
453.971	313.06
454.192	352.06
454.412	329.06
454.633	315.06
454.853	327.06
455.073	323.06
455.294	342.06
455.514	387.06
455.734	389.06
455.955	339.06
456.175	331.06
456.395	317.06
456.616	300.06
456.836	309.06
457.056	309.06
457.276	324.06
457.497	309.06
457.717	317.06
457.937	321.06
458.157	297.06
458.377	309.06
458.598	323.06
458.818	341.06
459.038	413.06
459.258	414.06
459.478	367.06
459.698	346.06
459.918	342.06
460.138	344.06
460.358	350.06
460.578	336.06
460.798	369.06
461.018	356.06
461.238	369.06
461.458	345.06
461.678	337.06
461.898	350.06
462.118	345.06
462.338	343.06
462.558	353.06
462.777	366.06
462.997	373.06
463.217	391.06
463.437	379.06
463.657	373.06
463.876	358.06
464.096	355.06
464.316	371.06
464.536	375.06
464.755	376.06
464.975	381.06
465.195	369.06
465.414	414.06
465.634	389.06
465.854	360.06
466.073	347.06
466.293	344.06
466.512	328.06
466.732	331.06
466.951	317.06
467.171	312.06
467.391	333.06
467.61	348.06
467.829	330.06
468.049	345.06
468.268	335.06
468.488	331.06
468.707	327.06
468.927	330.06
469.146	333.06
469.365	318.06
469.585	313.06
469.804	358.06
470.023	330.06
470.243	351.06
470.462	343.06
470.681	349.06
470.901	348.06
471.12	340.06
471.339	344.06
471.558	346.06
471.777	331.06
471.997	346.06
472.216	328.06
472.435	362.06
472.654	345.06
472.873	337.06
473.092	339.06
473.311	333.06
473.53	335.06
473.749	343.06
473.968	377.06
474.187	431.06
474.406	443.06
474.625	386.06
474.844	379.06
475.063	331.06
475.282	345.06
475.501	339.06
475.72	342.06
475.939	328.06
476.158	348.06
476.377	344.06
476.596	334.06
476.814	365.06
477.033	348.06
477.252	366.06
477.471	351.06
477.69	389.06
477.908	358.06
478.127	373.06
478.346	373.06
478.564	370.06
478.783	363.06
479.002	399.06
479.22	381.06
479.439	402.06
479.658	387.06
479.876	412.06
480.095	404.06
480.313	425.06
480.532	418.06
480.751	394.06
480.969	406.06
481.188	427.06
481.406	429.06
481.624	379.06
481.843	392.06
482.061	393.06
482.28	376.06
482.498	385.06
482.717	376.06
482.935	399.06
483.153	411.06
483.372	400.06
483.59	387.06
483.808	399.06
484.027	396.06
484.245	404.06
484.463	405.06
484.681	403.06
484.9	423.06
485.118	410.06
485.336	395.06
485.554	396.06
485.772	413.06
485.99	410.06
486.209	404.06
486.427	397.06
486.645	404.06
486.863	420.06
487.081	421.06
487.299	433.06
487.517	429.06
487.735	423.06
487.953	416.06
488.171	446.06
488.389	428.06
488.607	428.06
488.825	424.06
489.043	418.06
489.261	432.06
489.479	422.06
489.696	438.06
489.914	457.06
490.132	447.06
490.35	434.06
490.568	427.06
490.786	467.06
491.003	451.06
491.221	479.06
491.439	488.06
491.657	473.06
491.874	478.06
492.092	482.06
492.31	477.06
492.527	473.06
492.745	484.06
492.963	482.06
493.18	475.06
493.398	474.06
493.615	505.06
493.833	482.06
494.05	488.06
494.268	503.06
494.485	481.06
494.703	490.06
494.92	469.06
495.138	467.06
495.355	495.06
495.573	486.06
495.79	474.06
496.008	501.06
496.225	496.06
496.442	499.06
496.66	490.06
496.877	488.06
497.094	501.06
497.312	522.06
497.529	510.06
497.746	522.06
497.963	515.06
498.181	547.06
498.398	528.06
498.615	561.06
498.832	531.06
499.049	546.06
499.267	538.06
499.484	560.06
499.701	599.06
499.918	603.06
500.135	627.06
500.352	662.06
500.569	689.06
500.786	659.06
501.003	662.06
501.22	675.06
501.437	613.06
501.654	604.06
501.871	601.06
502.088	605.06
