Data from 1971.PennyLincolnUp.Lamp.En5.5.200Scan.071719.P1._HRD10591_15-18-06-841.txt Node
Date: Thu Jul 18 15:18:06 EDT 2019
User: cochatt
Spectrometer: HR+D1059
Trigger mode: 1
Integration Time (sec): 1.000000E-1
Scans to average: 1
Electric dark correction enabled: true
Nonlinearity correction enabled: false
Boxcar width: 0
XAxis mode: Wavelengths
Number of Pixels in Spectrum: 2048
>>>>>Begin Spectral Data<<<<<
223.165	-14.38
223.4	-14.38
223.635	-14.38
223.869	-14.38
224.104	-23.38
224.338	-23.38
224.573	-18.38
224.808	-13.38
225.042	2.62
225.277	-9.38
225.511	-5.38
225.746	5.62
225.98	10.62
226.215	9.62
226.449	19.62
226.683	25.62
226.918	22.62
227.152	25.62
227.387	32.62
227.621	41.62
227.856	53.62
228.09	37.62
228.324	49.62
228.559	60.62
228.793	69.62
229.027	96.62
229.262	100.62
229.496	96.62
229.73	120.62
229.964	133.62
230.199	94.62
230.433	111.62
230.667	109.62
230.901	100.62
231.136	110.62
231.37	115.62
231.604	101.62
231.838	108.62
232.072	103.62
232.306	105.62
232.541	111.62
232.775	114.62
233.009	118.62
233.243	110.62
233.477	91.62
233.711	116.62
233.945	102.62
234.179	117.62
234.413	112.62
234.647	106.62
234.881	96.62
235.115	102.62
235.349	120.62
235.583	119.62
235.817	125.62
236.051	121.62
236.285	128.62
236.519	126.62
236.753	133.62
236.987	139.62
237.221	159.62
237.455	187.62
237.689	158.62
237.922	128.62
238.156	128.62
238.39	125.62
238.624	125.62
238.858	124.62
239.091	117.62
239.325	111.62
239.559	104.62
239.793	110.62
240.027	130.62
240.26	125.62
240.494	133.62
240.728	150.62
240.961	139.62
241.195	128.62
241.429	132.62
241.662	130.62
241.896	135.62
242.13	123.62
242.363	122.62
242.597	121.62
242.83	137.62
243.064	133.62
243.298	132.62
243.531	130.62
243.765	149.62
243.998	128.62
244.232	134.62
244.465	136.62
244.699	137.62
244.932	120.62
245.166	159.62
245.399	136.62
245.633	132.62
245.866	133.62
246.099	129.62
246.333	144.62
246.566	148.62
246.8	152.62
247.033	140.62
247.266	142.62
247.5	157.62
247.733	158.62
247.966	151.62
248.2	151.62
248.433	155.62
248.666	173.62
248.899	162.62
249.133	177.62
249.366	191.62
249.599	181.62
249.832	163.62
250.066	180.62
250.299	185.62
250.532	183.62
250.765	189.62
250.998	210.62
251.231	210.62
251.465	203.62
251.698	209.62
251.931	193.62
252.164	184.62
252.397	188.62
252.63	193.62
252.863	210.62
253.096	195.62
253.329	210.62
253.562	208.62
253.795	215.62
254.028	196.62
254.261	211.62
254.494	215.62
254.727	232.62
254.96	258.62
255.193	249.62
255.426	246.62
255.659	222.62
255.892	229.62
256.124	206.62
256.357	213.62
256.59	216.62
256.823	201.62
257.056	197.62
257.289	209.62
257.521	205.62
257.754	200.62
257.987	180.62
258.22	197.62
258.452	218.62
258.685	213.62
258.918	202.62
259.151	198.62
259.383	226.62
259.616	212.62
259.849	209.62
260.081	207.62
260.314	216.62
260.547	232.62
260.779	231.62
261.012	213.62
261.244	220.62
261.477	205.62
261.71	215.62
261.942	202.62
262.175	232.62
262.407	220.62
262.64	205.62
262.872	205.62
263.105	210.62
263.337	204.62
263.57	219.62
263.802	214.62
264.035	217.62
264.267	203.62
264.499	207.62
264.732	218.62
264.964	206.62
265.197	205.62
265.429	212.62
265.661	192.62
265.894	210.62
266.126	211.62
266.358	221.62
266.591	221.62
266.823	210.62
267.055	206.62
267.287	218.62
267.52	196.62
267.752	224.62
267.984	217.62
268.216	207.62
268.448	227.62
268.681	237.62
268.913	235.62
269.145	233.62
269.377	250.62
269.609	234.62
269.841	234.62
270.073	261.62
270.306	264.62
270.538	289.62
270.77	296.62
271.002	278.62
271.234	279.62
271.466	272.62
271.698	257.62
271.93	271.62
272.162	272.62
272.394	271.62
272.626	281.62
272.858	268.62
273.09	258.62
273.322	264.62
273.553	250.62
273.785	246.62
274.017	240.62
274.249	241.62
274.481	258.62
274.713	255.62
274.945	264.62
275.176	229.62
275.408	264.62
275.64	244.62
275.872	264.62
276.104	239.62
276.335	230.62
276.567	248.62
276.799	256.62
277.031	261.62
277.262	284.62
277.494	293.62
277.726	271.62
277.957	283.62
278.189	264.62
278.421	237.62
278.652	256.62
278.884	246.62
279.115	246.62
279.347	251.62
279.579	259.62
279.81	256.62
280.042	254.62
280.273	272.62
280.505	255.62
280.736	265.62
280.968	254.62
281.199	262.62
281.431	256.62
281.662	257.62
281.894	252.62
282.125	265.62
282.356	266.62
282.588	286.62
282.819	274.62
283.051	266.62
283.282	258.62
283.513	280.62
283.745	262.62
283.976	271.62
284.207	255.62
284.439	272.62
284.67	270.62
284.901	263.62
285.132	264.62
285.364	277.62
285.595	256.62
285.826	264.62
286.057	257.62
286.288	276.62
286.52	280.62
286.751	269.62
286.982	258.62
287.213	271.62
287.444	282.62
287.675	272.62
287.906	277.62
288.138	277.62
288.369	287.62
288.6	280.62
288.831	268.62
289.062	288.62
289.293	279.62
289.524	281.62
289.755	268.62
289.986	269.62
290.217	286.62
290.448	271.62
290.679	285.62
290.91	283.62
291.141	271.62
291.371	273.62
291.602	271.62
291.833	250.62
292.064	276.62
292.295	275.62
292.526	274.62
292.757	280.62
292.987	288.62
293.218	271.62
293.449	265.62
293.68	296.62
293.91	279.62
294.141	270.62
294.372	291.62
294.603	267.62
294.833	274.62
295.064	288.62
295.295	280.62
295.525	287.62
295.756	285.62
295.987	289.62
296.217	287.62
296.448	312.62
296.679	294.62
296.909	280.62
297.14	293.62
297.37	294.62
297.601	300.62
297.831	274.62
298.062	295.62
298.292	316.62
298.523	298.62
298.753	280.62
298.984	287.62
299.214	294.62
299.445	291.62
299.675	308.62
299.905	315.62
300.136	276.62
300.366	286.62
300.597	293.62
300.827	316.62
301.057	299.62
301.288	306.62
301.518	297.62
301.748	315.62
301.979	294.62
302.209	312.62
302.439	315.62
302.669	309.62
302.9	308.62
303.13	310.62
303.36	321.62
303.59	310.62
303.82	332.62
304.051	301.62
304.281	301.62
304.511	312.62
304.741	297.62
304.971	305.62
305.201	322.62
305.431	313.62
305.661	302.62
305.891	328.62
306.121	310.62
306.352	337.62
306.582	323.62
306.812	309.62
307.042	321.62
307.272	316.62
307.502	318.62
307.731	326.62
307.961	318.62
308.191	305.62
308.421	306.62
308.651	314.62
308.881	320.62
309.111	334.62
309.341	325.62
309.571	326.62
309.8	330.62
310.03	335.62
310.26	341.62
310.49	343.62
310.72	346.62
310.949	331.62
311.179	342.62
311.409	349.62
311.639	351.62
311.868	337.62
312.098	341.62
312.328	351.62
312.557	360.62
312.787	367.62
313.017	361.62
313.246	347.62
313.476	360.62
313.706	342.62
313.935	370.62
314.165	354.62
314.394	354.62
314.624	359.62
314.853	359.62
315.083	353.62
315.312	362.62
315.542	329.62
315.771	336.62
316.001	357.62
316.23	376.62
316.46	339.62
316.689	346.62
316.919	359.62
317.148	348.62
317.377	337.62
317.607	348.62
317.836	343.62
318.065	357.62
318.295	359.62
318.524	339.62
318.753	359.62
318.983	356.62
319.212	346.62
319.441	338.62
319.67	361.62
319.9	339.62
320.129	359.62
320.358	350.62
320.587	376.62
320.816	368.62
321.046	352.62
321.275	367.62
321.504	361.62
321.733	375.62
321.962	392.62
322.191	370.62
322.42	391.62
322.649	382.62
322.878	412.62
323.108	400.62
323.337	426.62
323.566	444.62
323.795	438.62
324.024	501.62
324.253	576.62
324.482	761.62
324.71	1128.62
324.939	1544.62
325.168	1327.62
325.397	713.62
325.626	526.62
325.855	476.62
326.084	439.62
326.313	419.62
326.542	438.62
326.77	457.62
326.999	552.62
327.228	714.62
327.457	996.62
327.686	1191.62
327.914	789.62
328.143	553.62
328.372	508.62
328.6	468.62
328.829	452.62
329.058	451.62
329.287	464.62
329.515	460.62
329.744	451.62
329.972	450.62
330.201	461.62
330.43	455.62
330.658	486.62
330.887	487.62
331.115	463.62
331.344	418.62
331.572	412.62
331.801	439.62
332.03	424.62
332.258	415.62
332.486	392.62
332.715	411.62
332.943	412.62
333.172	400.62
333.4	420.62
333.629	412.62
333.857	412.62
334.085	441.62
334.314	440.62
334.542	427.62
334.771	431.62
334.999	419.62
335.227	405.62
335.455	396.62
335.684	406.62
335.912	387.62
336.14	393.62
336.369	412.62
336.597	401.62
336.825	394.62
337.053	393.62
337.281	407.62
337.51	386.62
337.738	402.62
337.966	388.62
338.194	382.62
338.422	394.62
338.65	386.62
338.878	394.62
339.106	376.62
339.334	396.62
339.562	389.62
339.79	393.62
340.018	396.62
340.246	381.62
340.474	404.62
340.702	380.62
340.93	379.62
341.158	399.62
341.386	386.62
341.614	397.62
341.842	392.62
342.07	390.62
342.298	390.62
342.526	377.62
342.754	369.62
342.981	356.62
343.209	393.62
343.437	390.62
343.665	398.62
343.893	397.62
344.12	397.62
344.348	376.62
344.576	400.62
344.804	382.62
345.031	396.62
345.259	402.62
345.487	388.62
345.714	375.62
345.942	378.62
346.17	364.62
346.397	372.62
346.625	380.62
346.853	372.62
347.08	367.62
347.308	367.62
347.535	395.62
347.763	374.62
347.99	366.62
348.218	366.62
348.445	365.62
348.673	373.62
348.9	360.62
349.128	340.62
349.355	365.62
349.583	377.62
349.81	367.62
350.037	346.62
350.265	356.62
350.492	365.62
350.72	350.62
350.947	370.62
351.174	378.62
351.402	367.62
351.629	355.62
351.856	353.62
352.083	361.62
352.311	355.62
352.538	360.62
352.765	363.62
352.992	369.62
353.22	358.62
353.447	359.62
353.674	366.62
353.901	324.62
354.128	359.62
354.355	348.62
354.583	341.62
354.81	349.62
355.037	351.62
355.264	351.62
355.491	334.62
355.718	326.62
355.945	350.62
356.172	345.62
356.399	337.62
356.626	337.62
356.853	328.62
357.08	330.62
357.307	335.62
357.534	341.62
357.761	335.62
357.988	309.62
358.215	344.62
358.441	323.62
358.668	336.62
358.895	353.62
359.122	353.62
359.349	346.62
359.576	350.62
359.802	361.62
360.029	382.62
360.256	384.62
360.483	384.62
360.709	354.62
360.936	349.62
361.163	356.62
361.39	346.62
361.616	361.62
361.843	358.62
362.07	356.62
362.296	344.62
362.523	329.62
362.749	355.62
362.976	319.62
363.203	337.62
363.429	332.62
363.656	339.62
363.882	346.62
364.109	332.62
364.335	344.62
364.562	328.62
364.788	319.62
365.015	344.62
365.241	343.62
365.468	349.62
365.694	330.62
365.92	342.62
366.147	348.62
366.373	361.62
366.599	332.62
366.826	342.62
367.052	336.62
367.278	316.62
367.505	333.62
367.731	336.62
367.957	353.62
368.184	342.62
368.41	356.62
368.636	355.62
368.862	362.62
369.089	350.62
369.315	341.62
369.541	329.62
369.767	360.62
369.993	324.62
370.219	341.62
370.445	334.62
370.672	330.62
370.898	351.62
371.124	338.62
371.35	345.62
371.576	347.62
371.802	354.62
372.028	353.62
372.254	328.62
372.48	334.62
372.706	336.62
372.932	341.62
373.158	336.62
373.384	330.62
373.61	343.62
373.835	352.62
374.061	336.62
374.287	348.62
374.513	336.62
374.739	344.62
374.965	361.62
375.191	345.62
375.416	349.62
375.642	330.62
375.868	342.62
376.094	319.62
376.319	341.62
376.545	355.62
376.771	336.62
376.997	306.62
377.222	330.62
377.448	333.62
377.674	343.62
377.899	324.62
378.125	334.62
378.35	343.62
378.576	345.62
378.802	336.62
379.027	336.62
379.253	346.62
379.478	340.62
379.704	354.62
379.929	338.62
380.155	326.62
380.38	334.62
380.606	337.62
380.831	337.62
381.057	329.62
381.282	323.62
381.507	338.62
381.733	326.62
381.958	334.62
382.184	325.62
382.409	334.62
382.634	341.62
382.86	338.62
383.085	350.62
383.31	343.62
383.535	348.62
383.761	352.62
383.986	343.62
384.211	353.62
384.436	360.62
384.662	353.62
384.887	348.62
385.112	320.62
385.337	357.62
385.562	337.62
385.787	348.62
386.013	349.62
386.238	369.62
386.463	350.62
386.688	357.62
386.913	353.62
387.138	353.62
387.363	350.62
387.588	357.62
387.813	357.62
388.038	350.62
388.263	361.62
388.488	350.62
388.713	356.62
388.938	349.62
389.163	352.62
389.387	361.62
389.612	357.62
389.837	359.62
390.062	341.62
390.287	344.62
390.512	344.62
390.736	345.62
390.961	353.62
391.186	356.62
391.411	358.62
391.636	348.62
391.86	358.62
392.085	342.62
392.31	373.62
392.534	363.62
392.759	344.62
392.984	375.62
393.208	361.62
393.433	364.62
393.658	383.62
393.882	353.62
394.107	348.62
394.331	349.62
394.556	372.62
394.78	344.62
395.005	356.62
395.229	356.62
395.454	367.62
395.678	353.62
395.903	389.62
396.127	375.62
396.352	359.62
396.576	360.62
396.801	373.62
397.025	412.62
397.249	394.62
397.474	364.62
397.698	368.62
397.922	393.62
398.147	398.62
398.371	378.62
398.595	400.62
398.82	387.62
399.044	384.62
399.268	393.62
399.492	443.62
399.717	450.62
399.941	483.62
400.165	471.62
400.389	469.62
400.613	441.62
400.837	409.62
401.062	409.62
401.286	396.62
401.51	402.62
401.734	380.62
401.958	389.62
402.182	395.62
402.406	378.62
402.63	407.62
402.854	408.62
403.078	399.62
403.302	388.62
403.526	412.62
403.75	396.62
403.974	396.62
404.198	418.62
404.422	396.62
404.645	413.62
404.869	388.62
405.093	434.62
405.317	441.62
405.541	473.62
405.765	429.62
405.988	430.62
406.212	425.62
406.436	417.62
406.66	422.62
406.883	420.62
407.107	464.62
407.331	484.62
407.555	512.62
407.778	512.62
408.002	479.62
408.226	448.62
408.449	430.62
408.673	446.62
408.896	472.62
409.12	479.62
409.344	445.62
409.567	418.62
409.791	388.62
410.014	409.62
410.238	425.62
410.461	397.62
410.685	391.62
410.908	412.62
411.132	444.62
411.355	465.62
411.578	456.62
411.802	402.62
412.025	400.62
412.249	392.62
412.472	425.62
412.695	426.62
412.919	444.62
413.142	411.62
413.365	408.62
413.589	383.62
413.812	398.62
414.035	386.62
414.258	380.62
414.482	385.62
414.705	383.62
414.928	356.62
415.151	360.62
415.374	389.62
415.597	369.62
415.821	385.62
416.044	381.62
416.267	376.62
416.49	382.62
416.713	378.62
416.936	384.62
417.159	380.62
417.382	394.62
417.605	383.62
417.828	392.62
418.051	400.62
418.274	390.62
418.497	383.62
418.72	358.62
418.943	389.62
419.166	400.62
419.389	408.62
419.611	412.62
419.834	397.62
420.057	394.62
420.28	405.62
420.503	416.62
420.726	402.62
420.948	422.62
421.171	430.62
421.394	442.62
421.617	400.62
421.839	383.62
422.062	398.62
422.285	395.62
422.507	448.62
422.73	494.62
422.953	472.62
423.175	433.62
423.398	424.62
423.621	396.62
423.843	407.62
424.066	436.62
424.288	419.62
424.511	441.62
424.733	466.62
424.956	522.62
425.178	502.62
425.401	491.62
425.623	525.62
425.846	466.62
426.068	429.62
426.291	429.62
426.513	409.62
426.735	422.62
426.958	448.62
427.18	511.62
427.402	587.62
427.625	671.62
427.847	565.62
428.069	488.62
428.292	438.62
428.514	410.62
428.736	398.62
428.958	410.62
429.181	393.62
429.403	394.62
429.625	397.62
429.847	437.62
430.069	462.62
430.292	453.62
430.514	404.62
430.736	390.62
430.958	393.62
431.18	394.62
431.402	386.62
431.624	362.62
431.846	345.62
432.068	372.62
432.29	376.62
432.512	367.62
432.734	357.62
432.956	372.62
433.178	388.62
433.4	384.62
433.622	392.62
433.844	368.62
434.066	368.62
434.287	359.62
434.509	356.62
434.731	386.62
434.953	378.62
435.175	377.62
435.397	410.62
435.618	417.62
435.84	438.62
436.062	496.62
436.284	568.62
436.505	470.62
436.727	412.62
436.949	400.62
437.17	405.62
437.392	381.62
437.614	389.62
437.835	403.62
438.057	490.62
438.278	586.62
438.5	569.62
438.721	597.62
438.943	560.62
439.165	450.62
439.386	432.62
439.608	433.62
439.829	419.62
440.05	436.62
440.272	438.62
440.493	410.62
440.715	419.62
440.936	398.62
441.158	390.62
441.379	394.62
441.6	412.62
441.822	410.62
442.043	464.62
442.264	502.62
442.486	542.62
442.707	453.62
442.928	447.62
443.149	426.62
443.371	422.62
443.592	466.62
443.813	528.62
444.034	587.62
444.255	481.62
444.476	442.62
444.698	419.62
444.919	412.62
445.14	573.62
445.361	486.62
445.582	446.62
445.803	476.62
446.024	558.62
446.245	578.62
446.466	538.62
446.687	448.62
446.908	428.62
447.129	396.62
447.35	393.62
447.571	400.62
447.792	385.62
448.013	377.62
448.234	412.62
448.455	440.62
448.675	511.62
448.896	598.62
449.117	491.62
449.338	493.62
449.559	542.62
449.779	633.62
450	487.62
450.221	423.62
450.442	382.62
450.662	385.62
450.883	388.62
451.104	381.62
451.324	374.62
451.545	380.62
451.766	367.62
451.986	357.62
452.207	342.62
452.428	352.62
452.648	346.62
452.869	331.62
453.089	350.62
453.31	366.62
453.53	344.62
453.751	345.62
453.971	349.62
454.192	368.62
454.412	351.62
454.633	338.62
454.853	337.62
455.073	356.62
455.294	365.62
455.514	392.62
455.734	393.62
455.955	367.62
456.175	327.62
456.395	345.62
456.616	324.62
456.836	331.62
457.056	313.62
457.276	310.62
457.497	330.62
457.717	312.62
457.937	337.62
458.157	327.62
458.377	323.62
458.598	343.62
458.818	379.62
459.038	438.62
459.258	429.62
459.478	402.62
459.698	363.62
459.918	361.62
460.138	362.62
460.358	376.62
460.578	338.62
460.798	367.62
461.018	377.62
461.238	356.62
461.458	375.62
461.678	375.62
461.898	350.62
462.118	352.62
462.338	362.62
462.558	364.62
462.777	392.62
462.997	374.62
463.217	397.62
463.437	408.62
463.657	384.62
463.876	387.62
464.096	383.62
464.316	365.62
464.536	364.62
464.755	387.62
464.975	410.62
465.195	397.62
465.414	445.62
465.634	388.62
465.854	376.62
466.073	382.62
466.293	355.62
466.512	346.62
466.732	341.62
466.951	351.62
467.171	341.62
467.391	353.62
467.61	357.62
467.829	359.62
468.049	352.62
468.268	360.62
468.488	358.62
468.707	335.62
468.927	364.62
469.146	344.62
469.365	335.62
469.585	352.62
469.804	374.62
470.023	361.62
470.243	356.62
470.462	359.62
470.681	364.62
470.901	374.62
471.12	371.62
471.339	352.62
471.558	355.62
471.777	362.62
471.997	356.62
472.216	380.62
472.435	374.62
472.654	357.62
472.873	356.62
473.092	348.62
473.311	355.62
473.53	348.62
473.749	343.62
473.968	403.62
474.187	462.62
474.406	475.62
474.625	386.62
474.844	397.62
475.063	345.62
475.282	370.62
475.501	361.62
475.72	365.62
475.939	350.62
476.158	351.62
476.377	381.62
476.596	363.62
476.814	380.62
477.033	366.62
477.252	379.62
477.471	398.62
477.69	389.62
477.908	388.62
478.127	393.62
478.346	386.62
478.564	404.62
478.783	385.62
479.002	377.62
479.22	387.62
479.439	406.62
479.658	396.62
479.876	416.62
480.095	412.62
480.313	446.62
480.532	414.62
480.751	444.62
480.969	432.62
481.188	429.62
481.406	452.62
481.624	414.62
481.843	426.62
482.061	418.62
482.28	441.62
482.498	411.62
482.717	412.62
482.935	393.62
483.153	399.62
483.372	430.62
483.59	421.62
483.808	440.62
484.027	427.62
484.245	418.62
484.463	429.62
484.681	444.62
484.9	436.62
485.118	414.62
485.336	424.62
485.554	406.62
485.772	440.62
485.99	419.62
486.209	422.62
486.427	410.62
486.645	423.62
486.863	420.62
487.081	438.62
487.299	440.62
487.517	461.62
487.735	444.62
487.953	433.62
488.171	454.62
488.389	453.62
488.607	462.62
488.825	437.62
489.043	436.62
489.261	440.62
489.479	434.62
489.696	452.62
489.914	469.62
490.132	469.62
490.35	454.62
490.568	453.62
490.786	467.62
491.003	487.62
491.221	470.62
491.439	486.62
491.657	485.62
491.874	500.62
492.092	506.62
492.31	514.62
492.527	517.62
492.745	518.62
492.963	505.62
493.18	517.62
493.398	508.62
493.615	505.62
493.833	511.62
494.05	526.62
494.268	521.62
494.485	542.62
494.703	508.62
494.92	516.62
495.138	525.62
495.355	508.62
495.573	521.62
495.79	529.62
496.008	527.62
496.225	522.62
496.442	513.62
496.66	522.62
496.877	512.62
497.094	527.62
497.312	522.62
497.529	544.62
497.746	541.62
497.963	554.62
498.181	552.62
498.398	544.62
498.615	552.62
498.832	558.62
499.049	570.62
499.267	580.62
499.484	604.62
499.701	621.62
499.918	646.62
500.135	680.62
500.352	694.62
500.569	712.62
500.786	714.62
501.003	706.62
501.22	676.62
501.437	680.62
501.654	630.62
501.871	639.62
502.088	620.62
