Data from 1971.PennyLincolnUp.Lamp.En5.5.200Scan.071719.P1._HRD10591_15-19-52-841.txt Node
Date: Thu Jul 18 15:19:52 EDT 2019
User: cochatt
Spectrometer: HR+D1059
Trigger mode: 1
Integration Time (sec): 1.000000E-1
Scans to average: 1
Electric dark correction enabled: true
Nonlinearity correction enabled: false
Boxcar width: 0
XAxis mode: Wavelengths
Number of Pixels in Spectrum: 2048
>>>>>Begin Spectral Data<<<<<
223.165	-21.5
223.4	-21.5
223.635	-21.5
223.869	4.5
224.104	-7.5
224.338	-20.5
224.573	-6.5
224.808	-11.5
225.042	2.5
225.277	3.5
225.511	-5.5
225.746	-6.5
225.98	-12.5
226.215	1.5
226.449	8.5
226.683	19.5
226.918	25.5
227.152	26.5
227.387	30.5
227.621	43.5
227.856	45.5
228.09	37.5
228.324	67.5
228.559	52.5
228.793	62.5
229.027	88.5
229.262	102.5
229.496	105.5
229.73	129.5
229.964	162.5
230.199	123.5
230.433	105.5
230.667	99.5
230.901	113.5
231.136	120.5
231.37	109.5
231.604	118.5
231.838	118.5
232.072	98.5
232.306	116.5
232.541	122.5
232.775	118.5
233.009	107.5
233.243	113.5
233.477	120.5
233.711	111.5
233.945	122.5
234.179	124.5
234.413	112.5
234.647	112.5
234.881	130.5
235.115	116.5
235.349	122.5
235.583	123.5
235.817	122.5
236.051	141.5
236.285	118.5
236.519	128.5
236.753	128.5
236.987	142.5
237.221	174.5
237.455	226.5
237.689	183.5
237.922	142.5
238.156	137.5
238.39	132.5
238.624	123.5
238.858	134.5
239.091	116.5
239.325	124.5
239.559	125.5
239.793	138.5
240.027	140.5
240.26	146.5
240.494	165.5
240.728	157.5
240.961	138.5
241.195	156.5
241.429	144.5
241.662	153.5
241.896	130.5
242.13	138.5
242.363	134.5
242.597	141.5
242.83	141.5
243.064	139.5
243.298	139.5
243.531	147.5
243.765	144.5
243.998	132.5
244.232	152.5
244.465	155.5
244.699	144.5
244.932	153.5
245.166	150.5
245.399	138.5
245.633	143.5
245.866	146.5
246.099	146.5
246.333	164.5
246.566	156.5
246.8	149.5
247.033	170.5
247.266	156.5
247.5	154.5
247.733	160.5
247.966	185.5
248.2	178.5
248.433	178.5
248.666	183.5
248.899	184.5
249.133	197.5
249.366	218.5
249.599	205.5
249.832	186.5
250.066	184.5
250.299	201.5
250.532	208.5
250.765	236.5
250.998	215.5
251.231	226.5
251.465	228.5
251.698	221.5
251.931	207.5
252.164	208.5
252.397	193.5
252.63	218.5
252.863	194.5
253.096	218.5
253.329	227.5
253.562	233.5
253.795	210.5
254.028	229.5
254.261	220.5
254.494	231.5
254.727	252.5
254.96	272.5
255.193	263.5
255.426	257.5
255.659	233.5
255.892	236.5
256.124	244.5
256.357	229.5
256.59	220.5
256.823	223.5
257.056	218.5
257.289	217.5
257.521	224.5
257.754	225.5
257.987	218.5
258.22	220.5
258.452	213.5
258.685	211.5
258.918	225.5
259.151	215.5
259.383	220.5
259.616	229.5
259.849	256.5
260.081	246.5
260.314	269.5
260.547	268.5
260.779	266.5
261.012	240.5
261.244	232.5
261.477	246.5
261.71	223.5
261.942	250.5
262.175	244.5
262.407	229.5
262.64	210.5
262.872	214.5
263.105	213.5
263.337	226.5
263.57	225.5
263.802	208.5
264.035	236.5
264.267	235.5
264.499	229.5
264.732	232.5
264.964	227.5
265.197	225.5
265.429	215.5
265.661	230.5
265.894	224.5
266.126	226.5
266.358	223.5
266.591	224.5
266.823	232.5
267.055	236.5
267.287	248.5
267.52	243.5
267.752	247.5
267.984	221.5
268.216	247.5
268.448	239.5
268.681	270.5
268.913	273.5
269.145	277.5
269.377	283.5
269.609	298.5
269.841	284.5
270.073	283.5
270.306	300.5
270.538	311.5
270.77	327.5
271.002	310.5
271.234	305.5
271.466	317.5
271.698	331.5
271.93	314.5
272.162	342.5
272.394	329.5
272.626	323.5
272.858	304.5
273.09	289.5
273.322	296.5
273.553	288.5
273.785	263.5
274.017	261.5
274.249	273.5
274.481	265.5
274.713	250.5
274.945	277.5
275.176	281.5
275.408	296.5
275.64	284.5
275.872	272.5
276.104	286.5
276.335	289.5
276.567	290.5
276.799	319.5
277.031	297.5
277.262	321.5
277.494	316.5
277.726	312.5
277.957	312.5
278.189	300.5
278.421	285.5
278.652	280.5
278.884	275.5
279.115	281.5
279.347	284.5
279.579	296.5
279.81	292.5
280.042	286.5
280.273	285.5
280.505	285.5
280.736	280.5
280.968	274.5
281.199	298.5
281.431	300.5
281.662	284.5
281.894	282.5
282.125	293.5
282.356	300.5
282.588	300.5
282.819	319.5
283.051	291.5
283.282	273.5
283.513	280.5
283.745	300.5
283.976	299.5
284.207	290.5
284.439	303.5
284.67	316.5
284.901	285.5
285.132	298.5
285.364	303.5
285.595	304.5
285.826	290.5
286.057	288.5
286.288	295.5
286.52	293.5
286.751	309.5
286.982	287.5
287.213	312.5
287.444	297.5
287.675	296.5
287.906	313.5
288.138	323.5
288.369	316.5
288.6	303.5
288.831	300.5
289.062	292.5
289.293	298.5
289.524	314.5
289.755	318.5
289.986	302.5
290.217	319.5
290.448	299.5
290.679	322.5
290.91	305.5
291.141	295.5
291.371	309.5
291.602	274.5
291.833	297.5
292.064	289.5
292.295	287.5
292.526	318.5
292.757	294.5
292.987	289.5
293.218	310.5
293.449	322.5
293.68	298.5
293.91	316.5
294.141	303.5
294.372	293.5
294.603	302.5
294.833	309.5
295.064	304.5
295.295	312.5
295.525	320.5
295.756	312.5
295.987	321.5
296.217	308.5
296.448	337.5
296.679	316.5
296.909	307.5
297.14	295.5
297.37	321.5
297.601	304.5
297.831	315.5
298.062	324.5
298.292	292.5
298.523	312.5
298.753	305.5
298.984	322.5
299.214	330.5
299.445	340.5
299.675	333.5
299.905	322.5
300.136	326.5
300.366	324.5
300.597	327.5
300.827	314.5
301.057	330.5
301.288	351.5
301.518	322.5
301.748	327.5
301.979	344.5
302.209	337.5
302.439	344.5
302.669	340.5
302.9	341.5
303.13	329.5
303.36	347.5
303.59	341.5
303.82	328.5
304.051	334.5
304.281	337.5
304.511	329.5
304.741	332.5
304.971	356.5
305.201	337.5
305.431	336.5
305.661	353.5
305.891	345.5
306.121	324.5
306.352	357.5
306.582	340.5
306.812	350.5
307.042	320.5
307.272	351.5
307.502	346.5
307.731	358.5
307.961	353.5
308.191	350.5
308.421	342.5
308.651	341.5
308.881	349.5
309.111	352.5
309.341	363.5
309.571	364.5
309.8	374.5
310.03	384.5
310.26	410.5
310.49	396.5
310.72	388.5
310.949	405.5
311.179	408.5
311.409	388.5
311.639	392.5
311.868	395.5
312.098	381.5
312.328	391.5
312.557	406.5
312.787	391.5
313.017	426.5
313.246	413.5
313.476	394.5
313.706	380.5
313.935	391.5
314.165	408.5
314.394	408.5
314.624	388.5
314.853	394.5
315.083	390.5
315.312	377.5
315.542	377.5
315.771	379.5
316.001	384.5
316.23	392.5
316.46	384.5
316.689	365.5
316.919	410.5
317.148	390.5
317.377	405.5
317.607	383.5
317.836	409.5
318.065	404.5
318.295	387.5
318.524	380.5
318.753	384.5
318.983	386.5
319.212	393.5
319.441	384.5
319.67	406.5
319.9	388.5
320.129	388.5
320.358	406.5
320.587	388.5
320.816	397.5
321.046	413.5
321.275	411.5
321.504	419.5
321.733	393.5
321.962	430.5
322.191	431.5
322.42	450.5
322.649	450.5
322.878	437.5
323.108	473.5
323.337	481.5
323.566	507.5
323.795	521.5
324.024	574.5
324.253	721.5
324.482	979.5
324.71	1483.5
324.939	1964.5
325.168	1628.5
325.397	887.5
325.626	641.5
325.855	545.5
326.084	514.5
326.313	532.5
326.542	492.5
326.77	570.5
326.999	652.5
327.228	889.5
327.457	1242.5
327.686	1468.5
327.914	984.5
328.143	694.5
328.372	618.5
328.6	552.5
328.829	565.5
329.058	545.5
329.287	566.5
329.515	534.5
329.744	512.5
329.972	492.5
330.201	540.5
330.43	550.5
330.658	589.5
330.887	588.5
331.115	570.5
331.344	503.5
331.572	488.5
331.801	489.5
332.03	491.5
332.258	466.5
332.486	470.5
332.715	459.5
332.943	443.5
333.172	460.5
333.4	454.5
333.629	437.5
333.857	465.5
334.085	490.5
334.314	483.5
334.542	520.5
334.771	540.5
334.999	487.5
335.227	470.5
335.455	469.5
335.684	458.5
335.912	461.5
336.14	449.5
336.369	449.5
336.597	447.5
336.825	446.5
337.053	444.5
337.281	446.5
337.51	429.5
337.738	424.5
337.966	433.5
338.194	462.5
338.422	452.5
338.65	451.5
338.878	451.5
339.106	434.5
339.334	408.5
339.562	421.5
339.79	415.5
340.018	430.5
340.246	420.5
340.474	444.5
340.702	438.5
340.93	424.5
341.158	425.5
341.386	440.5
341.614	433.5
341.842	413.5
342.07	428.5
342.298	439.5
342.526	404.5
342.754	400.5
342.981	412.5
343.209	401.5
343.437	427.5
343.665	422.5
343.893	438.5
344.12	428.5
344.348	402.5
344.576	437.5
344.804	444.5
345.031	449.5
345.259	454.5
345.487	452.5
345.714	408.5
345.942	413.5
346.17	407.5
346.397	420.5
346.625	410.5
346.853	403.5
347.08	393.5
347.308	406.5
347.535	406.5
347.763	407.5
347.99	415.5
348.218	409.5
348.445	418.5
348.673	426.5
348.9	400.5
349.128	396.5
349.355	394.5
349.583	409.5
349.81	388.5
350.037	400.5
350.265	397.5
350.492	396.5
350.72	402.5
350.947	416.5
351.174	407.5
351.402	424.5
351.629	414.5
351.856	418.5
352.083	411.5
352.311	410.5
352.538	400.5
352.765	424.5
352.992	401.5
353.22	418.5
353.447	406.5
353.674	390.5
353.901	385.5
354.128	385.5
354.355	383.5
354.583	382.5
354.81	369.5
355.037	386.5
355.264	390.5
355.491	381.5
355.718	378.5
355.945	363.5
356.172	372.5
356.399	370.5
356.626	364.5
356.853	389.5
357.08	372.5
357.307	392.5
357.534	391.5
357.761	347.5
357.988	367.5
358.215	372.5
358.441	384.5
358.668	366.5
358.895	380.5
359.122	364.5
359.349	381.5
359.576	405.5
359.802	414.5
360.029	421.5
360.256	436.5
360.483	422.5
360.709	408.5
360.936	397.5
361.163	397.5
361.39	392.5
361.616	400.5
361.843	381.5
362.07	381.5
362.296	392.5
362.523	389.5
362.749	403.5
362.976	394.5
363.203	395.5
363.429	363.5
363.656	368.5
363.882	382.5
364.109	374.5
364.335	380.5
364.562	369.5
364.788	367.5
365.015	381.5
365.241	374.5
365.468	378.5
365.694	374.5
365.92	386.5
366.147	377.5
366.373	373.5
366.599	358.5
366.826	361.5
367.052	400.5
367.278	349.5
367.505	392.5
367.731	376.5
367.957	369.5
368.184	364.5
368.41	376.5
368.636	379.5
368.862	389.5
369.089	376.5
369.315	366.5
369.541	376.5
369.767	386.5
369.993	377.5
370.219	360.5
370.445	372.5
370.672	365.5
370.898	348.5
371.124	381.5
371.35	374.5
371.576	383.5
371.802	373.5
372.028	377.5
372.254	349.5
372.48	368.5
372.706	372.5
372.932	366.5
373.158	350.5
373.384	366.5
373.61	359.5
373.835	388.5
374.061	381.5
374.287	385.5
374.513	378.5
374.739	370.5
374.965	366.5
375.191	362.5
375.416	374.5
375.642	367.5
375.868	381.5
376.094	369.5
376.319	364.5
376.545	376.5
376.771	361.5
376.997	354.5
377.222	364.5
377.448	351.5
377.674	368.5
377.899	357.5
378.125	355.5
378.35	364.5
378.576	373.5
378.802	346.5
379.027	361.5
379.253	358.5
379.478	349.5
379.704	369.5
379.929	358.5
380.155	355.5
380.38	356.5
380.606	351.5
380.831	363.5
381.057	365.5
381.282	377.5
381.507	348.5
381.733	372.5
381.958	366.5
382.184	364.5
382.409	364.5
382.634	357.5
382.86	361.5
383.085	366.5
383.31	354.5
383.535	377.5
383.761	375.5
383.986	373.5
384.211	373.5
384.436	382.5
384.662	355.5
384.887	369.5
385.112	388.5
385.337	372.5
385.562	385.5
385.787	395.5
386.013	402.5
386.238	383.5
386.463	389.5
386.688	380.5
386.913	399.5
387.138	377.5
387.363	368.5
387.588	396.5
387.813	380.5
388.038	373.5
388.263	374.5
388.488	393.5
388.713	378.5
388.938	407.5
389.163	396.5
389.387	400.5
389.612	364.5
389.837	380.5
390.062	372.5
390.287	384.5
390.512	390.5
390.736	382.5
390.961	398.5
391.186	395.5
391.411	382.5
391.636	380.5
391.86	396.5
392.085	392.5
392.31	398.5
392.534	385.5
392.759	383.5
392.984	398.5
393.208	367.5
393.433	397.5
393.658	385.5
393.882	373.5
394.107	383.5
394.331	385.5
394.556	388.5
394.78	378.5
395.005	376.5
395.229	383.5
395.454	381.5
395.678	411.5
395.903	389.5
396.127	417.5
396.352	408.5
396.576	390.5
396.801	374.5
397.025	408.5
397.249	387.5
397.474	402.5
397.698	408.5
397.922	401.5
398.147	430.5
398.371	430.5
398.595	408.5
398.82	418.5
399.044	432.5
399.268	440.5
399.492	449.5
399.717	498.5
399.941	498.5
400.165	526.5
400.389	530.5
400.613	495.5
400.837	466.5
401.062	455.5
401.286	433.5
401.51	426.5
401.734	409.5
401.958	416.5
402.182	428.5
402.406	427.5
402.63	437.5
402.854	432.5
403.078	420.5
403.302	445.5
403.526	436.5
403.75	431.5
403.974	423.5
404.198	423.5
404.422	442.5
404.645	424.5
404.869	432.5
405.093	458.5
405.317	497.5
405.541	496.5
405.765	477.5
405.988	454.5
406.212	443.5
406.436	457.5
406.66	489.5
406.883	470.5
407.107	503.5
407.331	532.5
407.555	578.5
407.778	552.5
408.002	518.5
408.226	486.5
408.449	485.5
408.673	490.5
408.896	512.5
409.12	529.5
409.344	512.5
409.567	477.5
409.791	460.5
410.014	439.5
410.238	420.5
410.461	439.5
410.685	444.5
410.908	472.5
411.132	487.5
411.355	504.5
411.578	481.5
411.802	460.5
412.025	445.5
412.249	442.5
412.472	452.5
412.695	473.5
412.919	482.5
413.142	457.5
413.365	453.5
413.589	430.5
413.812	419.5
414.035	420.5
414.258	411.5
414.482	403.5
414.705	421.5
414.928	401.5
415.151	420.5
415.374	406.5
415.597	409.5
415.821	402.5
416.044	414.5
416.267	411.5
416.49	411.5
416.713	413.5
416.936	393.5
417.159	392.5
417.382	401.5
417.605	424.5
417.828	411.5
418.051	436.5
418.274	413.5
418.497	419.5
418.72	408.5
418.943	419.5
419.166	428.5
419.389	444.5
419.611	453.5
419.834	421.5
420.057	430.5
420.28	424.5
420.503	437.5
420.726	406.5
420.948	428.5
421.171	456.5
421.394	481.5
421.617	455.5
421.839	419.5
422.062	428.5
422.285	462.5
422.507	495.5
422.73	558.5
422.953	508.5
423.175	462.5
423.398	472.5
423.621	474.5
423.843	463.5
424.066	470.5
424.288	456.5
424.511	481.5
424.733	527.5
424.956	559.5
425.178	544.5
425.401	553.5
425.623	572.5
425.846	489.5
426.068	471.5
426.291	459.5
426.513	470.5
426.735	462.5
426.958	487.5
427.18	581.5
427.402	680.5
427.625	752.5
427.847	651.5
428.069	556.5
428.292	485.5
428.514	468.5
428.736	435.5
428.958	438.5
429.181	432.5
429.403	424.5
429.625	441.5
429.847	462.5
430.069	530.5
430.292	521.5
430.514	458.5
430.736	406.5
430.958	418.5
431.18	409.5
431.402	402.5
431.624	395.5
431.846	402.5
432.068	402.5
432.29	411.5
432.512	401.5
432.734	421.5
432.956	408.5
433.178	417.5
433.4	417.5
433.622	393.5
433.844	401.5
434.066	401.5
434.287	392.5
434.509	403.5
434.731	415.5
434.953	439.5
435.175	421.5
435.397	457.5
435.618	457.5
435.84	502.5
436.062	556.5
436.284	614.5
436.505	506.5
436.727	474.5
436.949	450.5
437.17	424.5
437.392	422.5
437.614	433.5
437.835	458.5
438.057	528.5
438.278	637.5
438.5	610.5
438.721	674.5
438.943	641.5
439.165	510.5
439.386	480.5
439.608	470.5
439.829	470.5
440.05	509.5
440.272	522.5
440.493	512.5
440.715	453.5
440.936	436.5
441.158	435.5
441.379	433.5
441.6	464.5
441.822	451.5
442.043	491.5
442.264	550.5
442.486	551.5
442.707	504.5
442.928	469.5
443.149	461.5
443.371	514.5
443.592	524.5
443.813	598.5
444.034	645.5
444.255	558.5
444.476	493.5
444.698	456.5
444.919	464.5
445.14	557.5
445.361	506.5
445.582	504.5
445.803	521.5
446.024	623.5
446.245	647.5
446.466	577.5
446.687	500.5
446.908	457.5
447.129	446.5
447.35	436.5
447.571	434.5
447.792	426.5
448.013	423.5
448.234	446.5
448.455	503.5
448.675	597.5
448.896	651.5
449.117	572.5
449.338	555.5
449.559	623.5
449.779	685.5
450	552.5
450.221	463.5
450.442	444.5
450.662	430.5
450.883	414.5
451.104	438.5
451.324	424.5
451.545	404.5
451.766	391.5
451.986	385.5
452.207	378.5
452.428	366.5
452.648	372.5
452.869	365.5
453.089	394.5
453.31	436.5
453.53	346.5
453.751	365.5
453.971	388.5
454.192	408.5
454.412	393.5
454.633	381.5
454.853	381.5
455.073	388.5
455.294	395.5
455.514	442.5
455.734	440.5
455.955	395.5
456.175	353.5
456.395	362.5
456.616	351.5
456.836	345.5
457.056	359.5
457.276	356.5
457.497	358.5
457.717	335.5
457.937	352.5
458.157	374.5
458.377	380.5
458.598	391.5
458.818	451.5
459.038	473.5
459.258	524.5
459.478	426.5
459.698	403.5
459.918	381.5
460.138	381.5
460.358	402.5
460.578	396.5
460.798	410.5
461.018	413.5
461.238	382.5
461.458	397.5
461.678	372.5
461.898	397.5
462.118	394.5
462.338	413.5
462.558	416.5
462.777	408.5
462.997	399.5
463.217	427.5
463.437	430.5
463.657	406.5
463.876	438.5
464.096	400.5
464.316	406.5
464.536	424.5
464.755	422.5
464.975	432.5
465.195	452.5
465.414	512.5
465.634	465.5
465.854	416.5
466.073	420.5
466.293	407.5
466.512	385.5
466.732	395.5
466.951	401.5
467.171	377.5
467.391	376.5
467.61	392.5
467.829	388.5
468.049	390.5
468.268	399.5
468.488	395.5
468.707	378.5
468.927	376.5
469.146	389.5
469.365	380.5
469.585	378.5
469.804	366.5
470.023	378.5
470.243	396.5
470.462	401.5
470.681	405.5
470.901	403.5
471.12	403.5
471.339	379.5
471.558	409.5
471.777	382.5
471.997	399.5
472.216	384.5
472.435	406.5
472.654	408.5
472.873	392.5
473.092	374.5
473.311	379.5
473.53	408.5
473.749	415.5
473.968	418.5
474.187	521.5
474.406	531.5
474.625	453.5
474.844	423.5
475.063	415.5
475.282	397.5
475.501	401.5
475.72	406.5
475.939	400.5
476.158	386.5
476.377	385.5
476.596	397.5
476.814	400.5
477.033	392.5
477.252	423.5
477.471	421.5
477.69	436.5
477.908	423.5
478.127	399.5
478.346	437.5
478.564	429.5
478.783	424.5
479.002	446.5
479.22	438.5
479.439	463.5
479.658	446.5
479.876	453.5
480.095	438.5
480.313	484.5
480.532	463.5
480.751	475.5
480.969	458.5
481.188	494.5
481.406	525.5
481.624	474.5
481.843	460.5
482.061	456.5
482.28	459.5
482.498	452.5
482.717	464.5
482.935	456.5
483.153	461.5
483.372	455.5
483.59	454.5
483.808	466.5
484.027	441.5
484.245	461.5
484.463	449.5
484.681	465.5
484.9	487.5
485.118	454.5
485.336	460.5
485.554	456.5
485.772	485.5
485.99	481.5
486.209	463.5
486.427	447.5
486.645	464.5
486.863	501.5
487.081	490.5
487.299	458.5
487.517	475.5
487.735	465.5
487.953	478.5
488.171	497.5
488.389	505.5
488.607	489.5
488.825	487.5
489.043	483.5
489.261	483.5
489.479	483.5
489.696	519.5
489.914	489.5
490.132	496.5
490.35	508.5
490.568	504.5
490.786	531.5
491.003	527.5
491.221	524.5
491.439	544.5
491.657	554.5
491.874	561.5
492.092	551.5
492.31	582.5
492.527	557.5
492.745	554.5
492.963	575.5
493.18	572.5
493.398	583.5
493.615	552.5
493.833	587.5
494.05	585.5
494.268	567.5
494.485	566.5
494.703	556.5
494.92	573.5
495.138	560.5
495.355	584.5
495.573	584.5
495.79	586.5
496.008	582.5
496.225	554.5
496.442	555.5
496.66	577.5
496.877	596.5
497.094	571.5
497.312	595.5
497.529	584.5
497.746	605.5
497.963	610.5
498.181	625.5
498.398	607.5
498.615	636.5
498.832	625.5
499.049	624.5
499.267	656.5
499.484	666.5
499.701	696.5
499.918	694.5
500.135	740.5
500.352	759.5
500.569	763.5
500.786	767.5
501.003	763.5
501.22	736.5
501.437	735.5
501.654	693.5
501.871	704.5
502.088	682.5
502.305	662.5
502.522	669.5
502.739	644.5
502.956	591.5
503.172	596.5
503.389	572.5
503.606	598.5
503.823	594.5
504.04	565.5
504.256	572.5
504.473	584.5
504.69	583.5
504.907	564.5
505.123	547.5
505.34	577.5
505.557	534.5
505.773	552.5
505.99	550.5
506.207	570.5
506.423	562.5
506.64	536.5
506.856	525.5
507.073	544.5
507.289	526.5
507.506	524.5
507.722	547.5
507.939	552.5
508.155	533.5
508.372	532.5
508.588	530.5
508.805	502.5
509.021	505.5
509.238	514.5
509.454	548.5
509.67	528.5
509.887	523.5
510.103	535.5
510.319	534.5
510.536	580.5
510.752	913.5
510.968	722.5
511.184	521.5
511.401	497.5
511.617	501.5
511.833	475.5
512.049	492.5
512.265	508.5
512.481	473.5
512.698	507.5
512.914	503.5
513.13	478.5
513.346	470.5
513.562	482.5
513.778	478.5
513.994	484.5
514.21	497.5
514.426	533.5
514.642	540.5
514.858	553.5
515.074	579.5
515.29	660.5
515.506	974.5
515.721	789.5
515.937	574.5
516.153	529.5
516.369	513.5
516.585	512.5
516.801	513.5
517.016	514.5
517.232	497.5
517.448	493.5
517.664	509.5
517.879	518.5
518.095	502.5
518.311	491.5
518.527	486.5
518.742	488.5
518.958	489.5
519.173	477.5
519.389	510.5
519.605	476.5
519.82	481.5
520.036	513.5
