Data from 1971.PennyLincolnUp.Lamp.En5.5.200Scan.071719.P1.Scan 2. Changed Angle._HRD10591_15-22-49-841.txt Node
Date: Thu Jul 18 15:22:49 EDT 2019
User: cochatt
Spectrometer: HR+D1059
Trigger mode: 1
Integration Time (sec): 1.000000E-1
Scans to average: 1
Electric dark correction enabled: true
Nonlinearity correction enabled: false
Boxcar width: 0
XAxis mode: Wavelengths
Number of Pixels in Spectrum: 2048
>>>>>Begin Spectral Data<<<<<
223.165	-19.06
223.4	-19.06
223.635	-19.06
223.869	-21.06
224.104	-19.06
224.338	-10.06
224.573	-10.06
224.808	-14.06
225.042	-13.06
225.277	-1.06
225.511	-2.06
225.746	6.94
225.98	3.94
226.215	1.94
226.449	19.94
226.683	21.94
226.918	29.94
227.152	24.94
227.387	37.94
227.621	34.94
227.856	39.94
228.09	43.94
228.324	41.94
228.559	47.94
228.793	67.94
229.027	91.94
229.262	94.94
229.496	108.94
229.73	131.94
229.964	163.94
230.199	129.94
230.433	116.94
230.667	114.94
230.901	126.94
231.136	106.94
231.37	119.94
231.604	110.94
231.838	106.94
232.072	110.94
232.306	126.94
232.541	95.94
232.775	115.94
233.009	119.94
233.243	121.94
233.477	111.94
233.711	100.94
233.945	126.94
234.179	121.94
234.413	105.94
234.647	113.94
234.881	119.94
235.115	118.94
235.349	111.94
235.583	117.94
235.817	118.94
236.051	123.94
236.285	124.94
236.519	119.94
236.753	131.94
236.987	143.94
237.221	166.94
237.455	222.94
237.689	196.94
237.922	150.94
238.156	126.94
238.39	127.94
238.624	127.94
238.858	109.94
239.091	133.94
239.325	135.94
239.559	119.94
239.793	125.94
240.027	133.94
240.26	145.94
240.494	143.94
240.728	149.94
240.961	152.94
241.195	141.94
241.429	125.94
241.662	129.94
241.896	127.94
242.13	128.94
242.363	132.94
242.597	131.94
242.83	135.94
243.064	122.94
243.298	127.94
243.531	144.94
243.765	143.94
243.998	135.94
244.232	155.94
244.465	146.94
244.699	149.94
244.932	146.94
245.166	148.94
245.399	140.94
245.633	134.94
245.866	149.94
246.099	142.94
246.333	150.94
246.566	130.94
246.8	144.94
247.033	163.94
247.266	170.94
247.5	165.94
247.733	177.94
247.966	177.94
248.2	164.94
248.433	165.94
248.666	169.94
248.899	186.94
249.133	207.94
249.366	197.94
249.599	195.94
249.832	199.94
250.066	206.94
250.299	186.94
250.532	198.94
250.765	222.94
250.998	207.94
251.231	223.94
251.465	233.94
251.698	196.94
251.931	213.94
252.164	201.94
252.397	191.94
252.63	206.94
252.863	221.94
253.096	223.94
253.329	241.94
253.562	214.94
253.795	195.94
254.028	208.94
254.261	231.94
254.494	211.94
254.727	238.94
254.96	286.94
255.193	281.94
255.426	239.94
255.659	239.94
255.892	211.94
256.124	216.94
256.357	221.94
256.59	212.94
256.823	213.94
257.056	223.94
257.289	210.94
257.521	213.94
257.754	215.94
257.987	202.94
258.22	195.94
258.452	202.94
258.685	198.94
258.918	202.94
259.151	207.94
259.383	200.94
259.616	205.94
259.849	196.94
260.081	230.94
260.314	238.94
260.547	249.94
260.779	234.94
261.012	225.94
261.244	223.94
261.477	218.94
261.71	217.94
261.942	212.94
262.175	246.94
262.407	228.94
262.64	217.94
262.872	185.94
263.105	202.94
263.337	196.94
263.57	212.94
263.802	219.94
264.035	188.94
264.267	203.94
264.499	206.94
264.732	222.94
264.964	199.94
265.197	197.94
265.429	200.94
265.661	197.94
265.894	200.94
266.126	200.94
266.358	207.94
266.591	203.94
266.823	205.94
267.055	211.94
267.287	211.94
267.52	212.94
267.752	202.94
267.984	205.94
268.216	211.94
268.448	214.94
268.681	221.94
268.913	231.94
269.145	246.94
269.377	265.94
269.609	258.94
269.841	248.94
270.073	267.94
270.306	266.94
270.538	278.94
270.77	305.94
271.002	277.94
271.234	272.94
271.466	285.94
271.698	291.94
271.93	291.94
272.162	299.94
272.394	308.94
272.626	291.94
272.858	270.94
273.09	277.94
273.322	248.94
273.553	248.94
273.785	229.94
274.017	253.94
274.249	234.94
274.481	239.94
274.713	228.94
274.945	254.94
275.176	257.94
275.408	229.94
275.64	241.94
275.872	235.94
276.104	263.94
276.335	237.94
276.567	249.94
276.799	251.94
277.031	266.94
277.262	292.94
277.494	293.94
277.726	263.94
277.957	263.94
278.189	269.94
278.421	247.94
278.652	246.94
278.884	239.94
279.115	241.94
279.347	246.94
279.579	237.94
279.81	247.94
280.042	247.94
280.273	244.94
280.505	257.94
280.736	253.94
280.968	235.94
281.199	238.94
281.431	228.94
281.662	229.94
281.894	219.94
282.125	255.94
282.356	249.94
282.588	281.94
282.819	283.94
283.051	250.94
283.282	248.94
283.513	239.94
283.745	244.94
283.976	257.94
284.207	242.94
284.439	249.94
284.67	241.94
284.901	249.94
285.132	242.94
285.364	246.94
285.595	245.94
285.826	238.94
286.057	241.94
286.288	242.94
286.52	225.94
286.751	230.94
286.982	234.94
287.213	257.94
287.444	269.94
287.675	262.94
287.906	244.94
288.138	263.94
288.369	273.94
288.6	254.94
288.831	279.94
289.062	271.94
289.293	262.94
289.524	261.94
289.755	248.94
289.986	251.94
290.217	244.94
290.448	257.94
290.679	265.94
290.91	253.94
291.141	266.94
291.371	252.94
291.602	249.94
291.833	243.94
292.064	255.94
292.295	269.94
292.526	247.94
292.757	273.94
292.987	251.94
293.218	244.94
293.449	261.94
293.68	257.94
293.91	250.94
294.141	261.94
294.372	251.94
294.603	262.94
294.833	236.94
295.064	255.94
295.295	248.94
295.525	269.94
295.756	247.94
295.987	271.94
296.217	286.94
296.448	305.94
296.679	283.94
296.909	262.94
297.14	281.94
297.37	280.94
297.601	266.94
297.831	269.94
298.062	279.94
298.292	242.94
298.523	265.94
298.753	272.94
298.984	248.94
299.214	272.94
299.445	276.94
299.675	271.94
299.905	279.94
300.136	258.94
300.366	249.94
300.597	279.94
300.827	284.94
301.057	287.94
301.288	301.94
301.518	290.94
301.748	286.94
301.979	287.94
302.209	294.94
302.439	282.94
302.669	283.94
302.9	288.94
303.13	281.94
303.36	276.94
303.59	282.94
303.82	281.94
304.051	308.94
304.281	289.94
304.511	291.94
304.741	287.94
304.971	276.94
305.201	282.94
305.431	264.94
305.661	305.94
305.891	284.94
306.121	285.94
306.352	292.94
306.582	301.94
306.812	266.94
307.042	269.94
307.272	293.94
307.502	274.94
307.731	309.94
307.961	279.94
308.191	286.94
308.421	296.94
308.651	280.94
308.881	292.94
309.111	293.94
309.341	294.94
309.571	305.94
309.8	324.94
310.03	337.94
310.26	335.94
310.49	313.94
310.72	343.94
310.949	349.94
311.179	371.94
311.409	345.94
311.639	339.94
311.868	331.94
312.098	361.94
312.328	324.94
312.557	365.94
312.787	363.94
313.017	362.94
313.246	330.94
313.476	324.94
313.706	336.94
313.935	350.94
314.165	339.94
314.394	361.94
314.624	347.94
314.853	337.94
315.083	345.94
315.312	333.94
315.542	320.94
315.771	321.94
316.001	334.94
316.23	338.94
316.46	330.94
316.689	332.94
316.919	331.94
317.148	329.94
317.377	338.94
317.607	353.94
317.836	353.94
318.065	351.94
318.295	330.94
318.524	337.94
318.753	336.94
318.983	319.94
319.212	334.94
319.441	342.94
319.67	350.94
319.9	342.94
320.129	341.94
320.358	364.94
320.587	343.94
320.816	358.94
321.046	359.94
321.275	351.94
321.504	366.94
321.733	346.94
321.962	377.94
322.191	379.94
322.42	408.94
322.649	401.94
322.878	394.94
323.108	417.94
323.337	437.94
323.566	464.94
323.795	495.94
324.024	547.94
324.253	652.94
324.482	942.94
324.71	1502.94
324.939	2160.94
325.168	1835.94
325.397	979.94
325.626	628.94
325.855	541.94
326.084	482.94
326.313	484.94
326.542	469.94
326.77	501.94
326.999	589.94
327.228	819.94
327.457	1287.94
327.686	1610.94
327.914	1059.94
328.143	723.94
328.372	597.94
328.6	575.94
328.829	522.94
329.058	556.94
329.287	568.94
329.515	522.94
329.744	479.94
329.972	469.94
330.201	486.94
330.43	510.94
330.658	543.94
330.887	582.94
331.115	576.94
331.344	489.94
331.572	462.94
331.801	468.94
332.03	440.94
332.258	431.94
332.486	413.94
332.715	401.94
332.943	395.94
333.172	417.94
333.4	402.94
333.629	416.94
333.857	430.94
334.085	441.94
334.314	430.94
334.542	439.94
334.771	459.94
334.999	425.94
335.227	421.94
335.455	403.94
335.684	405.94
335.912	410.94
336.14	391.94
336.369	385.94
336.597	387.94
336.825	411.94
337.053	397.94
337.281	375.94
337.51	397.94
337.738	395.94
337.966	384.94
338.194	390.94
338.422	388.94
338.65	404.94
338.878	395.94
339.106	378.94
339.334	378.94
339.562	373.94
339.79	390.94
340.018	388.94
340.246	383.94
340.474	385.94
340.702	379.94
340.93	363.94
341.158	371.94
341.386	391.94
341.614	379.94
341.842	398.94
342.07	385.94
342.298	372.94
342.526	373.94
342.754	371.94
342.981	378.94
343.209	354.94
343.437	366.94
343.665	376.94
343.893	393.94
344.12	387.94
344.348	394.94
344.576	377.94
344.804	387.94
345.031	401.94
345.259	424.94
345.487	417.94
345.714	384.94
345.942	394.94
346.17	391.94
346.397	389.94
346.625	398.94
346.853	388.94
347.08	358.94
347.308	391.94
347.535	401.94
347.763	395.94
347.99	394.94
348.218	384.94
348.445	407.94
348.673	403.94
348.9	397.94
349.128	378.94
349.355	389.94
349.583	377.94
349.81	379.94
350.037	358.94
350.265	383.94
350.492	365.94
350.72	373.94
350.947	381.94
351.174	401.94
351.402	403.94
351.629	394.94
351.856	413.94
352.083	401.94
352.311	394.94
352.538	398.94
352.765	404.94
352.992	395.94
353.22	383.94
353.447	390.94
353.674	382.94
353.901	367.94
354.128	375.94
354.355	359.94
354.583	364.94
354.81	356.94
355.037	355.94
355.264	370.94
355.491	358.94
355.718	355.94
355.945	350.94
356.172	362.94
356.399	360.94
356.626	361.94
356.853	356.94
357.08	347.94
357.307	355.94
357.534	352.94
357.761	354.94
357.988	377.94
358.215	353.94
358.441	368.94
358.668	366.94
358.895	355.94
359.122	366.94
359.349	367.94
359.576	377.94
359.802	415.94
360.029	435.94
360.256	443.94
360.483	414.94
360.709	393.94
360.936	393.94
361.163	388.94
361.39	379.94
361.616	386.94
361.843	394.94
362.07	387.94
362.296	389.94
362.523	382.94
362.749	376.94
362.976	382.94
363.203	374.94
363.429	371.94
363.656	382.94
363.882	391.94
364.109	350.94
364.335	377.94
364.562	366.94
364.788	375.94
365.015	374.94
365.241	371.94
365.468	382.94
365.694	379.94
365.92	393.94
366.147	389.94
366.373	376.94
366.599	373.94
366.826	364.94
367.052	375.94
367.278	372.94
367.505	393.94
367.731	379.94
367.957	362.94
368.184	374.94
368.41	371.94
368.636	380.94
368.862	391.94
369.089	383.94
369.315	370.94
369.541	366.94
369.767	387.94
369.993	389.94
370.219	371.94
370.445	353.94
370.672	379.94
370.898	381.94
371.124	373.94
371.35	395.94
371.576	375.94
371.802	382.94
372.028	386.94
372.254	371.94
372.48	373.94
372.706	380.94
372.932	360.94
373.158	379.94
373.384	385.94
373.61	381.94
373.835	389.94
374.061	374.94
374.287	385.94
374.513	375.94
374.739	377.94
374.965	372.94
375.191	378.94
375.416	387.94
375.642	375.94
375.868	377.94
376.094	390.94
376.319	379.94
376.545	381.94
376.771	365.94
376.997	371.94
377.222	375.94
377.448	396.94
377.674	383.94
377.899	371.94
378.125	362.94
378.35	371.94
378.576	379.94
378.802	376.94
379.027	378.94
379.253	369.94
379.478	357.94
379.704	354.94
379.929	388.94
380.155	374.94
380.38	369.94
380.606	375.94
380.831	376.94
381.057	388.94
381.282	370.94
381.507	374.94
381.733	377.94
381.958	367.94
382.184	374.94
382.409	389.94
382.634	401.94
382.86	376.94
383.085	378.94
383.31	387.94
383.535	387.94
383.761	401.94
383.986	387.94
384.211	396.94
384.436	389.94
384.662	406.94
384.887	407.94
385.112	385.94
385.337	411.94
385.562	405.94
385.787	407.94
386.013	410.94
386.238	404.94
386.463	423.94
386.688	421.94
386.913	414.94
387.138	402.94
387.363	412.94
387.588	419.94
387.813	418.94
388.038	387.94
388.263	399.94
388.488	397.94
388.713	398.94
388.938	407.94
389.163	410.94
389.387	405.94
389.612	403.94
389.837	414.94
390.062	396.94
390.287	402.94
390.512	382.94
390.736	431.94
390.961	407.94
391.186	393.94
391.411	413.94
391.636	409.94
391.86	405.94
392.085	427.94
392.31	419.94
392.534	406.94
392.759	423.94
392.984	413.94
393.208	435.94
393.433	442.94
393.658	450.94
393.882	424.94
394.107	408.94
394.331	393.94
394.556	405.94
394.78	395.94
395.005	409.94
395.229	392.94
395.454	407.94
395.678	433.94
395.903	437.94
396.127	478.94
396.352	435.94
396.576	428.94
396.801	442.94
397.025	456.94
397.249	444.94
397.474	430.94
397.698	457.94
397.922	447.94
398.147	471.94
398.371	472.94
398.595	473.94
398.82	451.94
399.044	470.94
399.268	456.94
399.492	481.94
399.717	516.94
399.941	525.94
400.165	566.94
400.389	563.94
400.613	525.94
400.837	515.94
401.062	465.94
401.286	478.94
401.51	463.94
401.734	472.94
401.958	462.94
402.182	475.94
402.406	494.94
402.63	485.94
402.854	456.94
403.078	479.94
403.302	477.94
403.526	507.94
403.75	476.94
403.974	476.94
404.198	462.94
404.422	523.94
404.645	502.94
404.869	492.94
405.093	509.94
405.317	553.94
405.541	574.94
405.765	550.94
405.988	520.94
406.212	523.94
406.436	552.94
406.66	565.94
406.883	544.94
407.107	545.94
407.331	599.94
407.555	658.94
407.778	665.94
408.002	567.94
408.226	548.94
408.449	547.94
408.673	520.94
408.896	566.94
409.12	619.94
409.344	565.94
409.567	519.94
409.791	510.94
410.014	511.94
410.238	475.94
410.461	504.94
410.685	502.94
410.908	489.94
411.132	543.94
411.355	582.94
411.578	577.94
411.802	525.94
412.025	520.94
412.249	499.94
412.472	521.94
412.695	552.94
412.919	533.94
413.142	519.94
413.365	497.94
413.589	491.94
413.812	479.94
414.035	481.94
414.258	475.94
414.482	489.94
414.705	470.94
414.928	469.94
415.151	489.94
415.374	477.94
415.597	481.94
415.821	468.94
416.044	454.94
416.267	478.94
416.49	481.94
416.713	460.94
416.936	463.94
417.159	458.94
417.382	477.94
417.605	465.94
417.828	493.94
418.051	489.94
418.274	502.94
418.497	485.94
418.72	486.94
418.943	457.94
419.166	493.94
419.389	522.94
419.611	487.94
419.834	505.94
420.057	497.94
420.28	495.94
420.503	499.94
420.726	483.94
420.948	526.94
421.171	531.94
421.394	578.94
421.617	535.94
421.839	511.94
422.062	519.94
422.285	533.94
422.507	571.94
422.73	660.94
422.953	651.94
423.175	565.94
423.398	550.94
423.621	537.94
423.843	544.94
424.066	563.94
424.288	537.94
424.511	555.94
424.733	617.94
424.956	700.94
425.178	667.94
425.401	674.94
425.623	682.94
425.846	596.94
426.068	580.94
426.291	562.94
426.513	533.94
426.735	563.94
426.958	601.94
427.18	666.94
427.402	809.94
427.625	890.94
427.847	799.94
428.069	689.94
428.292	608.94
428.514	566.94
428.736	525.94
428.958	538.94
429.181	497.94
429.403	515.94
429.625	521.94
429.847	559.94
430.069	623.94
430.292	621.94
430.514	537.94
430.736	522.94
430.958	499.94
431.18	513.94
431.402	500.94
431.624	475.94
431.846	463.94
432.068	442.94
432.29	500.94
432.512	485.94
432.734	467.94
432.956	505.94
433.178	460.94
433.4	496.94
433.622	491.94
433.844	487.94
434.066	476.94
434.287	478.94
434.509	481.94
434.731	490.94
434.953	513.94
435.175	522.94
435.397	531.94
435.618	567.94
435.84	599.94
436.062	668.94
436.284	747.94
436.505	635.94
436.727	551.94
436.949	535.94
437.17	522.94
437.392	512.94
437.614	527.94
437.835	562.94
438.057	673.94
438.278	765.94
438.5	773.94
438.721	833.94
438.943	798.94
439.165	616.94
439.386	589.94
439.608	566.94
439.829	580.94
440.05	606.94
440.272	660.94
440.493	597.94
440.715	570.94
440.936	544.94
441.158	552.94
441.379	507.94
441.6	525.94
441.822	537.94
442.043	585.94
442.264	684.94
442.486	717.94
442.707	641.94
442.928	582.94
443.149	571.94
443.371	600.94
443.592	625.94
443.813	735.94
444.034	788.94
444.255	679.94
444.476	585.94
444.698	579.94
444.919	545.94
445.14	682.94
445.361	630.94
445.582	620.94
445.803	670.94
446.024	790.94
446.245	775.94
446.466	715.94
446.687	601.94
446.908	586.94
447.129	548.94
447.35	517.94
447.571	535.94
447.792	518.94
448.013	529.94
448.234	531.94
448.455	612.94
448.675	731.94
448.896	805.94
449.117	719.94
449.338	673.94
449.559	757.94
449.779	828.94
450	702.94
450.221	573.94
450.442	544.94
450.662	521.94
450.883	511.94
451.104	540.94
451.324	523.94
451.545	511.94
451.766	490.94
451.986	501.94
452.207	463.94
452.428	459.94
452.648	454.94
452.869	460.94
453.089	478.94
453.31	494.94
453.53	481.94
453.751	466.94
453.971	480.94
454.192	488.94
454.412	461.94
454.633	462.94
454.853	463.94
455.073	461.94
455.294	497.94
455.514	560.94
455.734	540.94
455.955	464.94
456.175	451.94
456.395	446.94
456.616	456.94
456.836	426.94
457.056	405.94
457.276	442.94
457.497	427.94
457.717	441.94
457.937	441.94
458.157	463.94
458.377	438.94
458.598	470.94
458.818	532.94
459.038	619.94
459.258	625.94
459.478	558.94
459.698	501.94
459.918	493.94
460.138	473.94
460.358	485.94
460.578	479.94
460.798	476.94
461.018	508.94
461.238	483.94
461.458	456.94
461.678	473.94
461.898	468.94
462.118	459.94
462.338	486.94
462.558	492.94
462.777	476.94
462.997	494.94
463.217	490.94
463.437	525.94
463.657	517.94
463.876	511.94
464.096	524.94
464.316	497.94
464.536	511.94
464.755	523.94
464.975	537.94
465.195	568.94
465.414	654.94
465.634	557.94
465.854	525.94
466.073	497.94
466.293	492.94
466.512	491.94
466.732	477.94
466.951	462.94
467.171	454.94
467.391	461.94
467.61	467.94
467.829	505.94
468.049	479.94
468.268	488.94
468.488	494.94
468.707	471.94
468.927	471.94
469.146	441.94
469.365	468.94
469.585	468.94
469.804	470.94
470.023	485.94
470.243	484.94
470.462	487.94
470.681	514.94
470.901	503.94
471.12	487.94
471.339	473.94
471.558	481.94
471.777	485.94
471.997	486.94
472.216	487.94
472.435	493.94
472.654	505.94
472.873	484.94
473.092	461.94
473.311	473.94
473.53	491.94
473.749	485.94
473.968	536.94
474.187	629.94
474.406	641.94
474.625	551.94
474.844	521.94
475.063	521.94
475.282	487.94
475.501	501.94
475.72	484.94
475.939	486.94
476.158	500.94
476.377	507.94
476.596	477.94
476.814	515.94
477.033	524.94
477.252	502.94
477.471	520.94
477.69	521.94
477.908	524.94
478.127	505.94
478.346	510.94
478.564	541.94
478.783	521.94
479.002	540.94
479.22	545.94
479.439	571.94
479.658	580.94
479.876	612.94
480.095	595.94
480.313	595.94
480.532	608.94
480.751	561.94
480.969	575.94
481.188	636.94
481.406	694.94
481.624	615.94
481.843	587.94
482.061	589.94
482.28	570.94
482.498	564.94
482.717	565.94
482.935	579.94
483.153	584.94
483.372	558.94
483.59	575.94
483.808	554.94
484.027	591.94
484.245	591.94
484.463	573.94
484.681	585.94
484.9	594.94
485.118	611.94
485.336	597.94
485.554	581.94
485.772	595.94
485.99	611.94
486.209	596.94
486.427	596.94
486.645	633.94
486.863	645.94
487.081	639.94
487.299	619.94
487.517	613.94
487.735	616.94
487.953	616.94
488.171	633.94
488.389	631.94
488.607	623.94
488.825	622.94
489.043	614.94
489.261	597.94
489.479	626.94
489.696	641.94
489.914	650.94
490.132	646.94
490.35	651.94
490.568	678.94
490.786	685.94
491.003	665.94
491.221	685.94
491.439	684.94
491.657	705.94
491.874	708.94
492.092	729.94
492.31	719.94
492.527	737.94
492.745	747.94
492.963	710.94
493.18	772.94
493.398	724.94
493.615	736.94
493.833	745.94
494.05	725.94
494.268	755.94
494.485	745.94
494.703	727.94
494.92	740.94
495.138	739.94
495.355	766.94
495.573	743.94
495.79	739.94
496.008	771.94
496.225	750.94
496.442	753.94
496.66	743.94
496.877	766.94
497.094	760.94
497.312	741.94
497.529	750.94
497.746	793.94
497.963	769.94
498.181	812.94
498.398	781.94
498.615	788.94
498.832	817.94
499.049	807.94
499.267	848.94
499.484	842.94
499.701	872.94
499.918	890.94
500.135	945.94
500.352	913.94
500.569	924.94
500.786	949.94
501.003	956.94
501.22	928.94
501.437	909.94
501.654	920.94
