Data from 1971.PennyLincolnUp.Lamp.En5.5.200Scan.071719.P1._HRD10591_15-18-56-841.txt Node
Date: Thu Jul 18 15:18:56 EDT 2019
User: cochatt
Spectrometer: HR+D1059
Trigger mode: 1
Integration Time (sec): 1.000000E-1
Scans to average: 1
Electric dark correction enabled: true
Nonlinearity correction enabled: false
Boxcar width: 0
XAxis mode: Wavelengths
Number of Pixels in Spectrum: 2048
>>>>>Begin Spectral Data<<<<<
223.165	-22.69
223.4	-22.69
223.635	-22.69
223.869	-21.69
224.104	-12.69
224.338	-23.69
224.573	-6.69
224.808	-7.69
225.042	-12.69
225.277	-9.69
225.511	-12.69
225.746	9.31
225.98	5.31
226.215	17.31
226.449	24.31
226.683	16.31
226.918	21.31
227.152	36.31
227.387	48.31
227.621	47.31
227.856	58.31
228.09	54.31
228.324	49.31
228.559	58.31
228.793	60.31
229.027	92.31
229.262	98.31
229.496	104.31
229.73	121.31
229.964	143.31
230.199	128.31
230.433	107.31
230.667	100.31
230.901	120.31
231.136	108.31
231.37	95.31
231.604	119.31
231.838	106.31
232.072	104.31
232.306	116.31
232.541	121.31
232.775	110.31
233.009	107.31
233.243	121.31
233.477	111.31
233.711	103.31
233.945	133.31
234.179	101.31
234.413	126.31
234.647	107.31
234.881	98.31
235.115	120.31
235.349	101.31
235.583	136.31
235.817	105.31
236.051	124.31
236.285	123.31
236.519	104.31
236.753	122.31
236.987	135.31
237.221	154.31
237.455	213.31
237.689	167.31
237.922	132.31
238.156	140.31
238.39	132.31
238.624	123.31
238.858	121.31
239.091	114.31
239.325	123.31
239.559	121.31
239.793	131.31
240.027	128.31
240.26	133.31
240.494	137.31
240.728	163.31
240.961	149.31
241.195	135.31
241.429	131.31
241.662	134.31
241.896	143.31
242.13	131.31
242.363	142.31
242.597	122.31
242.83	115.31
243.064	140.31
243.298	149.31
243.531	134.31
243.765	136.31
243.998	144.31
244.232	127.31
244.465	140.31
244.699	139.31
244.932	137.31
245.166	140.31
245.399	141.31
245.633	149.31
245.866	159.31
246.099	145.31
246.333	153.31
246.566	155.31
246.8	140.31
247.033	163.31
247.266	155.31
247.5	155.31
247.733	169.31
247.966	167.31
248.2	158.31
248.433	164.31
248.666	163.31
248.899	179.31
249.133	181.31
249.366	202.31
249.599	176.31
249.832	196.31
250.066	191.31
250.299	189.31
250.532	181.31
250.765	209.31
250.998	211.31
251.231	219.31
251.465	224.31
251.698	192.31
251.931	200.31
252.164	199.31
252.397	201.31
252.63	199.31
252.863	186.31
253.096	203.31
253.329	220.31
253.562	217.31
253.795	210.31
254.028	213.31
254.261	219.31
254.494	212.31
254.727	247.31
254.96	265.31
255.193	263.31
255.426	235.31
255.659	236.31
255.892	213.31
256.124	213.31
256.357	229.31
256.59	208.31
256.823	231.31
257.056	223.31
257.289	204.31
257.521	216.31
257.754	223.31
257.987	189.31
258.22	206.31
258.452	212.31
258.685	204.31
258.918	222.31
259.151	212.31
259.383	224.31
259.616	241.31
259.849	225.31
260.081	223.31
260.314	257.31
260.547	257.31
260.779	257.31
261.012	237.31
261.244	236.31
261.477	215.31
261.71	214.31
261.942	223.31
262.175	229.31
262.407	216.31
262.64	218.31
262.872	204.31
263.105	209.31
263.337	221.31
263.57	221.31
263.802	208.31
264.035	199.31
264.267	219.31
264.499	224.31
264.732	221.31
264.964	205.31
265.197	221.31
265.429	207.31
265.661	205.31
265.894	209.31
266.126	228.31
266.358	211.31
266.591	220.31
266.823	251.31
267.055	234.31
267.287	225.31
267.52	216.31
267.752	227.31
267.984	235.31
268.216	230.31
268.448	240.31
268.681	233.31
268.913	249.31
269.145	264.31
269.377	265.31
269.609	273.31
269.841	266.31
270.073	260.31
270.306	286.31
270.538	304.31
270.77	301.31
271.002	302.31
271.234	298.31
271.466	295.31
271.698	296.31
271.93	312.31
272.162	300.31
272.394	325.31
272.626	291.31
272.858	259.31
273.09	263.31
273.322	273.31
273.553	263.31
273.785	268.31
274.017	247.31
274.249	249.31
274.481	262.31
274.713	266.31
274.945	271.31
275.176	255.31
275.408	240.31
275.64	249.31
275.872	248.31
276.104	259.31
276.335	267.31
276.567	260.31
276.799	271.31
277.031	300.31
277.262	300.31
277.494	293.31
277.726	308.31
277.957	298.31
278.189	281.31
278.421	285.31
278.652	269.31
278.884	271.31
279.115	256.31
279.347	281.31
279.579	277.31
279.81	284.31
280.042	271.31
280.273	285.31
280.505	267.31
280.736	268.31
280.968	269.31
281.199	285.31
281.431	262.31
281.662	255.31
281.894	271.31
282.125	267.31
282.356	284.31
282.588	285.31
282.819	296.31
283.051	281.31
283.282	298.31
283.513	283.31
283.745	263.31
283.976	278.31
284.207	267.31
284.439	255.31
284.67	269.31
284.901	300.31
285.132	280.31
285.364	265.31
285.595	267.31
285.826	255.31
286.057	294.31
286.288	284.31
286.52	291.31
286.751	291.31
286.982	285.31
287.213	277.31
287.444	283.31
287.675	289.31
287.906	303.31
288.138	283.31
288.369	299.31
288.6	312.31
288.831	273.31
289.062	293.31
289.293	291.31
289.524	261.31
289.755	296.31
289.986	288.31
290.217	279.31
290.448	281.31
290.679	278.31
290.91	295.31
291.141	276.31
291.371	291.31
291.602	279.31
291.833	308.31
292.064	295.31
292.295	298.31
292.526	309.31
292.757	294.31
292.987	301.31
293.218	291.31
293.449	298.31
293.68	307.31
293.91	297.31
294.141	277.31
294.372	298.31
294.603	296.31
294.833	290.31
295.064	288.31
295.295	283.31
295.525	287.31
295.756	295.31
295.987	301.31
296.217	304.31
296.448	321.31
296.679	290.31
296.909	289.31
297.14	300.31
297.37	298.31
297.601	299.31
297.831	292.31
298.062	302.31
298.292	297.31
298.523	313.31
298.753	306.31
298.984	308.31
299.214	300.31
299.445	314.31
299.675	303.31
299.905	307.31
300.136	304.31
300.366	309.31
300.597	311.31
300.827	319.31
301.057	323.31
301.288	303.31
301.518	316.31
301.748	328.31
301.979	332.31
302.209	334.31
302.439	325.31
302.669	336.31
302.9	332.31
303.13	325.31
303.36	314.31
303.59	307.31
303.82	332.31
304.051	333.31
304.281	339.31
304.511	322.31
304.741	304.31
304.971	304.31
305.201	325.31
305.431	307.31
305.661	308.31
305.891	335.31
306.121	309.31
306.352	325.31
306.582	325.31
306.812	325.31
307.042	312.31
307.272	337.31
307.502	322.31
307.731	332.31
307.961	320.31
308.191	341.31
308.421	330.31
308.651	336.31
308.881	325.31
309.111	333.31
309.341	337.31
309.571	360.31
309.8	353.31
310.03	364.31
310.26	375.31
310.49	359.31
310.72	375.31
310.949	365.31
311.179	363.31
311.409	367.31
311.639	360.31
311.868	365.31
312.098	366.31
312.328	388.31
312.557	390.31
312.787	384.31
313.017	400.31
313.246	378.31
313.476	368.31
313.706	365.31
313.935	367.31
314.165	380.31
314.394	383.31
314.624	369.31
314.853	375.31
315.083	387.31
315.312	373.31
315.542	359.31
315.771	352.31
316.001	356.31
316.23	374.31
316.46	363.31
316.689	373.31
316.919	378.31
317.148	366.31
317.377	385.31
317.607	385.31
317.836	380.31
318.065	385.31
318.295	381.31
318.524	362.31
318.753	346.31
318.983	373.31
319.212	375.31
319.441	384.31
319.67	358.31
319.9	355.31
320.129	363.31
320.358	388.31
320.587	383.31
320.816	393.31
321.046	383.31
321.275	373.31
321.504	403.31
321.733	380.31
321.962	391.31
322.191	417.31
322.42	410.31
322.649	431.31
322.878	445.31
323.108	443.31
323.337	465.31
323.566	448.31
323.795	500.31
324.024	540.31
324.253	658.31
324.482	891.31
324.71	1327.31
324.939	1792.31
325.168	1515.31
325.397	824.31
325.626	583.31
325.855	506.31
326.084	474.31
326.313	469.31
326.542	473.31
326.77	497.31
326.999	622.31
327.228	819.31
327.457	1161.31
327.686	1298.31
327.914	891.31
328.143	622.31
328.372	553.31
328.6	532.31
328.829	513.31
329.058	523.31
329.287	506.31
329.515	495.31
329.744	486.31
329.972	467.31
330.201	485.31
330.43	501.31
330.658	526.31
330.887	540.31
331.115	519.31
331.344	469.31
331.572	460.31
331.801	480.31
332.03	458.31
332.258	432.31
332.486	424.31
332.715	437.31
332.943	426.31
333.172	411.31
333.4	460.31
333.629	421.31
333.857	445.31
334.085	454.31
334.314	461.31
334.542	494.31
334.771	486.31
334.999	462.31
335.227	452.31
335.455	409.31
335.684	437.31
335.912	423.31
336.14	414.31
336.369	401.31
336.597	439.31
336.825	457.31
337.053	410.31
337.281	407.31
337.51	420.31
337.738	434.31
337.966	423.31
338.194	409.31
338.422	416.31
338.65	402.31
338.878	416.31
339.106	425.31
339.334	409.31
339.562	396.31
339.79	409.31
340.018	407.31
340.246	426.31
340.474	400.31
340.702	401.31
340.93	398.31
341.158	401.31
341.386	408.31
341.614	396.31
341.842	411.31
342.07	389.31
342.298	390.31
342.526	388.31
342.754	380.31
342.981	383.31
343.209	414.31
343.437	399.31
343.665	393.31
343.893	412.31
344.12	403.31
344.348	401.31
344.576	407.31
344.804	388.31
345.031	409.31
345.259	425.31
345.487	401.31
345.714	399.31
345.942	385.31
346.17	399.31
346.397	391.31
346.625	404.31
346.853	391.31
347.08	389.31
347.308	402.31
347.535	405.31
347.763	379.31
347.99	401.31
348.218	393.31
348.445	412.31
348.673	391.31
348.9	382.31
349.128	373.31
349.355	374.31
349.583	370.31
349.81	371.31
350.037	396.31
350.265	380.31
350.492	368.31
350.72	374.31
350.947	374.31
351.174	394.31
351.402	389.31
351.629	383.31
351.856	398.31
352.083	380.31
352.311	395.31
352.538	397.31
352.765	381.31
352.992	383.31
353.22	374.31
353.447	373.31
353.674	356.31
353.901	356.31
354.128	383.31
354.355	377.31
354.583	364.31
354.81	350.31
355.037	374.31
355.264	356.31
355.491	349.31
355.718	343.31
355.945	339.31
356.172	349.31
356.399	356.31
356.626	356.31
356.853	353.31
357.08	355.31
357.307	336.31
357.534	356.31
357.761	364.31
357.988	375.31
358.215	348.31
358.441	362.31
358.668	366.31
358.895	351.31
359.122	365.31
359.349	365.31
359.576	379.31
359.802	387.31
360.029	403.31
360.256	397.31
360.483	388.31
360.709	348.31
360.936	379.31
361.163	383.31
361.39	408.31
361.616	379.31
361.843	373.31
362.07	360.31
362.296	360.31
362.523	362.31
362.749	380.31
362.976	383.31
363.203	356.31
363.429	354.31
363.656	366.31
363.882	359.31
364.109	363.31
364.335	340.31
364.562	346.31
364.788	352.31
365.015	355.31
365.241	355.31
365.468	360.31
365.694	342.31
365.92	352.31
366.147	351.31
366.373	342.31
366.599	364.31
366.826	342.31
367.052	331.31
367.278	361.31
367.505	343.31
367.731	367.31
367.957	357.31
368.184	337.31
368.41	378.31
368.636	363.31
368.862	367.31
369.089	359.31
369.315	357.31
369.541	367.31
369.767	368.31
369.993	347.31
370.219	369.31
370.445	356.31
370.672	344.31
370.898	337.31
371.124	346.31
371.35	349.31
371.576	351.31
371.802	351.31
372.028	337.31
372.254	368.31
372.48	331.31
372.706	341.31
372.932	364.31
373.158	365.31
373.384	361.31
373.61	350.31
373.835	367.31
374.061	343.31
374.287	358.31
374.513	351.31
374.739	351.31
374.965	360.31
375.191	368.31
375.416	353.31
375.642	377.31
375.868	337.31
376.094	345.31
376.319	339.31
376.545	347.31
376.771	353.31
376.997	345.31
377.222	352.31
377.448	329.31
377.674	346.31
377.899	326.31
378.125	352.31
378.35	331.31
378.576	335.31
378.802	331.31
379.027	368.31
379.253	335.31
379.478	352.31
379.704	325.31
379.929	334.31
380.155	335.31
380.38	350.31
380.606	340.31
380.831	348.31
381.057	350.31
381.282	362.31
381.507	346.31
381.733	337.31
381.958	346.31
382.184	335.31
382.409	336.31
382.634	360.31
382.86	354.31
383.085	338.31
383.31	328.31
383.535	371.31
383.761	363.31
383.986	343.31
384.211	357.31
384.436	352.31
384.662	381.31
384.887	380.31
385.112	362.31
385.337	371.31
385.562	363.31
385.787	364.31
386.013	385.31
386.238	363.31
386.463	364.31
386.688	359.31
386.913	353.31
387.138	346.31
387.363	373.31
387.588	364.31
387.813	362.31
388.038	365.31
388.263	368.31
388.488	349.31
388.713	345.31
388.938	356.31
389.163	384.31
389.387	366.31
389.612	355.31
389.837	353.31
390.062	363.31
390.287	363.31
390.512	368.31
390.736	393.31
390.961	367.31
391.186	358.31
391.411	360.31
391.636	359.31
391.86	359.31
392.085	362.31
392.31	361.31
392.534	368.31
392.759	346.31
392.984	371.31
393.208	363.31
393.433	376.31
393.658	373.31
393.882	375.31
394.107	358.31
394.331	352.31
394.556	372.31
394.78	355.31
395.005	385.31
395.229	368.31
395.454	377.31
395.678	377.31
395.903	385.31
396.127	391.31
396.352	408.31
396.576	369.31
396.801	373.31
397.025	387.31
397.249	378.31
397.474	376.31
397.698	372.31
397.922	402.31
398.147	401.31
398.371	401.31
398.595	411.31
398.82	412.31
399.044	390.31
399.268	425.31
399.492	439.31
399.717	455.31
399.941	474.31
400.165	479.31
400.389	497.31
400.613	455.31
400.837	410.31
401.062	415.31
401.286	418.31
401.51	421.31
401.734	402.31
401.958	414.31
402.182	405.31
402.406	422.31
402.63	418.31
402.854	398.31
403.078	399.31
403.302	416.31
403.526	423.31
403.75	411.31
403.974	422.31
404.198	406.31
404.422	433.31
404.645	432.31
404.869	431.31
405.093	455.31
405.317	468.31
405.541	501.31
405.765	464.31
405.988	441.31
406.212	432.31
406.436	484.31
406.66	444.31
406.883	459.31
407.107	467.31
407.331	493.31
407.555	541.31
407.778	533.31
408.002	484.31
408.226	464.31
408.449	457.31
408.673	469.31
408.896	483.31
409.12	496.31
409.344	475.31
409.567	453.31
409.791	429.31
410.014	432.31
410.238	426.31
410.461	419.31
410.685	428.31
410.908	421.31
411.132	452.31
411.355	477.31
411.578	457.31
411.802	438.31
412.025	414.31
412.249	433.31
412.472	423.31
412.695	460.31
412.919	441.31
413.142	405.31
413.365	409.31
413.589	401.31
413.812	395.31
414.035	398.31
414.258	399.31
414.482	402.31
414.705	403.31
414.928	401.31
415.151	383.31
415.374	377.31
415.597	379.31
415.821	384.31
416.044	388.31
416.267	398.31
416.49	383.31
416.713	381.31
416.936	404.31
417.159	399.31
417.382	389.31
417.605	387.31
417.828	384.31
418.051	398.31
418.274	418.31
418.497	385.31
418.72	421.31
418.943	385.31
419.166	422.31
419.389	419.31
419.611	419.31
419.834	397.31
420.057	428.31
420.28	405.31
420.503	399.31
420.726	427.31
420.948	428.31
421.171	450.31
421.394	479.31
421.617	425.31
421.839	405.31
422.062	413.31
422.285	432.31
422.507	458.31
422.73	521.31
422.953	500.31
423.175	440.31
423.398	421.31
423.621	444.31
423.843	433.31
424.066	467.31
424.288	442.31
424.511	441.31
424.733	475.31
424.956	565.31
425.178	519.31
425.401	521.31
425.623	544.31
425.846	479.31
426.068	430.31
426.291	421.31
426.513	430.31
426.735	456.31
426.958	480.31
427.18	554.31
427.402	632.31
427.625	702.31
427.847	620.31
428.069	519.31
428.292	466.31
428.514	435.31
428.736	426.31
428.958	443.31
429.181	415.31
429.403	395.31
429.625	396.31
429.847	440.31
430.069	478.31
430.292	467.31
430.514	408.31
430.736	440.31
430.958	400.31
431.18	393.31
431.402	397.31
431.624	389.31
431.846	392.31
432.068	379.31
432.29	371.31
432.512	390.31
432.734	409.31
432.956	399.31
433.178	390.31
433.4	407.31
433.622	382.31
433.844	385.31
434.066	392.31
434.287	396.31
434.509	385.31
434.731	390.31
434.953	386.31
435.175	408.31
435.397	415.31
435.618	432.31
435.84	476.31
436.062	557.31
436.284	583.31
436.505	507.31
436.727	455.31
436.949	400.31
437.17	410.31
437.392	407.31
437.614	428.31
437.835	439.31
438.057	526.31
438.278	581.31
438.5	595.31
438.721	639.31
438.943	604.31
439.165	488.31
439.386	439.31
439.608	448.31
439.829	441.31
440.05	456.31
440.272	515.31
440.493	468.31
440.715	448.31
440.936	403.31
441.158	405.31
441.379	392.31
441.6	422.31
441.822	448.31
442.043	474.31
442.264	529.31
442.486	535.31
442.707	490.31
442.928	425.31
443.149	458.31
443.371	488.31
443.592	518.31
443.813	559.31
444.034	620.31
444.255	517.31
444.476	453.31
444.698	464.31
444.919	439.31
445.14	569.31
445.361	492.31
445.582	458.31
445.803	523.31
446.024	608.31
446.245	601.31
446.466	554.31
446.687	479.31
446.908	441.31
447.129	422.31
447.35	399.31
447.571	403.31
447.792	405.31
448.013	412.31
448.234	414.31
448.455	430.31
448.675	558.31
448.896	611.31
449.117	544.31
449.338	536.31
449.559	622.31
449.779	662.31
450	542.31
450.221	425.31
450.442	406.31
450.662	409.31
450.883	392.31
451.104	385.31
451.324	398.31
451.545	386.31
451.766	380.31
451.986	375.31
452.207	351.31
452.428	365.31
452.648	364.31
452.869	352.31
453.089	373.31
453.31	367.31
453.53	359.31
453.751	363.31
453.971	354.31
454.192	356.31
454.412	361.31
454.633	367.31
454.853	359.31
455.073	367.31
455.294	381.31
455.514	424.31
455.734	411.31
455.955	365.31
456.175	360.31
456.395	351.31
456.616	342.31
456.836	325.31
457.056	349.31
457.276	343.31
457.497	346.31
457.717	341.31
457.937	340.31
458.157	343.31
458.377	357.31
458.598	376.31
458.818	408.31
459.038	449.31
459.258	473.31
459.478	423.31
459.698	381.31
459.918	377.31
460.138	381.31
460.358	363.31
460.578	355.31
460.798	384.31
461.018	375.31
461.238	389.31
461.458	387.31
461.678	382.31
461.898	396.31
462.118	368.31
462.338	385.31
462.558	393.31
462.777	379.31
462.997	414.31
463.217	401.31
463.437	425.31
463.657	405.31
463.876	408.31
464.096	398.31
464.316	390.31
464.536	405.31
464.755	379.31
464.975	410.31
465.195	431.31
465.414	476.31
465.634	419.31
465.854	387.31
466.073	387.31
466.293	364.31
466.512	377.31
466.732	353.31
466.951	375.31
467.171	365.31
467.391	371.31
467.61	366.31
467.829	376.31
468.049	371.31
468.268	359.31
468.488	352.31
468.707	355.31
468.927	379.31
469.146	363.31
469.365	354.31
469.585	351.31
469.804	362.31
470.023	377.31
470.243	379.31
470.462	371.31
470.681	371.31
470.901	375.31
471.12	391.31
471.339	395.31
471.558	375.31
471.777	391.31
471.997	380.31
472.216	370.31
472.435	394.31
472.654	358.31
472.873	369.31
473.092	365.31
473.311	371.31
473.53	369.31
473.749	374.31
473.968	420.31
474.187	493.31
474.406	487.31
474.625	417.31
474.844	385.31
475.063	379.31
475.282	367.31
475.501	376.31
475.72	378.31
475.939	366.31
476.158	399.31
476.377	398.31
476.596	373.31
476.814	373.31
477.033	379.31
477.252	380.31
477.471	385.31
477.69	383.31
477.908	397.31
478.127	380.31
478.346	401.31
478.564	405.31
478.783	389.31
479.002	409.31
479.22	427.31
479.439	425.31
479.658	445.31
479.876	435.31
480.095	449.31
480.313	443.31
480.532	473.31
480.751	437.31
480.969	448.31
481.188	501.31
481.406	484.31
481.624	428.31
481.843	460.31
482.061	420.31
482.28	429.31
482.498	419.31
482.717	431.31
482.935	441.31
483.153	417.31
483.372	447.31
483.59	439.31
483.808	425.31
484.027	442.31
484.245	427.31
484.463	437.31
484.681	443.31
484.9	449.31
485.118	430.31
485.336	445.31
485.554	451.31
485.772	445.31
485.99	444.31
486.209	452.31
486.427	445.31
486.645	469.31
486.863	462.31
487.081	439.31
487.299	456.31
487.517	453.31
487.735	474.31
487.953	451.31
488.171	460.31
488.389	442.31
488.607	473.31
488.825	456.31
489.043	459.31
489.261	477.31
489.479	448.31
489.696	465.31
489.914	464.31
490.132	476.31
490.35	472.31
490.568	494.31
490.786	492.31
491.003	509.31
491.221	518.31
491.439	536.31
491.657	503.31
491.874	519.31
492.092	536.31
492.31	529.31
492.527	541.31
492.745	548.31
492.963	530.31
493.18	548.31
493.398	545.31
493.615	535.31
493.833	547.31
494.05	530.31
494.268	537.31
494.485	549.31
494.703	551.31
494.92	548.31
495.138	557.31
495.355	554.31
495.573	540.31
495.79	548.31
496.008	532.31
496.225	544.31
496.442	549.31
496.66	531.31
496.877	556.31
497.094	550.31
497.312	544.31
497.529	552.31
497.746	569.31
497.963	548.31
498.181	611.31
498.398	552.31
498.615	598.31
498.832	596.31
499.049	604.31
499.267	630.31
499.484	619.31
499.701	639.31
499.918	663.31
500.135	667.31
500.352	698.31
500.569	724.31
500.786	733.31
501.003	745.31
501.22	674.31
501.437	665.31
501.654	675.31
501.871	671.31
