Data from 1971.PennyLincolnUp.Lamp.En5.5.200Scan.071719.P1.Scan 2. Changed Angle._HRD10591_15-23-06-842.txt Node
Date: Thu Jul 18 15:23:06 EDT 2019
User: cochatt
Spectrometer: HR+D1059
Trigger mode: 1
Integration Time (sec): 1.000000E-1
Scans to average: 1
Electric dark correction enabled: true
Nonlinearity correction enabled: false
Boxcar width: 0
XAxis mode: Wavelengths
Number of Pixels in Spectrum: 2048
>>>>>Begin Spectral Data<<<<<
223.165	-8.75
223.4	-8.75
223.635	-8.75
223.869	-21.75
224.104	-9.75
224.338	-24.75
224.573	-20.75
224.808	-8.75
225.042	-6.75
225.277	-10.75
225.511	3.25
225.746	13.25
225.98	0.25
226.215	3.25
226.449	23.25
226.683	8.25
226.918	29.25
227.152	31.25
227.387	29.25
227.621	36.25
227.856	45.25
228.09	57.25
228.324	37.25
228.559	64.25
228.793	51.25
229.027	95.25
229.262	120.25
229.496	131.25
229.73	142.25
229.964	183.25
230.199	129.25
230.433	121.25
230.667	108.25
230.901	123.25
231.136	118.25
231.37	109.25
231.604	111.25
231.838	116.25
232.072	117.25
232.306	114.25
232.541	116.25
232.775	119.25
233.009	115.25
233.243	130.25
233.477	104.25
233.711	122.25
233.945	99.25
234.179	118.25
234.413	124.25
234.647	118.25
234.881	130.25
235.115	120.25
235.349	129.25
235.583	118.25
235.817	125.25
236.051	128.25
236.285	130.25
236.519	131.25
236.753	143.25
236.987	139.25
237.221	209.25
237.455	263.25
237.689	202.25
237.922	145.25
238.156	128.25
238.39	127.25
238.624	127.25
238.858	131.25
239.091	127.25
239.325	127.25
239.559	133.25
239.793	124.25
240.027	151.25
240.26	141.25
240.494	180.25
240.728	166.25
240.961	159.25
241.195	168.25
241.429	144.25
241.662	133.25
241.896	144.25
242.13	136.25
242.363	141.25
242.597	135.25
242.83	147.25
243.064	151.25
243.298	142.25
243.531	160.25
243.765	144.25
243.998	140.25
244.232	151.25
244.465	131.25
244.699	159.25
244.932	148.25
245.166	151.25
245.399	151.25
245.633	144.25
245.866	153.25
246.099	155.25
246.333	148.25
246.566	152.25
246.8	151.25
247.033	161.25
247.266	162.25
247.5	167.25
247.733	183.25
247.966	176.25
248.2	174.25
248.433	171.25
248.666	170.25
248.899	187.25
249.133	204.25
249.366	216.25
249.599	204.25
249.832	195.25
250.066	190.25
250.299	191.25
250.532	189.25
250.765	214.25
250.998	231.25
251.231	230.25
251.465	222.25
251.698	214.25
251.931	209.25
252.164	203.25
252.397	206.25
252.63	208.25
252.863	214.25
253.096	224.25
253.329	222.25
253.562	245.25
253.795	221.25
254.028	220.25
254.261	222.25
254.494	238.25
254.727	266.25
254.96	314.25
255.193	270.25
255.426	260.25
255.659	271.25
255.892	263.25
256.124	264.25
256.357	250.25
256.59	240.25
256.823	211.25
257.056	227.25
257.289	207.25
257.521	203.25
257.754	215.25
257.987	206.25
258.22	230.25
258.452	215.25
258.685	223.25
258.918	215.25
259.151	215.25
259.383	232.25
259.616	234.25
259.849	225.25
260.081	244.25
260.314	254.25
260.547	266.25
260.779	241.25
261.012	246.25
261.244	227.25
261.477	223.25
261.71	230.25
261.942	231.25
262.175	243.25
262.407	238.25
262.64	238.25
262.872	201.25
263.105	214.25
263.337	221.25
263.57	214.25
263.802	207.25
264.035	196.25
264.267	211.25
264.499	193.25
264.732	219.25
264.964	202.25
265.197	220.25
265.429	204.25
265.661	215.25
265.894	207.25
266.126	206.25
266.358	201.25
266.591	212.25
266.823	223.25
267.055	213.25
267.287	223.25
267.52	225.25
267.752	231.25
267.984	245.25
268.216	216.25
268.448	228.25
268.681	215.25
268.913	232.25
269.145	247.25
269.377	263.25
269.609	269.25
269.841	265.25
270.073	267.25
270.306	289.25
270.538	307.25
270.77	318.25
271.002	299.25
271.234	274.25
271.466	294.25
271.698	309.25
271.93	317.25
272.162	331.25
272.394	320.25
272.626	306.25
272.858	276.25
273.09	281.25
273.322	286.25
273.553	268.25
273.785	257.25
274.017	261.25
274.249	268.25
274.481	262.25
274.713	254.25
274.945	253.25
275.176	248.25
275.408	260.25
275.64	245.25
275.872	240.25
276.104	259.25
276.335	263.25
276.567	269.25
276.799	275.25
277.031	305.25
277.262	309.25
277.494	311.25
277.726	300.25
277.957	285.25
278.189	263.25
278.421	257.25
278.652	256.25
278.884	243.25
279.115	262.25
279.347	251.25
279.579	259.25
279.81	246.25
280.042	232.25
280.273	256.25
280.505	262.25
280.736	236.25
280.968	251.25
281.199	251.25
281.431	255.25
281.662	254.25
281.894	271.25
282.125	254.25
282.356	271.25
282.588	286.25
282.819	307.25
283.051	271.25
283.282	250.25
283.513	247.25
283.745	249.25
283.976	268.25
284.207	266.25
284.439	271.25
284.67	274.25
284.901	264.25
285.132	265.25
285.364	244.25
285.595	259.25
285.826	248.25
286.057	246.25
286.288	240.25
286.52	246.25
286.751	256.25
286.982	273.25
287.213	255.25
287.444	255.25
287.675	263.25
287.906	271.25
288.138	284.25
288.369	275.25
288.6	266.25
288.831	280.25
289.062	278.25
289.293	272.25
289.524	263.25
289.755	271.25
289.986	248.25
290.217	273.25
290.448	273.25
290.679	257.25
290.91	259.25
291.141	260.25
291.371	250.25
291.602	261.25
291.833	282.25
292.064	259.25
292.295	256.25
292.526	279.25
292.757	245.25
292.987	277.25
293.218	261.25
293.449	262.25
293.68	270.25
293.91	252.25
294.141	249.25
294.372	236.25
294.603	269.25
294.833	252.25
295.064	264.25
295.295	266.25
295.525	289.25
295.756	270.25
295.987	286.25
296.217	308.25
296.448	323.25
296.679	292.25
296.909	279.25
297.14	275.25
297.37	272.25
297.601	277.25
297.831	251.25
298.062	281.25
298.292	297.25
298.523	278.25
298.753	284.25
298.984	286.25
299.214	281.25
299.445	282.25
299.675	287.25
299.905	302.25
300.136	290.25
300.366	277.25
300.597	292.25
300.827	286.25
301.057	293.25
301.288	315.25
301.518	293.25
301.748	289.25
301.979	283.25
302.209	315.25
302.439	323.25
302.669	310.25
302.9	292.25
303.13	285.25
303.36	288.25
303.59	323.25
303.82	315.25
304.051	309.25
304.281	304.25
304.511	308.25
304.741	289.25
304.971	307.25
305.201	302.25
305.431	314.25
305.661	300.25
305.891	297.25
306.121	300.25
306.352	317.25
306.582	325.25
306.812	314.25
307.042	283.25
307.272	316.25
307.502	297.25
307.731	294.25
307.961	307.25
308.191	301.25
308.421	295.25
308.651	307.25
308.881	305.25
309.111	312.25
309.341	324.25
309.571	331.25
309.8	330.25
310.03	347.25
310.26	341.25
310.49	339.25
310.72	352.25
310.949	385.25
311.179	381.25
311.409	369.25
311.639	360.25
311.868	364.25
312.098	351.25
312.328	359.25
312.557	376.25
312.787	379.25
313.017	401.25
313.246	374.25
313.476	359.25
313.706	348.25
313.935	356.25
314.165	376.25
314.394	379.25
314.624	375.25
314.853	352.25
315.083	364.25
315.312	367.25
315.542	337.25
315.771	332.25
316.001	333.25
316.23	343.25
316.46	362.25
316.689	361.25
316.919	365.25
317.148	352.25
317.377	365.25
317.607	360.25
317.836	359.25
318.065	361.25
318.295	363.25
318.524	365.25
318.753	358.25
318.983	324.25
319.212	365.25
319.441	363.25
319.67	367.25
319.9	360.25
320.129	359.25
320.358	349.25
320.587	367.25
320.816	368.25
321.046	376.25
321.275	375.25
321.504	396.25
321.733	372.25
321.962	400.25
322.191	427.25
322.42	432.25
322.649	428.25
322.878	452.25
323.108	462.25
323.337	467.25
323.566	503.25
323.795	538.25
324.024	615.25
324.253	747.25
324.482	1055.25
324.71	1640.25
324.939	2388.25
325.168	2032.25
325.397	1059.25
325.626	711.25
325.855	579.25
326.084	541.25
326.313	509.25
326.542	511.25
326.77	551.25
326.999	689.25
327.228	923.25
327.457	1431.25
327.686	1725.25
327.914	1187.25
328.143	784.25
328.372	672.25
328.6	629.25
328.829	587.25
329.058	601.25
329.287	599.25
329.515	574.25
329.744	528.25
329.972	524.25
330.201	528.25
330.43	574.25
330.658	624.25
330.887	658.25
331.115	634.25
331.344	515.25
331.572	481.25
331.801	482.25
332.03	462.25
332.258	457.25
332.486	449.25
332.715	421.25
332.943	426.25
333.172	434.25
333.4	439.25
333.629	427.25
333.857	452.25
334.085	472.25
334.314	469.25
334.542	504.25
334.771	502.25
334.999	464.25
335.227	455.25
335.455	443.25
335.684	435.25
335.912	438.25
336.14	409.25
336.369	422.25
336.597	424.25
336.825	439.25
337.053	412.25
337.281	397.25
337.51	400.25
337.738	398.25
337.966	412.25
338.194	408.25
338.422	440.25
338.65	410.25
338.878	425.25
339.106	411.25
339.334	413.25
339.562	397.25
339.79	396.25
340.018	409.25
340.246	409.25
340.474	414.25
340.702	396.25
340.93	420.25
341.158	395.25
341.386	420.25
341.614	408.25
341.842	390.25
342.07	417.25
342.298	419.25
342.526	391.25
342.754	408.25
342.981	401.25
343.209	393.25
343.437	404.25
343.665	385.25
343.893	409.25
344.12	430.25
344.348	395.25
344.576	419.25
344.804	426.25
345.031	437.25
345.259	451.25
345.487	428.25
345.714	422.25
345.942	419.25
346.17	412.25
346.397	411.25
346.625	404.25
346.853	390.25
347.08	406.25
347.308	403.25
347.535	394.25
347.763	415.25
347.99	417.25
348.218	433.25
348.445	413.25
348.673	405.25
348.9	407.25
349.128	414.25
349.355	397.25
349.583	396.25
349.81	384.25
350.037	405.25
350.265	377.25
350.492	405.25
350.72	408.25
350.947	407.25
351.174	402.25
351.402	431.25
351.629	422.25
351.856	408.25
352.083	440.25
352.311	431.25
352.538	417.25
352.765	438.25
352.992	435.25
353.22	409.25
353.447	409.25
353.674	399.25
353.901	379.25
354.128	371.25
354.355	385.25
354.583	359.25
354.81	351.25
355.037	380.25
355.264	378.25
355.491	382.25
355.718	367.25
355.945	366.25
356.172	364.25
356.399	350.25
356.626	369.25
356.853	365.25
357.08	369.25
357.307	357.25
357.534	357.25
357.761	375.25
357.988	369.25
358.215	355.25
358.441	368.25
358.668	382.25
358.895	373.25
359.122	379.25
359.349	377.25
359.576	435.25
359.802	437.25
360.029	475.25
360.256	482.25
360.483	461.25
360.709	419.25
360.936	416.25
361.163	428.25
361.39	432.25
361.616	428.25
361.843	412.25
362.07	422.25
362.296	439.25
362.523	411.25
362.749	422.25
362.976	396.25
363.203	391.25
363.429	380.25
363.656	381.25
363.882	389.25
364.109	388.25
364.335	397.25
364.562	387.25
364.788	394.25
365.015	391.25
365.241	381.25
365.468	406.25
365.694	398.25
365.92	404.25
366.147	391.25
366.373	389.25
366.599	371.25
366.826	389.25
367.052	378.25
367.278	375.25
367.505	385.25
367.731	407.25
367.957	405.25
368.184	404.25
368.41	393.25
368.636	409.25
368.862	453.25
369.089	391.25
369.315	389.25
369.541	388.25
369.767	394.25
369.993	418.25
370.219	411.25
370.445	391.25
370.672	377.25
370.898	391.25
371.124	381.25
371.35	385.25
371.576	396.25
371.802	385.25
372.028	392.25
372.254	371.25
372.48	391.25
372.706	389.25
372.932	384.25
373.158	399.25
373.384	400.25
373.61	400.25
373.835	391.25
374.061	389.25
374.287	395.25
374.513	400.25
374.739	398.25
374.965	392.25
375.191	391.25
375.416	398.25
375.642	391.25
375.868	382.25
376.094	387.25
376.319	405.25
376.545	388.25
376.771	394.25
376.997	384.25
377.222	384.25
377.448	379.25
377.674	379.25
377.899	379.25
378.125	390.25
378.35	389.25
378.576	391.25
378.802	376.25
379.027	389.25
379.253	388.25
379.478	393.25
379.704	389.25
379.929	393.25
380.155	408.25
380.38	419.25
380.606	410.25
380.831	386.25
381.057	414.25
381.282	409.25
381.507	393.25
381.733	391.25
381.958	404.25
382.184	385.25
382.409	393.25
382.634	402.25
382.86	398.25
383.085	388.25
383.31	396.25
383.535	404.25
383.761	400.25
383.986	403.25
384.211	419.25
384.436	419.25
384.662	420.25
384.887	388.25
385.112	395.25
385.337	420.25
385.562	415.25
385.787	405.25
386.013	416.25
386.238	407.25
386.463	413.25
386.688	413.25
386.913	410.25
387.138	424.25
387.363	431.25
387.588	430.25
387.813	430.25
388.038	420.25
388.263	425.25
388.488	420.25
388.713	431.25
388.938	424.25
389.163	423.25
389.387	437.25
389.612	417.25
389.837	407.25
390.062	414.25
390.287	419.25
390.512	429.25
390.736	422.25
390.961	407.25
391.186	420.25
391.411	430.25
391.636	441.25
391.86	433.25
392.085	415.25
392.31	424.25
392.534	424.25
392.759	438.25
392.984	425.25
393.208	435.25
393.433	441.25
393.658	433.25
393.882	448.25
394.107	437.25
394.331	424.25
394.556	430.25
394.78	443.25
395.005	431.25
395.229	446.25
395.454	439.25
395.678	440.25
395.903	447.25
396.127	461.25
396.352	467.25
396.576	460.25
396.801	457.25
397.025	462.25
397.249	448.25
397.474	453.25
397.698	437.25
397.922	476.25
398.147	489.25
398.371	485.25
398.595	468.25
398.82	466.25
399.044	503.25
399.268	495.25
399.492	512.25
399.717	534.25
399.941	541.25
400.165	593.25
400.389	601.25
400.613	527.25
400.837	511.25
401.062	488.25
401.286	492.25
401.51	496.25
401.734	504.25
401.958	471.25
402.182	459.25
402.406	523.25
402.63	514.25
402.854	509.25
403.078	515.25
403.302	517.25
403.526	486.25
403.75	505.25
403.974	489.25
404.198	509.25
404.422	517.25
404.645	521.25
404.869	520.25
405.093	535.25
405.317	600.25
405.541	603.25
405.765	569.25
405.988	534.25
406.212	553.25
406.436	583.25
406.66	579.25
406.883	570.25
407.107	582.25
407.331	603.25
407.555	671.25
407.778	693.25
408.002	613.25
408.226	580.25
408.449	554.25
408.673	572.25
408.896	607.25
409.12	620.25
409.344	600.25
409.567	557.25
409.791	531.25
410.014	496.25
410.238	503.25
410.461	518.25
410.685	525.25
410.908	545.25
411.132	576.25
411.355	599.25
411.578	582.25
411.802	540.25
412.025	511.25
412.249	505.25
412.472	546.25
412.695	603.25
412.919	579.25
413.142	511.25
413.365	503.25
413.589	503.25
413.812	478.25
414.035	490.25
414.258	476.25
414.482	494.25
414.705	493.25
414.928	480.25
415.151	469.25
415.374	461.25
415.597	468.25
415.821	480.25
416.044	481.25
416.267	481.25
416.49	480.25
416.713	492.25
416.936	494.25
417.159	492.25
417.382	500.25
417.605	492.25
417.828	516.25
418.051	538.25
418.274	524.25
418.497	485.25
418.72	500.25
418.943	511.25
419.166	515.25
419.389	545.25
419.611	511.25
419.834	536.25
420.057	536.25
420.28	503.25
420.503	531.25
420.726	520.25
420.948	537.25
421.171	573.25
421.394	603.25
421.617	532.25
421.839	519.25
422.062	532.25
422.285	521.25
422.507	607.25
422.73	677.25
422.953	666.25
423.175	582.25
423.398	549.25
423.621	557.25
423.843	557.25
424.066	560.25
424.288	570.25
424.511	585.25
424.733	631.25
424.956	705.25
425.178	714.25
425.401	706.25
425.623	731.25
425.846	625.25
426.068	573.25
426.291	578.25
426.513	582.25
426.735	564.25
426.958	624.25
427.18	712.25
427.402	854.25
427.625	932.25
427.847	837.25
428.069	729.25
428.292	643.25
428.514	607.25
428.736	557.25
428.958	560.25
429.181	542.25
429.403	535.25
429.625	541.25
429.847	598.25
430.069	666.25
430.292	653.25
430.514	582.25
430.736	545.25
430.958	533.25
431.18	491.25
431.402	513.25
431.624	495.25
431.846	495.25
432.068	486.25
432.29	471.25
432.512	508.25
432.734	520.25
432.956	520.25
433.178	543.25
433.4	552.25
433.622	484.25
433.844	486.25
434.066	494.25
434.287	500.25
434.509	502.25
434.731	503.25
434.953	525.25
435.175	533.25
435.397	565.25
435.618	580.25
435.84	619.25
436.062	709.25
436.284	799.25
436.505	665.25
436.727	600.25
436.949	555.25
437.17	546.25
437.392	541.25
437.614	561.25
437.835	604.25
438.057	705.25
438.278	807.25
438.5	823.25
438.721	850.25
438.943	846.25
439.165	676.25
439.386	611.25
439.608	602.25
439.829	591.25
440.05	632.25
440.272	693.25
440.493	641.25
440.715	597.25
440.936	567.25
441.158	570.25
441.379	527.25
441.6	553.25
441.822	577.25
442.043	639.25
442.264	713.25
442.486	736.25
442.707	652.25
442.928	633.25
443.149	604.25
443.371	612.25
443.592	668.25
443.813	761.25
444.034	845.25
444.255	682.25
444.476	621.25
444.698	594.25
444.919	589.25
445.14	663.25
445.361	635.25
445.582	641.25
445.803	692.25
446.024	832.25
446.245	830.25
446.466	771.25
446.687	651.25
446.908	593.25
447.129	571.25
447.35	541.25
447.571	560.25
447.792	551.25
448.013	548.25
448.234	579.25
448.455	631.25
448.675	725.25
448.896	881.25
449.117	740.25
449.338	683.25
449.559	824.25
449.779	899.25
450	743.25
450.221	617.25
450.442	579.25
450.662	551.25
450.883	548.25
451.104	563.25
451.324	561.25
451.545	529.25
451.766	519.25
451.986	478.25
452.207	487.25
452.428	477.25
452.648	479.25
452.869	485.25
453.089	492.25
453.31	535.25
453.53	517.25
453.751	497.25
453.971	491.25
454.192	519.25
454.412	506.25
454.633	492.25
454.853	491.25
455.073	483.25
455.294	521.25
455.514	592.25
455.734	566.25
455.955	486.25
456.175	487.25
456.395	451.25
456.616	473.25
456.836	474.25
457.056	439.25
457.276	453.25
457.497	484.25
457.717	451.25
457.937	465.25
458.157	474.25
458.377	471.25
458.598	506.25
458.818	563.25
459.038	645.25
459.258	647.25
459.478	574.25
459.698	519.25
459.918	485.25
460.138	499.25
460.358	495.25
460.578	517.25
460.798	504.25
461.018	506.25
461.238	489.25
461.458	482.25
461.678	479.25
461.898	500.25
462.118	501.25
462.338	502.25
462.558	502.25
462.777	504.25
462.997	526.25
463.217	525.25
463.437	515.25
463.657	529.25
463.876	518.25
464.096	536.25
464.316	540.25
464.536	523.25
464.755	513.25
464.975	544.25
465.195	598.25
465.414	698.25
465.634	608.25
465.854	552.25
466.073	525.25
466.293	514.25
466.512	503.25
466.732	494.25
466.951	490.25
467.171	501.25
467.391	495.25
467.61	511.25
467.829	523.25
468.049	503.25
468.268	509.25
468.488	474.25
468.707	489.25
468.927	455.25
469.146	485.25
469.365	470.25
469.585	471.25
469.804	488.25
470.023	505.25
470.243	515.25
470.462	528.25
470.681	527.25
470.901	521.25
471.12	499.25
471.339	501.25
471.558	504.25
471.777	515.25
471.997	517.25
472.216	503.25
472.435	542.25
472.654	529.25
472.873	499.25
473.092	525.25
473.311	492.25
473.53	515.25
473.749	520.25
473.968	560.25
474.187	661.25
474.406	710.25
474.625	582.25
474.844	559.25
475.063	537.25
475.282	523.25
475.501	523.25
475.72	524.25
475.939	498.25
476.158	517.25
476.377	501.25
476.596	522.25
476.814	529.25
477.033	553.25
477.252	529.25
477.471	571.25
477.69	548.25
477.908	520.25
478.127	566.25
478.346	546.25
478.564	548.25
478.783	559.25
479.002	574.25
479.22	578.25
479.439	594.25
479.658	600.25
479.876	622.25
480.095	608.25
480.313	653.25
480.532	622.25
480.751	589.25
480.969	632.25
481.188	681.25
481.406	738.25
481.624	675.25
481.843	625.25
482.061	607.25
482.28	610.25
482.498	607.25
482.717	599.25
482.935	579.25
483.153	609.25
483.372	589.25
483.59	577.25
483.808	599.25
484.027	591.25
484.245	601.25
484.463	597.25
484.681	605.25
484.9	611.25
485.118	597.25
485.336	603.25
485.554	639.25
485.772	612.25
485.99	608.25
486.209	611.25
486.427	637.25
486.645	655.25
486.863	667.25
487.081	672.25
487.299	653.25
487.517	663.25
487.735	669.25
487.953	639.25
488.171	675.25
488.389	655.25
488.607	667.25
488.825	664.25
489.043	647.25
489.261	673.25
489.479	700.25
489.696	646.25
489.914	655.25
490.132	670.25
490.35	662.25
490.568	696.25
490.786	688.25
491.003	707.25
491.221	729.25
491.439	738.25
491.657	735.25
491.874	751.25
492.092	761.25
492.31	772.25
492.527	781.25
492.745	769.25
492.963	789.25
493.18	767.25
493.398	779.25
493.615	776.25
493.833	764.25
494.05	780.25
494.268	781.25
494.485	749.25
494.703	795.25
494.92	802.25
495.138	805.25
495.355	760.25
495.573	803.25
495.79	763.25
496.008	811.25
496.225	832.25
496.442	817.25
496.66	803.25
496.877	780.25
497.094	781.25
497.312	803.25
497.529	820.25
497.746	811.25
497.963	799.25
498.181	819.25
498.398	803.25
498.615	864.25
498.832	852.25
499.049	825.25
499.267	853.25
499.484	881.25
499.701	865.25
499.918	909.25
500.135	930.25
500.352	961.25
500.569	955.25
500.786	992.25
501.003	967.25
501.22	940.25
501.437	957.25
501.654	938.25
