Data from 1971.PennyLincolnUp.Lamp.En5.5.200Scan.071719.P1.Scan 2. Changed Angle._HRD10591_15-24-02-842.txt Node
Date: Thu Jul 18 15:24:02 EDT 2019
User: cochatt
Spectrometer: HR+D1059
Trigger mode: 1
Integration Time (sec): 1.000000E-1
Scans to average: 1
Electric dark correction enabled: true
Nonlinearity correction enabled: false
Boxcar width: 0
XAxis mode: Wavelengths
Number of Pixels in Spectrum: 2048
>>>>>Begin Spectral Data<<<<<
223.165	-17.25
223.4	-17.25
223.635	-17.25
223.869	-5.25
224.104	-7.25
224.338	-11.25
224.573	-24.25
224.808	-13.25
225.042	-11.25
225.277	-7.25
225.511	-2.25
225.746	0.75
225.98	9.75
226.215	17.75
226.449	9.75
226.683	8.75
226.918	24.75
227.152	27.75
227.387	27.75
227.621	34.75
227.856	27.75
228.09	49.75
228.324	38.75
228.559	48.75
228.793	59.75
229.027	114.75
229.262	115.75
229.496	136.75
229.73	139.75
229.964	192.75
230.199	155.75
230.433	127.75
230.667	125.75
230.901	113.75
231.136	129.75
231.37	124.75
231.604	121.75
231.838	128.75
232.072	111.75
232.306	119.75
232.541	113.75
232.775	125.75
233.009	124.75
233.243	127.75
233.477	127.75
233.711	112.75
233.945	122.75
234.179	124.75
234.413	125.75
234.647	127.75
234.881	122.75
235.115	109.75
235.349	133.75
235.583	142.75
235.817	122.75
236.051	135.75
236.285	110.75
236.519	113.75
236.753	133.75
236.987	155.75
237.221	210.75
237.455	257.75
237.689	201.75
237.922	159.75
238.156	137.75
238.39	144.75
238.624	113.75
238.858	139.75
239.091	137.75
239.325	131.75
239.559	140.75
239.793	147.75
240.027	134.75
240.26	157.75
240.494	169.75
240.728	173.75
240.961	165.75
241.195	152.75
241.429	149.75
241.662	135.75
241.896	133.75
242.13	147.75
242.363	134.75
242.597	156.75
242.83	159.75
243.064	153.75
243.298	139.75
243.531	140.75
243.765	144.75
243.998	137.75
244.232	149.75
244.465	133.75
244.699	156.75
244.932	154.75
245.166	151.75
245.399	157.75
245.633	142.75
245.866	143.75
246.099	149.75
246.333	159.75
246.566	163.75
246.8	160.75
247.033	168.75
247.266	154.75
247.5	188.75
247.733	167.75
247.966	177.75
248.2	193.75
248.433	201.75
248.666	184.75
248.899	218.75
249.133	222.75
249.366	226.75
249.599	206.75
249.832	191.75
250.066	202.75
250.299	194.75
250.532	196.75
250.765	221.75
250.998	256.75
251.231	241.75
251.465	243.75
251.698	238.75
251.931	236.75
252.164	210.75
252.397	203.75
252.63	214.75
252.863	237.75
253.096	229.75
253.329	255.75
253.562	257.75
253.795	228.75
254.028	214.75
254.261	224.75
254.494	258.75
254.727	268.75
254.96	324.75
255.193	308.75
255.426	265.75
255.659	270.75
255.892	268.75
256.124	266.75
256.357	253.75
256.59	245.75
256.823	228.75
257.056	230.75
257.289	224.75
257.521	240.75
257.754	230.75
257.987	229.75
258.22	233.75
258.452	194.75
258.685	225.75
258.918	217.75
259.151	214.75
259.383	213.75
259.616	228.75
259.849	234.75
260.081	253.75
260.314	271.75
260.547	287.75
260.779	259.75
261.012	232.75
261.244	232.75
261.477	234.75
261.71	235.75
261.942	231.75
262.175	266.75
262.407	236.75
262.64	216.75
262.872	223.75
263.105	230.75
263.337	214.75
263.57	233.75
263.802	217.75
264.035	223.75
264.267	228.75
264.499	231.75
264.732	226.75
264.964	217.75
265.197	213.75
265.429	222.75
265.661	227.75
265.894	210.75
266.126	205.75
266.358	216.75
266.591	230.75
266.823	235.75
267.055	224.75
267.287	219.75
267.52	233.75
267.752	233.75
267.984	237.75
268.216	231.75
268.448	246.75
268.681	240.75
268.913	245.75
269.145	256.75
269.377	280.75
269.609	300.75
269.841	285.75
270.073	279.75
270.306	314.75
270.538	338.75
270.77	345.75
271.002	321.75
271.234	301.75
271.466	313.75
271.698	336.75
271.93	343.75
272.162	343.75
272.394	335.75
272.626	335.75
272.858	303.75
273.09	294.75
273.322	287.75
273.553	278.75
273.785	274.75
274.017	283.75
274.249	282.75
274.481	259.75
274.713	286.75
274.945	294.75
275.176	266.75
275.408	262.75
275.64	283.75
275.872	277.75
276.104	286.75
276.335	271.75
276.567	279.75
276.799	271.75
277.031	315.75
277.262	328.75
277.494	341.75
277.726	309.75
277.957	291.75
278.189	279.75
278.421	257.75
278.652	276.75
278.884	279.75
279.115	270.75
279.347	270.75
279.579	264.75
279.81	249.75
280.042	271.75
280.273	248.75
280.505	257.75
280.736	266.75
280.968	253.75
281.199	261.75
281.431	273.75
281.662	258.75
281.894	244.75
282.125	274.75
282.356	295.75
282.588	318.75
282.819	299.75
283.051	269.75
283.282	250.75
283.513	276.75
283.745	284.75
283.976	260.75
284.207	257.75
284.439	264.75
284.67	263.75
284.901	247.75
285.132	248.75
285.364	263.75
285.595	265.75
285.826	261.75
286.057	276.75
286.288	262.75
286.52	265.75
286.751	261.75
286.982	272.75
287.213	269.75
287.444	273.75
287.675	266.75
287.906	289.75
288.138	284.75
288.369	294.75
288.6	294.75
288.831	279.75
289.062	290.75
289.293	277.75
289.524	291.75
289.755	285.75
289.986	270.75
290.217	260.75
290.448	276.75
290.679	268.75
290.91	279.75
291.141	272.75
291.371	259.75
291.602	286.75
291.833	269.75
292.064	265.75
292.295	298.75
292.526	284.75
292.757	270.75
292.987	279.75
293.218	283.75
293.449	276.75
293.68	282.75
293.91	277.75
294.141	272.75
294.372	276.75
294.603	285.75
294.833	280.75
295.064	282.75
295.295	280.75
295.525	274.75
295.756	293.75
295.987	293.75
296.217	318.75
296.448	328.75
296.679	317.75
296.909	293.75
297.14	280.75
297.37	284.75
297.601	282.75
297.831	286.75
298.062	279.75
298.292	292.75
298.523	283.75
298.753	301.75
298.984	297.75
299.214	295.75
299.445	286.75
299.675	303.75
299.905	294.75
300.136	315.75
300.366	283.75
300.597	291.75
300.827	293.75
301.057	310.75
301.288	333.75
301.518	321.75
301.748	308.75
301.979	283.75
302.209	314.75
302.439	327.75
302.669	317.75
302.9	322.75
303.13	301.75
303.36	325.75
303.59	316.75
303.82	315.75
304.051	307.75
304.281	330.75
304.511	291.75
304.741	321.75
304.971	309.75
305.201	305.75
305.431	323.75
305.661	316.75
305.891	310.75
306.121	316.75
306.352	325.75
306.582	314.75
306.812	327.75
307.042	311.75
307.272	310.75
307.502	322.75
307.731	307.75
307.961	322.75
308.191	323.75
308.421	308.75
308.651	328.75
308.881	326.75
309.111	322.75
309.341	327.75
309.571	337.75
309.8	348.75
310.03	359.75
310.26	371.75
310.49	380.75
310.72	376.75
310.949	418.75
311.179	428.75
311.409	393.75
311.639	370.75
311.868	392.75
312.098	386.75
312.328	364.75
312.557	413.75
312.787	399.75
313.017	433.75
313.246	399.75
313.476	385.75
313.706	384.75
313.935	381.75
314.165	394.75
314.394	426.75
314.624	399.75
314.853	399.75
315.083	370.75
315.312	377.75
315.542	360.75
315.771	356.75
316.001	356.75
316.23	353.75
316.46	376.75
316.689	370.75
316.919	393.75
317.148	398.75
317.377	384.75
317.607	384.75
317.836	380.75
318.065	390.75
318.295	394.75
318.524	369.75
318.753	372.75
318.983	378.75
319.212	385.75
319.441	378.75
319.67	389.75
319.9	376.75
320.129	387.75
320.358	362.75
320.587	372.75
320.816	385.75
321.046	397.75
321.275	395.75
321.504	388.75
321.733	405.75
321.962	407.75
322.191	436.75
322.42	438.75
322.649	462.75
322.878	478.75
323.108	484.75
323.337	519.75
323.566	546.75
323.795	596.75
324.024	648.75
324.253	795.75
324.482	1198.75
324.71	1856.75
324.939	2650.75
325.168	2253.75
325.397	1195.75
325.626	771.75
325.855	627.75
326.084	567.75
326.313	546.75
326.542	557.75
326.77	627.75
326.999	715.75
327.228	1040.75
327.457	1589.75
327.686	1979.75
327.914	1332.75
328.143	827.75
328.372	715.75
328.6	700.75
328.829	643.75
329.058	646.75
329.287	654.75
329.515	611.75
329.744	565.75
329.972	561.75
330.201	573.75
330.43	647.75
330.658	669.75
330.887	694.75
331.115	667.75
331.344	570.75
331.572	519.75
331.801	536.75
332.03	526.75
332.258	485.75
332.486	466.75
332.715	434.75
332.943	457.75
333.172	452.75
333.4	450.75
333.629	460.75
333.857	478.75
334.085	484.75
334.314	513.75
334.542	541.75
334.771	562.75
334.999	523.75
335.227	483.75
335.455	459.75
335.684	435.75
335.912	415.75
336.14	435.75
336.369	434.75
336.597	440.75
336.825	459.75
337.053	420.75
337.281	426.75
337.51	421.75
337.738	425.75
337.966	426.75
338.194	416.75
338.422	446.75
338.65	412.75
338.878	434.75
339.106	415.75
339.334	397.75
339.562	424.75
339.79	427.75
340.018	418.75
340.246	455.75
340.474	434.75
340.702	429.75
340.93	427.75
341.158	414.75
341.386	417.75
341.614	428.75
341.842	425.75
342.07	428.75
342.298	421.75
342.526	415.75
342.754	407.75
342.981	412.75
343.209	419.75
343.437	386.75
343.665	422.75
343.893	407.75
344.12	447.75
344.348	420.75
344.576	428.75
344.804	437.75
345.031	451.75
345.259	467.75
345.487	463.75
345.714	438.75
345.942	423.75
346.17	447.75
346.397	428.75
346.625	435.75
346.853	424.75
347.08	439.75
347.308	427.75
347.535	432.75
347.763	439.75
347.99	430.75
348.218	419.75
348.445	424.75
348.673	427.75
348.9	424.75
349.128	425.75
349.355	412.75
349.583	413.75
349.81	396.75
350.037	417.75
350.265	426.75
350.492	401.75
350.72	410.75
350.947	405.75
351.174	423.75
351.402	451.75
351.629	451.75
351.856	442.75
352.083	458.75
352.311	446.75
352.538	479.75
352.765	461.75
352.992	440.75
353.22	437.75
353.447	416.75
353.674	419.75
353.901	404.75
354.128	399.75
354.355	382.75
354.583	382.75
354.81	385.75
355.037	396.75
355.264	399.75
355.491	369.75
355.718	371.75
355.945	378.75
356.172	386.75
356.399	380.75
356.626	396.75
356.853	379.75
357.08	373.75
357.307	379.75
357.534	377.75
357.761	378.75
357.988	402.75
358.215	381.75
358.441	383.75
358.668	390.75
358.895	403.75
359.122	410.75
359.349	406.75
359.576	437.75
359.802	462.75
360.029	505.75
360.256	533.75
360.483	493.75
360.709	443.75
360.936	446.75
361.163	425.75
361.39	422.75
361.616	437.75
361.843	426.75
362.07	421.75
362.296	430.75
362.523	421.75
362.749	462.75
362.976	433.75
363.203	413.75
363.429	407.75
363.656	412.75
363.882	399.75
364.109	388.75
364.335	413.75
364.562	401.75
364.788	391.75
365.015	413.75
365.241	409.75
365.468	432.75
365.694	411.75
365.92	430.75
366.147	407.75
366.373	404.75
366.599	399.75
366.826	396.75
367.052	395.75
367.278	421.75
367.505	389.75
367.731	391.75
367.957	412.75
368.184	413.75
368.41	415.75
368.636	452.75
368.862	459.75
369.089	420.75
369.315	404.75
369.541	393.75
369.767	400.75
369.993	404.75
370.219	389.75
370.445	396.75
370.672	407.75
370.898	382.75
371.124	398.75
371.35	404.75
371.576	395.75
371.802	397.75
372.028	391.75
372.254	395.75
372.48	405.75
372.706	389.75
372.932	392.75
373.158	402.75
373.384	389.75
373.61	390.75
373.835	397.75
374.061	396.75
374.287	417.75
374.513	399.75
374.739	404.75
374.965	402.75
375.191	392.75
375.416	409.75
375.642	403.75
375.868	397.75
376.094	418.75
376.319	407.75
376.545	387.75
376.771	408.75
376.997	397.75
377.222	404.75
377.448	378.75
377.674	391.75
377.899	383.75
378.125	393.75
378.35	400.75
378.576	395.75
378.802	391.75
379.027	408.75
379.253	405.75
379.478	388.75
379.704	408.75
379.929	394.75
380.155	395.75
380.38	396.75
380.606	395.75
380.831	392.75
381.057	389.75
381.282	385.75
381.507	413.75
381.733	408.75
381.958	412.75
382.184	408.75
382.409	402.75
382.634	410.75
382.86	395.75
383.085	405.75
383.31	422.75
383.535	416.75
383.761	417.75
383.986	393.75
384.211	408.75
384.436	426.75
384.662	420.75
384.887	429.75
385.112	433.75
385.337	433.75
385.562	435.75
385.787	437.75
386.013	443.75
386.238	457.75
386.463	438.75
386.688	432.75
386.913	424.75
387.138	420.75
387.363	417.75
387.588	412.75
387.813	412.75
388.038	423.75
388.263	427.75
388.488	439.75
388.713	438.75
388.938	422.75
389.163	425.75
389.387	437.75
389.612	435.75
389.837	442.75
390.062	427.75
390.287	421.75
390.512	425.75
390.736	416.75
390.961	425.75
391.186	410.75
391.411	431.75
391.636	449.75
391.86	428.75
392.085	429.75
392.31	435.75
392.534	452.75
392.759	425.75
392.984	443.75
393.208	433.75
393.433	441.75
393.658	460.75
393.882	437.75
394.107	425.75
394.331	428.75
394.556	437.75
394.78	422.75
395.005	446.75
395.229	430.75
395.454	436.75
395.678	427.75
395.903	474.75
396.127	481.75
396.352	483.75
396.576	453.75
396.801	444.75
397.025	460.75
397.249	445.75
397.474	463.75
397.698	482.75
397.922	494.75
398.147	497.75
398.371	458.75
398.595	483.75
398.82	460.75
399.044	464.75
399.268	487.75
399.492	510.75
399.717	501.75
399.941	556.75
400.165	601.75
400.389	606.75
400.613	563.75
400.837	531.75
401.062	499.75
401.286	517.75
401.51	498.75
401.734	506.75
401.958	509.75
402.182	476.75
402.406	502.75
402.63	521.75
402.854	504.75
403.078	501.75
403.302	519.75
403.526	518.75
403.75	536.75
403.974	519.75
404.198	484.75
404.422	523.75
404.645	536.75
404.869	532.75
405.093	557.75
405.317	625.75
405.541	609.75
405.765	585.75
405.988	593.75
406.212	565.75
406.436	600.75
406.66	604.75
406.883	580.75
407.107	586.75
407.331	636.75
407.555	715.75
407.778	685.75
408.002	622.75
408.226	597.75
408.449	568.75
408.673	564.75
408.896	588.75
409.12	645.75
409.344	625.75
409.567	567.75
409.791	537.75
410.014	542.75
410.238	526.75
410.461	521.75
410.685	508.75
410.908	549.75
411.132	585.75
411.355	617.75
411.578	583.75
411.802	543.75
412.025	530.75
412.249	541.75
412.472	576.75
412.695	603.75
412.919	598.75
413.142	551.75
413.365	523.75
413.589	510.75
413.812	493.75
414.035	507.75
414.258	511.75
414.482	493.75
414.705	484.75
414.928	497.75
415.151	493.75
415.374	505.75
415.597	476.75
415.821	483.75
416.044	492.75
416.267	497.75
416.49	485.75
416.713	499.75
416.936	505.75
417.159	494.75
417.382	519.75
417.605	525.75
417.828	523.75
418.051	537.75
418.274	506.75
418.497	499.75
418.72	501.75
418.943	498.75
419.166	548.75
419.389	545.75
419.611	535.75
419.834	539.75
420.057	521.75
420.28	526.75
420.503	559.75
420.726	534.75
420.948	566.75
421.171	617.75
421.394	622.75
421.617	551.75
421.839	537.75
422.062	545.75
422.285	543.75
422.507	616.75
422.73	697.75
422.953	681.75
423.175	592.75
423.398	557.75
423.621	565.75
423.843	582.75
424.066	586.75
424.288	586.75
424.511	600.75
424.733	673.75
424.956	758.75
425.178	733.75
425.401	737.75
425.623	767.75
425.846	643.75
426.068	593.75
426.291	573.75
426.513	580.75
426.735	625.75
426.958	636.75
427.18	741.75
427.402	892.75
427.625	995.75
427.847	891.75
428.069	809.75
428.292	669.75
428.514	618.75
428.736	590.75
428.958	561.75
429.181	547.75
429.403	549.75
429.625	564.75
429.847	591.75
430.069	695.75
430.292	676.75
430.514	577.75
430.736	587.75
430.958	546.75
431.18	519.75
431.402	532.75
431.624	527.75
431.846	515.75
432.068	520.75
432.29	507.75
432.512	504.75
432.734	521.75
432.956	505.75
433.178	526.75
433.4	531.75
433.622	518.75
433.844	537.75
434.066	509.75
434.287	503.75
434.509	506.75
434.731	530.75
434.953	535.75
435.175	533.75
435.397	588.75
435.618	618.75
435.84	674.75
436.062	773.75
436.284	828.75
436.505	711.75
436.727	629.75
436.949	567.75
437.17	579.75
437.392	564.75
437.614	573.75
437.835	651.75
438.057	764.75
438.278	851.75
438.5	823.75
438.721	918.75
438.943	880.75
439.165	715.75
439.386	643.75
439.608	637.75
439.829	617.75
440.05	661.75
440.272	721.75
440.493	663.75
440.715	611.75
440.936	588.75
441.158	590.75
441.379	549.75
441.6	574.75
441.822	589.75
442.043	673.75
442.264	742.75
442.486	802.75
442.707	681.75
442.928	621.75
443.149	627.75
443.371	647.75
443.592	688.75
443.813	776.75
444.034	831.75
444.255	719.75
444.476	630.75
444.698	619.75
444.919	586.75
445.14	682.75
445.361	681.75
445.582	673.75
445.803	725.75
446.024	817.75
446.245	860.75
446.466	759.75
446.687	654.75
446.908	595.75
447.129	573.75
447.35	577.75
447.571	578.75
447.792	574.75
448.013	571.75
448.234	594.75
448.455	661.75
448.675	771.75
448.896	869.75
449.117	783.75
449.338	732.75
449.559	848.75
449.779	922.75
450	750.75
450.221	633.75
450.442	593.75
450.662	561.75
450.883	589.75
451.104	620.75
451.324	582.75
451.545	571.75
451.766	538.75
451.986	507.75
452.207	489.75
452.428	512.75
452.648	527.75
452.869	516.75
453.089	522.75
453.31	531.75
453.53	529.75
453.751	505.75
453.971	518.75
454.192	557.75
454.412	522.75
454.633	507.75
454.853	493.75
455.073	502.75
455.294	548.75
455.514	610.75
455.734	589.75
455.955	498.75
456.175	500.75
456.395	482.75
456.616	452.75
456.836	459.75
457.056	449.75
457.276	471.75
457.497	471.75
457.717	450.75
457.937	454.75
458.157	466.75
458.377	480.75
458.598	517.75
458.818	588.75
459.038	663.75
459.258	718.75
459.478	611.75
459.698	537.75
459.918	523.75
460.138	507.75
460.358	514.75
460.578	495.75
460.798	533.75
461.018	524.75
461.238	518.75
461.458	514.75
461.678	506.75
461.898	499.75
462.118	502.75
462.338	501.75
462.558	517.75
462.777	517.75
462.997	506.75
463.217	518.75
463.437	506.75
463.657	503.75
463.876	525.75
464.096	516.75
464.316	554.75
464.536	553.75
464.755	545.75
464.975	567.75
465.195	606.75
465.414	721.75
465.634	643.75
465.854	594.75
466.073	561.75
466.293	521.75
466.512	519.75
466.732	522.75
466.951	502.75
467.171	496.75
467.391	504.75
467.61	508.75
467.829	535.75
468.049	500.75
468.268	531.75
468.488	499.75
468.707	499.75
468.927	489.75
469.146	486.75
469.365	481.75
469.585	506.75
469.804	514.75
470.023	519.75
470.243	503.75
470.462	531.75
470.681	543.75
470.901	533.75
471.12	506.75
471.339	514.75
471.558	534.75
471.777	529.75
471.997	498.75
472.216	523.75
472.435	587.75
472.654	545.75
472.873	517.75
473.092	506.75
473.311	511.75
473.53	521.75
473.749	518.75
473.968	602.75
474.187	720.75
474.406	750.75
474.625	600.75
474.844	549.75
475.063	546.75
475.282	530.75
475.501	536.75
475.72	549.75
475.939	532.75
476.158	539.75
476.377	530.75
476.596	542.75
476.814	525.75
477.033	552.75
477.252	569.75
477.471	544.75
477.69	561.75
477.908	567.75
478.127	572.75
478.346	574.75
478.564	581.75
478.783	566.75
479.002	587.75
479.22	591.75
479.439	608.75
479.658	632.75
479.876	599.75
480.095	611.75
480.313	651.75
480.532	649.75
480.751	636.75
480.969	647.75
481.188	718.75
481.406	773.75
481.624	691.75
481.843	643.75
482.061	610.75
482.28	609.75
482.498	629.75
482.717	621.75
482.935	616.75
483.153	620.75
483.372	612.75
483.59	610.75
483.808	617.75
484.027	609.75
484.245	613.75
484.463	612.75
484.681	631.75
484.9	621.75
485.118	637.75
485.336	628.75
485.554	626.75
485.772	641.75
485.99	634.75
486.209	636.75
486.427	621.75
486.645	669.75
486.863	689.75
487.081	695.75
487.299	675.75
487.517	670.75
487.735	686.75
487.953	684.75
488.171	685.75
488.389	672.75
488.607	690.75
488.825	681.75
489.043	679.75
489.261	655.75
489.479	677.75
489.696	691.75
489.914	691.75
490.132	739.75
490.35	709.75
490.568	702.75
490.786	735.75
491.003	731.75
491.221	734.75
491.439	755.75
491.657	763.75
491.874	792.75
492.092	787.75
492.31	796.75
492.527	797.75
492.745	774.75
492.963	805.75
493.18	796.75
493.398	813.75
493.615	807.75
493.833	796.75
494.05	801.75
494.268	817.75
494.485	832.75
494.703	808.75
494.92	807.75
495.138	837.75
495.355	827.75
495.573	825.75
495.79	818.75
496.008	825.75
496.225	787.75
496.442	821.75
496.66	810.75
496.877	809.75
497.094	815.75
497.312	826.75
497.529	843.75
497.746	843.75
497.963	829.75
498.181	839.75
498.398	851.75
498.615	896.75
498.832	861.75
499.049	865.75
499.267	879.75
499.484	916.75
499.701	921.75
499.918	919.75
500.135	952.75
500.352	962.75
500.569	943.75
500.786	981.75
501.003	967.75
501.22	982.75
501.437	971.75
501.654	970.75
