Data from 1971.PennyLincolnUp.Lamp.En5.5.200Scan.071719.P1._HRD10591_15-19-17-841.txt Node
Date: Thu Jul 18 15:19:17 EDT 2019
User: cochatt
Spectrometer: HR+D1059
Trigger mode: 1
Integration Time (sec): 1.000000E-1
Scans to average: 1
Electric dark correction enabled: true
Nonlinearity correction enabled: false
Boxcar width: 0
XAxis mode: Wavelengths
Number of Pixels in Spectrum: 2048
>>>>>Begin Spectral Data<<<<<
223.165	-25.25
223.4	-25.25
223.635	-25.25
223.869	-17.25
224.104	-26.25
224.338	-3.25
224.573	-12.25
224.808	-8.25
225.042	-13.25
225.277	-16.25
225.511	8.75
225.746	0.75
225.98	5.75
226.215	9.75
226.449	17.75
226.683	19.75
226.918	35.75
227.152	23.75
227.387	25.75
227.621	46.75
227.856	35.75
228.09	44.75
228.324	51.75
228.559	67.75
228.793	71.75
229.027	94.75
229.262	99.75
229.496	125.75
229.73	111.75
229.964	137.75
230.199	120.75
230.433	107.75
230.667	108.75
230.901	113.75
231.136	119.75
231.37	98.75
231.604	108.75
231.838	99.75
232.072	108.75
232.306	113.75
232.541	110.75
232.775	105.75
233.009	119.75
233.243	118.75
233.477	118.75
233.711	113.75
233.945	113.75
234.179	110.75
234.413	108.75
234.647	110.75
234.881	114.75
235.115	110.75
235.349	117.75
235.583	124.75
235.817	114.75
236.051	123.75
236.285	129.75
236.519	117.75
236.753	122.75
236.987	151.75
237.221	173.75
237.455	221.75
237.689	178.75
237.922	126.75
238.156	117.75
238.39	124.75
238.624	131.75
238.858	117.75
239.091	117.75
239.325	133.75
239.559	129.75
239.793	125.75
240.027	139.75
240.26	143.75
240.494	147.75
240.728	132.75
240.961	132.75
241.195	149.75
241.429	130.75
241.662	142.75
241.896	118.75
242.13	133.75
242.363	130.75
242.597	134.75
242.83	136.75
243.064	144.75
243.298	142.75
243.531	138.75
243.765	145.75
243.998	126.75
244.232	141.75
244.465	162.75
244.699	135.75
244.932	139.75
245.166	150.75
245.399	149.75
245.633	163.75
245.866	141.75
246.099	139.75
246.333	148.75
246.566	148.75
246.8	149.75
247.033	146.75
247.266	156.75
247.5	157.75
247.733	161.75
247.966	174.75
248.2	159.75
248.433	171.75
248.666	183.75
248.899	181.75
249.133	198.75
249.366	211.75
249.599	183.75
249.832	170.75
250.066	182.75
250.299	182.75
250.532	194.75
250.765	195.75
250.998	229.75
251.231	217.75
251.465	215.75
251.698	202.75
251.931	207.75
252.164	188.75
252.397	190.75
252.63	195.75
252.863	210.75
253.096	216.75
253.329	219.75
253.562	220.75
253.795	226.75
254.028	227.75
254.261	217.75
254.494	233.75
254.727	255.75
254.96	277.75
255.193	263.75
255.426	241.75
255.659	214.75
255.892	247.75
256.124	240.75
256.357	234.75
256.59	221.75
256.823	237.75
257.056	206.75
257.289	208.75
257.521	206.75
257.754	224.75
257.987	214.75
258.22	233.75
258.452	225.75
258.685	215.75
258.918	206.75
259.151	226.75
259.383	206.75
259.616	232.75
259.849	203.75
260.081	232.75
260.314	254.75
260.547	266.75
260.779	228.75
261.012	263.75
261.244	248.75
261.477	232.75
261.71	238.75
261.942	228.75
262.175	238.75
262.407	227.75
262.64	243.75
262.872	230.75
263.105	236.75
263.337	219.75
263.57	207.75
263.802	222.75
264.035	213.75
264.267	222.75
264.499	217.75
264.732	225.75
264.964	210.75
265.197	224.75
265.429	214.75
265.661	229.75
265.894	225.75
266.126	238.75
266.358	244.75
266.591	228.75
266.823	223.75
267.055	236.75
267.287	222.75
267.52	241.75
267.752	222.75
267.984	219.75
268.216	221.75
268.448	256.75
268.681	243.75
268.913	248.75
269.145	261.75
269.377	275.75
269.609	279.75
269.841	281.75
270.073	269.75
270.306	310.75
270.538	315.75
270.77	306.75
271.002	321.75
271.234	299.75
271.466	300.75
271.698	323.75
271.93	307.75
272.162	323.75
272.394	317.75
272.626	301.75
272.858	317.75
273.09	284.75
273.322	279.75
273.553	273.75
273.785	271.75
274.017	277.75
274.249	257.75
274.481	276.75
274.713	265.75
274.945	288.75
275.176	285.75
275.408	262.75
275.64	284.75
275.872	282.75
276.104	268.75
276.335	259.75
276.567	283.75
276.799	290.75
277.031	309.75
277.262	313.75
277.494	310.75
277.726	301.75
277.957	307.75
278.189	298.75
278.421	269.75
278.652	269.75
278.884	271.75
279.115	277.75
279.347	281.75
279.579	274.75
279.81	266.75
280.042	279.75
280.273	271.75
280.505	268.75
280.736	247.75
280.968	267.75
281.199	286.75
281.431	289.75
281.662	284.75
281.894	262.75
282.125	279.75
282.356	306.75
282.588	302.75
282.819	323.75
283.051	297.75
283.282	283.75
283.513	282.75
283.745	291.75
283.976	274.75
284.207	279.75
284.439	295.75
284.67	277.75
284.901	284.75
285.132	272.75
285.364	294.75
285.595	294.75
285.826	275.75
286.057	290.75
286.288	279.75
286.52	288.75
286.751	278.75
286.982	299.75
287.213	265.75
287.444	296.75
287.675	297.75
287.906	304.75
288.138	300.75
288.369	315.75
288.6	309.75
288.831	308.75
289.062	316.75
289.293	316.75
289.524	314.75
289.755	294.75
289.986	302.75
290.217	292.75
290.448	292.75
290.679	297.75
290.91	294.75
291.141	299.75
291.371	277.75
291.602	299.75
291.833	287.75
292.064	283.75
292.295	305.75
292.526	281.75
292.757	302.75
292.987	318.75
293.218	305.75
293.449	309.75
293.68	299.75
293.91	291.75
294.141	300.75
294.372	285.75
294.603	311.75
294.833	296.75
295.064	305.75
295.295	298.75
295.525	282.75
295.756	305.75
295.987	315.75
296.217	336.75
296.448	337.75
296.679	316.75
296.909	331.75
297.14	305.75
297.37	310.75
297.601	301.75
297.831	308.75
298.062	309.75
298.292	307.75
298.523	309.75
298.753	311.75
298.984	315.75
299.214	308.75
299.445	306.75
299.675	311.75
299.905	327.75
300.136	313.75
300.366	316.75
300.597	316.75
300.827	334.75
301.057	326.75
301.288	325.75
301.518	314.75
301.748	316.75
301.979	341.75
302.209	325.75
302.439	339.75
302.669	347.75
302.9	342.75
303.13	345.75
303.36	323.75
303.59	335.75
303.82	336.75
304.051	317.75
304.281	342.75
304.511	331.75
304.741	323.75
304.971	338.75
305.201	333.75
305.431	329.75
305.661	338.75
305.891	339.75
306.121	305.75
306.352	333.75
306.582	346.75
306.812	333.75
307.042	334.75
307.272	328.75
307.502	339.75
307.731	365.75
307.961	317.75
308.191	350.75
308.421	353.75
308.651	368.75
308.881	345.75
309.111	361.75
309.341	346.75
309.571	348.75
309.8	360.75
310.03	369.75
310.26	384.75
310.49	392.75
310.72	387.75
310.949	367.75
311.179	391.75
311.409	379.75
311.639	369.75
311.868	398.75
312.098	387.75
312.328	382.75
312.557	413.75
312.787	410.75
313.017	422.75
313.246	382.75
313.476	366.75
313.706	379.75
313.935	393.75
314.165	389.75
314.394	398.75
314.624	395.75
314.853	403.75
315.083	387.75
315.312	395.75
315.542	368.75
315.771	374.75
316.001	370.75
316.23	372.75
316.46	385.75
316.689	405.75
316.919	358.75
317.148	389.75
317.377	385.75
317.607	396.75
317.836	386.75
318.065	408.75
318.295	383.75
318.524	366.75
318.753	377.75
318.983	395.75
319.212	396.75
319.441	418.75
319.67	393.75
319.9	393.75
320.129	406.75
320.358	377.75
320.587	390.75
320.816	424.75
321.046	419.75
321.275	396.75
321.504	415.75
321.733	407.75
321.962	397.75
322.191	407.75
322.42	430.75
322.649	442.75
322.878	429.75
323.108	460.75
323.337	462.75
323.566	497.75
323.795	527.75
324.024	578.75
324.253	687.75
324.482	935.75
324.71	1439.75
324.939	1956.75
325.168	1626.75
325.397	843.75
325.626	601.75
325.855	535.75
326.084	494.75
326.313	495.75
326.542	491.75
326.77	555.75
326.999	637.75
327.228	897.75
327.457	1257.75
327.686	1415.75
327.914	969.75
328.143	632.75
328.372	587.75
328.6	551.75
328.829	533.75
329.058	533.75
329.287	546.75
329.515	524.75
329.744	493.75
329.972	489.75
330.201	505.75
330.43	531.75
330.658	556.75
330.887	560.75
331.115	524.75
331.344	499.75
331.572	476.75
331.801	490.75
332.03	471.75
332.258	456.75
332.486	441.75
332.715	459.75
332.943	455.75
333.172	436.75
333.4	453.75
333.629	445.75
333.857	444.75
334.085	447.75
334.314	483.75
334.542	489.75
334.771	513.75
334.999	482.75
335.227	475.75
335.455	450.75
335.684	446.75
335.912	451.75
336.14	437.75
336.369	460.75
336.597	461.75
336.825	428.75
337.053	426.75
337.281	463.75
337.51	420.75
337.738	433.75
337.966	430.75
338.194	450.75
338.422	421.75
338.65	421.75
338.878	427.75
339.106	408.75
339.334	410.75
339.562	434.75
339.79	407.75
340.018	417.75
340.246	429.75
340.474	430.75
340.702	404.75
340.93	420.75
341.158	411.75
341.386	396.75
341.614	418.75
341.842	413.75
342.07	398.75
342.298	418.75
342.526	404.75
342.754	417.75
342.981	405.75
343.209	412.75
343.437	410.75
343.665	404.75
343.893	422.75
344.12	426.75
344.348	418.75
344.576	412.75
344.804	418.75
345.031	428.75
345.259	426.75
345.487	429.75
345.714	412.75
345.942	410.75
346.17	378.75
346.397	385.75
346.625	407.75
346.853	391.75
347.08	386.75
347.308	406.75
347.535	410.75
347.763	411.75
347.99	415.75
348.218	417.75
348.445	412.75
348.673	419.75
348.9	395.75
349.128	399.75
349.355	376.75
349.583	395.75
349.81	382.75
350.037	361.75
350.265	365.75
350.492	363.75
350.72	389.75
350.947	395.75
351.174	407.75
351.402	407.75
351.629	390.75
351.856	397.75
352.083	434.75
352.311	407.75
352.538	400.75
352.765	398.75
352.992	405.75
353.22	394.75
353.447	385.75
353.674	380.75
353.901	365.75
354.128	370.75
354.355	341.75
354.583	369.75
354.81	376.75
355.037	353.75
355.264	375.75
355.491	362.75
355.718	375.75
355.945	356.75
356.172	351.75
356.399	369.75
356.626	390.75
356.853	367.75
357.08	357.75
357.307	381.75
357.534	381.75
357.761	373.75
357.988	383.75
358.215	369.75
358.441	349.75
358.668	375.75
358.895	373.75
359.122	389.75
359.349	378.75
359.576	387.75
359.802	416.75
360.029	424.75
360.256	403.75
360.483	387.75
360.709	392.75
360.936	370.75
361.163	378.75
361.39	382.75
361.616	393.75
361.843	374.75
362.07	375.75
362.296	383.75
362.523	386.75
362.749	379.75
362.976	395.75
363.203	389.75
363.429	369.75
363.656	386.75
363.882	384.75
364.109	395.75
364.335	373.75
364.562	371.75
364.788	369.75
365.015	402.75
365.241	370.75
365.468	376.75
365.694	365.75
365.92	369.75
366.147	355.75
366.373	345.75
366.599	364.75
366.826	372.75
367.052	359.75
367.278	381.75
367.505	356.75
367.731	361.75
367.957	364.75
368.184	359.75
368.41	362.75
368.636	379.75
368.862	391.75
369.089	372.75
369.315	370.75
369.541	360.75
369.767	373.75
369.993	364.75
370.219	350.75
370.445	344.75
370.672	375.75
370.898	344.75
371.124	346.75
371.35	374.75
371.576	368.75
371.802	359.75
372.028	378.75
372.254	379.75
372.48	358.75
372.706	349.75
372.932	349.75
373.158	348.75
373.384	359.75
373.61	354.75
373.835	371.75
374.061	353.75
374.287	374.75
374.513	377.75
374.739	333.75
374.965	365.75
375.191	365.75
375.416	374.75
375.642	355.75
375.868	357.75
376.094	356.75
376.319	366.75
376.545	349.75
376.771	342.75
376.997	364.75
377.222	359.75
377.448	337.75
377.674	351.75
377.899	347.75
378.125	365.75
378.35	358.75
378.576	323.75
378.802	354.75
379.027	351.75
379.253	353.75
379.478	370.75
379.704	348.75
379.929	354.75
380.155	363.75
380.38	348.75
380.606	343.75
380.831	350.75
381.057	364.75
381.282	353.75
381.507	344.75
381.733	361.75
381.958	342.75
382.184	369.75
382.409	353.75
382.634	358.75
382.86	364.75
383.085	348.75
383.31	355.75
383.535	351.75
383.761	350.75
383.986	369.75
384.211	339.75
384.436	351.75
384.662	370.75
384.887	378.75
385.112	361.75
385.337	378.75
385.562	362.75
385.787	366.75
386.013	363.75
386.238	374.75
386.463	351.75
386.688	377.75
386.913	388.75
387.138	360.75
387.363	374.75
387.588	373.75
387.813	388.75
388.038	367.75
388.263	357.75
388.488	373.75
388.713	374.75
388.938	363.75
389.163	387.75
389.387	357.75
389.612	367.75
389.837	356.75
390.062	377.75
390.287	357.75
390.512	359.75
390.736	375.75
390.961	370.75
391.186	376.75
391.411	381.75
391.636	389.75
391.86	400.75
392.085	376.75
392.31	376.75
392.534	376.75
392.759	373.75
392.984	358.75
393.208	374.75
393.433	378.75
393.658	384.75
393.882	379.75
394.107	380.75
394.331	388.75
394.556	363.75
394.78	373.75
395.005	369.75
395.229	362.75
395.454	380.75
395.678	389.75
395.903	384.75
396.127	405.75
396.352	398.75
396.576	391.75
396.801	375.75
397.025	371.75
397.249	383.75
397.474	388.75
397.698	398.75
397.922	414.75
398.147	420.75
398.371	419.75
398.595	410.75
398.82	415.75
399.044	414.75
399.268	422.75
399.492	450.75
399.717	471.75
399.941	505.75
400.165	509.75
400.389	514.75
400.613	478.75
400.837	437.75
401.062	447.75
401.286	436.75
401.51	420.75
401.734	409.75
401.958	414.75
402.182	418.75
402.406	408.75
402.63	416.75
402.854	411.75
403.078	426.75
403.302	421.75
403.526	442.75
403.75	424.75
403.974	430.75
404.198	434.75
404.422	436.75
404.645	440.75
404.869	441.75
405.093	449.75
405.317	487.75
405.541	517.75
405.765	478.75
405.988	476.75
406.212	446.75
406.436	469.75
406.66	462.75
406.883	467.75
407.107	486.75
407.331	523.75
407.555	570.75
407.778	549.75
408.002	527.75
408.226	477.75
408.449	458.75
408.673	456.75
408.896	487.75
409.12	525.75
409.344	485.75
409.567	442.75
409.791	444.75
410.014	421.75
410.238	445.75
410.461	429.75
410.685	436.75
410.908	436.75
411.132	481.75
411.355	495.75
411.578	482.75
411.802	446.75
412.025	418.75
412.249	444.75
412.472	439.75
412.695	488.75
412.919	471.75
413.142	419.75
413.365	414.75
413.589	424.75
413.812	414.75
414.035	419.75
414.258	405.75
414.482	405.75
414.705	401.75
414.928	395.75
415.151	386.75
415.374	414.75
415.597	387.75
415.821	411.75
416.044	402.75
416.267	394.75
416.49	393.75
416.713	396.75
416.936	394.75
417.159	406.75
417.382	404.75
417.605	415.75
417.828	412.75
418.051	423.75
418.274	427.75
418.497	388.75
418.72	425.75
418.943	387.75
419.166	409.75
419.389	421.75
419.611	427.75
419.834	420.75
420.057	424.75
420.28	401.75
420.503	399.75
420.726	416.75
420.948	443.75
421.171	469.75
421.394	478.75
421.617	446.75
421.839	409.75
422.062	409.75
422.285	454.75
422.507	470.75
422.73	545.75
422.953	511.75
423.175	451.75
423.398	448.75
423.621	441.75
423.843	442.75
424.066	436.75
424.288	457.75
424.511	466.75
424.733	516.75
424.956	582.75
425.178	520.75
425.401	532.75
425.623	543.75
425.846	510.75
426.068	442.75
426.291	462.75
426.513	436.75
426.735	440.75
426.958	476.75
427.18	545.75
427.402	658.75
427.625	712.75
427.847	585.75
428.069	537.75
428.292	490.75
428.514	446.75
428.736	423.75
428.958	415.75
429.181	398.75
429.403	407.75
429.625	419.75
429.847	450.75
430.069	487.75
430.292	511.75
430.514	438.75
430.736	419.75
430.958	410.75
431.18	413.75
431.402	410.75
431.624	384.75
431.846	383.75
432.068	408.75
432.29	383.75
432.512	391.75
432.734	392.75
432.956	399.75
433.178	423.75
433.4	405.75
433.622	396.75
433.844	392.75
434.066	400.75
434.287	411.75
434.509	399.75
434.731	397.75
434.953	412.75
435.175	423.75
435.397	456.75
435.618	439.75
435.84	502.75
436.062	557.75
436.284	618.75
436.505	501.75
436.727	458.75
436.949	419.75
437.17	412.75
437.392	415.75
437.614	439.75
437.835	442.75
438.057	558.75
438.278	619.75
438.5	616.75
438.721	661.75
438.943	641.75
439.165	518.75
439.386	487.75
439.608	475.75
439.829	470.75
440.05	494.75
440.272	525.75
440.493	468.75
440.715	442.75
440.936	442.75
441.158	410.75
441.379	421.75
441.6	447.75
441.822	447.75
442.043	467.75
442.264	564.75
442.486	573.75
442.707	472.75
442.928	465.75
443.149	455.75
443.371	489.75
443.592	521.75
443.813	584.75
444.034	642.75
444.255	529.75
444.476	471.75
444.698	448.75
444.919	450.75
445.14	535.75
445.361	520.75
445.582	482.75
445.803	534.75
446.024	619.75
446.245	644.75
446.466	561.75
446.687	494.75
446.908	473.75
447.129	429.75
447.35	415.75
447.571	428.75
447.792	419.75
448.013	404.75
448.234	455.75
448.455	499.75
448.675	562.75
448.896	646.75
449.117	554.75
449.338	522.75
449.559	610.75
449.779	686.75
450	552.75
450.221	459.75
450.442	430.75
450.662	392.75
450.883	422.75
451.104	449.75
451.324	413.75
451.545	398.75
451.766	402.75
451.986	374.75
452.207	374.75
452.428	364.75
452.648	359.75
452.869	382.75
453.089	374.75
453.31	389.75
453.53	381.75
453.751	373.75
453.971	382.75
454.192	388.75
454.412	358.75
454.633	362.75
454.853	357.75
455.073	377.75
455.294	395.75
455.514	450.75
455.734	433.75
455.955	370.75
456.175	373.75
456.395	346.75
456.616	369.75
456.836	342.75
457.056	349.75
457.276	355.75
457.497	355.75
457.717	341.75
457.937	360.75
458.157	361.75
458.377	339.75
458.598	392.75
458.818	424.75
459.038	474.75
459.258	481.75
459.478	437.75
459.698	381.75
459.918	380.75
460.138	380.75
460.358	386.75
460.578	377.75
460.798	377.75
461.018	377.75
461.238	401.75
461.458	385.75
461.678	376.75
461.898	414.75
462.118	385.75
462.338	387.75
462.558	374.75
462.777	413.75
462.997	413.75
463.217	428.75
463.437	415.75
463.657	418.75
463.876	408.75
464.096	424.75
464.316	428.75
464.536	414.75
464.755	427.75
464.975	402.75
465.195	458.75
465.414	471.75
465.634	433.75
465.854	421.75
466.073	394.75
466.293	381.75
466.512	369.75
466.732	370.75
466.951	363.75
467.171	364.75
467.391	364.75
467.61	382.75
467.829	389.75
468.049	387.75
468.268	391.75
468.488	371.75
468.707	387.75
468.927	353.75
469.146	370.75
469.365	391.75
469.585	362.75
469.804	385.75
470.023	375.75
470.243	395.75
470.462	389.75
470.681	382.75
470.901	402.75
471.12	389.75
471.339	372.75
471.558	395.75
471.777	385.75
471.997	386.75
472.216	396.75
472.435	414.75
472.654	394.75
472.873	377.75
473.092	380.75
473.311	392.75
473.53	365.75
473.749	401.75
473.968	459.75
474.187	524.75
474.406	515.75
474.625	403.75
474.844	400.75
475.063	412.75
475.282	391.75
475.501	389.75
475.72	385.75
475.939	393.75
476.158	392.75
476.377	390.75
476.596	387.75
476.814	390.75
477.033	397.75
477.252	395.75
477.471	420.75
477.69	398.75
477.908	394.75
478.127	422.75
478.346	413.75
478.564	415.75
478.783	441.75
479.002	433.75
479.22	424.75
479.439	450.75
479.658	449.75
479.876	439.75
480.095	455.75
480.313	471.75
480.532	500.75
480.751	462.75
480.969	461.75
481.188	515.75
481.406	510.75
481.624	492.75
481.843	457.75
482.061	457.75
482.28	443.75
482.498	438.75
482.717	425.75
482.935	425.75
483.153	436.75
483.372	455.75
483.59	455.75
483.808	447.75
484.027	430.75
484.245	447.75
484.463	441.75
484.681	460.75
484.9	462.75
485.118	449.75
485.336	457.75
485.554	458.75
485.772	444.75
485.99	454.75
486.209	431.75
486.427	471.75
486.645	471.75
486.863	469.75
487.081	479.75
487.299	466.75
487.517	490.75
487.735	478.75
487.953	466.75
488.171	482.75
488.389	492.75
488.607	473.75
488.825	491.75
489.043	493.75
489.261	455.75
489.479	491.75
489.696	477.75
489.914	482.75
490.132	490.75
490.35	470.75
490.568	483.75
490.786	538.75
491.003	526.75
491.221	526.75
491.439	526.75
491.657	534.75
491.874	548.75
492.092	554.75
492.31	552.75
492.527	545.75
492.745	555.75
492.963	572.75
493.18	570.75
493.398	568.75
493.615	567.75
493.833	551.75
494.05	563.75
494.268	573.75
494.485	546.75
494.703	556.75
494.92	574.75
495.138	563.75
495.355	596.75
495.573	576.75
495.79	577.75
496.008	572.75
496.225	578.75
496.442	563.75
496.66	552.75
496.877	558.75
497.094	563.75
497.312	582.75
497.529	590.75
497.746	597.75
497.963	599.75
498.181	602.75
498.398	626.75
498.615	631.75
498.832	619.75
499.049	605.75
499.267	637.75
499.484	647.75
499.701	689.75
499.918	718.75
500.135	715.75
500.352	730.75
500.569	725.75
500.786	765.75
501.003	727.75
501.22	733.75
501.437	717.75
501.654	689.75
501.871	680.75
502.088	683.75
