Data from 1971.PennyLincolnUp.Lamp.En5.5.200Scan.071719.P1._HRD10591_15-18-12-841.txt Node
Date: Thu Jul 18 15:18:12 EDT 2019
User: cochatt
Spectrometer: HR+D1059
Trigger mode: 1
Integration Time (sec): 1.000000E-1
Scans to average: 1
Electric dark correction enabled: true
Nonlinearity correction enabled: false
Boxcar width: 0
XAxis mode: Wavelengths
Number of Pixels in Spectrum: 2048
>>>>>Begin Spectral Data<<<<<
223.165	-8.62
223.4	-8.62
223.635	-8.62
223.869	-29.62
224.104	-6.62
224.338	3.38
224.573	-19.62
224.808	-14.62
225.042	-12.62
225.277	2.38
225.511	-8.62
225.746	-5.62
225.98	5.38
226.215	4.38
226.449	30.38
226.683	15.38
226.918	30.38
227.152	14.38
227.387	31.38
227.621	38.38
227.856	50.38
228.09	45.38
228.324	42.38
228.559	64.38
228.793	59.38
229.027	93.38
229.262	102.38
229.496	86.38
229.73	119.38
229.964	132.38
230.199	121.38
230.433	101.38
230.667	108.38
230.901	102.38
231.136	108.38
231.37	108.38
231.604	107.38
231.838	106.38
232.072	113.38
232.306	120.38
232.541	100.38
232.775	106.38
233.009	98.38
233.243	109.38
233.477	120.38
233.711	109.38
233.945	114.38
234.179	109.38
234.413	123.38
234.647	110.38
234.881	99.38
235.115	106.38
235.349	101.38
235.583	116.38
235.817	118.38
236.051	110.38
236.285	115.38
236.519	126.38
236.753	115.38
236.987	131.38
237.221	157.38
237.455	177.38
237.689	147.38
237.922	124.38
238.156	139.38
238.39	122.38
238.624	127.38
238.858	116.38
239.091	117.38
239.325	118.38
239.559	103.38
239.793	129.38
240.027	129.38
240.26	121.38
240.494	125.38
240.728	131.38
240.961	137.38
241.195	123.38
241.429	137.38
241.662	120.38
241.896	122.38
242.13	114.38
242.363	139.38
242.597	127.38
242.83	130.38
243.064	131.38
243.298	129.38
243.531	126.38
243.765	156.38
243.998	141.38
244.232	137.38
244.465	134.38
244.699	125.38
244.932	141.38
245.166	127.38
245.399	135.38
245.633	141.38
245.866	142.38
246.099	143.38
246.333	145.38
246.566	127.38
246.8	153.38
247.033	146.38
247.266	157.38
247.5	150.38
247.733	178.38
247.966	157.38
248.2	149.38
248.433	166.38
248.666	161.38
248.899	174.38
249.133	181.38
249.366	195.38
249.599	173.38
249.832	172.38
250.066	173.38
250.299	162.38
250.532	177.38
250.765	175.38
250.998	202.38
251.231	207.38
251.465	204.38
251.698	175.38
251.931	185.38
252.164	208.38
252.397	186.38
252.63	191.38
252.863	208.38
253.096	210.38
253.329	200.38
253.562	205.38
253.795	209.38
254.028	195.38
254.261	201.38
254.494	210.38
254.727	227.38
254.96	244.38
255.193	236.38
255.426	227.38
255.659	203.38
255.892	202.38
256.124	212.38
256.357	217.38
256.59	216.38
256.823	213.38
257.056	215.38
257.289	206.38
257.521	195.38
257.754	210.38
257.987	200.38
258.22	205.38
258.452	207.38
258.685	219.38
258.918	198.38
259.151	217.38
259.383	204.38
259.616	201.38
259.849	225.38
260.081	211.38
260.314	228.38
260.547	224.38
260.779	225.38
261.012	233.38
261.244	220.38
261.477	212.38
261.71	212.38
261.942	212.38
262.175	219.38
262.407	215.38
262.64	200.38
262.872	197.38
263.105	187.38
263.337	202.38
263.57	217.38
263.802	209.38
264.035	206.38
264.267	212.38
264.499	214.38
264.732	199.38
264.964	226.38
265.197	204.38
265.429	203.38
265.661	210.38
265.894	195.38
266.126	199.38
266.358	225.38
266.591	236.38
266.823	209.38
267.055	211.38
267.287	206.38
267.52	213.38
267.752	217.38
267.984	215.38
268.216	216.38
268.448	225.38
268.681	233.38
268.913	223.38
269.145	267.38
269.377	256.38
269.609	253.38
269.841	261.38
270.073	275.38
270.306	260.38
270.538	274.38
270.77	276.38
271.002	262.38
271.234	277.38
271.466	283.38
271.698	272.38
271.93	271.38
272.162	283.38
272.394	286.38
272.626	282.38
272.858	250.38
273.09	263.38
273.322	259.38
273.553	243.38
273.785	250.38
274.017	252.38
274.249	262.38
274.481	243.38
274.713	246.38
274.945	235.38
275.176	263.38
275.408	249.38
275.64	252.38
275.872	245.38
276.104	255.38
276.335	232.38
276.567	255.38
276.799	253.38
277.031	278.38
277.262	270.38
277.494	274.38
277.726	265.38
277.957	271.38
278.189	269.38
278.421	254.38
278.652	258.38
278.884	259.38
279.115	262.38
279.347	267.38
279.579	250.38
279.81	271.38
280.042	232.38
280.273	261.38
280.505	267.38
280.736	251.38
280.968	264.38
281.199	269.38
281.431	268.38
281.662	259.38
281.894	249.38
282.125	271.38
282.356	276.38
282.588	272.38
282.819	290.38
283.051	269.38
283.282	265.38
283.513	250.38
283.745	275.38
283.976	271.38
284.207	273.38
284.439	279.38
284.67	266.38
284.901	259.38
285.132	259.38
285.364	254.38
285.595	259.38
285.826	264.38
286.057	272.38
286.288	274.38
286.52	281.38
286.751	275.38
286.982	278.38
287.213	257.38
287.444	273.38
287.675	278.38
287.906	257.38
288.138	269.38
288.369	268.38
288.6	276.38
288.831	270.38
289.062	262.38
289.293	263.38
289.524	249.38
289.755	275.38
289.986	271.38
290.217	287.38
290.448	279.38
290.679	278.38
290.91	274.38
291.141	269.38
291.371	268.38
291.602	264.38
291.833	276.38
292.064	271.38
292.295	273.38
292.526	282.38
292.757	270.38
292.987	274.38
293.218	271.38
293.449	287.38
293.68	286.38
293.91	286.38
294.141	277.38
294.372	265.38
294.603	261.38
294.833	272.38
295.064	277.38
295.295	296.38
295.525	277.38
295.756	285.38
295.987	290.38
296.217	297.38
296.448	298.38
296.679	286.38
296.909	296.38
297.14	286.38
297.37	276.38
297.601	267.38
297.831	289.38
298.062	269.38
298.292	296.38
298.523	303.38
298.753	281.38
298.984	297.38
299.214	277.38
299.445	293.38
299.675	297.38
299.905	294.38
300.136	310.38
300.366	283.38
300.597	295.38
300.827	289.38
301.057	292.38
301.288	302.38
301.518	327.38
301.748	292.38
301.979	318.38
302.209	302.38
302.439	307.38
302.669	323.38
302.9	319.38
303.13	323.38
303.36	293.38
303.59	311.38
303.82	331.38
304.051	317.38
304.281	295.38
304.511	316.38
304.741	305.38
304.971	300.38
305.201	309.38
305.431	309.38
305.661	323.38
305.891	304.38
306.121	305.38
306.352	311.38
306.582	299.38
306.812	313.38
307.042	315.38
307.272	299.38
307.502	321.38
307.731	304.38
307.961	313.38
308.191	305.38
308.421	322.38
308.651	317.38
308.881	295.38
309.111	317.38
309.341	298.38
309.571	342.38
309.8	315.38
310.03	335.38
310.26	337.38
310.49	336.38
310.72	337.38
310.949	356.38
311.179	361.38
311.409	365.38
311.639	338.38
311.868	350.38
312.098	343.38
312.328	339.38
312.557	348.38
312.787	367.38
313.017	356.38
313.246	369.38
313.476	345.38
313.706	351.38
313.935	341.38
314.165	359.38
314.394	365.38
314.624	376.38
314.853	350.38
315.083	361.38
315.312	343.38
315.542	331.38
315.771	338.38
316.001	367.38
316.23	331.38
316.46	346.38
316.689	355.38
316.919	341.38
317.148	350.38
317.377	355.38
317.607	355.38
317.836	359.38
318.065	343.38
318.295	353.38
318.524	353.38
318.753	343.38
318.983	352.38
319.212	336.38
319.441	362.38
319.67	366.38
319.9	349.38
320.129	345.38
320.358	357.38
320.587	366.38
320.816	365.38
321.046	364.38
321.275	353.38
321.504	363.38
321.733	361.38
321.962	362.38
322.191	363.38
322.42	373.38
322.649	399.38
322.878	405.38
323.108	403.38
323.337	443.38
323.566	457.38
323.795	430.38
324.024	501.38
324.253	565.38
324.482	789.38
324.71	1175.38
324.939	1557.38
325.168	1354.38
325.397	744.38
325.626	539.38
325.855	469.38
326.084	435.38
326.313	446.38
326.542	442.38
326.77	455.38
326.999	551.38
327.228	713.38
327.457	1011.38
327.686	1173.38
327.914	811.38
328.143	577.38
328.372	511.38
328.6	495.38
328.829	470.38
329.058	454.38
329.287	464.38
329.515	461.38
329.744	454.38
329.972	434.38
330.201	431.38
330.43	449.38
330.658	471.38
330.887	497.38
331.115	481.38
331.344	451.38
331.572	419.38
331.801	409.38
332.03	407.38
332.258	414.38
332.486	407.38
332.715	401.38
332.943	396.38
333.172	391.38
333.4	400.38
333.629	428.38
333.857	445.38
334.085	448.38
334.314	429.38
334.542	442.38
334.771	444.38
334.999	438.38
335.227	435.38
335.455	418.38
335.684	406.38
335.912	390.38
336.14	396.38
336.369	414.38
336.597	394.38
336.825	406.38
337.053	398.38
337.281	390.38
337.51	397.38
337.738	392.38
337.966	376.38
338.194	363.38
338.422	392.38
338.65	373.38
338.878	379.38
339.106	381.38
339.334	373.38
339.562	384.38
339.79	388.38
340.018	403.38
340.246	394.38
340.474	395.38
340.702	395.38
340.93	373.38
341.158	379.38
341.386	393.38
341.614	381.38
341.842	379.38
342.07	357.38
342.298	378.38
342.526	375.38
342.754	358.38
342.981	373.38
343.209	379.38
343.437	379.38
343.665	404.38
343.893	390.38
344.12	409.38
344.348	375.38
344.576	387.38
344.804	391.38
345.031	407.38
345.259	400.38
345.487	383.38
345.714	379.38
345.942	359.38
346.17	362.38
346.397	376.38
346.625	371.38
346.853	373.38
347.08	342.38
347.308	370.38
347.535	385.38
347.763	378.38
347.99	367.38
348.218	377.38
348.445	398.38
348.673	365.38
348.9	359.38
349.128	375.38
349.355	348.38
349.583	356.38
349.81	368.38
350.037	351.38
350.265	353.38
350.492	355.38
350.72	370.38
350.947	374.38
351.174	366.38
351.402	377.38
351.629	351.38
351.856	371.38
352.083	377.38
352.311	370.38
352.538	375.38
352.765	376.38
352.992	363.38
353.22	354.38
353.447	369.38
353.674	340.38
353.901	343.38
354.128	350.38
354.355	345.38
354.583	335.38
354.81	334.38
355.037	344.38
355.264	329.38
355.491	352.38
355.718	329.38
355.945	348.38
356.172	339.38
356.399	311.38
356.626	319.38
356.853	334.38
357.08	340.38
357.307	330.38
357.534	343.38
357.761	347.38
357.988	331.38
358.215	334.38
358.441	337.38
358.668	338.38
358.895	349.38
359.122	344.38
359.349	338.38
359.576	342.38
359.802	375.38
360.029	377.38
360.256	386.38
360.483	358.38
360.709	359.38
360.936	349.38
361.163	354.38
361.39	344.38
361.616	343.38
361.843	357.38
362.07	358.38
362.296	357.38
362.523	341.38
362.749	353.38
362.976	339.38
363.203	345.38
363.429	340.38
363.656	353.38
363.882	335.38
364.109	333.38
364.335	329.38
364.562	355.38
364.788	336.38
365.015	333.38
365.241	334.38
365.468	334.38
365.694	365.38
365.92	337.38
366.147	340.38
366.373	316.38
366.599	325.38
366.826	320.38
367.052	330.38
367.278	326.38
367.505	345.38
367.731	337.38
367.957	317.38
368.184	333.38
368.41	332.38
368.636	350.38
368.862	334.38
369.089	339.38
369.315	341.38
369.541	324.38
369.767	333.38
369.993	334.38
370.219	346.38
370.445	349.38
370.672	337.38
370.898	331.38
371.124	369.38
371.35	333.38
371.576	308.38
371.802	318.38
372.028	320.38
372.254	308.38
372.48	341.38
372.706	346.38
372.932	336.38
373.158	347.38
373.384	341.38
373.61	355.38
373.835	333.38
374.061	332.38
374.287	324.38
374.513	331.38
374.739	327.38
374.965	351.38
375.191	349.38
375.416	358.38
375.642	335.38
375.868	333.38
376.094	337.38
376.319	320.38
376.545	343.38
376.771	334.38
376.997	321.38
377.222	319.38
377.448	329.38
377.674	332.38
377.899	333.38
378.125	335.38
378.35	330.38
378.576	323.38
378.802	309.38
379.027	303.38
379.253	326.38
379.478	340.38
379.704	322.38
379.929	335.38
380.155	334.38
380.38	338.38
380.606	339.38
380.831	326.38
381.057	347.38
381.282	336.38
381.507	330.38
381.733	334.38
381.958	312.38
382.184	338.38
382.409	344.38
382.634	341.38
382.86	331.38
383.085	329.38
383.31	333.38
383.535	330.38
383.761	342.38
383.986	337.38
384.211	334.38
384.436	329.38
384.662	348.38
384.887	345.38
385.112	345.38
385.337	341.38
385.562	334.38
385.787	363.38
386.013	375.38
386.238	357.38
386.463	375.38
386.688	359.38
386.913	342.38
387.138	344.38
387.363	357.38
387.588	345.38
387.813	373.38
388.038	337.38
388.263	344.38
388.488	369.38
388.713	353.38
388.938	350.38
389.163	350.38
389.387	342.38
389.612	344.38
389.837	345.38
390.062	353.38
390.287	345.38
390.512	336.38
390.736	347.38
390.961	360.38
391.186	362.38
391.411	363.38
391.636	361.38
391.86	373.38
392.085	340.38
392.31	349.38
392.534	358.38
392.759	355.38
392.984	358.38
393.208	360.38
393.433	359.38
393.658	375.38
393.882	349.38
394.107	333.38
394.331	346.38
394.556	342.38
394.78	353.38
395.005	358.38
395.229	368.38
395.454	361.38
395.678	331.38
395.903	373.38
396.127	381.38
396.352	387.38
396.576	375.38
396.801	358.38
397.025	377.38
397.249	361.38
397.474	354.38
397.698	352.38
397.922	377.38
398.147	389.38
398.371	394.38
398.595	365.38
398.82	393.38
399.044	398.38
399.268	408.38
399.492	435.38
399.717	427.38
399.941	454.38
400.165	461.38
400.389	476.38
400.613	437.38
400.837	401.38
401.062	391.38
401.286	387.38
401.51	389.38
401.734	383.38
401.958	393.38
402.182	388.38
402.406	390.38
402.63	406.38
402.854	395.38
403.078	385.38
403.302	414.38
403.526	407.38
403.75	394.38
403.974	395.38
404.198	393.38
404.422	411.38
404.645	380.38
404.869	415.38
405.093	415.38
405.317	450.38
405.541	462.38
405.765	453.38
405.988	404.38
406.212	430.38
406.436	426.38
406.66	442.38
406.883	412.38
407.107	429.38
407.331	474.38
407.555	518.38
407.778	509.38
408.002	481.38
408.226	446.38
408.449	435.38
408.673	427.38
408.896	449.38
409.12	488.38
409.344	437.38
409.567	414.38
409.791	415.38
410.014	408.38
410.238	421.38
410.461	397.38
410.685	408.38
410.908	390.38
411.132	427.38
411.355	461.38
411.578	460.38
411.802	402.38
412.025	399.38
412.249	399.38
412.472	407.38
412.695	422.38
412.919	437.38
413.142	406.38
413.365	412.38
413.589	374.38
413.812	381.38
414.035	371.38
414.258	378.38
414.482	373.38
414.705	360.38
414.928	378.38
415.151	371.38
415.374	375.38
415.597	388.38
415.821	380.38
416.044	383.38
416.267	374.38
416.49	371.38
416.713	375.38
416.936	374.38
417.159	379.38
417.382	374.38
417.605	395.38
417.828	378.38
418.051	388.38
418.274	381.38
418.497	372.38
418.72	386.38
418.943	379.38
419.166	383.38
419.389	390.38
419.611	381.38
419.834	381.38
420.057	377.38
420.28	382.38
420.503	387.38
420.726	386.38
420.948	410.38
421.171	434.38
421.394	460.38
421.617	425.38
421.839	386.38
422.062	397.38
422.285	413.38
422.507	445.38
422.73	501.38
422.953	469.38
423.175	419.38
423.398	390.38
423.621	380.38
423.843	410.38
424.066	428.38
424.288	434.38
424.511	453.38
424.733	464.38
424.956	518.38
425.178	498.38
425.401	502.38
425.623	501.38
425.846	445.38
426.068	418.38
426.291	411.38
426.513	402.38
426.735	401.38
426.958	461.38
427.18	513.38
427.402	590.38
427.625	633.38
427.847	559.38
428.069	470.38
428.292	439.38
428.514	402.38
428.736	408.38
428.958	402.38
429.181	391.38
429.403	383.38
429.625	393.38
429.847	398.38
430.069	469.38
430.292	470.38
430.514	381.38
430.736	391.38
430.958	385.38
431.18	352.38
431.402	358.38
431.624	357.38
431.846	355.38
432.068	365.38
432.29	356.38
432.512	349.38
432.734	367.38
432.956	362.38
433.178	366.38
433.4	382.38
433.622	374.38
433.844	354.38
434.066	369.38
434.287	358.38
434.509	366.38
434.731	370.38
434.953	358.38
435.175	382.38
435.397	417.38
435.618	405.38
435.84	452.38
436.062	515.38
436.284	542.38
436.505	466.38
436.727	425.38
436.949	427.38
437.17	388.38
437.392	387.38
437.614	382.38
437.835	429.38
438.057	473.38
438.278	562.38
438.5	549.38
438.721	589.38
438.943	571.38
439.165	451.38
439.386	423.38
439.608	416.38
439.829	407.38
440.05	433.38
440.272	454.38
440.493	433.38
440.715	415.38
440.936	389.38
441.158	389.38
441.379	362.38
441.6	393.38
441.822	414.38
442.043	420.38
442.264	483.38
442.486	518.38
442.707	455.38
442.928	420.38
443.149	397.38
443.371	435.38
443.592	460.38
443.813	550.38
444.034	579.38
444.255	455.38
444.476	430.38
444.698	422.38
444.919	427.38
445.14	565.38
445.361	468.38
445.582	444.38
445.803	491.38
446.024	545.38
446.245	551.38
446.466	495.38
446.687	448.38
446.908	421.38
447.129	379.38
447.35	404.38
447.571	393.38
447.792	389.38
448.013	397.38
448.234	405.38
448.455	431.38
448.675	529.38
448.896	584.38
449.117	494.38
449.338	457.38
449.559	550.38
449.779	623.38
450	500.38
450.221	415.38
450.442	391.38
450.662	397.38
450.883	359.38
451.104	362.38
451.324	383.38
451.545	354.38
451.766	355.38
451.986	357.38
452.207	363.38
452.428	330.38
452.648	356.38
452.869	343.38
453.089	345.38
453.31	346.38
453.53	339.38
453.751	350.38
453.971	345.38
454.192	340.38
454.412	356.38
454.633	337.38
454.853	351.38
455.073	340.38
455.294	371.38
455.514	410.38
455.734	389.38
455.955	333.38
456.175	311.38
456.395	318.38
456.616	317.38
456.836	333.38
457.056	315.38
457.276	324.38
457.497	318.38
457.717	336.38
457.937	327.38
458.157	343.38
458.377	322.38
458.598	335.38
458.818	394.38
459.038	455.38
459.258	450.38
459.478	384.38
459.698	362.38
459.918	356.38
460.138	360.38
460.358	380.38
460.578	363.38
460.798	347.38
461.018	366.38
461.238	374.38
461.458	362.38
461.678	365.38
461.898	360.38
462.118	373.38
462.338	357.38
462.558	387.38
462.777	373.38
462.997	410.38
463.217	391.38
463.437	391.38
463.657	389.38
463.876	392.38
464.096	400.38
464.316	374.38
464.536	385.38
464.755	398.38
464.975	404.38
465.195	406.38
465.414	442.38
465.634	405.38
465.854	381.38
466.073	380.38
466.293	339.38
466.512	352.38
466.732	349.38
466.951	335.38
467.171	341.38
467.391	349.38
467.61	340.38
467.829	352.38
468.049	357.38
468.268	350.38
468.488	323.38
468.707	341.38
468.927	345.38
469.146	332.38
469.365	349.38
469.585	350.38
469.804	342.38
470.023	337.38
470.243	346.38
470.462	364.38
470.681	369.38
470.901	373.38
471.12	361.38
471.339	365.38
471.558	362.38
471.777	331.38
471.997	360.38
472.216	363.38
472.435	368.38
472.654	378.38
472.873	355.38
473.092	361.38
473.311	345.38
473.53	366.38
473.749	373.38
473.968	393.38
474.187	440.38
474.406	477.38
474.625	404.38
474.844	378.38
475.063	355.38
475.282	363.38
475.501	354.38
475.72	354.38
475.939	344.38
476.158	364.38
476.377	352.38
476.596	361.38
476.814	390.38
477.033	371.38
477.252	358.38
477.471	369.38
477.69	390.38
477.908	384.38
478.127	392.38
478.346	366.38
478.564	387.38
478.783	405.38
479.002	401.38
479.22	395.38
479.439	394.38
479.658	409.38
479.876	406.38
480.095	413.38
480.313	451.38
480.532	426.38
480.751	417.38
480.969	421.38
481.188	415.38
481.406	469.38
481.624	423.38
481.843	385.38
482.061	412.38
482.28	407.38
482.498	395.38
482.717	403.38
482.935	393.38
483.153	401.38
483.372	417.38
483.59	429.38
483.808	408.38
484.027	430.38
484.245	413.38
484.463	397.38
484.681	437.38
484.9	411.38
485.118	421.38
485.336	426.38
485.554	424.38
485.772	416.38
485.99	405.38
486.209	401.38
486.427	437.38
486.645	423.38
486.863	433.38
487.081	428.38
487.299	414.38
487.517	437.38
487.735	435.38
487.953	402.38
488.171	466.38
488.389	432.38
488.607	438.38
488.825	435.38
489.043	429.38
489.261	414.38
489.479	457.38
489.696	442.38
489.914	460.38
490.132	456.38
490.35	459.38
490.568	474.38
490.786	474.38
491.003	472.38
491.221	470.38
491.439	485.38
491.657	484.38
491.874	492.38
492.092	485.38
492.31	508.38
492.527	508.38
492.745	514.38
492.963	499.38
493.18	479.38
493.398	517.38
493.615	522.38
493.833	479.38
494.05	527.38
494.268	508.38
494.485	502.38
494.703	525.38
494.92	541.38
495.138	511.38
495.355	522.38
495.573	499.38
495.79	522.38
496.008	526.38
496.225	543.38
496.442	514.38
496.66	522.38
496.877	508.38
497.094	521.38
497.312	521.38
497.529	525.38
497.746	523.38
497.963	567.38
498.181	541.38
498.398	581.38
498.615	558.38
498.832	583.38
499.049	590.38
499.267	573.38
499.484	616.38
499.701	621.38
499.918	648.38
500.135	667.38
500.352	685.38
500.569	698.38
500.786	705.38
501.003	666.38
501.22	669.38
501.437	667.38
501.654	648.38
501.871	625.38
502.088	597.38
