Data from 1971.PennyLincolnUp.Lamp.En5.5.200Scan.071719.P1._HRD10591_15-18-51-841.txt Node
Date: Thu Jul 18 15:18:51 EDT 2019
User: cochatt
Spectrometer: HR+D1059
Trigger mode: 1
Integration Time (sec): 1.000000E-1
Scans to average: 1
Electric dark correction enabled: true
Nonlinearity correction enabled: false
Boxcar width: 0
XAxis mode: Wavelengths
Number of Pixels in Spectrum: 2048
>>>>>Begin Spectral Data<<<<<
223.165	-18.56
223.4	-18.56
223.635	-18.56
223.869	-20.56
224.104	-3.56
224.338	-5.56
224.573	-5.56
224.808	-13.56
225.042	-5.56
225.277	0.44
225.511	-10.56
225.746	2.44
225.98	-1.56
226.215	7.44
226.449	9.44
226.683	23.44
226.918	16.44
227.152	25.44
227.387	31.44
227.621	35.44
227.856	46.44
228.09	41.44
228.324	37.44
228.559	60.44
228.793	64.44
229.027	91.44
229.262	91.44
229.496	118.44
229.73	124.44
229.964	126.44
230.199	105.44
230.433	101.44
230.667	112.44
230.901	99.44
231.136	97.44
231.37	110.44
231.604	102.44
231.838	113.44
232.072	103.44
232.306	127.44
232.541	109.44
232.775	106.44
233.009	111.44
233.243	96.44
233.477	113.44
233.711	121.44
233.945	123.44
234.179	110.44
234.413	113.44
234.647	118.44
234.881	98.44
235.115	134.44
235.349	114.44
235.583	102.44
235.817	119.44
236.051	113.44
236.285	121.44
236.519	124.44
236.753	146.44
236.987	145.44
237.221	159.44
237.455	207.44
237.689	163.44
237.922	134.44
238.156	131.44
238.39	128.44
238.624	115.44
238.858	134.44
239.091	117.44
239.325	129.44
239.559	124.44
239.793	118.44
240.027	111.44
240.26	133.44
240.494	145.44
240.728	144.44
240.961	141.44
241.195	143.44
241.429	113.44
241.662	133.44
241.896	149.44
242.13	148.44
242.363	129.44
242.597	133.44
242.83	128.44
243.064	134.44
243.298	138.44
243.531	139.44
243.765	149.44
243.998	132.44
244.232	142.44
244.465	140.44
244.699	144.44
244.932	139.44
245.166	135.44
245.399	129.44
245.633	137.44
245.866	140.44
246.099	149.44
246.333	137.44
246.566	153.44
246.8	131.44
247.033	149.44
247.266	150.44
247.5	170.44
247.733	162.44
247.966	178.44
248.2	174.44
248.433	169.44
248.666	175.44
248.899	161.44
249.133	184.44
249.366	204.44
249.599	206.44
249.832	181.44
250.066	166.44
250.299	175.44
250.532	207.44
250.765	198.44
250.998	219.44
251.231	213.44
251.465	203.44
251.698	189.44
251.931	195.44
252.164	191.44
252.397	179.44
252.63	196.44
252.863	203.44
253.096	211.44
253.329	211.44
253.562	235.44
253.795	212.44
254.028	220.44
254.261	224.44
254.494	230.44
254.727	230.44
254.96	259.44
255.193	265.44
255.426	236.44
255.659	221.44
255.892	231.44
256.124	224.44
256.357	231.44
256.59	220.44
256.823	213.44
257.056	204.44
257.289	213.44
257.521	210.44
257.754	224.44
257.987	227.44
258.22	212.44
258.452	186.44
258.685	189.44
258.918	204.44
259.151	218.44
259.383	207.44
259.616	216.44
259.849	222.44
260.081	243.44
260.314	242.44
260.547	230.44
260.779	238.44
261.012	235.44
261.244	220.44
261.477	222.44
261.71	227.44
261.942	232.44
262.175	238.44
262.407	215.44
262.64	230.44
262.872	214.44
263.105	219.44
263.337	214.44
263.57	209.44
263.802	214.44
264.035	207.44
264.267	218.44
264.499	223.44
264.732	214.44
264.964	204.44
265.197	222.44
265.429	208.44
265.661	201.44
265.894	199.44
266.126	214.44
266.358	219.44
266.591	210.44
266.823	231.44
267.055	231.44
267.287	230.44
267.52	215.44
267.752	218.44
267.984	220.44
268.216	222.44
268.448	229.44
268.681	235.44
268.913	236.44
269.145	276.44
269.377	273.44
269.609	264.44
269.841	294.44
270.073	280.44
270.306	297.44
270.538	323.44
270.77	311.44
271.002	302.44
271.234	297.44
271.466	295.44
271.698	300.44
271.93	327.44
272.162	322.44
272.394	303.44
272.626	305.44
272.858	297.44
273.09	277.44
273.322	285.44
273.553	287.44
273.785	262.44
274.017	275.44
274.249	261.44
274.481	246.44
274.713	273.44
274.945	262.44
275.176	264.44
275.408	265.44
275.64	268.44
275.872	259.44
276.104	269.44
276.335	260.44
276.567	285.44
276.799	286.44
277.031	291.44
277.262	299.44
277.494	319.44
277.726	311.44
277.957	292.44
278.189	275.44
278.421	269.44
278.652	280.44
278.884	273.44
279.115	253.44
279.347	261.44
279.579	270.44
279.81	273.44
280.042	253.44
280.273	279.44
280.505	278.44
280.736	269.44
280.968	268.44
281.199	260.44
281.431	259.44
281.662	270.44
281.894	264.44
282.125	270.44
282.356	277.44
282.588	293.44
282.819	301.44
283.051	280.44
283.282	262.44
283.513	283.44
283.745	270.44
283.976	281.44
284.207	273.44
284.439	275.44
284.67	282.44
284.901	282.44
285.132	269.44
285.364	263.44
285.595	261.44
285.826	273.44
286.057	289.44
286.288	274.44
286.52	280.44
286.751	282.44
286.982	273.44
287.213	272.44
287.444	287.44
287.675	294.44
287.906	298.44
288.138	284.44
288.369	300.44
288.6	305.44
288.831	293.44
289.062	293.44
289.293	291.44
289.524	298.44
289.755	283.44
289.986	292.44
290.217	275.44
290.448	282.44
290.679	281.44
290.91	287.44
291.141	291.44
291.371	294.44
291.602	289.44
291.833	269.44
292.064	287.44
292.295	294.44
292.526	294.44
292.757	282.44
292.987	275.44
293.218	281.44
293.449	295.44
293.68	288.44
293.91	288.44
294.141	282.44
294.372	283.44
294.603	289.44
294.833	307.44
295.064	285.44
295.295	308.44
295.525	279.44
295.756	305.44
295.987	306.44
296.217	316.44
296.448	307.44
296.679	310.44
296.909	278.44
297.14	283.44
297.37	313.44
297.601	303.44
297.831	305.44
298.062	340.44
298.292	306.44
298.523	297.44
298.753	298.44
298.984	291.44
299.214	303.44
299.445	302.44
299.675	313.44
299.905	296.44
300.136	305.44
300.366	313.44
300.597	317.44
300.827	310.44
301.057	319.44
301.288	323.44
301.518	318.44
301.748	297.44
301.979	322.44
302.209	314.44
302.439	327.44
302.669	332.44
302.9	325.44
303.13	319.44
303.36	329.44
303.59	328.44
303.82	324.44
304.051	321.44
304.281	311.44
304.511	314.44
304.741	334.44
304.971	314.44
305.201	320.44
305.431	315.44
305.661	325.44
305.891	329.44
306.121	331.44
306.352	329.44
306.582	319.44
306.812	325.44
307.042	325.44
307.272	318.44
307.502	325.44
307.731	316.44
307.961	320.44
308.191	331.44
308.421	307.44
308.651	326.44
308.881	315.44
309.111	330.44
309.341	337.44
309.571	333.44
309.8	353.44
310.03	348.44
310.26	356.44
310.49	361.44
310.72	365.44
310.949	377.44
311.179	375.44
311.409	357.44
311.639	389.44
311.868	363.44
312.098	364.44
312.328	378.44
312.557	385.44
312.787	379.44
313.017	398.44
313.246	385.44
313.476	376.44
313.706	378.44
313.935	374.44
314.165	370.44
314.394	363.44
314.624	372.44
314.853	389.44
315.083	362.44
315.312	373.44
315.542	379.44
315.771	348.44
316.001	357.44
316.23	372.44
316.46	370.44
316.689	379.44
316.919	365.44
317.148	366.44
317.377	385.44
317.607	384.44
317.836	373.44
318.065	376.44
318.295	380.44
318.524	377.44
318.753	367.44
318.983	345.44
319.212	376.44
319.441	359.44
319.67	363.44
319.9	344.44
320.129	377.44
320.358	382.44
320.587	374.44
320.816	375.44
321.046	375.44
321.275	383.44
321.504	378.44
321.733	382.44
321.962	381.44
322.191	394.44
322.42	420.44
322.649	427.44
322.878	426.44
323.108	436.44
323.337	447.44
323.566	478.44
323.795	504.44
324.024	541.44
324.253	669.44
324.482	908.44
324.71	1339.44
324.939	1813.44
325.168	1545.44
325.397	821.44
325.626	587.44
325.855	503.44
326.084	465.44
326.313	465.44
326.542	481.44
326.77	519.44
326.999	606.44
327.228	825.44
327.457	1175.44
327.686	1324.44
327.914	901.44
328.143	617.44
328.372	574.44
328.6	539.44
328.829	513.44
329.058	524.44
329.287	511.44
329.515	507.44
329.744	474.44
329.972	473.44
330.201	469.44
330.43	516.44
330.658	510.44
330.887	529.44
331.115	533.44
331.344	486.44
331.572	462.44
331.801	467.44
332.03	453.44
332.258	450.44
332.486	423.44
332.715	427.44
332.943	413.44
333.172	449.44
333.4	445.44
333.629	455.44
333.857	428.44
334.085	456.44
334.314	450.44
334.542	484.44
334.771	498.44
334.999	464.44
335.227	449.44
335.455	423.44
335.684	423.44
335.912	433.44
336.14	409.44
336.369	422.44
336.597	430.44
336.825	426.44
337.053	441.44
337.281	437.44
337.51	404.44
337.738	388.44
337.966	413.44
338.194	393.44
338.422	411.44
338.65	403.44
338.878	391.44
339.106	400.44
339.334	409.44
339.562	396.44
339.79	385.44
340.018	386.44
340.246	387.44
340.474	412.44
340.702	400.44
340.93	401.44
341.158	417.44
341.386	405.44
341.614	400.44
341.842	395.44
342.07	407.44
342.298	393.44
342.526	385.44
342.754	419.44
342.981	395.44
343.209	391.44
343.437	408.44
343.665	396.44
343.893	420.44
344.12	405.44
344.348	413.44
344.576	407.44
344.804	417.44
345.031	395.44
345.259	416.44
345.487	413.44
345.714	383.44
345.942	398.44
346.17	394.44
346.397	393.44
346.625	387.44
346.853	386.44
347.08	395.44
347.308	396.44
347.535	375.44
347.763	389.44
347.99	411.44
348.218	415.44
348.445	414.44
348.673	386.44
348.9	405.44
349.128	362.44
349.355	379.44
349.583	367.44
349.81	380.44
350.037	379.44
350.265	353.44
350.492	379.44
350.72	388.44
350.947	380.44
351.174	373.44
351.402	392.44
351.629	379.44
351.856	398.44
352.083	378.44
352.311	383.44
352.538	397.44
352.765	385.44
352.992	407.44
353.22	377.44
353.447	356.44
353.674	381.44
353.901	373.44
354.128	355.44
354.355	358.44
354.583	376.44
354.81	355.44
355.037	358.44
355.264	371.44
355.491	365.44
355.718	345.44
355.945	325.44
356.172	361.44
356.399	356.44
356.626	342.44
356.853	358.44
357.08	345.44
357.307	347.44
357.534	354.44
357.761	347.44
357.988	362.44
358.215	353.44
358.441	351.44
358.668	339.44
358.895	366.44
359.122	355.44
359.349	368.44
359.576	395.44
359.802	411.44
360.029	417.44
360.256	413.44
360.483	401.44
360.709	388.44
360.936	389.44
361.163	394.44
361.39	379.44
361.616	387.44
361.843	368.44
362.07	370.44
362.296	381.44
362.523	375.44
362.749	377.44
362.976	363.44
363.203	373.44
363.429	377.44
363.656	364.44
363.882	361.44
364.109	348.44
364.335	336.44
364.562	340.44
364.788	366.44
365.015	347.44
365.241	342.44
365.468	370.44
365.694	391.44
365.92	358.44
366.147	361.44
366.373	345.44
366.599	354.44
366.826	350.44
367.052	362.44
367.278	351.44
367.505	354.44
367.731	364.44
367.957	347.44
368.184	360.44
368.41	350.44
368.636	355.44
368.862	353.44
369.089	356.44
369.315	349.44
369.541	364.44
369.767	360.44
369.993	375.44
370.219	339.44
370.445	353.44
370.672	367.44
370.898	351.44
371.124	353.44
371.35	350.44
371.576	349.44
371.802	341.44
372.028	338.44
372.254	347.44
372.48	362.44
372.706	359.44
372.932	341.44
373.158	351.44
373.384	366.44
373.61	353.44
373.835	373.44
374.061	332.44
374.287	340.44
374.513	352.44
374.739	343.44
374.965	357.44
375.191	362.44
375.416	351.44
375.642	346.44
375.868	347.44
376.094	347.44
376.319	356.44
376.545	347.44
376.771	336.44
376.997	338.44
377.222	331.44
377.448	348.44
377.674	358.44
377.899	343.44
378.125	313.44
378.35	346.44
378.576	349.44
378.802	352.44
379.027	356.44
379.253	348.44
379.478	332.44
379.704	355.44
379.929	353.44
380.155	330.44
380.38	326.44
380.606	335.44
380.831	322.44
381.057	348.44
381.282	340.44
381.507	348.44
381.733	342.44
381.958	349.44
382.184	331.44
382.409	351.44
382.634	357.44
382.86	362.44
383.085	342.44
383.31	341.44
383.535	357.44
383.761	347.44
383.986	357.44
384.211	364.44
384.436	378.44
384.662	350.44
384.887	341.44
385.112	346.44
385.337	355.44
385.562	333.44
385.787	367.44
386.013	377.44
386.238	381.44
386.463	371.44
386.688	360.44
386.913	375.44
387.138	385.44
387.363	374.44
387.588	369.44
387.813	375.44
388.038	354.44
388.263	363.44
388.488	373.44
388.713	369.44
388.938	365.44
389.163	349.44
389.387	369.44
389.612	358.44
389.837	347.44
390.062	353.44
390.287	379.44
390.512	361.44
390.736	360.44
390.961	377.44
391.186	361.44
391.411	365.44
391.636	360.44
391.86	350.44
392.085	376.44
392.31	371.44
392.534	364.44
392.759	370.44
392.984	357.44
393.208	365.44
393.433	378.44
393.658	372.44
393.882	370.44
394.107	361.44
394.331	337.44
394.556	363.44
394.78	357.44
395.005	359.44
395.229	366.44
395.454	358.44
395.678	370.44
395.903	361.44
396.127	383.44
396.352	411.44
396.576	391.44
396.801	378.44
397.025	367.44
397.249	379.44
397.474	385.44
397.698	365.44
397.922	391.44
398.147	405.44
398.371	386.44
398.595	400.44
398.82	401.44
399.044	400.44
399.268	424.44
399.492	433.44
399.717	473.44
399.941	461.44
400.165	475.44
400.389	509.44
400.613	481.44
400.837	444.44
401.062	425.44
401.286	399.44
401.51	418.44
401.734	397.44
401.958	399.44
402.182	405.44
402.406	424.44
402.63	422.44
402.854	413.44
403.078	407.44
403.302	424.44
403.526	405.44
403.75	403.44
403.974	429.44
404.198	426.44
404.422	421.44
404.645	404.44
404.869	434.44
405.093	448.44
405.317	472.44
405.541	490.44
405.765	446.44
405.988	437.44
406.212	438.44
406.436	433.44
406.66	460.44
406.883	467.44
407.107	473.44
407.331	500.44
407.555	538.44
407.778	539.44
408.002	487.44
408.226	485.44
408.449	463.44
408.673	445.44
408.896	476.44
409.12	486.44
409.344	470.44
409.567	438.44
409.791	399.44
410.014	397.44
410.238	414.44
410.461	420.44
410.685	422.44
410.908	444.44
411.132	462.44
411.355	492.44
411.578	462.44
411.802	417.44
412.025	405.44
412.249	409.44
412.472	419.44
412.695	470.44
412.919	460.44
413.142	421.44
413.365	407.44
413.589	403.44
413.812	386.44
414.035	393.44
414.258	384.44
414.482	391.44
414.705	407.44
414.928	387.44
415.151	387.44
415.374	389.44
415.597	370.44
415.821	383.44
416.044	395.44
416.267	372.44
416.49	383.44
416.713	381.44
416.936	380.44
417.159	389.44
417.382	393.44
417.605	378.44
417.828	412.44
418.051	406.44
418.274	410.44
418.497	382.44
418.72	384.44
418.943	387.44
419.166	398.44
419.389	439.44
419.611	417.44
419.834	397.44
420.057	407.44
420.28	429.44
420.503	411.44
420.726	409.44
420.948	425.44
421.171	454.44
421.394	458.44
421.617	435.44
421.839	408.44
422.062	432.44
422.285	425.44
422.507	472.44
422.73	502.44
422.953	488.44
423.175	453.44
423.398	426.44
423.621	434.44
423.843	445.44
424.066	433.44
424.288	462.44
424.511	466.44
424.733	494.44
424.956	548.44
425.178	508.44
425.401	534.44
425.623	552.44
425.846	478.44
426.068	429.44
426.291	430.44
426.513	449.44
426.735	423.44
426.958	473.44
427.18	539.44
427.402	672.44
427.625	701.44
427.847	606.44
428.069	512.44
428.292	477.44
428.514	439.44
428.736	419.44
428.958	397.44
429.181	406.44
429.403	416.44
429.625	393.44
429.847	442.44
430.069	488.44
430.292	469.44
430.514	420.44
430.736	407.44
430.958	407.44
431.18	390.44
431.402	403.44
431.624	398.44
431.846	382.44
432.068	366.44
432.29	366.44
432.512	377.44
432.734	387.44
432.956	407.44
433.178	416.44
433.4	415.44
433.622	401.44
433.844	370.44
434.066	379.44
434.287	379.44
434.509	389.44
434.731	377.44
434.953	399.44
435.175	402.44
435.397	431.44
435.618	436.44
435.84	475.44
436.062	540.44
436.284	579.44
436.505	483.44
436.727	440.44
436.949	420.44
437.17	419.44
437.392	406.44
437.614	417.44
437.835	465.44
438.057	517.44
438.278	595.44
438.5	571.44
438.721	645.44
438.943	587.44
439.165	501.44
439.386	448.44
439.608	457.44
439.829	459.44
440.05	482.44
440.272	498.44
440.493	476.44
440.715	435.44
440.936	413.44
441.158	411.44
441.379	396.44
441.6	419.44
441.822	425.44
442.043	472.44
442.264	560.44
442.486	534.44
442.707	461.44
442.928	444.44
443.149	454.44
443.371	479.44
443.592	486.44
443.813	574.44
444.034	614.44
444.255	517.44
444.476	463.44
444.698	437.44
444.919	447.44
445.14	543.44
445.361	506.44
445.582	473.44
445.803	566.44
446.024	594.44
446.245	634.44
446.466	558.44
446.687	491.44
446.908	425.44
447.129	411.44
447.35	417.44
447.571	421.44
447.792	405.44
448.013	393.44
448.234	431.44
448.455	469.44
448.675	564.44
448.896	626.44
449.117	545.44
449.338	523.44
449.559	618.44
449.779	649.44
450	527.44
450.221	431.44
450.442	415.44
450.662	404.44
450.883	395.44
451.104	419.44
451.324	402.44
451.545	375.44
451.766	379.44
451.986	363.44
452.207	347.44
452.428	357.44
452.648	364.44
452.869	362.44
453.089	376.44
453.31	377.44
453.53	373.44
453.751	370.44
453.971	366.44
454.192	362.44
454.412	367.44
454.633	356.44
454.853	357.44
455.073	358.44
455.294	383.44
455.514	423.44
455.734	398.44
455.955	365.44
456.175	327.44
456.395	326.44
456.616	337.44
456.836	348.44
457.056	332.44
457.276	321.44
457.497	332.44
457.717	338.44
457.937	349.44
458.157	349.44
458.377	334.44
458.598	362.44
458.818	392.44
459.038	461.44
459.258	489.44
459.478	409.44
459.698	378.44
459.918	383.44
460.138	346.44
460.358	375.44
460.578	369.44
460.798	373.44
461.018	415.44
461.238	372.44
461.458	373.44
461.678	384.44
461.898	389.44
462.118	390.44
462.338	366.44
462.558	413.44
462.777	387.44
462.997	405.44
463.217	402.44
463.437	396.44
463.657	406.44
463.876	387.44
464.096	403.44
464.316	387.44
464.536	408.44
464.755	406.44
464.975	392.44
465.195	442.44
465.414	461.44
465.634	433.44
465.854	407.44
466.073	385.44
466.293	362.44
466.512	345.44
466.732	372.44
466.951	347.44
467.171	370.44
467.391	381.44
467.61	348.44
467.829	359.44
468.049	375.44
468.268	364.44
468.488	350.44
468.707	338.44
468.927	353.44
469.146	350.44
469.365	374.44
469.585	347.44
469.804	385.44
470.023	375.44
470.243	391.44
470.462	374.44
470.681	386.44
470.901	372.44
471.12	348.44
471.339	375.44
471.558	369.44
471.777	391.44
471.997	357.44
472.216	367.44
472.435	393.44
472.654	381.44
472.873	376.44
473.092	348.44
473.311	377.44
473.53	379.44
473.749	378.44
473.968	399.44
474.187	511.44
474.406	492.44
474.625	435.44
474.844	382.44
475.063	343.44
475.282	356.44
475.501	378.44
475.72	373.44
475.939	392.44
476.158	398.44
476.377	372.44
476.596	400.44
476.814	394.44
477.033	384.44
477.252	396.44
477.471	387.44
477.69	378.44
477.908	389.44
478.127	391.44
478.346	406.44
478.564	413.44
478.783	407.44
479.002	402.44
479.22	421.44
479.439	421.44
479.658	445.44
479.876	455.44
480.095	459.44
480.313	461.44
480.532	459.44
480.751	445.44
480.969	449.44
481.188	470.44
481.406	500.44
481.624	450.44
481.843	455.44
482.061	424.44
482.28	429.44
482.498	421.44
482.717	421.44
482.935	423.44
483.153	422.44
483.372	409.44
483.59	437.44
483.808	429.44
484.027	437.44
484.245	431.44
484.463	425.44
484.681	449.44
484.9	447.44
485.118	446.44
485.336	430.44
485.554	446.44
485.772	441.44
485.99	436.44
486.209	443.44
486.427	442.44
486.645	427.44
486.863	456.44
487.081	444.44
487.299	450.44
487.517	460.44
487.735	463.44
487.953	461.44
488.171	476.44
488.389	467.44
488.607	461.44
488.825	465.44
489.043	476.44
489.261	458.44
489.479	460.44
489.696	466.44
489.914	465.44
490.132	465.44
490.35	463.44
490.568	483.44
490.786	500.44
491.003	503.44
491.221	513.44
491.439	505.44
491.657	515.44
491.874	517.44
492.092	538.44
492.31	535.44
492.527	525.44
492.745	544.44
492.963	549.44
493.18	521.44
493.398	513.44
493.615	523.44
493.833	543.44
494.05	554.44
494.268	549.44
494.485	535.44
494.703	517.44
494.92	544.44
495.138	549.44
495.355	531.44
495.573	542.44
495.79	548.44
496.008	553.44
496.225	546.44
496.442	546.44
496.66	532.44
496.877	533.44
497.094	546.44
497.312	564.44
497.529	551.44
497.746	549.44
497.963	578.44
498.181	560.44
498.398	587.44
498.615	592.44
498.832	611.44
499.049	609.44
499.267	621.44
499.484	626.44
499.701	649.44
499.918	659.44
500.135	663.44
500.352	718.44
500.569	721.44
500.786	718.44
501.003	725.44
501.22	709.44
501.437	670.44
501.654	682.44
501.871	662.44
502.088	648.44
