Data from 1971.PennyLincolnUp.Lamp.En5.5.200Scan.071719.P1._HRD10591_15-20-03-841.txt Node
Date: Thu Jul 18 15:20:03 EDT 2019
User: cochatt
Spectrometer: HR+D1059
Trigger mode: 1
Integration Time (sec): 1.000000E-1
Scans to average: 1
Electric dark correction enabled: true
Nonlinearity correction enabled: false
Boxcar width: 0
XAxis mode: Wavelengths
Number of Pixels in Spectrum: 2048
>>>>>Begin Spectral Data<<<<<
223.165	-19.19
223.4	-19.19
223.635	-19.19
223.869	-13.19
224.104	-7.19
224.338	-19.19
224.573	-27.19
224.808	-16.19
225.042	-3.19
225.277	-10.19
225.511	0.81
225.746	17.81
225.98	16.81
226.215	14.81
226.449	5.81
226.683	14.81
226.918	21.81
227.152	22.81
227.387	16.81
227.621	21.81
227.856	55.81
228.09	53.81
228.324	37.81
228.559	59.81
228.793	78.81
229.027	93.81
229.262	96.81
229.496	125.81
229.73	142.81
229.964	158.81
230.199	138.81
230.433	102.81
230.667	99.81
230.901	132.81
231.136	94.81
231.37	108.81
231.604	122.81
231.838	100.81
232.072	110.81
232.306	110.81
232.541	128.81
232.775	119.81
233.009	129.81
233.243	108.81
233.477	120.81
233.711	101.81
233.945	119.81
234.179	108.81
234.413	138.81
234.647	111.81
234.881	111.81
235.115	127.81
235.349	124.81
235.583	127.81
235.817	103.81
236.051	120.81
236.285	122.81
236.519	141.81
236.753	125.81
236.987	150.81
237.221	180.81
237.455	226.81
237.689	178.81
237.922	150.81
238.156	141.81
238.39	136.81
238.624	132.81
238.858	134.81
239.091	122.81
239.325	111.81
239.559	124.81
239.793	134.81
240.027	134.81
240.26	150.81
240.494	154.81
240.728	159.81
240.961	153.81
241.195	149.81
241.429	134.81
241.662	135.81
241.896	126.81
242.13	150.81
242.363	140.81
242.597	123.81
242.83	127.81
243.064	139.81
243.298	144.81
243.531	148.81
243.765	138.81
243.998	143.81
244.232	140.81
244.465	143.81
244.699	157.81
244.932	138.81
245.166	140.81
245.399	166.81
245.633	128.81
245.866	135.81
246.099	157.81
246.333	158.81
246.566	161.81
246.8	154.81
247.033	160.81
247.266	158.81
247.5	166.81
247.733	167.81
247.966	169.81
248.2	175.81
248.433	172.81
248.666	189.81
248.899	190.81
249.133	206.81
249.366	195.81
249.599	197.81
249.832	178.81
250.066	205.81
250.299	196.81
250.532	202.81
250.765	219.81
250.998	222.81
251.231	227.81
251.465	223.81
251.698	215.81
251.931	202.81
252.164	196.81
252.397	208.81
252.63	214.81
252.863	225.81
253.096	213.81
253.329	235.81
253.562	237.81
253.795	238.81
254.028	239.81
254.261	221.81
254.494	233.81
254.727	278.81
254.96	289.81
255.193	287.81
255.426	271.81
255.659	246.81
255.892	247.81
256.124	264.81
256.357	252.81
256.59	235.81
256.823	229.81
257.056	214.81
257.289	240.81
257.521	228.81
257.754	225.81
257.987	218.81
258.22	232.81
258.452	216.81
258.685	201.81
258.918	235.81
259.151	227.81
259.383	227.81
259.616	258.81
259.849	258.81
260.081	247.81
260.314	272.81
260.547	274.81
260.779	270.81
261.012	259.81
261.244	244.81
261.477	245.81
261.71	233.81
261.942	234.81
262.175	223.81
262.407	229.81
262.64	236.81
262.872	231.81
263.105	230.81
263.337	217.81
263.57	215.81
263.802	224.81
264.035	229.81
264.267	221.81
264.499	212.81
264.732	223.81
264.964	225.81
265.197	222.81
265.429	200.81
265.661	237.81
265.894	225.81
266.126	230.81
266.358	250.81
266.591	246.81
266.823	238.81
267.055	225.81
267.287	244.81
267.52	256.81
267.752	246.81
267.984	235.81
268.216	249.81
268.448	246.81
268.681	245.81
268.913	250.81
269.145	287.81
269.377	276.81
269.609	286.81
269.841	290.81
270.073	295.81
270.306	306.81
270.538	327.81
270.77	334.81
271.002	304.81
271.234	300.81
271.466	313.81
271.698	319.81
271.93	336.81
272.162	338.81
272.394	315.81
272.626	319.81
272.858	325.81
273.09	301.81
273.322	308.81
273.553	280.81
273.785	280.81
274.017	272.81
274.249	269.81
274.481	277.81
274.713	279.81
274.945	296.81
275.176	293.81
275.408	280.81
275.64	286.81
275.872	270.81
276.104	267.81
276.335	276.81
276.567	284.81
276.799	328.81
277.031	306.81
277.262	335.81
277.494	332.81
277.726	308.81
277.957	310.81
278.189	305.81
278.421	284.81
278.652	287.81
278.884	303.81
279.115	282.81
279.347	290.81
279.579	287.81
279.81	271.81
280.042	301.81
280.273	278.81
280.505	295.81
280.736	279.81
280.968	300.81
281.199	278.81
281.431	280.81
281.662	272.81
281.894	303.81
282.125	294.81
282.356	316.81
282.588	314.81
282.819	319.81
283.051	313.81
283.282	286.81
283.513	293.81
283.745	288.81
283.976	293.81
284.207	311.81
284.439	294.81
284.67	292.81
284.901	308.81
285.132	300.81
285.364	302.81
285.595	309.81
285.826	298.81
286.057	293.81
286.288	302.81
286.52	297.81
286.751	315.81
286.982	316.81
287.213	295.81
287.444	322.81
287.675	321.81
287.906	311.81
288.138	312.81
288.369	312.81
288.6	328.81
288.831	306.81
289.062	314.81
289.293	304.81
289.524	310.81
289.755	316.81
289.986	306.81
290.217	300.81
290.448	300.81
290.679	325.81
290.91	311.81
291.141	315.81
291.371	304.81
291.602	310.81
291.833	301.81
292.064	314.81
292.295	310.81
292.526	320.81
292.757	318.81
292.987	306.81
293.218	291.81
293.449	279.81
293.68	316.81
293.91	305.81
294.141	301.81
294.372	306.81
294.603	316.81
294.833	315.81
295.064	310.81
295.295	293.81
295.525	308.81
295.756	317.81
295.987	319.81
296.217	350.81
296.448	315.81
296.679	332.81
296.909	307.81
297.14	316.81
297.37	306.81
297.601	302.81
297.831	309.81
298.062	315.81
298.292	336.81
298.523	335.81
298.753	335.81
298.984	324.81
299.214	329.81
299.445	332.81
299.675	324.81
299.905	327.81
300.136	348.81
300.366	319.81
300.597	340.81
300.827	358.81
301.057	335.81
301.288	346.81
301.518	342.81
301.748	370.81
301.979	324.81
302.209	356.81
302.439	347.81
302.669	343.81
302.9	348.81
303.13	351.81
303.36	338.81
303.59	363.81
303.82	375.81
304.051	376.81
304.281	349.81
304.511	344.81
304.741	324.81
304.971	343.81
305.201	344.81
305.431	329.81
305.661	343.81
305.891	365.81
306.121	351.81
306.352	365.81
306.582	356.81
306.812	360.81
307.042	341.81
307.272	361.81
307.502	360.81
307.731	370.81
307.961	368.81
308.191	376.81
308.421	374.81
308.651	367.81
308.881	375.81
309.111	373.81
309.341	349.81
309.571	368.81
309.8	376.81
310.03	398.81
310.26	394.81
310.49	400.81
310.72	410.81
310.949	420.81
311.179	406.81
311.409	377.81
311.639	400.81
311.868	404.81
312.098	410.81
312.328	415.81
312.557	414.81
312.787	428.81
313.017	427.81
313.246	412.81
313.476	391.81
313.706	385.81
313.935	401.81
314.165	407.81
314.394	415.81
314.624	401.81
314.853	403.81
315.083	394.81
315.312	399.81
315.542	401.81
315.771	409.81
316.001	399.81
316.23	398.81
316.46	405.81
316.689	412.81
316.919	390.81
317.148	410.81
317.377	420.81
317.607	395.81
317.836	391.81
318.065	398.81
318.295	387.81
318.524	391.81
318.753	388.81
318.983	395.81
319.212	402.81
319.441	415.81
319.67	400.81
319.9	403.81
320.129	400.81
320.358	398.81
320.587	419.81
320.816	404.81
321.046	414.81
321.275	425.81
321.504	439.81
321.733	429.81
321.962	431.81
322.191	435.81
322.42	442.81
322.649	462.81
322.878	448.81
323.108	487.81
323.337	506.81
323.566	498.81
323.795	546.81
324.024	587.81
324.253	742.81
324.482	985.81
324.71	1472.81
324.939	2047.81
325.168	1737.81
325.397	914.81
325.626	630.81
325.855	570.81
326.084	538.81
326.313	518.81
326.542	512.81
326.77	574.81
326.999	662.81
327.228	905.81
327.457	1324.81
327.686	1522.81
327.914	1013.81
328.143	698.81
328.372	623.81
328.6	596.81
328.829	558.81
329.058	591.81
329.287	571.81
329.515	539.81
329.744	514.81
329.972	515.81
330.201	542.81
330.43	573.81
330.658	588.81
330.887	592.81
331.115	588.81
331.344	507.81
331.572	516.81
331.801	503.81
332.03	507.81
332.258	480.81
332.486	444.81
332.715	472.81
332.943	493.81
333.172	448.81
333.4	461.81
333.629	477.81
333.857	482.81
334.085	492.81
334.314	522.81
334.542	535.81
334.771	546.81
334.999	516.81
335.227	469.81
335.455	467.81
335.684	472.81
335.912	448.81
336.14	463.81
336.369	451.81
336.597	461.81
336.825	467.81
337.053	460.81
337.281	444.81
337.51	447.81
337.738	455.81
337.966	441.81
338.194	450.81
338.422	465.81
338.65	449.81
338.878	447.81
339.106	440.81
339.334	418.81
339.562	465.81
339.79	443.81
340.018	451.81
340.246	442.81
340.474	434.81
340.702	430.81
340.93	419.81
341.158	439.81
341.386	426.81
341.614	444.81
341.842	438.81
342.07	443.81
342.298	429.81
342.526	437.81
342.754	412.81
342.981	413.81
343.209	422.81
343.437	444.81
343.665	416.81
343.893	416.81
344.12	424.81
344.348	423.81
344.576	439.81
344.804	426.81
345.031	445.81
345.259	450.81
345.487	437.81
345.714	432.81
345.942	417.81
346.17	400.81
346.397	423.81
346.625	424.81
346.853	423.81
347.08	411.81
347.308	418.81
347.535	418.81
347.763	413.81
347.99	428.81
348.218	432.81
348.445	451.81
348.673	438.81
348.9	429.81
349.128	407.81
349.355	404.81
349.583	390.81
349.81	406.81
350.037	396.81
350.265	401.81
350.492	420.81
350.72	390.81
350.947	411.81
351.174	419.81
351.402	415.81
351.629	423.81
351.856	434.81
352.083	405.81
352.311	422.81
352.538	417.81
352.765	417.81
352.992	423.81
353.22	413.81
353.447	399.81
353.674	395.81
353.901	395.81
354.128	384.81
354.355	389.81
354.583	398.81
354.81	401.81
355.037	387.81
355.264	387.81
355.491	374.81
355.718	367.81
355.945	372.81
356.172	374.81
356.399	390.81
356.626	377.81
356.853	374.81
357.08	378.81
357.307	368.81
357.534	366.81
357.761	392.81
357.988	365.81
358.215	381.81
358.441	366.81
358.668	390.81
358.895	388.81
359.122	401.81
359.349	404.81
359.576	394.81
359.802	418.81
360.029	451.81
360.256	439.81
360.483	441.81
360.709	406.81
360.936	403.81
361.163	397.81
361.39	371.81
361.616	392.81
361.843	374.81
362.07	381.81
362.296	402.81
362.523	396.81
362.749	394.81
362.976	399.81
363.203	406.81
363.429	388.81
363.656	390.81
363.882	382.81
364.109	383.81
364.335	396.81
364.562	374.81
364.788	355.81
365.015	378.81
365.241	376.81
365.468	379.81
365.694	382.81
365.92	384.81
366.147	380.81
366.373	390.81
366.599	387.81
366.826	371.81
367.052	370.81
367.278	387.81
367.505	371.81
367.731	365.81
367.957	377.81
368.184	390.81
368.41	380.81
368.636	391.81
368.862	396.81
369.089	395.81
369.315	395.81
369.541	385.81
369.767	382.81
369.993	374.81
370.219	375.81
370.445	366.81
370.672	374.81
370.898	354.81
371.124	370.81
371.35	358.81
371.576	375.81
371.802	372.81
372.028	378.81
372.254	365.81
372.48	356.81
372.706	365.81
372.932	376.81
373.158	375.81
373.384	376.81
373.61	376.81
373.835	362.81
374.061	376.81
374.287	374.81
374.513	375.81
374.739	365.81
374.965	379.81
375.191	380.81
375.416	387.81
375.642	367.81
375.868	352.81
376.094	379.81
376.319	360.81
376.545	353.81
376.771	379.81
376.997	376.81
377.222	364.81
377.448	347.81
377.674	365.81
377.899	356.81
378.125	371.81
378.35	357.81
378.576	384.81
378.802	382.81
379.027	347.81
379.253	357.81
379.478	356.81
379.704	370.81
379.929	350.81
380.155	365.81
380.38	367.81
380.606	374.81
380.831	357.81
381.057	371.81
381.282	359.81
381.507	359.81
381.733	379.81
381.958	366.81
382.184	364.81
382.409	386.81
382.634	373.81
382.86	370.81
383.085	388.81
383.31	381.81
383.535	349.81
383.761	356.81
383.986	366.81
384.211	381.81
384.436	364.81
384.662	360.81
384.887	381.81
385.112	392.81
385.337	388.81
385.562	390.81
385.787	403.81
386.013	400.81
386.238	394.81
386.463	404.81
386.688	400.81
386.913	398.81
387.138	394.81
387.363	382.81
387.588	393.81
387.813	374.81
388.038	369.81
388.263	391.81
388.488	381.81
388.713	393.81
388.938	401.81
389.163	396.81
389.387	400.81
389.612	403.81
389.837	373.81
390.062	379.81
390.287	369.81
390.512	377.81
390.736	387.81
390.961	413.81
391.186	378.81
391.411	396.81
391.636	407.81
391.86	410.81
392.085	391.81
392.31	378.81
392.534	400.81
392.759	389.81
392.984	394.81
393.208	377.81
393.433	381.81
393.658	388.81
393.882	394.81
394.107	391.81
394.331	385.81
394.556	388.81
394.78	391.81
395.005	387.81
395.229	384.81
395.454	394.81
395.678	398.81
395.903	405.81
396.127	436.81
396.352	414.81
396.576	388.81
396.801	394.81
397.025	377.81
397.249	384.81
397.474	414.81
397.698	407.81
397.922	428.81
398.147	438.81
398.371	434.81
398.595	439.81
398.82	437.81
399.044	430.81
399.268	444.81
399.492	464.81
399.717	492.81
399.941	523.81
400.165	515.81
400.389	537.81
400.613	502.81
400.837	451.81
401.062	433.81
401.286	442.81
401.51	422.81
401.734	413.81
401.958	413.81
402.182	434.81
402.406	436.81
402.63	434.81
402.854	462.81
403.078	442.81
403.302	430.81
403.526	449.81
403.75	431.81
403.974	427.81
404.198	431.81
404.422	428.81
404.645	452.81
404.869	459.81
405.093	476.81
405.317	507.81
405.541	522.81
405.765	467.81
405.988	455.81
406.212	440.81
406.436	478.81
406.66	483.81
406.883	482.81
407.107	477.81
407.331	548.81
407.555	580.81
407.778	552.81
408.002	539.81
408.226	519.81
408.449	499.81
408.673	486.81
408.896	509.81
409.12	555.81
409.344	493.81
409.567	461.81
409.791	445.81
410.014	439.81
410.238	406.81
410.461	450.81
410.685	442.81
410.908	454.81
411.132	452.81
411.355	514.81
411.578	488.81
411.802	456.81
412.025	434.81
412.249	446.81
412.472	476.81
412.695	509.81
412.919	480.81
413.142	442.81
413.365	437.81
413.589	414.81
413.812	421.81
414.035	441.81
414.258	406.81
414.482	401.81
414.705	415.81
414.928	439.81
415.151	411.81
415.374	412.81
415.597	403.81
415.821	414.81
416.044	410.81
416.267	418.81
416.49	418.81
416.713	412.81
416.936	401.81
417.159	414.81
417.382	422.81
417.605	438.81
417.828	425.81
418.051	432.81
418.274	434.81
418.497	425.81
418.72	408.81
418.943	438.81
419.166	431.81
419.389	448.81
419.611	430.81
419.834	414.81
420.057	458.81
420.28	448.81
420.503	429.81
420.726	421.81
420.948	445.81
421.171	491.81
421.394	510.81
421.617	479.81
421.839	428.81
422.062	454.81
422.285	460.81
422.507	508.81
422.73	566.81
422.953	531.81
423.175	488.81
423.398	465.81
423.621	465.81
423.843	497.81
424.066	490.81
424.288	472.81
424.511	500.81
424.733	526.81
424.956	597.81
425.178	579.81
425.401	579.81
425.623	598.81
425.846	487.81
426.068	447.81
426.291	464.81
426.513	464.81
426.735	484.81
426.958	505.81
427.18	572.81
427.402	672.81
427.625	735.81
427.847	644.81
428.069	553.81
428.292	478.81
428.514	466.81
428.736	455.81
428.958	440.81
429.181	422.81
429.403	454.81
429.625	439.81
429.847	468.81
430.069	526.81
430.292	546.81
430.514	466.81
430.736	431.81
430.958	422.81
431.18	414.81
431.402	416.81
431.624	406.81
431.846	392.81
432.068	411.81
432.29	399.81
432.512	383.81
432.734	381.81
432.956	423.81
433.178	428.81
433.4	425.81
433.622	415.81
433.844	416.81
434.066	374.81
434.287	398.81
434.509	397.81
434.731	405.81
434.953	434.81
435.175	441.81
435.397	470.81
435.618	459.81
435.84	504.81
436.062	568.81
436.284	611.81
436.505	534.81
436.727	499.81
436.949	465.81
437.17	446.81
437.392	442.81
437.614	438.81
437.835	476.81
438.057	559.81
438.278	624.81
438.5	646.81
438.721	687.81
438.943	626.81
439.165	524.81
439.386	498.81
439.608	468.81
439.829	485.81
440.05	508.81
440.272	541.81
440.493	492.81
440.715	459.81
440.936	434.81
441.158	445.81
441.379	436.81
441.6	430.81
441.822	456.81
442.043	519.81
442.264	573.81
442.486	589.81
442.707	507.81
442.928	491.81
443.149	470.81
443.371	500.81
443.592	530.81
443.813	610.81
444.034	665.81
444.255	559.81
444.476	472.81
444.698	474.81
444.919	466.81
445.14	565.81
445.361	512.81
445.582	518.81
445.803	557.81
446.024	654.81
446.245	666.81
446.466	578.81
446.687	507.81
446.908	487.81
447.129	451.81
447.35	448.81
447.571	439.81
447.792	414.81
448.013	466.81
448.234	460.81
448.455	494.81
448.675	582.81
448.896	677.81
449.117	591.81
449.338	550.81
449.559	617.81
449.779	692.81
450	582.81
450.221	478.81
450.442	445.81
450.662	412.81
450.883	412.81
451.104	439.81
451.324	402.81
451.545	405.81
451.766	398.81
451.986	402.81
452.207	375.81
452.428	373.81
452.648	407.81
452.869	377.81
453.089	400.81
453.31	378.81
453.53	395.81
453.751	385.81
453.971	389.81
454.192	386.81
454.412	383.81
454.633	382.81
454.853	376.81
455.073	363.81
455.294	411.81
455.514	466.81
455.734	456.81
455.955	377.81
456.175	365.81
456.395	345.81
456.616	365.81
456.836	350.81
457.056	367.81
457.276	353.81
457.497	365.81
457.717	366.81
457.937	347.81
458.157	375.81
458.377	392.81
458.598	389.81
458.818	430.81
459.038	504.81
459.258	518.81
459.478	459.81
459.698	398.81
459.918	422.81
460.138	401.81
460.358	396.81
460.578	405.81
460.798	396.81
461.018	388.81
461.238	400.81
461.458	396.81
461.678	410.81
461.898	415.81
462.118	406.81
462.338	408.81
462.558	410.81
462.777	396.81
462.997	426.81
463.217	442.81
463.437	429.81
463.657	420.81
463.876	419.81
464.096	422.81
464.316	406.81
464.536	426.81
464.755	421.81
464.975	423.81
465.195	469.81
465.414	511.81
465.634	462.81
465.854	427.81
466.073	404.81
466.293	404.81
466.512	375.81
466.732	391.81
466.951	385.81
467.171	372.81
467.391	378.81
467.61	384.81
467.829	403.81
468.049	412.81
468.268	400.81
468.488	386.81
468.707	368.81
468.927	385.81
469.146	386.81
469.365	374.81
469.585	372.81
469.804	372.81
470.023	393.81
470.243	394.81
470.462	419.81
470.681	414.81
470.901	429.81
471.12	392.81
471.339	398.81
471.558	406.81
471.777	410.81
471.997	390.81
472.216	382.81
472.435	413.81
472.654	411.81
472.873	376.81
473.092	386.81
473.311	410.81
473.53	390.81
473.749	407.81
473.968	447.81
474.187	543.81
474.406	540.81
474.625	434.81
474.844	428.81
475.063	419.81
475.282	398.81
475.501	406.81
475.72	419.81
475.939	383.81
476.158	404.81
476.377	400.81
476.596	393.81
476.814	410.81
477.033	413.81
477.252	409.81
477.471	413.81
477.69	405.81
477.908	416.81
478.127	411.81
478.346	430.81
478.564	432.81
478.783	420.81
479.002	414.81
479.22	439.81
479.439	465.81
479.658	463.81
479.876	461.81
480.095	484.81
480.313	519.81
480.532	491.81
480.751	465.81
480.969	504.81
481.188	535.81
481.406	539.81
481.624	493.81
481.843	475.81
482.061	467.81
482.28	472.81
482.498	432.81
482.717	459.81
482.935	465.81
483.153	440.81
483.372	452.81
483.59	460.81
483.808	459.81
484.027	453.81
484.245	459.81
484.463	454.81
484.681	451.81
484.9	473.81
485.118	445.81
485.336	461.81
485.554	470.81
485.772	469.81
485.99	472.81
486.209	467.81
486.427	471.81
486.645	466.81
486.863	482.81
487.081	498.81
487.299	480.81
487.517	487.81
487.735	479.81
487.953	500.81
488.171	495.81
488.389	476.81
488.607	496.81
488.825	510.81
489.043	491.81
489.261	500.81
489.479	506.81
489.696	494.81
489.914	510.81
490.132	506.81
490.35	523.81
490.568	524.81
490.786	503.81
491.003	527.81
491.221	532.81
491.439	546.81
491.657	558.81
491.874	562.81
492.092	576.81
492.31	573.81
492.527	590.81
492.745	586.81
492.963	579.81
493.18	578.81
493.398	594.81
493.615	586.81
493.833	584.81
494.05	569.81
494.268	572.81
494.485	569.81
494.703	582.81
494.92	597.81
495.138	588.81
495.355	566.81
495.573	595.81
495.79	587.81
496.008	614.81
496.225	587.81
496.442	604.81
496.66	583.81
496.877	594.81
497.094	577.81
497.312	612.81
497.529	609.81
497.746	592.81
497.963	614.81
498.181	605.81
498.398	608.81
498.615	646.81
498.832	614.81
499.049	664.81
499.267	664.81
499.484	676.81
499.701	709.81
499.918	736.81
500.135	711.81
500.352	774.81
500.569	790.81
500.786	793.81
501.003	773.81
501.22	734.81
501.437	734.81
501.654	710.81
501.871	726.81
