Data from 1971.PennyLincolnUp.Lamp.En5.5.200Scan.071719.P1.Scan 2. Changed Angle._HRD10591_15-22-35-841.txt Node
Date: Thu Jul 18 15:22:35 EDT 2019
User: cochatt
Spectrometer: HR+D1059
Trigger mode: 1
Integration Time (sec): 1.000000E-1
Scans to average: 1
Electric dark correction enabled: true
Nonlinearity correction enabled: false
Boxcar width: 0
XAxis mode: Wavelengths
Number of Pixels in Spectrum: 2048
>>>>>Begin Spectral Data<<<<<
223.165	-8.69
223.4	-8.69
223.635	-8.69
223.869	-11.69
224.104	-12.69
224.338	-10.69
224.573	-19.69
224.808	-9.69
225.042	-15.69
225.277	-20.69
225.511	-8.69
225.746	7.31
225.98	-1.69
226.215	15.31
226.449	13.31
226.683	20.31
226.918	34.31
227.152	29.31
227.387	33.31
227.621	41.31
227.856	46.31
228.09	51.31
228.324	49.31
228.559	61.31
228.793	68.31
229.027	93.31
229.262	98.31
229.496	120.31
229.73	127.31
229.964	152.31
230.199	123.31
230.433	105.31
230.667	116.31
230.901	118.31
231.136	95.31
231.37	114.31
231.604	108.31
231.838	114.31
232.072	95.31
232.306	100.31
232.541	107.31
232.775	110.31
233.009	105.31
233.243	105.31
233.477	95.31
233.711	119.31
233.945	107.31
234.179	119.31
234.413	113.31
234.647	98.31
234.881	113.31
235.115	109.31
235.349	124.31
235.583	117.31
235.817	96.31
236.051	119.31
236.285	117.31
236.519	124.31
236.753	124.31
236.987	128.31
237.221	138.31
237.455	211.31
237.689	174.31
237.922	129.31
238.156	123.31
238.39	126.31
238.624	113.31
238.858	111.31
239.091	118.31
239.325	119.31
239.559	118.31
239.793	113.31
240.027	136.31
240.26	154.31
240.494	154.31
240.728	143.31
240.961	150.31
241.195	133.31
241.429	129.31
241.662	140.31
241.896	115.31
242.13	126.31
242.363	137.31
242.597	143.31
242.83	133.31
243.064	130.31
243.298	128.31
243.531	127.31
243.765	133.31
243.998	113.31
244.232	134.31
244.465	133.31
244.699	140.31
244.932	130.31
245.166	139.31
245.399	147.31
245.633	125.31
245.866	143.31
246.099	125.31
246.333	145.31
246.566	144.31
246.8	151.31
247.033	144.31
247.266	144.31
247.5	169.31
247.733	156.31
247.966	160.31
248.2	158.31
248.433	166.31
248.666	168.31
248.899	177.31
249.133	181.31
249.366	182.31
249.599	181.31
249.832	180.31
250.066	174.31
250.299	159.31
250.532	161.31
250.765	173.31
250.998	207.31
251.231	213.31
251.465	208.31
251.698	187.31
251.931	170.31
252.164	182.31
252.397	181.31
252.63	191.31
252.863	193.31
253.096	204.31
253.329	203.31
253.562	210.31
253.795	205.31
254.028	194.31
254.261	197.31
254.494	215.31
254.727	229.31
254.96	265.31
255.193	239.31
255.426	223.31
255.659	227.31
255.892	203.31
256.124	207.31
256.357	199.31
256.59	201.31
256.823	195.31
257.056	188.31
257.289	185.31
257.521	198.31
257.754	203.31
257.987	183.31
258.22	190.31
258.452	206.31
258.685	182.31
258.918	190.31
259.151	196.31
259.383	191.31
259.616	203.31
259.849	197.31
260.081	210.31
260.314	235.31
260.547	235.31
260.779	214.31
261.012	209.31
261.244	202.31
261.477	199.31
261.71	202.31
261.942	219.31
262.175	204.31
262.407	206.31
262.64	185.31
262.872	182.31
263.105	186.31
263.337	186.31
263.57	186.31
263.802	171.31
264.035	187.31
264.267	197.31
264.499	195.31
264.732	182.31
264.964	179.31
265.197	193.31
265.429	183.31
265.661	162.31
265.894	180.31
266.126	188.31
266.358	188.31
266.591	198.31
266.823	203.31
267.055	197.31
267.287	191.31
267.52	195.31
267.752	206.31
267.984	196.31
268.216	213.31
268.448	211.31
268.681	220.31
268.913	205.31
269.145	226.31
269.377	226.31
269.609	230.31
269.841	234.31
270.073	238.31
270.306	263.31
270.538	273.31
270.77	235.31
271.002	257.31
271.234	259.31
271.466	267.31
271.698	243.31
271.93	272.31
272.162	271.31
272.394	263.31
272.626	261.31
272.858	243.31
273.09	246.31
273.322	231.31
273.553	227.31
273.785	223.31
274.017	217.31
274.249	229.31
274.481	230.31
274.713	221.31
274.945	246.31
275.176	227.31
275.408	232.31
275.64	225.31
275.872	227.31
276.104	226.31
276.335	244.31
276.567	227.31
276.799	235.31
277.031	265.31
277.262	256.31
277.494	259.31
277.726	261.31
277.957	247.31
278.189	232.31
278.421	222.31
278.652	232.31
278.884	209.31
279.115	212.31
279.347	218.31
279.579	228.31
279.81	219.31
280.042	222.31
280.273	217.31
280.505	228.31
280.736	218.31
280.968	215.31
281.199	213.31
281.431	227.31
281.662	217.31
281.894	228.31
282.125	198.31
282.356	231.31
282.588	238.31
282.819	229.31
283.051	225.31
283.282	222.31
283.513	223.31
283.745	224.31
283.976	223.31
284.207	232.31
284.439	229.31
284.67	230.31
284.901	211.31
285.132	222.31
285.364	232.31
285.595	246.31
285.826	212.31
286.057	227.31
286.288	226.31
286.52	224.31
286.751	228.31
286.982	238.31
287.213	219.31
287.444	230.31
287.675	243.31
287.906	262.31
288.138	260.31
288.369	241.31
288.6	253.31
288.831	229.31
289.062	244.31
289.293	235.31
289.524	235.31
289.755	242.31
289.986	242.31
290.217	236.31
290.448	247.31
290.679	246.31
290.91	238.31
291.141	231.31
291.371	244.31
291.602	245.31
291.833	235.31
292.064	233.31
292.295	232.31
292.526	235.31
292.757	233.31
292.987	241.31
293.218	250.31
293.449	222.31
293.68	230.31
293.91	227.31
294.141	245.31
294.372	235.31
294.603	237.31
294.833	226.31
295.064	253.31
295.295	224.31
295.525	237.31
295.756	240.31
295.987	254.31
296.217	262.31
296.448	277.31
296.679	249.31
296.909	241.31
297.14	237.31
297.37	250.31
297.601	232.31
297.831	234.31
298.062	257.31
298.292	244.31
298.523	257.31
298.753	237.31
298.984	228.31
299.214	228.31
299.445	263.31
299.675	241.31
299.905	242.31
300.136	254.31
300.366	249.31
300.597	249.31
300.827	276.31
301.057	253.31
301.288	260.31
301.518	259.31
301.748	273.31
301.979	248.31
302.209	253.31
302.439	267.31
302.669	266.31
302.9	261.31
303.13	252.31
303.36	259.31
303.59	258.31
303.82	265.31
304.051	290.31
304.281	261.31
304.511	250.31
304.741	245.31
304.971	266.31
305.201	261.31
305.431	255.31
305.661	243.31
305.891	259.31
306.121	278.31
306.352	269.31
306.582	271.31
306.812	262.31
307.042	259.31
307.272	266.31
307.502	272.31
307.731	264.31
307.961	256.31
308.191	261.31
308.421	265.31
308.651	249.31
308.881	278.31
309.111	279.31
309.341	286.31
309.571	286.31
309.8	278.31
310.03	285.31
310.26	306.31
310.49	293.31
310.72	318.31
310.949	315.31
311.179	330.31
311.409	316.31
311.639	302.31
311.868	296.31
312.098	301.31
312.328	285.31
312.557	294.31
312.787	332.31
313.017	324.31
313.246	306.31
313.476	286.31
313.706	303.31
313.935	315.31
314.165	327.31
314.394	332.31
314.624	312.31
314.853	322.31
315.083	300.31
315.312	307.31
315.542	300.31
315.771	309.31
316.001	292.31
316.23	308.31
316.46	292.31
316.689	310.31
316.919	291.31
317.148	306.31
317.377	335.31
317.607	313.31
317.836	309.31
318.065	308.31
318.295	301.31
318.524	303.31
318.753	310.31
318.983	297.31
319.212	296.31
319.441	321.31
319.67	300.31
319.9	302.31
320.129	294.31
320.358	310.31
320.587	322.31
320.816	308.31
321.046	333.31
321.275	350.31
321.504	308.31
321.733	321.31
321.962	342.31
322.191	331.31
322.42	334.31
322.649	355.31
322.878	365.31
323.108	378.31
323.337	385.31
323.566	406.31
323.795	403.31
324.024	463.31
324.253	550.31
324.482	801.31
324.71	1206.31
324.939	1766.31
325.168	1544.31
325.397	817.31
325.626	533.31
325.855	451.31
326.084	417.31
326.313	407.31
326.542	414.31
326.77	454.31
326.999	509.31
327.228	723.31
327.457	1110.31
327.686	1329.31
327.914	886.31
328.143	587.31
328.372	521.31
328.6	475.31
328.829	467.31
329.058	485.31
329.287	478.31
329.515	433.31
329.744	414.31
329.972	401.31
330.201	419.31
330.43	434.31
330.658	474.31
330.887	485.31
331.115	492.31
331.344	430.31
331.572	405.31
331.801	407.31
332.03	383.31
332.258	394.31
332.486	372.31
332.715	362.31
332.943	375.31
333.172	361.31
333.4	377.31
333.629	358.31
333.857	373.31
334.085	381.31
334.314	403.31
334.542	411.31
334.771	399.31
334.999	396.31
335.227	362.31
335.455	365.31
335.684	381.31
335.912	377.31
336.14	355.31
336.369	372.31
336.597	359.31
336.825	376.31
337.053	370.31
337.281	351.31
337.51	355.31
337.738	364.31
337.966	360.31
338.194	354.31
338.422	342.31
338.65	363.31
338.878	349.31
339.106	334.31
339.334	334.31
339.562	344.31
339.79	360.31
340.018	333.31
340.246	364.31
340.474	361.31
340.702	348.31
340.93	346.31
341.158	340.31
341.386	335.31
341.614	345.31
341.842	366.31
342.07	321.31
342.298	337.31
342.526	348.31
342.754	335.31
342.981	343.31
343.209	326.31
343.437	355.31
343.665	326.31
343.893	328.31
344.12	349.31
344.348	357.31
344.576	346.31
344.804	351.31
345.031	380.31
345.259	395.31
345.487	354.31
345.714	345.31
345.942	349.31
346.17	347.31
346.397	343.31
346.625	356.31
346.853	329.31
347.08	363.31
347.308	354.31
347.535	374.31
347.763	358.31
347.99	366.31
348.218	350.31
348.445	345.31
348.673	359.31
348.9	350.31
349.128	347.31
349.355	343.31
349.583	335.31
349.81	330.31
350.037	337.31
350.265	329.31
350.492	330.31
350.72	345.31
350.947	359.31
351.174	353.31
351.402	356.31
351.629	334.31
351.856	354.31
352.083	369.31
352.311	376.31
352.538	355.31
352.765	370.31
352.992	375.31
353.22	354.31
353.447	350.31
353.674	353.31
353.901	346.31
354.128	337.31
354.355	339.31
354.583	340.31
354.81	327.31
355.037	330.31
355.264	339.31
355.491	337.31
355.718	328.31
355.945	317.31
356.172	330.31
356.399	307.31
356.626	326.31
356.853	318.31
357.08	311.31
357.307	303.31
357.534	321.31
357.761	339.31
357.988	346.31
358.215	323.31
358.441	319.31
358.668	321.31
358.895	328.31
359.122	338.31
359.349	338.31
359.576	354.31
359.802	388.31
360.029	390.31
360.256	382.31
360.483	380.31
360.709	358.31
360.936	379.31
361.163	373.31
361.39	349.31
361.616	365.31
361.843	357.31
362.07	333.31
362.296	339.31
362.523	357.31
362.749	358.31
362.976	341.31
363.203	351.31
363.429	354.31
363.656	350.31
363.882	350.31
364.109	332.31
364.335	332.31
364.562	335.31
364.788	321.31
365.015	323.31
365.241	339.31
365.468	329.31
365.694	346.31
365.92	355.31
366.147	339.31
366.373	339.31
366.599	341.31
366.826	341.31
367.052	341.31
367.278	328.31
367.505	356.31
367.731	339.31
367.957	341.31
368.184	336.31
368.41	344.31
368.636	359.31
368.862	387.31
369.089	362.31
369.315	341.31
369.541	337.31
369.767	344.31
369.993	334.31
370.219	325.31
370.445	357.31
370.672	357.31
370.898	344.31
371.124	335.31
371.35	355.31
371.576	343.31
371.802	341.31
372.028	331.31
372.254	354.31
372.48	342.31
372.706	342.31
372.932	372.31
373.158	334.31
373.384	356.31
373.61	354.31
373.835	346.31
374.061	344.31
374.287	348.31
374.513	363.31
374.739	350.31
374.965	355.31
375.191	367.31
375.416	345.31
375.642	350.31
375.868	350.31
376.094	354.31
376.319	379.31
376.545	355.31
376.771	341.31
376.997	317.31
377.222	335.31
377.448	335.31
377.674	363.31
377.899	347.31
378.125	349.31
378.35	340.31
378.576	322.31
378.802	355.31
379.027	342.31
379.253	356.31
379.478	353.31
379.704	373.31
379.929	355.31
380.155	354.31
380.38	343.31
380.606	360.31
380.831	369.31
381.057	343.31
381.282	361.31
381.507	375.31
381.733	349.31
381.958	356.31
382.184	365.31
382.409	371.31
382.634	361.31
382.86	374.31
383.085	355.31
383.31	358.31
383.535	343.31
383.761	350.31
383.986	358.31
384.211	358.31
384.436	357.31
384.662	363.31
384.887	381.31
385.112	357.31
385.337	381.31
385.562	364.31
385.787	365.31
386.013	388.31
386.238	395.31
386.463	387.31
386.688	381.31
386.913	383.31
387.138	391.31
387.363	379.31
387.588	384.31
387.813	396.31
388.038	386.31
388.263	385.31
388.488	367.31
388.713	379.31
388.938	373.31
389.163	377.31
389.387	378.31
389.612	370.31
389.837	375.31
390.062	396.31
390.287	389.31
390.512	361.31
390.736	379.31
390.961	377.31
391.186	371.31
391.411	381.31
391.636	386.31
391.86	395.31
392.085	390.31
392.31	376.31
392.534	373.31
392.759	385.31
392.984	393.31
393.208	395.31
393.433	415.31
393.658	393.31
393.882	378.31
394.107	381.31
394.331	381.31
394.556	390.31
394.78	393.31
395.005	372.31
395.229	394.31
395.454	403.31
395.678	393.31
395.903	412.31
396.127	420.31
396.352	400.31
396.576	418.31
396.801	396.31
397.025	407.31
397.249	396.31
397.474	413.31
397.698	420.31
397.922	423.31
398.147	434.31
398.371	427.31
398.595	415.31
398.82	439.31
399.044	435.31
399.268	445.31
399.492	453.31
399.717	474.31
399.941	488.31
400.165	531.31
400.389	529.31
400.613	476.31
400.837	474.31
401.062	452.31
401.286	439.31
401.51	413.31
401.734	429.31
401.958	431.31
402.182	445.31
402.406	449.31
402.63	441.31
402.854	441.31
403.078	442.31
403.302	430.31
403.526	437.31
403.75	461.31
403.974	456.31
404.198	450.31
404.422	440.31
404.645	450.31
404.869	466.31
405.093	486.31
405.317	530.31
405.541	545.31
405.765	521.31
405.988	475.31
406.212	470.31
406.436	512.31
406.66	517.31
406.883	490.31
407.107	505.31
407.331	543.31
407.555	601.31
407.778	614.31
408.002	528.31
408.226	532.31
408.449	518.31
408.673	531.31
408.896	522.31
409.12	556.31
409.344	546.31
409.567	486.31
409.791	458.31
410.014	476.31
410.238	454.31
410.461	465.31
410.685	481.31
410.908	490.31
411.132	519.31
411.355	529.31
411.578	485.31
411.802	450.31
412.025	458.31
412.249	469.31
412.472	446.31
412.695	520.31
412.919	502.31
413.142	459.31
413.365	455.31
413.589	465.31
413.812	440.31
414.035	452.31
414.258	434.31
414.482	421.31
414.705	443.31
414.928	426.31
415.151	440.31
415.374	422.31
415.597	416.31
415.821	439.31
416.044	441.31
416.267	429.31
416.49	422.31
416.713	440.31
416.936	433.31
417.159	439.31
417.382	452.31
417.605	441.31
417.828	449.31
418.051	461.31
418.274	452.31
418.497	441.31
418.72	422.31
418.943	453.31
419.166	462.31
419.389	491.31
419.611	467.31
419.834	434.31
420.057	466.31
420.28	443.31
420.503	467.31
420.726	474.31
420.948	462.31
421.171	499.31
421.394	539.31
421.617	485.31
421.839	474.31
422.062	479.31
422.285	453.31
422.507	534.31
422.73	603.31
422.953	583.31
423.175	495.31
423.398	494.31
423.621	484.31
423.843	520.31
424.066	505.31
424.288	490.31
424.511	549.31
424.733	577.31
424.956	657.31
425.178	621.31
425.401	638.31
425.623	642.31
425.846	555.31
426.068	525.31
426.291	510.31
426.513	517.31
426.735	511.31
426.958	543.31
427.18	634.31
427.402	739.31
427.625	804.31
427.847	703.31
428.069	611.31
428.292	571.31
428.514	520.31
428.736	499.31
428.958	489.31
429.181	478.31
429.403	463.31
429.625	477.31
429.847	513.31
430.069	578.31
430.292	553.31
430.514	497.31
430.736	482.31
430.958	464.31
431.18	459.31
431.402	449.31
431.624	426.31
431.846	431.31
432.068	419.31
432.29	421.31
432.512	424.31
432.734	442.31
432.956	485.31
433.178	467.31
433.4	463.31
433.622	428.31
433.844	458.31
434.066	459.31
434.287	452.31
434.509	447.31
434.731	445.31
434.953	461.31
435.175	461.31
435.397	483.31
435.618	517.31
435.84	541.31
436.062	615.31
436.284	692.31
436.505	590.31
436.727	541.31
436.949	497.31
437.17	484.31
437.392	475.31
437.614	492.31
437.835	524.31
438.057	615.31
438.278	711.31
438.5	703.31
438.721	743.31
438.943	724.31
439.165	606.31
439.386	538.31
439.608	545.31
439.829	526.31
440.05	547.31
440.272	586.31
440.493	539.31
440.715	509.31
440.936	500.31
441.158	509.31
441.379	470.31
441.6	490.31
441.822	518.31
442.043	565.31
442.264	642.31
442.486	667.31
442.707	564.31
442.928	533.31
443.149	534.31
443.371	550.31
443.592	564.31
443.813	673.31
444.034	716.31
444.255	618.31
444.476	541.31
444.698	541.31
444.919	518.31
445.14	612.31
445.361	599.31
445.582	565.31
445.803	623.31
446.024	685.31
446.245	735.31
446.466	630.31
446.687	575.31
446.908	523.31
447.129	495.31
447.35	487.31
447.571	471.31
447.792	477.31
448.013	498.31
448.234	496.31
448.455	541.31
448.675	647.31
448.896	731.31
449.117	649.31
449.338	623.31
449.559	703.31
449.779	790.31
450	613.31
450.221	547.31
450.442	477.31
450.662	476.31
450.883	481.31
451.104	484.31
451.324	480.31
451.545	461.31
451.766	472.31
451.986	419.31
452.207	430.31
452.428	426.31
452.648	428.31
452.869	430.31
453.089	446.31
453.31	430.31
453.53	419.31
453.751	422.31
453.971	434.31
454.192	444.31
454.412	431.31
454.633	415.31
454.853	425.31
455.073	440.31
455.294	454.31
455.514	522.31
455.734	517.31
455.955	421.31
456.175	404.31
456.395	407.31
456.616	396.31
456.836	409.31
457.056	400.31
457.276	395.31
457.497	415.31
457.717	393.31
457.937	420.31
458.157	397.31
458.377	414.31
458.598	440.31
458.818	499.31
459.038	548.31
459.258	545.31
459.478	500.31
459.698	455.31
459.918	454.31
460.138	445.31
460.358	444.31
460.578	444.31
460.798	452.31
461.018	446.31
461.238	445.31
461.458	456.31
461.678	454.31
461.898	451.31
462.118	439.31
462.338	461.31
462.558	428.31
462.777	468.31
462.997	477.31
463.217	456.31
463.437	485.31
463.657	473.31
463.876	472.31
464.096	476.31
464.316	477.31
464.536	479.31
464.755	497.31
464.975	485.31
465.195	522.31
465.414	595.31
465.634	516.31
465.854	471.31
466.073	460.31
466.293	470.31
466.512	446.31
466.732	435.31
466.951	426.31
467.171	439.31
467.391	435.31
467.61	445.31
467.829	460.31
468.049	451.31
468.268	435.31
468.488	427.31
468.707	449.31
468.927	419.31
469.146	424.31
469.365	442.31
469.585	426.31
469.804	429.31
470.023	438.31
470.243	443.31
470.462	446.31
470.681	468.31
470.901	472.31
471.12	460.31
471.339	442.31
471.558	456.31
471.777	448.31
471.997	426.31
472.216	439.31
472.435	446.31
472.654	476.31
472.873	444.31
473.092	434.31
473.311	443.31
473.53	437.31
473.749	467.31
473.968	479.31
474.187	575.31
474.406	590.31
474.625	529.31
474.844	488.31
475.063	450.31
475.282	432.31
475.501	454.31
475.72	454.31
475.939	478.31
476.158	479.31
476.377	451.31
476.596	470.31
476.814	449.31
477.033	469.31
477.252	484.31
477.471	473.31
477.69	493.31
477.908	485.31
478.127	502.31
478.346	488.31
478.564	503.31
478.783	526.31
479.002	493.31
479.22	526.31
479.439	519.31
479.658	534.31
479.876	537.31
480.095	528.31
480.313	546.31
480.532	541.31
480.751	521.31
480.969	534.31
481.188	571.31
481.406	601.31
481.624	549.31
481.843	533.31
482.061	539.31
482.28	546.31
482.498	537.31
482.717	501.31
482.935	512.31
483.153	545.31
483.372	551.31
483.59	551.31
483.808	537.31
484.027	519.31
484.245	505.31
484.463	543.31
484.681	566.31
484.9	550.31
485.118	539.31
485.336	566.31
485.554	533.31
485.772	553.31
485.99	546.31
486.209	556.31
486.427	537.31
486.645	570.31
486.863	567.31
487.081	582.31
487.299	565.31
487.517	589.31
487.735	566.31
487.953	571.31
488.171	589.31
488.389	578.31
488.607	583.31
488.825	585.31
489.043	570.31
489.261	582.31
489.479	579.31
489.696	588.31
489.914	582.31
490.132	613.31
490.35	594.31
490.568	614.31
490.786	622.31
491.003	634.31
491.221	645.31
491.439	636.31
491.657	641.31
491.874	647.31
492.092	672.31
492.31	675.31
492.527	647.31
492.745	661.31
492.963	642.31
493.18	651.31
493.398	682.31
493.615	677.31
493.833	678.31
494.05	710.31
494.268	690.31
494.485	666.31
494.703	677.31
494.92	686.31
495.138	675.31
495.355	690.31
495.573	703.31
495.79	689.31
496.008	727.31
496.225	684.31
496.442	693.31
496.66	709.31
496.877	678.31
497.094	675.31
497.312	694.31
497.529	683.31
497.746	723.31
497.963	730.31
498.181	766.31
498.398	745.31
498.615	761.31
498.832	747.31
499.049	729.31
499.267	745.31
499.484	771.31
499.701	810.31
499.918	847.31
500.135	859.31
500.352	849.31
500.569	866.31
500.786	879.31
501.003	863.31
501.22	887.31
501.437	862.31
501.654	843.31
