Data from 1971.PennyLincolnUp.Lamp.En5.5.200Scan.071719.P1.Scan 2. Changed Angle._HRD10591_15-25-42-842.txt Node
Date: Thu Jul 18 15:25:42 EDT 2019
User: cochatt
Spectrometer: HR+D1059
Trigger mode: 1
Integration Time (sec): 1.000000E-1
Scans to average: 1
Electric dark correction enabled: true
Nonlinearity correction enabled: false
Boxcar width: 0
XAxis mode: Wavelengths
Number of Pixels in Spectrum: 2048
>>>>>Begin Spectral Data<<<<<
223.165	-11.81
223.4	-11.81
223.635	-11.81
223.869	-11.81
224.104	-19.81
224.338	-23.81
224.573	-15.81
224.808	-0.81
225.042	-15.81
225.277	7.19
225.511	-9.81
225.746	0.19
225.98	12.19
226.215	16.19
226.449	14.19
226.683	9.19
226.918	24.19
227.152	26.19
227.387	32.19
227.621	47.19
227.856	56.19
228.09	51.19
228.324	48.19
228.559	51.19
228.793	75.19
229.027	115.19
229.262	136.19
229.496	139.19
229.73	173.19
229.964	180.19
230.199	149.19
230.433	116.19
230.667	116.19
230.901	128.19
231.136	116.19
231.37	123.19
231.604	124.19
231.838	128.19
232.072	113.19
232.306	125.19
232.541	129.19
232.775	119.19
233.009	112.19
233.243	127.19
233.477	92.19
233.711	131.19
233.945	128.19
234.179	135.19
234.413	121.19
234.647	131.19
234.881	123.19
235.115	131.19
235.349	140.19
235.583	121.19
235.817	137.19
236.051	134.19
236.285	131.19
236.519	129.19
236.753	131.19
236.987	163.19
237.221	209.19
237.455	274.19
237.689	236.19
237.922	165.19
238.156	153.19
238.39	141.19
238.624	155.19
238.858	136.19
239.091	147.19
239.325	145.19
239.559	151.19
239.793	151.19
240.027	155.19
240.26	169.19
240.494	165.19
240.728	153.19
240.961	174.19
241.195	162.19
241.429	145.19
241.662	153.19
241.896	149.19
242.13	151.19
242.363	135.19
242.597	160.19
242.83	158.19
243.064	138.19
243.298	158.19
243.531	154.19
243.765	148.19
243.998	147.19
244.232	141.19
244.465	151.19
244.699	151.19
244.932	150.19
245.166	152.19
245.399	154.19
245.633	164.19
245.866	154.19
246.099	143.19
246.333	157.19
246.566	161.19
246.8	166.19
247.033	179.19
247.266	183.19
247.5	165.19
247.733	176.19
247.966	208.19
248.2	200.19
248.433	189.19
248.666	202.19
248.899	186.19
249.133	219.19
249.366	229.19
249.599	225.19
249.832	206.19
250.066	214.19
250.299	213.19
250.532	219.19
250.765	218.19
250.998	236.19
251.231	260.19
251.465	239.19
251.698	236.19
251.931	224.19
252.164	220.19
252.397	219.19
252.63	222.19
252.863	230.19
253.096	239.19
253.329	264.19
253.562	247.19
253.795	250.19
254.028	247.19
254.261	231.19
254.494	270.19
254.727	299.19
254.96	320.19
255.193	313.19
255.426	301.19
255.659	260.19
255.892	264.19
256.124	265.19
256.357	254.19
256.59	251.19
256.823	247.19
257.056	246.19
257.289	238.19
257.521	235.19
257.754	220.19
257.987	217.19
258.22	234.19
258.452	213.19
258.685	209.19
258.918	218.19
259.151	232.19
259.383	225.19
259.616	242.19
259.849	247.19
260.081	269.19
260.314	273.19
260.547	283.19
260.779	291.19
261.012	257.19
261.244	249.19
261.477	252.19
261.71	243.19
261.942	247.19
262.175	272.19
262.407	255.19
262.64	241.19
262.872	230.19
263.105	241.19
263.337	234.19
263.57	236.19
263.802	237.19
264.035	227.19
264.267	212.19
264.499	224.19
264.732	208.19
264.964	229.19
265.197	223.19
265.429	231.19
265.661	222.19
265.894	225.19
266.126	219.19
266.358	217.19
266.591	226.19
266.823	221.19
267.055	249.19
267.287	239.19
267.52	227.19
267.752	239.19
267.984	233.19
268.216	219.19
268.448	230.19
268.681	250.19
268.913	229.19
269.145	283.19
269.377	292.19
269.609	288.19
269.841	285.19
270.073	307.19
270.306	317.19
270.538	360.19
270.77	347.19
271.002	332.19
271.234	332.19
271.466	327.19
271.698	341.19
271.93	353.19
272.162	363.19
272.394	359.19
272.626	342.19
272.858	326.19
273.09	317.19
273.322	302.19
273.553	299.19
273.785	311.19
274.017	288.19
274.249	285.19
274.481	286.19
274.713	290.19
274.945	286.19
275.176	285.19
275.408	275.19
275.64	260.19
275.872	284.19
276.104	278.19
276.335	269.19
276.567	289.19
276.799	308.19
277.031	316.19
277.262	342.19
277.494	331.19
277.726	317.19
277.957	321.19
278.189	291.19
278.421	287.19
278.652	279.19
278.884	284.19
279.115	298.19
279.347	283.19
279.579	262.19
279.81	275.19
280.042	275.19
280.273	278.19
280.505	285.19
280.736	277.19
280.968	267.19
281.199	281.19
281.431	274.19
281.662	268.19
281.894	277.19
282.125	279.19
282.356	307.19
282.588	320.19
282.819	332.19
283.051	296.19
283.282	279.19
283.513	279.19
283.745	283.19
283.976	286.19
284.207	281.19
284.439	279.19
284.67	288.19
284.901	269.19
285.132	277.19
285.364	268.19
285.595	285.19
285.826	279.19
286.057	269.19
286.288	262.19
286.52	270.19
286.751	272.19
286.982	283.19
287.213	289.19
287.444	287.19
287.675	265.19
287.906	296.19
288.138	300.19
288.369	316.19
288.6	315.19
288.831	289.19
289.062	292.19
289.293	274.19
289.524	285.19
289.755	294.19
289.986	303.19
290.217	277.19
290.448	268.19
290.679	290.19
290.91	296.19
291.141	277.19
291.371	286.19
291.602	297.19
291.833	280.19
292.064	282.19
292.295	278.19
292.526	284.19
292.757	289.19
292.987	291.19
293.218	300.19
293.449	275.19
293.68	293.19
293.91	284.19
294.141	292.19
294.372	305.19
294.603	288.19
294.833	290.19
295.064	281.19
295.295	274.19
295.525	281.19
295.756	281.19
295.987	304.19
296.217	322.19
296.448	330.19
296.679	327.19
296.909	290.19
297.14	289.19
297.37	292.19
297.601	300.19
297.831	291.19
298.062	300.19
298.292	304.19
298.523	293.19
298.753	298.19
298.984	293.19
299.214	297.19
299.445	291.19
299.675	311.19
299.905	309.19
300.136	298.19
300.366	291.19
300.597	307.19
300.827	312.19
301.057	322.19
301.288	329.19
301.518	316.19
301.748	319.19
301.979	318.19
302.209	313.19
302.439	332.19
302.669	311.19
302.9	313.19
303.13	313.19
303.36	321.19
303.59	336.19
303.82	343.19
304.051	340.19
304.281	334.19
304.511	310.19
304.741	320.19
304.971	330.19
305.201	311.19
305.431	302.19
305.661	320.19
305.891	324.19
306.121	317.19
306.352	332.19
306.582	341.19
306.812	318.19
307.042	313.19
307.272	318.19
307.502	315.19
307.731	330.19
307.961	321.19
308.191	336.19
308.421	331.19
308.651	342.19
308.881	347.19
309.111	352.19
309.341	350.19
309.571	359.19
309.8	376.19
310.03	383.19
310.26	399.19
310.49	397.19
310.72	394.19
310.949	429.19
311.179	429.19
311.409	380.19
311.639	381.19
311.868	388.19
312.098	390.19
312.328	406.19
312.557	430.19
312.787	423.19
313.017	428.19
313.246	404.19
313.476	396.19
313.706	376.19
313.935	387.19
314.165	405.19
314.394	407.19
314.624	440.19
314.853	416.19
315.083	391.19
315.312	393.19
315.542	395.19
315.771	372.19
316.001	386.19
316.23	388.19
316.46	368.19
316.689	378.19
316.919	394.19
317.148	408.19
317.377	405.19
317.607	416.19
317.836	406.19
318.065	392.19
318.295	383.19
318.524	360.19
318.753	379.19
318.983	382.19
319.212	399.19
319.441	410.19
319.67	407.19
319.9	406.19
320.129	389.19
320.358	387.19
320.587	404.19
320.816	405.19
321.046	406.19
321.275	420.19
321.504	421.19
321.733	445.19
321.962	424.19
322.191	441.19
322.42	457.19
322.649	470.19
322.878	506.19
323.108	507.19
323.337	550.19
323.566	569.19
323.795	632.19
324.024	695.19
324.253	856.19
324.482	1273.19
324.71	1972.19
324.939	2831.19
325.168	2451.19
325.397	1253.19
325.626	810.19
325.855	654.19
326.084	616.19
326.313	575.19
326.542	580.19
326.77	659.19
326.999	763.19
327.228	1088.19
327.457	1693.19
327.686	2079.19
327.914	1417.19
328.143	909.19
328.372	753.19
328.6	700.19
328.829	684.19
329.058	673.19
329.287	696.19
329.515	655.19
329.744	612.19
329.972	568.19
330.201	601.19
330.43	671.19
330.658	709.19
330.887	742.19
331.115	729.19
331.344	589.19
331.572	541.19
331.801	560.19
332.03	536.19
332.258	509.19
332.486	491.19
332.715	465.19
332.943	480.19
333.172	479.19
333.4	474.19
333.629	473.19
333.857	489.19
334.085	493.19
334.314	518.19
334.542	582.19
334.771	617.19
334.999	550.19
335.227	493.19
335.455	474.19
335.684	439.19
335.912	467.19
336.14	460.19
336.369	471.19
336.597	487.19
336.825	462.19
337.053	474.19
337.281	448.19
337.51	441.19
337.738	445.19
337.966	469.19
338.194	465.19
338.422	475.19
338.65	451.19
338.878	451.19
339.106	441.19
339.334	437.19
339.562	441.19
339.79	448.19
340.018	443.19
340.246	451.19
340.474	448.19
340.702	443.19
340.93	451.19
341.158	436.19
341.386	423.19
341.614	461.19
341.842	452.19
342.07	455.19
342.298	426.19
342.526	437.19
342.754	421.19
342.981	443.19
343.209	420.19
343.437	424.19
343.665	421.19
343.893	429.19
344.12	456.19
344.348	439.19
344.576	443.19
344.804	459.19
345.031	465.19
345.259	471.19
345.487	454.19
345.714	444.19
345.942	461.19
346.17	443.19
346.397	426.19
346.625	447.19
346.853	445.19
347.08	421.19
347.308	448.19
347.535	462.19
347.763	441.19
347.99	448.19
348.218	467.19
348.445	443.19
348.673	439.19
348.9	448.19
349.128	424.19
349.355	430.19
349.583	425.19
349.81	423.19
350.037	425.19
350.265	438.19
350.492	438.19
350.72	425.19
350.947	424.19
351.174	456.19
351.402	452.19
351.629	464.19
351.856	458.19
352.083	461.19
352.311	495.19
352.538	470.19
352.765	464.19
352.992	460.19
353.22	449.19
353.447	436.19
353.674	417.19
353.901	417.19
354.128	429.19
354.355	438.19
354.583	424.19
354.81	420.19
355.037	414.19
355.264	399.19
355.491	398.19
355.718	409.19
355.945	400.19
356.172	385.19
356.399	398.19
356.626	399.19
356.853	392.19
357.08	380.19
357.307	399.19
357.534	395.19
357.761	417.19
357.988	405.19
358.215	418.19
358.441	400.19
358.668	407.19
358.895	412.19
359.122	405.19
359.349	440.19
359.576	453.19
359.802	469.19
360.029	530.19
360.256	531.19
360.483	503.19
360.709	487.19
360.936	437.19
361.163	445.19
361.39	442.19
361.616	459.19
361.843	436.19
362.07	445.19
362.296	445.19
362.523	432.19
362.749	433.19
362.976	441.19
363.203	446.19
363.429	433.19
363.656	428.19
363.882	437.19
364.109	422.19
364.335	422.19
364.562	408.19
364.788	412.19
365.015	448.19
365.241	424.19
365.468	430.19
365.694	430.19
365.92	452.19
366.147	433.19
366.373	421.19
366.599	395.19
366.826	424.19
367.052	399.19
367.278	426.19
367.505	413.19
367.731	406.19
367.957	438.19
368.184	422.19
368.41	420.19
368.636	435.19
368.862	435.19
369.089	432.19
369.315	416.19
369.541	421.19
369.767	424.19
369.993	430.19
370.219	424.19
370.445	437.19
370.672	405.19
370.898	411.19
371.124	412.19
371.35	409.19
371.576	413.19
371.802	413.19
372.028	406.19
372.254	405.19
372.48	387.19
372.706	410.19
372.932	401.19
373.158	413.19
373.384	408.19
373.61	415.19
373.835	425.19
374.061	412.19
374.287	410.19
374.513	419.19
374.739	407.19
374.965	431.19
375.191	410.19
375.416	403.19
375.642	411.19
375.868	427.19
376.094	432.19
376.319	412.19
376.545	403.19
376.771	423.19
376.997	402.19
377.222	401.19
377.448	404.19
377.674	402.19
377.899	421.19
378.125	422.19
378.35	409.19
378.576	417.19
378.802	406.19
379.027	401.19
379.253	415.19
379.478	428.19
379.704	421.19
379.929	412.19
380.155	431.19
380.38	417.19
380.606	416.19
380.831	427.19
381.057	421.19
381.282	398.19
381.507	409.19
381.733	430.19
381.958	444.19
382.184	436.19
382.409	419.19
382.634	419.19
382.86	418.19
383.085	433.19
383.31	435.19
383.535	430.19
383.761	405.19
383.986	429.19
384.211	449.19
384.436	427.19
384.662	440.19
384.887	460.19
385.112	447.19
385.337	425.19
385.562	456.19
385.787	451.19
386.013	463.19
386.238	461.19
386.463	481.19
386.688	447.19
386.913	459.19
387.138	447.19
387.363	453.19
387.588	445.19
387.813	451.19
388.038	451.19
388.263	446.19
388.488	448.19
388.713	447.19
388.938	435.19
389.163	469.19
389.387	451.19
389.612	429.19
389.837	438.19
390.062	439.19
390.287	442.19
390.512	437.19
390.736	443.19
390.961	447.19
391.186	453.19
391.411	449.19
391.636	445.19
391.86	449.19
392.085	463.19
392.31	473.19
392.534	445.19
392.759	448.19
392.984	441.19
393.208	441.19
393.433	462.19
393.658	468.19
393.882	462.19
394.107	447.19
394.331	447.19
394.556	447.19
394.78	461.19
395.005	461.19
395.229	473.19
395.454	469.19
395.678	485.19
395.903	478.19
396.127	486.19
396.352	486.19
396.576	466.19
396.801	455.19
397.025	475.19
397.249	470.19
397.474	464.19
397.698	482.19
397.922	497.19
398.147	498.19
398.371	506.19
398.595	493.19
398.82	509.19
399.044	509.19
399.268	516.19
399.492	532.19
399.717	558.19
399.941	588.19
400.165	635.19
400.389	604.19
400.613	567.19
400.837	543.19
401.062	535.19
401.286	526.19
401.51	519.19
401.734	526.19
401.958	500.19
402.182	517.19
402.406	533.19
402.63	524.19
402.854	543.19
403.078	500.19
403.302	535.19
403.526	555.19
403.75	523.19
403.974	538.19
404.198	535.19
404.422	555.19
404.645	555.19
404.869	550.19
405.093	585.19
405.317	632.19
405.541	650.19
405.765	599.19
405.988	593.19
406.212	600.19
406.436	630.19
406.66	659.19
406.883	591.19
407.107	629.19
407.331	664.19
407.555	746.19
407.778	731.19
408.002	683.19
408.226	597.19
408.449	613.19
408.673	605.19
408.896	636.19
409.12	661.19
409.344	631.19
409.567	571.19
409.791	561.19
410.014	556.19
410.238	530.19
410.461	544.19
410.685	551.19
410.908	579.19
411.132	616.19
411.355	667.19
411.578	621.19
411.802	581.19
412.025	548.19
412.249	555.19
412.472	571.19
412.695	606.19
412.919	601.19
413.142	574.19
413.365	543.19
413.589	517.19
413.812	523.19
414.035	529.19
414.258	548.19
414.482	528.19
414.705	501.19
414.928	520.19
415.151	508.19
415.374	501.19
415.597	510.19
415.821	502.19
416.044	529.19
416.267	534.19
416.49	511.19
416.713	516.19
416.936	531.19
417.159	527.19
417.382	529.19
417.605	545.19
417.828	535.19
418.051	544.19
418.274	548.19
418.497	513.19
418.72	524.19
418.943	521.19
419.166	540.19
419.389	553.19
419.611	536.19
419.834	540.19
420.057	567.19
420.28	578.19
420.503	558.19
420.726	550.19
420.948	603.19
421.171	622.19
421.394	675.19
421.617	587.19
421.839	567.19
422.062	546.19
422.285	576.19
422.507	629.19
422.73	723.19
422.953	684.19
423.175	615.19
423.398	579.19
423.621	588.19
423.843	639.19
424.066	620.19
424.288	611.19
424.511	619.19
424.733	696.19
424.956	804.19
425.178	761.19
425.401	769.19
425.623	778.19
425.846	671.19
426.068	637.19
426.291	620.19
426.513	642.19
426.735	625.19
426.958	676.19
427.18	794.19
427.402	930.19
427.625	1011.19
427.847	928.19
428.069	819.19
428.292	719.19
428.514	651.19
428.736	618.19
428.958	584.19
429.181	577.19
429.403	572.19
429.625	598.19
429.847	647.19
430.069	695.19
430.292	704.19
430.514	609.19
430.736	563.19
430.958	575.19
431.18	551.19
431.402	559.19
431.624	525.19
431.846	533.19
432.068	527.19
432.29	518.19
432.512	528.19
432.734	563.19
432.956	560.19
433.178	560.19
433.4	570.19
433.622	557.19
433.844	543.19
434.066	553.19
434.287	552.19
434.509	530.19
434.731	548.19
434.953	581.19
435.175	580.19
435.397	614.19
435.618	638.19
435.84	667.19
436.062	798.19
436.284	842.19
436.505	737.19
436.727	638.19
436.949	584.19
437.17	592.19
437.392	580.19
437.614	603.19
437.835	636.19
438.057	769.19
438.278	885.19
438.5	870.19
438.721	914.19
438.943	899.19
439.165	739.19
439.386	667.19
439.608	677.19
439.829	639.19
440.05	691.19
440.272	767.19
440.493	688.19
440.715	627.19
440.936	597.19
441.158	575.19
441.379	606.19
441.6	613.19
441.822	636.19
442.043	693.19
442.264	778.19
442.486	803.19
442.707	691.19
442.928	675.19
443.149	666.19
443.371	704.19
443.592	729.19
443.813	842.19
444.034	901.19
444.255	762.19
444.476	674.19
444.698	635.19
444.919	626.19
445.14	733.19
445.361	666.19
445.582	677.19
445.803	771.19
446.024	876.19
446.245	905.19
446.466	821.19
446.687	705.19
446.908	654.19
447.129	608.19
447.35	586.19
447.571	578.19
447.792	545.19
448.013	575.19
448.234	618.19
448.455	665.19
448.675	805.19
448.896	925.19
449.117	815.19
449.338	773.19
449.559	861.19
449.779	957.19
450	795.19
450.221	667.19
450.442	607.19
450.662	592.19
450.883	592.19
451.104	631.19
451.324	600.19
451.545	561.19
451.766	538.19
451.986	509.19
452.207	520.19
452.428	520.19
452.648	529.19
452.869	525.19
453.089	520.19
453.31	547.19
453.53	548.19
453.751	523.19
453.971	537.19
454.192	569.19
454.412	577.19
454.633	528.19
454.853	553.19
455.073	524.19
455.294	564.19
455.514	616.19
455.734	631.19
455.955	533.19
456.175	513.19
456.395	484.19
456.616	486.19
456.836	465.19
457.056	477.19
457.276	486.19
457.497	495.19
457.717	488.19
457.937	483.19
458.157	513.19
458.377	489.19
458.598	538.19
458.818	620.19
459.038	722.19
459.258	733.19
459.478	623.19
459.698	554.19
459.918	533.19
460.138	529.19
460.358	521.19
460.578	534.19
460.798	541.19
461.018	536.19
461.238	528.19
461.458	544.19
461.678	510.19
461.898	511.19
462.118	516.19
462.338	541.19
462.558	529.19
462.777	536.19
462.997	516.19
463.217	527.19
463.437	535.19
463.657	553.19
463.876	537.19
464.096	544.19
464.316	568.19
464.536	548.19
464.755	574.19
464.975	581.19
465.195	632.19
465.414	797.19
465.634	653.19
465.854	600.19
466.073	571.19
466.293	563.19
466.512	552.19
466.732	503.19
466.951	547.19
467.171	533.19
467.391	529.19
467.61	558.19
467.829	542.19
468.049	552.19
468.268	560.19
468.488	539.19
468.707	511.19
468.927	520.19
469.146	516.19
469.365	508.19
469.585	527.19
469.804	523.19
470.023	544.19
470.243	527.19
470.462	545.19
470.681	563.19
470.901	587.19
471.12	544.19
471.339	535.19
471.558	557.19
471.777	540.19
471.997	534.19
472.216	528.19
472.435	628.19
472.654	590.19
472.873	517.19
473.092	529.19
473.311	530.19
473.53	545.19
473.749	572.19
473.968	603.19
474.187	718.19
474.406	776.19
474.625	634.19
474.844	572.19
475.063	558.19
475.282	555.19
475.501	532.19
475.72	548.19
475.939	544.19
476.158	571.19
476.377	559.19
476.596	548.19
476.814	566.19
477.033	577.19
477.252	580.19
477.471	580.19
477.69	593.19
477.908	594.19
478.127	569.19
478.346	553.19
478.564	575.19
478.783	588.19
479.002	591.19
479.22	597.19
479.439	639.19
479.658	657.19
479.876	656.19
480.095	677.19
480.313	665.19
480.532	649.19
480.751	663.19
480.969	671.19
481.188	740.19
481.406	821.19
481.624	751.19
481.843	669.19
482.061	650.19
482.28	647.19
482.498	615.19
482.717	632.19
482.935	619.19
483.153	640.19
483.372	647.19
483.59	616.19
483.808	652.19
484.027	653.19
484.245	620.19
484.463	661.19
484.681	649.19
484.9	633.19
485.118	661.19
485.336	663.19
485.554	665.19
485.772	662.19
485.99	663.19
486.209	675.19
486.427	678.19
486.645	685.19
486.863	711.19
487.081	729.19
487.299	733.19
487.517	718.19
487.735	680.19
487.953	713.19
488.171	680.19
488.389	705.19
488.607	678.19
488.825	717.19
489.043	709.19
489.261	699.19
489.479	701.19
489.696	695.19
489.914	709.19
490.132	724.19
490.35	742.19
490.568	762.19
490.786	763.19
491.003	761.19
491.221	783.19
491.439	809.19
491.657	802.19
491.874	791.19
492.092	815.19
492.31	827.19
492.527	838.19
492.745	823.19
492.963	811.19
493.18	821.19
493.398	849.19
493.615	853.19
493.833	849.19
494.05	831.19
494.268	825.19
494.485	851.19
494.703	848.19
494.92	848.19
495.138	853.19
495.355	848.19
495.573	863.19
495.79	867.19
496.008	842.19
496.225	852.19
496.442	847.19
496.66	853.19
496.877	831.19
497.094	880.19
497.312	863.19
497.529	840.19
497.746	837.19
497.963	883.19
498.181	884.19
498.398	864.19
498.615	897.19
498.832	888.19
499.049	910.19
499.267	919.19
499.484	908.19
499.701	935.19
499.918	981.19
500.135	994.19
500.352	980.19
500.569	1043.19
500.786	1014.19
501.003	1030.19
501.22	1004.19
501.437	999.19
