Data from 1971.PennyLincolnUp.Lamp.En5.5.200Scan.071719.P1.Scan 2. Changed Angle._HRD10591_15-22-26-842.txt Node
Date: Thu Jul 18 15:22:26 EDT 2019
User: cochatt
Spectrometer: HR+D1059
Trigger mode: 1
Integration Time (sec): 1.000000E-1
Scans to average: 1
Electric dark correction enabled: true
Nonlinearity correction enabled: false
Boxcar width: 0
XAxis mode: Wavelengths
Number of Pixels in Spectrum: 2048
>>>>>Begin Spectral Data<<<<<
223.165	-18.31
223.4	-18.31
223.635	-18.31
223.869	-12.31
224.104	-21.31
224.338	-5.31
224.573	-8.31
224.808	-3.31
225.042	-8.31
225.277	-5.31
225.511	4.69
225.746	-3.31
225.98	-14.31
226.215	3.69
226.449	11.69
226.683	24.69
226.918	27.69
227.152	27.69
227.387	27.69
227.621	30.69
227.856	48.69
228.09	32.69
228.324	51.69
228.559	55.69
228.793	63.69
229.027	85.69
229.262	107.69
229.496	98.69
229.73	91.69
229.964	126.69
230.199	107.69
230.433	99.69
230.667	110.69
230.901	105.69
231.136	103.69
231.37	99.69
231.604	94.69
231.838	88.69
232.072	114.69
232.306	104.69
232.541	101.69
232.775	111.69
233.009	114.69
233.243	110.69
233.477	118.69
233.711	115.69
233.945	103.69
234.179	110.69
234.413	102.69
234.647	96.69
234.881	104.69
235.115	123.69
235.349	107.69
235.583	117.69
235.817	98.69
236.051	122.69
236.285	114.69
236.519	97.69
236.753	115.69
236.987	125.69
237.221	143.69
237.455	192.69
237.689	152.69
237.922	124.69
238.156	109.69
238.39	112.69
238.624	109.69
238.858	107.69
239.091	124.69
239.325	124.69
239.559	114.69
239.793	105.69
240.027	118.69
240.26	116.69
240.494	128.69
240.728	128.69
240.961	126.69
241.195	122.69
241.429	109.69
241.662	122.69
241.896	110.69
242.13	134.69
242.363	104.69
242.597	124.69
242.83	130.69
243.064	122.69
243.298	126.69
243.531	123.69
243.765	130.69
243.998	130.69
244.232	135.69
244.465	132.69
244.699	139.69
244.932	133.69
245.166	144.69
245.399	130.69
245.633	135.69
245.866	117.69
246.099	139.69
246.333	136.69
246.566	137.69
246.8	124.69
247.033	128.69
247.266	147.69
247.5	138.69
247.733	136.69
247.966	152.69
248.2	150.69
248.433	150.69
248.666	157.69
248.899	165.69
249.133	164.69
249.366	185.69
249.599	161.69
249.832	156.69
250.066	174.69
250.299	158.69
250.532	170.69
250.765	147.69
250.998	168.69
251.231	183.69
251.465	184.69
251.698	160.69
251.931	180.69
252.164	166.69
252.397	171.69
252.63	183.69
252.863	182.69
253.096	178.69
253.329	185.69
253.562	170.69
253.795	180.69
254.028	191.69
254.261	192.69
254.494	193.69
254.727	210.69
254.96	226.69
255.193	226.69
255.426	211.69
255.659	195.69
255.892	186.69
256.124	194.69
256.357	180.69
256.59	182.69
256.823	182.69
257.056	176.69
257.289	185.69
257.521	166.69
257.754	175.69
257.987	171.69
258.22	169.69
258.452	171.69
258.685	181.69
258.918	168.69
259.151	174.69
259.383	188.69
259.616	166.69
259.849	196.69
260.081	216.69
260.314	208.69
260.547	208.69
260.779	200.69
261.012	191.69
261.244	187.69
261.477	190.69
261.71	174.69
261.942	174.69
262.175	171.69
262.407	181.69
262.64	166.69
262.872	157.69
263.105	174.69
263.337	166.69
263.57	182.69
263.802	192.69
264.035	165.69
264.267	165.69
264.499	164.69
264.732	194.69
264.964	169.69
265.197	172.69
265.429	180.69
265.661	176.69
265.894	175.69
266.126	175.69
266.358	170.69
266.591	160.69
266.823	170.69
267.055	166.69
267.287	186.69
267.52	186.69
267.752	164.69
267.984	184.69
268.216	174.69
268.448	200.69
268.681	189.69
268.913	184.69
269.145	213.69
269.377	208.69
269.609	203.69
269.841	212.69
270.073	214.69
270.306	225.69
270.538	221.69
270.77	258.69
271.002	230.69
271.234	227.69
271.466	217.69
271.698	242.69
271.93	221.69
272.162	219.69
272.394	235.69
272.626	231.69
272.858	212.69
273.09	198.69
273.322	219.69
273.553	212.69
273.785	199.69
274.017	216.69
274.249	212.69
274.481	214.69
274.713	199.69
274.945	202.69
275.176	208.69
275.408	217.69
275.64	190.69
275.872	215.69
276.104	184.69
276.335	197.69
276.567	180.69
276.799	213.69
277.031	248.69
277.262	256.69
277.494	241.69
277.726	227.69
277.957	208.69
278.189	203.69
278.421	183.69
278.652	206.69
278.884	202.69
279.115	210.69
279.347	204.69
279.579	209.69
279.81	203.69
280.042	202.69
280.273	198.69
280.505	193.69
280.736	199.69
280.968	203.69
281.199	212.69
281.431	198.69
281.662	190.69
281.894	195.69
282.125	204.69
282.356	213.69
282.588	226.69
282.819	223.69
283.051	198.69
283.282	211.69
283.513	207.69
283.745	216.69
283.976	211.69
284.207	207.69
284.439	212.69
284.67	204.69
284.901	215.69
285.132	207.69
285.364	201.69
285.595	203.69
285.826	212.69
286.057	222.69
286.288	219.69
286.52	205.69
286.751	205.69
286.982	232.69
287.213	208.69
287.444	203.69
287.675	208.69
287.906	212.69
288.138	229.69
288.369	206.69
288.6	211.69
288.831	220.69
289.062	222.69
289.293	216.69
289.524	208.69
289.755	212.69
289.986	212.69
290.217	227.69
290.448	213.69
290.679	214.69
290.91	215.69
291.141	202.69
291.371	216.69
291.602	222.69
291.833	210.69
292.064	198.69
292.295	214.69
292.526	221.69
292.757	216.69
292.987	216.69
293.218	222.69
293.449	214.69
293.68	224.69
293.91	218.69
294.141	208.69
294.372	217.69
294.603	219.69
294.833	230.69
295.064	194.69
295.295	223.69
295.525	205.69
295.756	228.69
295.987	228.69
296.217	227.69
296.448	230.69
296.679	220.69
296.909	233.69
297.14	226.69
297.37	216.69
297.601	235.69
297.831	215.69
298.062	225.69
298.292	219.69
298.523	219.69
298.753	228.69
298.984	228.69
299.214	227.69
299.445	226.69
299.675	200.69
299.905	245.69
300.136	236.69
300.366	226.69
300.597	234.69
300.827	218.69
301.057	230.69
301.288	242.69
301.518	227.69
301.748	223.69
301.979	253.69
302.209	228.69
302.439	232.69
302.669	240.69
302.9	234.69
303.13	238.69
303.36	250.69
303.59	229.69
303.82	230.69
304.051	230.69
304.281	213.69
304.511	226.69
304.741	227.69
304.971	238.69
305.201	235.69
305.431	246.69
305.661	246.69
305.891	222.69
306.121	234.69
306.352	244.69
306.582	247.69
306.812	247.69
307.042	240.69
307.272	253.69
307.502	238.69
307.731	244.69
307.961	232.69
308.191	266.69
308.421	236.69
308.651	231.69
308.881	251.69
309.111	251.69
309.341	242.69
309.571	262.69
309.8	245.69
310.03	284.69
310.26	266.69
310.49	272.69
310.72	265.69
310.949	270.69
311.179	263.69
311.409	263.69
311.639	274.69
311.868	272.69
312.098	284.69
312.328	272.69
312.557	285.69
312.787	292.69
313.017	291.69
313.246	271.69
313.476	269.69
313.706	265.69
313.935	269.69
314.165	257.69
314.394	277.69
314.624	283.69
314.853	291.69
315.083	279.69
315.312	270.69
315.542	269.69
315.771	284.69
316.001	270.69
316.23	276.69
316.46	267.69
316.689	272.69
316.919	274.69
317.148	283.69
317.377	280.69
317.607	272.69
317.836	285.69
318.065	280.69
318.295	275.69
318.524	288.69
318.753	256.69
318.983	265.69
319.212	263.69
319.441	292.69
319.67	283.69
319.9	281.69
320.129	271.69
320.358	298.69
320.587	282.69
320.816	288.69
321.046	281.69
321.275	291.69
321.504	288.69
321.733	273.69
321.962	303.69
322.191	290.69
322.42	300.69
322.649	313.69
322.878	310.69
323.108	313.69
323.337	350.69
323.566	358.69
323.795	359.69
324.024	389.69
324.253	468.69
324.482	659.69
324.71	999.69
324.939	1398.69
325.168	1242.69
325.397	631.69
325.626	449.69
325.855	360.69
326.084	343.69
326.313	343.69
326.542	341.69
326.77	380.69
326.999	424.69
327.228	578.69
327.457	895.69
327.686	1048.69
327.914	717.69
328.143	483.69
328.372	426.69
328.6	398.69
328.829	381.69
329.058	374.69
329.287	413.69
329.515	372.69
329.744	367.69
329.972	356.69
330.201	360.69
330.43	365.69
330.658	383.69
330.887	419.69
331.115	396.69
331.344	376.69
331.572	346.69
331.801	357.69
332.03	328.69
332.258	340.69
332.486	322.69
332.715	310.69
332.943	316.69
333.172	314.69
333.4	322.69
333.629	322.69
333.857	324.69
334.085	310.69
334.314	337.69
334.542	331.69
334.771	341.69
334.999	354.69
335.227	329.69
335.455	323.69
335.684	318.69
335.912	332.69
336.14	307.69
336.369	306.69
336.597	328.69
336.825	331.69
337.053	320.69
337.281	315.69
337.51	316.69
337.738	337.69
337.966	332.69
338.194	326.69
338.422	323.69
338.65	321.69
338.878	344.69
339.106	316.69
339.334	334.69
339.562	318.69
339.79	312.69
340.018	306.69
340.246	331.69
340.474	319.69
340.702	318.69
340.93	319.69
341.158	313.69
341.386	326.69
341.614	317.69
341.842	315.69
342.07	303.69
342.298	313.69
342.526	327.69
342.754	314.69
342.981	307.69
343.209	295.69
343.437	317.69
343.665	311.69
343.893	336.69
344.12	326.69
344.348	304.69
344.576	315.69
344.804	335.69
345.031	329.69
345.259	336.69
345.487	347.69
345.714	309.69
345.942	323.69
346.17	326.69
346.397	308.69
346.625	315.69
346.853	308.69
347.08	345.69
347.308	333.69
347.535	309.69
347.763	320.69
347.99	311.69
348.218	308.69
348.445	336.69
348.673	312.69
348.9	319.69
349.128	308.69
349.355	304.69
349.583	288.69
349.81	314.69
350.037	318.69
350.265	297.69
350.492	313.69
350.72	299.69
350.947	317.69
351.174	332.69
351.402	335.69
351.629	327.69
351.856	317.69
352.083	329.69
352.311	322.69
352.538	316.69
352.765	327.69
352.992	304.69
353.22	312.69
353.447	303.69
353.674	318.69
353.901	306.69
354.128	329.69
354.355	296.69
354.583	301.69
354.81	310.69
355.037	284.69
355.264	297.69
355.491	301.69
355.718	299.69
355.945	295.69
356.172	297.69
356.399	295.69
356.626	302.69
356.853	310.69
357.08	306.69
357.307	302.69
357.534	290.69
357.761	286.69
357.988	325.69
358.215	311.69
358.441	324.69
358.668	294.69
358.895	316.69
359.122	312.69
359.349	296.69
359.576	323.69
359.802	316.69
360.029	327.69
360.256	356.69
360.483	334.69
360.709	335.69
360.936	342.69
361.163	324.69
361.39	294.69
361.616	303.69
361.843	311.69
362.07	313.69
362.296	321.69
362.523	334.69
362.749	328.69
362.976	307.69
363.203	330.69
363.429	301.69
363.656	300.69
363.882	302.69
364.109	309.69
364.335	309.69
364.562	316.69
364.788	327.69
365.015	326.69
365.241	313.69
365.468	316.69
365.694	324.69
365.92	326.69
366.147	311.69
366.373	293.69
366.599	307.69
366.826	300.69
367.052	314.69
367.278	298.69
367.505	314.69
367.731	309.69
367.957	318.69
368.184	310.69
368.41	323.69
368.636	325.69
368.862	315.69
369.089	310.69
369.315	303.69
369.541	309.69
369.767	320.69
369.993	311.69
370.219	310.69
370.445	315.69
370.672	326.69
370.898	316.69
371.124	299.69
371.35	301.69
371.576	316.69
371.802	324.69
372.028	309.69
372.254	320.69
372.48	342.69
372.706	317.69
372.932	288.69
373.158	316.69
373.384	334.69
373.61	317.69
373.835	334.69
374.061	325.69
374.287	324.69
374.513	330.69
374.739	329.69
374.965	315.69
375.191	337.69
375.416	347.69
375.642	330.69
375.868	338.69
376.094	333.69
376.319	320.69
376.545	319.69
376.771	335.69
376.997	316.69
377.222	326.69
377.448	324.69
377.674	315.69
377.899	322.69
378.125	312.69
378.35	299.69
378.576	306.69
378.802	336.69
379.027	317.69
379.253	315.69
379.478	324.69
379.704	314.69
379.929	342.69
380.155	324.69
380.38	316.69
380.606	330.69
380.831	338.69
381.057	342.69
381.282	335.69
381.507	337.69
381.733	316.69
381.958	328.69
382.184	328.69
382.409	323.69
382.634	323.69
382.86	320.69
383.085	355.69
383.31	341.69
383.535	337.69
383.761	351.69
383.986	324.69
384.211	337.69
384.436	350.69
384.662	315.69
384.887	343.69
385.112	346.69
385.337	335.69
385.562	336.69
385.787	362.69
386.013	355.69
386.238	354.69
386.463	354.69
386.688	362.69
386.913	364.69
387.138	351.69
387.363	346.69
387.588	353.69
387.813	345.69
388.038	371.69
388.263	358.69
388.488	356.69
388.713	354.69
388.938	346.69
389.163	360.69
389.387	371.69
389.612	349.69
389.837	346.69
390.062	355.69
390.287	367.69
390.512	345.69
390.736	354.69
390.961	379.69
391.186	354.69
391.411	351.69
391.636	364.69
391.86	374.69
392.085	385.69
392.31	383.69
392.534	368.69
392.759	383.69
392.984	398.69
393.208	420.69
393.433	526.69
393.658	564.69
393.882	434.69
394.107	374.69
394.331	387.69
394.556	379.69
394.78	379.69
395.005	356.69
395.229	360.69
395.454	394.69
395.678	364.69
395.903	367.69
396.127	398.69
396.352	418.69
396.576	404.69
396.801	434.69
397.025	506.69
397.249	465.69
397.474	392.69
397.698	379.69
397.922	372.69
398.147	386.69
398.371	382.69
398.595	406.69
398.82	396.69
399.044	396.69
399.268	423.69
399.492	438.69
399.717	426.69
399.941	475.69
400.165	475.69
400.389	489.69
400.613	458.69
400.837	421.69
401.062	402.69
401.286	402.69
401.51	390.69
401.734	392.69
401.958	408.69
402.182	411.69
402.406	424.69
402.63	415.69
402.854	413.69
403.078	397.69
403.302	421.69
403.526	420.69
403.75	403.69
403.974	427.69
404.198	406.69
404.422	424.69
404.645	428.69
404.869	406.69
405.093	432.69
405.317	444.69
405.541	481.69
405.765	427.69
405.988	424.69
406.212	463.69
406.436	470.69
406.66	475.69
406.883	463.69
407.107	452.69
407.331	504.69
407.555	551.69
407.778	560.69
408.002	501.69
408.226	487.69
408.449	455.69
408.673	445.69
408.896	472.69
409.12	518.69
409.344	492.69
409.567	444.69
409.791	425.69
410.014	423.69
410.238	413.69
410.461	398.69
410.685	406.69
410.908	429.69
411.132	465.69
411.355	493.69
411.578	492.69
411.802	435.69
412.025	445.69
412.249	455.69
412.472	427.69
412.695	447.69
412.919	448.69
413.142	400.69
413.365	414.69
413.589	413.69
413.812	414.69
414.035	406.69
414.258	405.69
414.482	390.69
414.705	391.69
414.928	415.69
415.151	408.69
415.374	404.69
415.597	387.69
415.821	404.69
416.044	400.69
416.267	405.69
416.49	411.69
416.713	390.69
416.936	384.69
417.159	378.69
417.382	406.69
417.605	405.69
417.828	422.69
418.051	427.69
418.274	434.69
418.497	394.69
418.72	414.69
418.943	399.69
419.166	415.69
419.389	421.69
419.611	416.69
419.834	417.69
420.057	424.69
420.28	425.69
420.503	421.69
420.726	422.69
420.948	421.69
421.171	470.69
421.394	491.69
421.617	442.69
421.839	428.69
422.062	429.69
422.285	408.69
422.507	496.69
422.73	567.69
422.953	534.69
423.175	480.69
423.398	459.69
423.621	444.69
423.843	467.69
424.066	454.69
424.288	459.69
424.511	445.69
424.733	510.69
424.956	581.69
425.178	544.69
425.401	558.69
425.623	574.69
425.846	506.69
426.068	471.69
426.291	442.69
426.513	445.69
426.735	468.69
426.958	506.69
427.18	574.69
427.402	667.69
427.625	734.69
427.847	640.69
428.069	551.69
428.292	507.69
428.514	454.69
428.736	442.69
428.958	436.69
429.181	433.69
429.403	434.69
429.625	449.69
429.847	434.69
430.069	502.69
430.292	502.69
430.514	456.69
430.736	436.69
430.958	428.69
431.18	411.69
431.402	402.69
431.624	395.69
431.846	419.69
432.068	409.69
432.29	397.69
432.512	390.69
432.734	431.69
432.956	416.69
433.178	401.69
433.4	404.69
433.622	415.69
433.844	421.69
434.066	400.69
434.287	384.69
434.509	416.69
434.731	418.69
434.953	406.69
435.175	425.69
435.397	428.69
435.618	459.69
435.84	503.69
436.062	555.69
436.284	620.69
436.505	522.69
436.727	478.69
436.949	443.69
437.17	447.69
437.392	447.69
437.614	453.69
437.835	482.69
438.057	516.69
438.278	620.69
438.5	604.69
438.721	680.69
438.943	651.69
439.165	543.69
439.386	488.69
439.608	472.69
439.829	438.69
440.05	475.69
440.272	510.69
440.493	485.69
440.715	450.69
440.936	440.69
441.158	449.69
441.379	430.69
441.6	436.69
441.822	447.69
442.043	488.69
442.264	562.69
442.486	582.69
442.707	499.69
442.928	463.69
443.149	479.69
443.371	502.69
443.592	516.69
443.813	613.69
444.034	658.69
444.255	554.69
444.476	466.69
444.698	477.69
444.919	475.69
445.14	550.69
445.361	521.69
445.582	504.69
445.803	545.69
446.024	631.69
446.245	634.69
446.466	553.69
446.687	490.69
446.908	479.69
447.129	460.69
447.35	429.69
447.571	436.69
447.792	446.69
448.013	439.69
448.234	440.69
448.455	489.69
448.675	567.69
448.896	656.69
449.117	595.69
449.338	542.69
449.559	635.69
449.779	712.69
450	553.69
450.221	481.69
450.442	436.69
450.662	425.69
450.883	426.69
451.104	425.69
451.324	438.69
451.545	426.69
451.766	394.69
451.986	399.69
452.207	386.69
452.428	391.69
452.648	397.69
452.869	376.69
453.089	416.69
453.31	411.69
453.53	420.69
453.751	381.69
453.971	398.69
454.192	394.69
454.412	405.69
454.633	408.69
454.853	379.69
455.073	381.69
455.294	407.69
455.514	435.69
455.734	451.69
455.955	392.69
456.175	388.69
456.395	345.69
456.616	350.69
456.836	378.69
457.056	381.69
457.276	376.69
457.497	354.69
457.717	388.69
457.937	388.69
458.157	379.69
458.377	377.69
458.598	388.69
458.818	438.69
459.038	491.69
459.258	506.69
459.478	431.69
459.698	415.69
459.918	398.69
460.138	393.69
460.358	408.69
460.578	412.69
460.798	416.69
461.018	410.69
461.238	401.69
461.458	408.69
461.678	419.69
461.898	422.69
462.118	430.69
462.338	423.69
462.558	447.69
462.777	435.69
462.997	422.69
463.217	438.69
463.437	443.69
463.657	440.69
463.876	421.69
464.096	448.69
464.316	424.69
464.536	450.69
464.755	451.69
464.975	442.69
465.195	455.69
465.414	506.69
465.634	468.69
465.854	439.69
466.073	418.69
466.293	403.69
466.512	392.69
466.732	404.69
466.951	404.69
467.171	412.69
467.391	415.69
467.61	405.69
467.829	416.69
468.049	395.69
468.268	416.69
468.488	409.69
468.707	406.69
468.927	392.69
469.146	376.69
469.365	386.69
469.585	398.69
469.804	398.69
470.023	423.69
470.243	388.69
470.462	402.69
470.681	420.69
470.901	423.69
471.12	405.69
471.339	390.69
471.558	396.69
471.777	423.69
471.997	399.69
472.216	409.69
472.435	425.69
472.654	389.69
472.873	408.69
473.092	406.69
473.311	407.69
473.53	416.69
473.749	404.69
473.968	456.69
474.187	521.69
474.406	523.69
474.625	455.69
474.844	402.69
475.063	413.69
475.282	425.69
475.501	407.69
475.72	443.69
475.939	413.69
476.158	411.69
476.377	415.69
476.596	428.69
476.814	443.69
477.033	428.69
477.252	429.69
477.471	447.69
477.69	452.69
477.908	439.69
478.127	447.69
478.346	421.69
478.564	463.69
478.783	472.69
479.002	466.69
479.22	462.69
479.439	474.69
479.658	471.69
479.876	481.69
480.095	474.69
480.313	533.69
480.532	518.69
480.751	498.69
480.969	506.69
481.188	501.69
481.406	523.69
481.624	508.69
481.843	499.69
482.061	495.69
482.28	487.69
482.498	498.69
482.717	485.69
482.935	488.69
483.153	468.69
483.372	498.69
483.59	472.69
483.808	497.69
484.027	500.69
484.245	490.69
484.463	488.69
484.681	517.69
484.9	513.69
485.118	487.69
485.336	504.69
485.554	503.69
485.772	480.69
485.99	491.69
486.209	500.69
486.427	506.69
486.645	494.69
486.863	529.69
487.081	528.69
487.299	534.69
487.517	516.69
487.735	513.69
487.953	558.69
488.171	538.69
488.389	508.69
488.607	521.69
488.825	512.69
489.043	532.69
489.261	537.69
489.479	527.69
489.696	528.69
489.914	555.69
490.132	554.69
490.35	546.69
490.568	570.69
490.786	565.69
491.003	572.69
491.221	574.69
491.439	604.69
491.657	588.69
491.874	582.69
492.092	587.69
492.31	616.69
492.527	608.69
492.745	608.69
492.963	630.69
493.18	630.69
493.398	620.69
493.615	620.69
493.833	607.69
494.05	610.69
494.268	636.69
494.485	617.69
494.703	601.69
494.92	629.69
495.138	633.69
495.355	614.69
495.573	624.69
495.79	611.69
496.008	643.69
496.225	620.69
496.442	641.69
496.66	636.69
496.877	621.69
497.094	648.69
497.312	647.69
497.529	647.69
497.746	654.69
497.963	644.69
498.181	693.69
498.398	656.69
498.615	704.69
498.832	684.69
499.049	712.69
499.267	694.69
499.484	735.69
499.701	766.69
499.918	744.69
500.135	797.69
500.352	804.69
500.569	824.69
500.786	846.69
501.003	786.69
501.22	794.69
501.437	788.69
501.654	747.69
501.871	734.69
