Data from 1971.PennyLincolnUp.Lamp.En5.5.200Scan.071719.P1.Scan 2. Changed Angle._HRD10591_15-24-24-842.txt Node
Date: Thu Jul 18 15:24:24 EDT 2019
User: cochatt
Spectrometer: HR+D1059
Trigger mode: 1
Integration Time (sec): 1.000000E-1
Scans to average: 1
Electric dark correction enabled: true
Nonlinearity correction enabled: false
Boxcar width: 0
XAxis mode: Wavelengths
Number of Pixels in Spectrum: 2048
>>>>>Begin Spectral Data<<<<<
223.165	-16.69
223.4	-16.69
223.635	-16.69
223.869	-9.69
224.104	-9.69
224.338	-10.69
224.573	-7.69
224.808	-10.69
225.042	0.31
225.277	-19.69
225.511	-20.69
225.746	3.31
225.98	7.31
226.215	11.31
226.449	24.31
226.683	19.31
226.918	21.31
227.152	18.31
227.387	40.31
227.621	33.31
227.856	42.31
228.09	41.31
228.324	48.31
228.559	70.31
228.793	77.31
229.027	96.31
229.262	120.31
229.496	125.31
229.73	144.31
229.964	191.31
230.199	141.31
230.433	121.31
230.667	135.31
230.901	122.31
231.136	131.31
231.37	119.31
231.604	113.31
231.838	122.31
232.072	118.31
232.306	108.31
232.541	112.31
232.775	126.31
233.009	129.31
233.243	114.31
233.477	112.31
233.711	104.31
233.945	115.31
234.179	113.31
234.413	129.31
234.647	112.31
234.881	137.31
235.115	133.31
235.349	143.31
235.583	134.31
235.817	136.31
236.051	123.31
236.285	135.31
236.519	138.31
236.753	148.31
236.987	158.31
237.221	199.31
237.455	278.31
237.689	238.31
237.922	153.31
238.156	144.31
238.39	144.31
238.624	129.31
238.858	124.31
239.091	145.31
239.325	133.31
239.559	132.31
239.793	139.31
240.027	146.31
240.26	161.31
240.494	173.31
240.728	161.31
240.961	154.31
241.195	159.31
241.429	146.31
241.662	141.31
241.896	139.31
242.13	140.31
242.363	132.31
242.597	147.31
242.83	134.31
243.064	120.31
243.298	153.31
243.531	154.31
243.765	159.31
243.998	152.31
244.232	150.31
244.465	146.31
244.699	156.31
244.932	153.31
245.166	155.31
245.399	135.31
245.633	155.31
245.866	155.31
246.099	148.31
246.333	158.31
246.566	151.31
246.8	151.31
247.033	164.31
247.266	165.31
247.5	179.31
247.733	177.31
247.966	191.31
248.2	189.31
248.433	191.31
248.666	186.31
248.899	203.31
249.133	224.31
249.366	234.31
249.599	216.31
249.832	213.31
250.066	207.31
250.299	202.31
250.532	218.31
250.765	233.31
250.998	225.31
251.231	255.31
251.465	240.31
251.698	229.31
251.931	232.31
252.164	228.31
252.397	234.31
252.63	221.31
252.863	228.31
253.096	259.31
253.329	236.31
253.562	264.31
253.795	244.31
254.028	230.31
254.261	245.31
254.494	263.31
254.727	295.31
254.96	317.31
255.193	323.31
255.426	287.31
255.659	269.31
255.892	259.31
256.124	265.31
256.357	254.31
256.59	256.31
256.823	227.31
257.056	228.31
257.289	228.31
257.521	224.31
257.754	231.31
257.987	229.31
258.22	228.31
258.452	231.31
258.685	230.31
258.918	234.31
259.151	239.31
259.383	239.31
259.616	206.31
259.849	231.31
260.081	257.31
260.314	288.31
260.547	288.31
260.779	254.31
261.012	271.31
261.244	257.31
261.477	239.31
261.71	223.31
261.942	249.31
262.175	255.31
262.407	244.31
262.64	247.31
262.872	234.31
263.105	241.31
263.337	224.31
263.57	224.31
263.802	216.31
264.035	215.31
264.267	212.31
264.499	213.31
264.732	215.31
264.964	221.31
265.197	219.31
265.429	233.31
265.661	225.31
265.894	230.31
266.126	219.31
266.358	233.31
266.591	221.31
266.823	216.31
267.055	248.31
267.287	229.31
267.52	228.31
267.752	231.31
267.984	233.31
268.216	234.31
268.448	235.31
268.681	242.31
268.913	251.31
269.145	289.31
269.377	307.31
269.609	301.31
269.841	277.31
270.073	284.31
270.306	290.31
270.538	337.31
270.77	338.31
271.002	334.31
271.234	312.31
271.466	316.31
271.698	332.31
271.93	331.31
272.162	354.31
272.394	350.31
272.626	336.31
272.858	300.31
273.09	307.31
273.322	288.31
273.553	289.31
273.785	275.31
274.017	271.31
274.249	281.31
274.481	265.31
274.713	265.31
274.945	279.31
275.176	271.31
275.408	249.31
275.64	276.31
275.872	250.31
276.104	277.31
276.335	269.31
276.567	273.31
276.799	295.31
277.031	312.31
277.262	343.31
277.494	333.31
277.726	314.31
277.957	293.31
278.189	291.31
278.421	292.31
278.652	315.31
278.884	282.31
279.115	292.31
279.347	259.31
279.579	267.31
279.81	274.31
280.042	268.31
280.273	257.31
280.505	277.31
280.736	277.31
280.968	271.31
281.199	265.31
281.431	268.31
281.662	268.31
281.894	269.31
282.125	277.31
282.356	292.31
282.588	324.31
282.819	348.31
283.051	279.31
283.282	272.31
283.513	279.31
283.745	276.31
283.976	276.31
284.207	285.31
284.439	283.31
284.67	292.31
284.901	271.31
285.132	258.31
285.364	271.31
285.595	262.31
285.826	274.31
286.057	257.31
286.288	284.31
286.52	282.31
286.751	283.31
286.982	282.31
287.213	287.31
287.444	283.31
287.675	293.31
287.906	310.31
288.138	324.31
288.369	303.31
288.6	332.31
288.831	307.31
289.062	296.31
289.293	299.31
289.524	273.31
289.755	295.31
289.986	283.31
290.217	279.31
290.448	277.31
290.679	266.31
290.91	277.31
291.141	288.31
291.371	273.31
291.602	287.31
291.833	276.31
292.064	288.31
292.295	284.31
292.526	279.31
292.757	295.31
292.987	281.31
293.218	284.31
293.449	295.31
293.68	293.31
293.91	292.31
294.141	273.31
294.372	279.31
294.603	300.31
294.833	292.31
295.064	287.31
295.295	284.31
295.525	290.31
295.756	299.31
295.987	310.31
296.217	325.31
296.448	344.31
296.679	292.31
296.909	285.31
297.14	282.31
297.37	290.31
297.601	294.31
297.831	306.31
298.062	285.31
298.292	295.31
298.523	302.31
298.753	304.31
298.984	291.31
299.214	302.31
299.445	307.31
299.675	324.31
299.905	310.31
300.136	305.31
300.366	308.31
300.597	317.31
300.827	304.31
301.057	324.31
301.288	305.31
301.518	321.31
301.748	311.31
301.979	331.31
302.209	323.31
302.439	325.31
302.669	323.31
302.9	313.31
303.13	318.31
303.36	327.31
303.59	342.31
303.82	356.31
304.051	319.31
304.281	315.31
304.511	313.31
304.741	303.31
304.971	323.31
305.201	335.31
305.431	323.31
305.661	326.31
305.891	319.31
306.121	329.31
306.352	345.31
306.582	328.31
306.812	337.31
307.042	339.31
307.272	327.31
307.502	320.31
307.731	320.31
307.961	335.31
308.191	326.31
308.421	344.31
308.651	333.31
308.881	359.31
309.111	337.31
309.341	344.31
309.571	368.31
309.8	371.31
310.03	387.31
310.26	390.31
310.49	391.31
310.72	397.31
310.949	447.31
311.179	446.31
311.409	415.31
311.639	381.31
311.868	387.31
312.098	394.31
312.328	379.31
312.557	406.31
312.787	456.31
313.017	441.31
313.246	418.31
313.476	393.31
313.706	392.31
313.935	383.31
314.165	405.31
314.394	429.31
314.624	426.31
314.853	391.31
315.083	385.31
315.312	389.31
315.542	385.31
315.771	384.31
316.001	385.31
316.23	374.31
316.46	377.31
316.689	378.31
316.919	395.31
317.148	396.31
317.377	407.31
317.607	397.31
317.836	393.31
318.065	383.31
318.295	374.31
318.524	395.31
318.753	377.31
318.983	399.31
319.212	398.31
319.441	408.31
319.67	410.31
319.9	400.31
320.129	397.31
320.358	400.31
320.587	399.31
320.816	421.31
321.046	446.31
321.275	421.31
321.504	419.31
321.733	419.31
321.962	418.31
322.191	432.31
322.42	492.31
322.649	504.31
322.878	501.31
323.108	499.31
323.337	533.31
323.566	545.31
323.795	604.31
324.024	673.31
324.253	843.31
324.482	1225.31
324.71	1924.31
324.939	2722.31
325.168	2380.31
325.397	1253.31
325.626	789.31
325.855	629.31
326.084	615.31
326.313	594.31
326.542	587.31
326.77	630.31
326.999	773.31
327.228	1092.31
327.457	1671.31
327.686	2043.31
327.914	1390.31
328.143	871.31
328.372	759.31
328.6	711.31
328.829	645.31
329.058	667.31
329.287	685.31
329.515	642.31
329.744	577.31
329.972	581.31
330.201	589.31
330.43	628.31
330.658	688.31
330.887	729.31
331.115	696.31
331.344	590.31
331.572	529.31
331.801	550.31
332.03	535.31
332.258	515.31
332.486	484.31
332.715	469.31
332.943	463.31
333.172	473.31
333.4	455.31
333.629	472.31
333.857	487.31
334.085	498.31
334.314	517.31
334.542	543.31
334.771	572.31
334.999	528.31
335.227	484.31
335.455	488.31
335.684	459.31
335.912	449.31
336.14	452.31
336.369	446.31
336.597	494.31
336.825	485.31
337.053	476.31
337.281	453.31
337.51	441.31
337.738	438.31
337.966	467.31
338.194	437.31
338.422	471.31
338.65	469.31
338.878	441.31
339.106	452.31
339.334	425.31
339.562	440.31
339.79	436.31
340.018	455.31
340.246	467.31
340.474	457.31
340.702	463.31
340.93	447.31
341.158	463.31
341.386	438.31
341.614	438.31
341.842	439.31
342.07	452.31
342.298	447.31
342.526	427.31
342.754	407.31
342.981	423.31
343.209	408.31
343.437	424.31
343.665	416.31
343.893	433.31
344.12	417.31
344.348	441.31
344.576	444.31
344.804	476.31
345.031	473.31
345.259	486.31
345.487	468.31
345.714	453.31
345.942	446.31
346.17	428.31
346.397	432.31
346.625	426.31
346.853	437.31
347.08	430.31
347.308	447.31
347.535	447.31
347.763	462.31
347.99	458.31
348.218	460.31
348.445	454.31
348.673	456.31
348.9	443.31
349.128	443.31
349.355	433.31
349.583	446.31
349.81	431.31
350.037	450.31
350.265	433.31
350.492	435.31
350.72	415.31
350.947	429.31
351.174	429.31
351.402	452.31
351.629	455.31
351.856	484.31
352.083	468.31
352.311	473.31
352.538	473.31
352.765	456.31
352.992	457.31
353.22	474.31
353.447	449.31
353.674	427.31
353.901	417.31
354.128	429.31
354.355	406.31
354.583	433.31
354.81	405.31
355.037	397.31
355.264	405.31
355.491	407.31
355.718	387.31
355.945	389.31
356.172	391.31
356.399	397.31
356.626	392.31
356.853	397.31
357.08	416.31
357.307	380.31
357.534	392.31
357.761	399.31
357.988	407.31
358.215	403.31
358.441	402.31
358.668	399.31
358.895	407.31
359.122	421.31
359.349	419.31
359.576	439.31
359.802	456.31
360.029	510.31
360.256	515.31
360.483	517.31
360.709	447.31
360.936	441.31
361.163	448.31
361.39	463.31
361.616	457.31
361.843	436.31
362.07	430.31
362.296	462.31
362.523	457.31
362.749	441.31
362.976	441.31
363.203	434.31
363.429	438.31
363.656	415.31
363.882	426.31
364.109	401.31
364.335	440.31
364.562	425.31
364.788	407.31
365.015	428.31
365.241	444.31
365.468	426.31
365.694	433.31
365.92	455.31
366.147	435.31
366.373	411.31
366.599	432.31
366.826	419.31
367.052	424.31
367.278	417.31
367.505	429.31
367.731	433.31
367.957	428.31
368.184	430.31
368.41	419.31
368.636	433.31
368.862	443.31
369.089	421.31
369.315	414.31
369.541	427.31
369.767	418.31
369.993	440.31
370.219	437.31
370.445	420.31
370.672	416.31
370.898	408.31
371.124	411.31
371.35	412.31
371.576	400.31
371.802	396.31
372.028	410.31
372.254	417.31
372.48	400.31
372.706	399.31
372.932	400.31
373.158	407.31
373.384	421.31
373.61	403.31
373.835	420.31
374.061	411.31
374.287	425.31
374.513	430.31
374.739	417.31
374.965	416.31
375.191	430.31
375.416	408.31
375.642	417.31
375.868	422.31
376.094	417.31
376.319	415.31
376.545	410.31
376.771	397.31
376.997	421.31
377.222	419.31
377.448	422.31
377.674	404.31
377.899	391.31
378.125	399.31
378.35	398.31
378.576	403.31
378.802	400.31
379.027	439.31
379.253	405.31
379.478	408.31
379.704	432.31
379.929	412.31
380.155	400.31
380.38	432.31
380.606	412.31
380.831	415.31
381.057	422.31
381.282	397.31
381.507	412.31
381.733	427.31
381.958	407.31
382.184	432.31
382.409	436.31
382.634	413.31
382.86	429.31
383.085	426.31
383.31	431.31
383.535	451.31
383.761	416.31
383.986	441.31
384.211	458.31
384.436	426.31
384.662	447.31
384.887	446.31
385.112	411.31
385.337	463.31
385.562	437.31
385.787	441.31
386.013	480.31
386.238	468.31
386.463	453.31
386.688	449.31
386.913	453.31
387.138	447.31
387.363	467.31
387.588	456.31
387.813	452.31
388.038	459.31
388.263	459.31
388.488	435.31
388.713	438.31
388.938	449.31
389.163	435.31
389.387	460.31
389.612	445.31
389.837	436.31
390.062	445.31
390.287	447.31
390.512	438.31
390.736	455.31
390.961	447.31
391.186	465.31
391.411	456.31
391.636	440.31
391.86	458.31
392.085	455.31
392.31	443.31
392.534	443.31
392.759	449.31
392.984	456.31
393.208	442.31
393.433	455.31
393.658	439.31
393.882	447.31
394.107	444.31
394.331	453.31
394.556	439.31
394.78	438.31
395.005	453.31
395.229	448.31
395.454	479.31
395.678	470.31
395.903	476.31
396.127	491.31
396.352	496.31
396.576	511.31
396.801	493.31
397.025	461.31
397.249	455.31
397.474	479.31
397.698	481.31
397.922	494.31
398.147	520.31
398.371	509.31
398.595	517.31
398.82	509.31
399.044	495.31
399.268	509.31
399.492	523.31
399.717	570.31
399.941	581.31
400.165	618.31
400.389	616.31
400.613	583.31
400.837	547.31
401.062	529.31
401.286	535.31
401.51	551.31
401.734	507.31
401.958	520.31
402.182	535.31
402.406	557.31
402.63	541.31
402.854	536.31
403.078	516.31
403.302	540.31
403.526	527.31
403.75	546.31
403.974	531.31
404.198	527.31
404.422	543.31
404.645	570.31
404.869	567.31
405.093	597.31
405.317	640.31
405.541	658.31
405.765	634.31
405.988	578.31
406.212	581.31
406.436	623.31
406.66	637.31
406.883	623.31
407.107	633.31
407.331	665.31
407.555	720.31
407.778	704.31
408.002	673.31
408.226	617.31
408.449	610.31
408.673	632.31
408.896	651.31
409.12	678.31
409.344	634.31
409.567	559.31
409.791	577.31
410.014	556.31
410.238	552.31
410.461	556.31
410.685	564.31
410.908	581.31
411.132	619.31
411.355	646.31
411.578	632.31
411.802	599.31
412.025	570.31
412.249	603.31
412.472	584.31
412.695	620.31
412.919	629.31
413.142	583.31
413.365	543.31
413.589	533.31
413.812	554.31
414.035	533.31
414.258	541.31
414.482	520.31
414.705	513.31
414.928	527.31
415.151	526.31
415.374	515.31
415.597	504.31
415.821	511.31
416.044	529.31
416.267	506.31
416.49	512.31
416.713	534.31
416.936	515.31
417.159	518.31
417.382	520.31
417.605	568.31
417.828	534.31
418.051	559.31
418.274	555.31
418.497	529.31
418.72	542.31
418.943	511.31
419.166	554.31
419.389	574.31
419.611	543.31
419.834	558.31
420.057	560.31
420.28	550.31
420.503	581.31
420.726	549.31
420.948	577.31
421.171	620.31
421.394	654.31
421.617	603.31
421.839	550.31
422.062	563.31
422.285	579.31
422.507	651.31
422.73	750.31
422.953	695.31
423.175	613.31
423.398	585.31
423.621	598.31
423.843	585.31
424.066	612.31
424.288	617.31
424.511	649.31
424.733	694.31
424.956	821.31
425.178	777.31
425.401	760.31
425.623	761.31
425.846	644.31
426.068	634.31
426.291	637.31
426.513	629.31
426.735	616.31
426.958	675.31
427.18	795.31
427.402	961.31
427.625	1023.31
427.847	914.31
428.069	811.31
428.292	707.31
428.514	664.31
428.736	629.31
428.958	605.31
429.181	591.31
429.403	580.31
429.625	605.31
429.847	643.31
430.069	701.31
430.292	716.31
430.514	608.31
430.736	566.31
430.958	559.31
431.18	543.31
431.402	533.31
431.624	541.31
431.846	528.31
432.068	526.31
432.29	562.31
432.512	540.31
432.734	563.31
432.956	557.31
433.178	536.31
433.4	557.31
433.622	533.31
433.844	542.31
434.066	531.31
434.287	525.31
434.509	535.31
434.731	546.31
434.953	575.31
435.175	571.31
435.397	615.31
435.618	639.31
435.84	658.31
436.062	763.31
436.284	855.31
436.505	748.31
436.727	656.31
436.949	583.31
437.17	589.31
437.392	582.31
437.614	605.31
437.835	643.31
438.057	772.31
438.278	900.31
438.5	871.31
438.721	927.31
438.943	911.31
439.165	727.31
439.386	685.31
439.608	645.31
439.829	656.31
440.05	686.31
440.272	756.31
440.493	707.31
440.715	613.31
440.936	616.31
441.158	597.31
441.379	591.31
441.6	626.31
441.822	615.31
442.043	683.31
442.264	766.31
442.486	813.31
442.707	684.31
442.928	640.31
443.149	678.31
443.371	693.31
443.592	736.31
443.813	849.31
444.034	917.31
444.255	733.31
444.476	654.31
444.698	614.31
444.919	607.31
445.14	741.31
445.361	654.31
445.582	680.31
445.803	778.31
446.024	892.31
446.245	893.31
446.466	829.31
446.687	717.31
446.908	672.31
447.129	627.31
447.35	614.31
447.571	579.31
447.792	571.31
448.013	605.31
448.234	617.31
448.455	682.31
448.675	781.31
448.896	898.31
449.117	815.31
449.338	763.31
449.559	876.31
449.779	945.31
450	771.31
450.221	663.31
450.442	627.31
450.662	604.31
450.883	599.31
451.104	634.31
451.324	607.31
451.545	587.31
451.766	559.31
451.986	566.31
452.207	540.31
452.428	529.31
452.648	503.31
452.869	518.31
453.089	528.31
453.31	560.31
453.53	522.31
453.751	505.31
453.971	530.31
454.192	561.31
454.412	549.31
454.633	533.31
454.853	515.31
455.073	535.31
455.294	545.31
455.514	658.31
455.734	635.31
455.955	545.31
456.175	491.31
456.395	475.31
456.616	473.31
456.836	480.31
457.056	474.31
457.276	456.31
457.497	465.31
457.717	487.31
457.937	526.31
458.157	494.31
458.377	523.31
458.598	528.31
458.818	621.31
459.038	702.31
459.258	749.31
459.478	643.31
459.698	554.31
459.918	533.31
460.138	515.31
460.358	533.31
460.578	537.31
460.798	544.31
461.018	525.31
461.238	537.31
461.458	519.31
461.678	524.31
461.898	532.31
462.118	535.31
462.338	544.31
462.558	544.31
462.777	521.31
462.997	551.31
463.217	559.31
463.437	539.31
463.657	572.31
463.876	559.31
464.096	544.31
464.316	560.31
464.536	561.31
464.755	576.31
464.975	569.31
465.195	656.31
465.414	792.31
465.634	661.31
465.854	591.31
466.073	572.31
466.293	540.31
466.512	523.31
466.732	516.31
466.951	533.31
467.171	536.31
467.391	504.31
467.61	544.31
467.829	579.31
468.049	560.31
468.268	552.31
468.488	523.31
468.707	513.31
468.927	519.31
469.146	490.31
469.365	531.31
469.585	526.31
469.804	516.31
470.023	550.31
470.243	548.31
470.462	548.31
470.681	590.31
470.901	569.31
471.12	557.31
471.339	559.31
471.558	535.31
471.777	563.31
471.997	521.31
472.216	539.31
472.435	595.31
472.654	589.31
472.873	550.31
473.092	520.31
473.311	537.31
473.53	541.31
473.749	551.31
473.968	609.31
474.187	715.31
474.406	764.31
474.625	611.31
474.844	563.31
475.063	547.31
475.282	561.31
475.501	541.31
475.72	557.31
475.939	572.31
476.158	553.31
476.377	565.31
476.596	573.31
476.814	581.31
477.033	576.31
477.252	574.31
477.471	601.31
477.69	570.31
477.908	579.31
478.127	579.31
478.346	572.31
478.564	591.31
478.783	587.31
479.002	624.31
479.22	614.31
479.439	617.31
479.658	630.31
479.876	644.31
480.095	653.31
480.313	707.31
480.532	657.31
480.751	667.31
480.969	681.31
481.188	740.31
481.406	805.31
481.624	712.31
481.843	677.31
482.061	675.31
482.28	647.31
482.498	649.31
482.717	636.31
482.935	651.31
483.153	636.31
483.372	646.31
483.59	651.31
483.808	640.31
484.027	641.31
484.245	648.31
484.463	666.31
484.681	657.31
484.9	674.31
485.118	684.31
485.336	649.31
485.554	687.31
485.772	675.31
485.99	673.31
486.209	669.31
486.427	675.31
486.645	712.31
486.863	733.31
487.081	740.31
487.299	683.31
487.517	697.31
487.735	703.31
487.953	691.31
488.171	703.31
488.389	712.31
488.607	735.31
488.825	695.31
489.043	725.31
489.261	737.31
489.479	716.31
489.696	687.31
489.914	725.31
490.132	721.31
490.35	739.31
490.568	770.31
490.786	751.31
491.003	775.31
491.221	782.31
491.439	809.31
491.657	791.31
491.874	775.31
492.092	827.31
492.31	821.31
492.527	850.31
492.745	835.31
492.963	841.31
493.18	840.31
493.398	842.31
493.615	828.31
493.833	864.31
494.05	863.31
494.268	855.31
494.485	856.31
494.703	825.31
494.92	865.31
495.138	861.31
495.355	851.31
495.573	866.31
495.79	843.31
496.008	849.31
496.225	829.31
496.442	822.31
496.66	853.31
496.877	844.31
497.094	853.31
497.312	855.31
497.529	866.31
497.746	856.31
497.963	868.31
498.181	884.31
498.398	867.31
498.615	897.31
498.832	907.31
499.049	903.31
499.267	900.31
499.484	959.31
499.701	972.31
499.918	964.31
500.135	996.31
500.352	995.31
500.569	1002.31
500.786	1027.31
501.003	1029.31
501.22	1036.31
501.437	1024.31
