Data from 1971.PennyLincolnUp.Lamp.En5.5.200Scan.071719.P1._HRD10591_15-18-37-841.txt Node
Date: Thu Jul 18 15:18:37 EDT 2019
User: cochatt
Spectrometer: HR+D1059
Trigger mode: 1
Integration Time (sec): 1.000000E-1
Scans to average: 1
Electric dark correction enabled: true
Nonlinearity correction enabled: false
Boxcar width: 0
XAxis mode: Wavelengths
Number of Pixels in Spectrum: 2048
>>>>>Begin Spectral Data<<<<<
223.165	-0.38
223.4	-0.38
223.635	-0.38
223.869	-10.38
224.104	-15.38
224.338	-10.38
224.573	-14.38
224.808	-5.38
225.042	-9.38
225.277	-3.38
225.511	-4.38
225.746	-5.38
225.98	-9.38
226.215	15.62
226.449	18.62
226.683	11.62
226.918	23.62
227.152	18.62
227.387	24.62
227.621	47.62
227.856	39.62
228.09	54.62
228.324	44.62
228.559	57.62
228.793	76.62
229.027	104.62
229.262	98.62
229.496	94.62
229.73	118.62
229.964	140.62
230.199	134.62
230.433	111.62
230.667	112.62
230.901	117.62
231.136	108.62
231.37	102.62
231.604	99.62
231.838	103.62
232.072	102.62
232.306	103.62
232.541	123.62
232.775	110.62
233.009	109.62
233.243	115.62
233.477	122.62
233.711	126.62
233.945	98.62
234.179	120.62
234.413	129.62
234.647	126.62
234.881	112.62
235.115	106.62
235.349	110.62
235.583	113.62
235.817	125.62
236.051	121.62
236.285	127.62
236.519	128.62
236.753	131.62
236.987	135.62
237.221	178.62
237.455	207.62
237.689	185.62
237.922	125.62
238.156	139.62
238.39	123.62
238.624	106.62
238.858	133.62
239.091	121.62
239.325	126.62
239.559	137.62
239.793	127.62
240.027	127.62
240.26	137.62
240.494	127.62
240.728	147.62
240.961	145.62
241.195	143.62
241.429	137.62
241.662	129.62
241.896	126.62
242.13	119.62
242.363	137.62
242.597	124.62
242.83	133.62
243.064	141.62
243.298	139.62
243.531	134.62
243.765	139.62
243.998	129.62
244.232	120.62
244.465	136.62
244.699	152.62
244.932	154.62
245.166	147.62
245.399	153.62
245.633	143.62
245.866	154.62
246.099	135.62
246.333	143.62
246.566	154.62
246.8	153.62
247.033	158.62
247.266	172.62
247.5	157.62
247.733	162.62
247.966	169.62
248.2	170.62
248.433	178.62
248.666	165.62
248.899	179.62
249.133	183.62
249.366	195.62
249.599	208.62
249.832	177.62
250.066	167.62
250.299	192.62
250.532	181.62
250.765	198.62
250.998	208.62
251.231	210.62
251.465	227.62
251.698	218.62
251.931	197.62
252.164	183.62
252.397	198.62
252.63	197.62
252.863	203.62
253.096	217.62
253.329	228.62
253.562	219.62
253.795	210.62
254.028	207.62
254.261	224.62
254.494	220.62
254.727	242.62
254.96	270.62
255.193	266.62
255.426	240.62
255.659	223.62
255.892	224.62
256.124	222.62
256.357	214.62
256.59	210.62
256.823	211.62
257.056	222.62
257.289	207.62
257.521	206.62
257.754	216.62
257.987	208.62
258.22	205.62
258.452	188.62
258.685	206.62
258.918	207.62
259.151	213.62
259.383	206.62
259.616	206.62
259.849	231.62
260.081	234.62
260.314	246.62
260.547	243.62
260.779	237.62
261.012	229.62
261.244	227.62
261.477	236.62
261.71	209.62
261.942	221.62
262.175	225.62
262.407	225.62
262.64	222.62
262.872	211.62
263.105	208.62
263.337	209.62
263.57	224.62
263.802	199.62
264.035	206.62
264.267	217.62
264.499	215.62
264.732	229.62
264.964	194.62
265.197	211.62
265.429	227.62
265.661	219.62
265.894	208.62
266.126	219.62
266.358	211.62
266.591	204.62
266.823	222.62
267.055	220.62
267.287	231.62
267.52	228.62
267.752	219.62
267.984	225.62
268.216	233.62
268.448	241.62
268.681	224.62
268.913	241.62
269.145	249.62
269.377	250.62
269.609	251.62
269.841	274.62
270.073	281.62
270.306	279.62
270.538	293.62
270.77	310.62
271.002	286.62
271.234	286.62
271.466	286.62
271.698	295.62
271.93	314.62
272.162	319.62
272.394	305.62
272.626	283.62
272.858	284.62
273.09	269.62
273.322	260.62
273.553	266.62
273.785	247.62
274.017	280.62
274.249	282.62
274.481	268.62
274.713	266.62
274.945	274.62
275.176	266.62
275.408	237.62
275.64	265.62
275.872	265.62
276.104	267.62
276.335	266.62
276.567	271.62
276.799	275.62
277.031	278.62
277.262	298.62
277.494	303.62
277.726	297.62
277.957	301.62
278.189	272.62
278.421	256.62
278.652	267.62
278.884	263.62
279.115	286.62
279.347	260.62
279.579	268.62
279.81	261.62
280.042	270.62
280.273	262.62
280.505	251.62
280.736	262.62
280.968	265.62
281.199	269.62
281.431	250.62
281.662	270.62
281.894	247.62
282.125	271.62
282.356	293.62
282.588	297.62
282.819	287.62
283.051	257.62
283.282	270.62
283.513	271.62
283.745	276.62
283.976	277.62
284.207	278.62
284.439	273.62
284.67	281.62
284.901	289.62
285.132	277.62
285.364	263.62
285.595	257.62
285.826	282.62
286.057	272.62
286.288	272.62
286.52	279.62
286.751	287.62
286.982	280.62
287.213	277.62
287.444	285.62
287.675	290.62
287.906	280.62
288.138	294.62
288.369	287.62
288.6	301.62
288.831	301.62
289.062	268.62
289.293	287.62
289.524	270.62
289.755	290.62
289.986	293.62
290.217	297.62
290.448	273.62
290.679	293.62
290.91	299.62
291.141	278.62
291.371	275.62
291.602	296.62
291.833	279.62
292.064	281.62
292.295	288.62
292.526	287.62
292.757	298.62
292.987	290.62
293.218	288.62
293.449	281.62
293.68	270.62
293.91	285.62
294.141	288.62
294.372	275.62
294.603	273.62
294.833	287.62
295.064	313.62
295.295	297.62
295.525	289.62
295.756	302.62
295.987	297.62
296.217	306.62
296.448	313.62
296.679	290.62
296.909	295.62
297.14	311.62
297.37	312.62
297.601	299.62
297.831	319.62
298.062	301.62
298.292	290.62
298.523	316.62
298.753	314.62
298.984	285.62
299.214	298.62
299.445	298.62
299.675	293.62
299.905	303.62
300.136	310.62
300.366	284.62
300.597	318.62
300.827	313.62
301.057	311.62
301.288	329.62
301.518	321.62
301.748	321.62
301.979	319.62
302.209	305.62
302.439	329.62
302.669	322.62
302.9	329.62
303.13	325.62
303.36	322.62
303.59	320.62
303.82	332.62
304.051	340.62
304.281	332.62
304.511	340.62
304.741	326.62
304.971	331.62
305.201	338.62
305.431	296.62
305.661	321.62
305.891	326.62
306.121	299.62
306.352	322.62
306.582	342.62
306.812	326.62
307.042	321.62
307.272	326.62
307.502	322.62
307.731	314.62
307.961	336.62
308.191	333.62
308.421	317.62
308.651	327.62
308.881	352.62
309.111	317.62
309.341	331.62
309.571	342.62
309.8	337.62
310.03	357.62
310.26	349.62
310.49	344.62
310.72	365.62
310.949	359.62
311.179	379.62
311.409	363.62
311.639	346.62
311.868	370.62
312.098	362.62
312.328	358.62
312.557	380.62
312.787	377.62
313.017	397.62
313.246	378.62
313.476	349.62
313.706	373.62
313.935	376.62
314.165	373.62
314.394	382.62
314.624	381.62
314.853	367.62
315.083	378.62
315.312	375.62
315.542	363.62
315.771	357.62
316.001	348.62
316.23	358.62
316.46	340.62
316.689	364.62
316.919	352.62
317.148	371.62
317.377	367.62
317.607	394.62
317.836	366.62
318.065	362.62
318.295	367.62
318.524	361.62
318.753	366.62
318.983	362.62
319.212	353.62
319.441	363.62
319.67	378.62
319.9	377.62
320.129	360.62
320.358	366.62
320.587	365.62
320.816	381.62
321.046	373.62
321.275	383.62
321.504	367.62
321.733	385.62
321.962	393.62
322.191	381.62
322.42	404.62
322.649	419.62
322.878	429.62
323.108	416.62
323.337	439.62
323.566	458.62
323.795	476.62
324.024	530.62
324.253	607.62
324.482	861.62
324.71	1288.62
324.939	1683.62
325.168	1458.62
325.397	783.62
325.626	570.62
325.855	475.62
326.084	498.62
326.313	451.62
326.542	459.62
326.77	526.62
326.999	594.62
327.228	777.62
327.457	1097.62
327.686	1273.62
327.914	865.62
328.143	607.62
328.372	549.62
328.6	494.62
328.829	510.62
329.058	510.62
329.287	520.62
329.515	487.62
329.744	471.62
329.972	464.62
330.201	481.62
330.43	518.62
330.658	519.62
330.887	526.62
331.115	509.62
331.344	464.62
331.572	446.62
331.801	459.62
332.03	438.62
332.258	425.62
332.486	420.62
332.715	411.62
332.943	409.62
333.172	407.62
333.4	429.62
333.629	419.62
333.857	439.62
334.085	473.62
334.314	447.62
334.542	465.62
334.771	485.62
334.999	447.62
335.227	446.62
335.455	417.62
335.684	412.62
335.912	401.62
336.14	405.62
336.369	432.62
336.597	425.62
336.825	440.62
337.053	400.62
337.281	403.62
337.51	407.62
337.738	417.62
337.966	404.62
338.194	392.62
338.422	401.62
338.65	427.62
338.878	405.62
339.106	411.62
339.334	394.62
339.562	402.62
339.79	387.62
340.018	398.62
340.246	413.62
340.474	398.62
340.702	372.62
340.93	388.62
341.158	411.62
341.386	373.62
341.614	406.62
341.842	393.62
342.07	395.62
342.298	410.62
342.526	393.62
342.754	364.62
342.981	393.62
343.209	388.62
343.437	399.62
343.665	394.62
343.893	402.62
344.12	411.62
344.348	421.62
344.576	397.62
344.804	430.62
345.031	400.62
345.259	397.62
345.487	411.62
345.714	412.62
345.942	403.62
346.17	385.62
346.397	399.62
346.625	371.62
346.853	384.62
347.08	365.62
347.308	397.62
347.535	386.62
347.763	383.62
347.99	377.62
348.218	395.62
348.445	380.62
348.673	381.62
348.9	383.62
349.128	383.62
349.355	377.62
349.583	377.62
349.81	359.62
350.037	362.62
350.265	359.62
350.492	377.62
350.72	367.62
350.947	377.62
351.174	377.62
351.402	409.62
351.629	370.62
351.856	380.62
352.083	385.62
352.311	381.62
352.538	379.62
352.765	397.62
352.992	385.62
353.22	385.62
353.447	380.62
353.674	363.62
353.901	376.62
354.128	364.62
354.355	350.62
354.583	361.62
354.81	354.62
355.037	329.62
355.264	344.62
355.491	349.62
355.718	359.62
355.945	357.62
356.172	336.62
356.399	344.62
356.626	352.62
356.853	334.62
357.08	329.62
357.307	336.62
357.534	354.62
357.761	357.62
357.988	335.62
358.215	338.62
358.441	356.62
358.668	359.62
358.895	333.62
359.122	359.62
359.349	367.62
359.576	365.62
359.802	398.62
360.029	391.62
360.256	400.62
360.483	397.62
360.709	372.62
360.936	385.62
361.163	369.62
361.39	377.62
361.616	369.62
361.843	362.62
362.07	377.62
362.296	365.62
362.523	366.62
362.749	361.62
362.976	340.62
363.203	354.62
363.429	336.62
363.656	368.62
363.882	360.62
364.109	348.62
364.335	356.62
364.562	353.62
364.788	336.62
365.015	373.62
365.241	343.62
365.468	355.62
365.694	352.62
365.92	359.62
366.147	351.62
366.373	339.62
366.599	345.62
366.826	339.62
367.052	367.62
367.278	353.62
367.505	345.62
367.731	375.62
367.957	341.62
368.184	341.62
368.41	364.62
368.636	347.62
368.862	364.62
369.089	360.62
369.315	359.62
369.541	369.62
369.767	344.62
369.993	339.62
370.219	338.62
370.445	366.62
370.672	333.62
370.898	351.62
371.124	342.62
371.35	352.62
371.576	357.62
371.802	323.62
372.028	351.62
372.254	340.62
372.48	345.62
372.706	349.62
372.932	353.62
373.158	346.62
373.384	360.62
373.61	362.62
373.835	343.62
374.061	358.62
374.287	358.62
374.513	359.62
374.739	340.62
374.965	349.62
375.191	360.62
375.416	358.62
375.642	358.62
375.868	349.62
376.094	347.62
376.319	336.62
376.545	343.62
376.771	352.62
376.997	341.62
377.222	333.62
377.448	359.62
377.674	334.62
377.899	332.62
378.125	344.62
378.35	330.62
378.576	343.62
378.802	354.62
379.027	351.62
379.253	334.62
379.478	333.62
379.704	322.62
379.929	345.62
380.155	354.62
380.38	332.62
380.606	323.62
380.831	339.62
381.057	336.62
381.282	338.62
381.507	335.62
381.733	348.62
381.958	334.62
382.184	341.62
382.409	331.62
382.634	343.62
382.86	343.62
383.085	342.62
383.31	348.62
383.535	353.62
383.761	340.62
383.986	345.62
384.211	349.62
384.436	350.62
384.662	356.62
384.887	352.62
385.112	343.62
385.337	363.62
385.562	365.62
385.787	365.62
386.013	368.62
386.238	371.62
386.463	378.62
386.688	379.62
386.913	366.62
387.138	373.62
387.363	368.62
387.588	360.62
387.813	363.62
388.038	355.62
388.263	373.62
388.488	342.62
388.713	346.62
388.938	359.62
389.163	367.62
389.387	355.62
389.612	349.62
389.837	369.62
390.062	343.62
390.287	355.62
390.512	362.62
390.736	359.62
390.961	362.62
391.186	361.62
391.411	377.62
391.636	377.62
391.86	360.62
392.085	356.62
392.31	350.62
392.534	339.62
392.759	364.62
392.984	373.62
393.208	359.62
393.433	372.62
393.658	361.62
393.882	355.62
394.107	373.62
394.331	366.62
394.556	357.62
394.78	361.62
395.005	348.62
395.229	352.62
395.454	359.62
395.678	369.62
395.903	356.62
396.127	382.62
396.352	377.62
396.576	379.62
396.801	373.62
397.025	371.62
397.249	371.62
397.474	366.62
397.698	374.62
397.922	397.62
398.147	405.62
398.371	402.62
398.595	380.62
398.82	386.62
399.044	403.62
399.268	416.62
399.492	431.62
399.717	466.62
399.941	462.62
400.165	474.62
400.389	519.62
400.613	465.62
400.837	427.62
401.062	403.62
401.286	404.62
401.51	393.62
401.734	371.62
401.958	407.62
402.182	407.62
402.406	394.62
402.63	418.62
402.854	384.62
403.078	416.62
403.302	407.62
403.526	402.62
403.75	403.62
403.974	408.62
404.198	397.62
404.422	407.62
404.645	429.62
404.869	428.62
405.093	457.62
405.317	467.62
405.541	509.62
405.765	457.62
405.988	427.62
406.212	444.62
406.436	466.62
406.66	459.62
406.883	449.62
407.107	455.62
407.331	480.62
407.555	523.62
407.778	522.62
408.002	481.62
408.226	446.62
408.449	466.62
408.673	443.62
408.896	457.62
409.12	502.62
409.344	482.62
409.567	407.62
409.791	424.62
410.014	396.62
410.238	413.62
410.461	410.62
410.685	404.62
410.908	422.62
411.132	462.62
411.355	458.62
411.578	455.62
411.802	422.62
412.025	429.62
412.249	435.62
412.472	427.62
412.695	452.62
412.919	453.62
413.142	414.62
413.365	402.62
413.589	401.62
413.812	411.62
414.035	384.62
414.258	384.62
414.482	393.62
414.705	402.62
414.928	384.62
415.151	387.62
415.374	382.62
415.597	376.62
415.821	365.62
416.044	381.62
416.267	380.62
416.49	390.62
416.713	370.62
416.936	369.62
417.159	391.62
417.382	415.62
417.605	414.62
417.828	388.62
418.051	400.62
418.274	414.62
418.497	411.62
418.72	383.62
418.943	393.62
419.166	397.62
419.389	393.62
419.611	417.62
419.834	397.62
420.057	381.62
420.28	410.62
420.503	414.62
420.726	416.62
420.948	421.62
421.171	427.62
421.394	489.62
421.617	412.62
421.839	407.62
422.062	419.62
422.285	426.62
422.507	464.62
422.73	512.62
422.953	489.62
423.175	427.62
423.398	423.62
423.621	417.62
423.843	432.62
424.066	409.62
424.288	427.62
424.511	438.62
424.733	496.62
424.956	554.62
425.178	536.62
425.401	526.62
425.623	545.62
425.846	447.62
426.068	444.62
426.291	425.62
426.513	426.62
426.735	412.62
426.958	483.62
427.18	526.62
427.402	618.62
427.625	695.62
427.847	607.62
428.069	524.62
428.292	464.62
428.514	408.62
428.736	417.62
428.958	399.62
429.181	393.62
429.403	409.62
429.625	411.62
429.847	421.62
430.069	467.62
430.292	466.62
430.514	385.62
430.736	381.62
430.958	396.62
431.18	368.62
431.402	376.62
431.624	393.62
431.846	373.62
432.068	386.62
432.29	362.62
432.512	385.62
432.734	375.62
432.956	398.62
433.178	382.62
433.4	389.62
433.622	400.62
433.844	358.62
434.066	368.62
434.287	384.62
434.509	373.62
434.731	389.62
434.953	390.62
435.175	415.62
435.397	423.62
435.618	435.62
435.84	462.62
436.062	523.62
436.284	567.62
436.505	490.62
436.727	425.62
436.949	393.62
437.17	404.62
437.392	397.62
437.614	407.62
437.835	413.62
438.057	480.62
438.278	567.62
438.5	563.62
438.721	602.62
438.943	577.62
439.165	486.62
439.386	437.62
439.608	449.62
439.829	435.62
440.05	457.62
440.272	498.62
440.493	467.62
440.715	414.62
440.936	412.62
441.158	413.62
441.379	393.62
441.6	433.62
441.822	415.62
442.043	450.62
442.264	538.62
442.486	552.62
442.707	482.62
442.928	461.62
443.149	453.62
443.371	449.62
443.592	498.62
443.813	575.62
444.034	620.62
444.255	502.62
444.476	445.62
444.698	448.62
444.919	426.62
445.14	567.62
445.361	475.62
445.582	478.62
445.803	497.62
446.024	581.62
446.245	576.62
446.466	526.62
446.687	470.62
446.908	420.62
447.129	422.62
447.35	398.62
447.571	408.62
447.792	400.62
448.013	395.62
448.234	407.62
448.455	453.62
448.675	523.62
448.896	629.62
449.117	527.62
449.338	473.62
449.559	578.62
449.779	655.62
450	517.62
450.221	427.62
450.442	414.62
450.662	402.62
450.883	400.62
451.104	403.62
451.324	401.62
451.545	382.62
451.766	346.62
451.986	365.62
452.207	349.62
452.428	347.62
452.648	340.62
452.869	357.62
453.089	347.62
453.31	362.62
453.53	358.62
453.751	359.62
453.971	358.62
454.192	348.62
454.412	352.62
454.633	378.62
454.853	337.62
455.073	365.62
455.294	385.62
455.514	413.62
455.734	421.62
455.955	370.62
456.175	353.62
456.395	333.62
456.616	321.62
456.836	321.62
457.056	336.62
457.276	347.62
457.497	339.62
457.717	351.62
457.937	349.62
458.157	374.62
458.377	345.62
458.598	353.62
458.818	385.62
459.038	455.62
459.258	453.62
459.478	409.62
459.698	382.62
459.918	386.62
460.138	374.62
460.358	367.62
460.578	361.62
460.798	351.62
461.018	370.62
461.238	366.62
461.458	373.62
461.678	374.62
461.898	361.62
462.118	368.62
462.338	377.62
462.558	371.62
462.777	385.62
462.997	397.62
463.217	401.62
463.437	401.62
463.657	399.62
463.876	395.62
464.096	395.62
464.316	394.62
464.536	404.62
464.755	383.62
464.975	396.62
465.195	428.62
465.414	443.62
465.634	397.62
465.854	391.62
466.073	385.62
466.293	367.62
466.512	359.62
466.732	363.62
466.951	351.62
467.171	349.62
467.391	350.62
467.61	376.62
467.829	377.62
468.049	373.62
468.268	350.62
468.488	368.62
468.707	364.62
468.927	347.62
469.146	346.62
469.365	374.62
469.585	363.62
469.804	364.62
470.023	376.62
470.243	362.62
470.462	352.62
470.681	379.62
470.901	355.62
471.12	371.62
471.339	378.62
471.558	377.62
471.777	361.62
471.997	367.62
472.216	364.62
472.435	375.62
472.654	384.62
472.873	344.62
473.092	347.62
473.311	378.62
473.53	368.62
473.749	368.62
473.968	428.62
474.187	481.62
474.406	486.62
474.625	406.62
474.844	367.62
475.063	393.62
475.282	373.62
475.501	362.62
475.72	376.62
475.939	385.62
476.158	378.62
476.377	378.62
476.596	378.62
476.814	373.62
477.033	377.62
477.252	386.62
477.471	377.62
477.69	388.62
477.908	383.62
478.127	406.62
478.346	410.62
478.564	388.62
478.783	410.62
479.002	413.62
479.22	400.62
479.439	429.62
479.658	447.62
479.876	434.62
480.095	448.62
480.313	433.62
480.532	432.62
480.751	436.62
480.969	437.62
481.188	464.62
481.406	465.62
481.624	448.62
481.843	418.62
482.061	431.62
482.28	424.62
482.498	417.62
482.717	422.62
482.935	407.62
483.153	426.62
483.372	433.62
483.59	427.62
483.808	407.62
484.027	441.62
484.245	437.62
484.463	445.62
484.681	429.62
484.9	423.62
485.118	417.62
485.336	445.62
485.554	429.62
485.772	422.62
485.99	427.62
486.209	433.62
486.427	430.62
486.645	427.62
486.863	451.62
487.081	441.62
487.299	432.62
487.517	446.62
487.735	442.62
487.953	445.62
488.171	447.62
488.389	460.62
488.607	462.62
488.825	453.62
489.043	430.62
489.261	438.62
489.479	457.62
489.696	456.62
489.914	447.62
490.132	466.62
490.35	469.62
490.568	476.62
490.786	480.62
491.003	491.62
491.221	517.62
491.439	509.62
491.657	498.62
491.874	515.62
492.092	518.62
492.31	545.62
492.527	514.62
492.745	521.62
492.963	535.62
493.18	545.62
493.398	503.62
493.615	522.62
493.833	533.62
494.05	541.62
494.268	541.62
494.485	547.62
494.703	532.62
494.92	539.62
495.138	533.62
495.355	554.62
495.573	532.62
495.79	515.62
496.008	534.62
496.225	539.62
496.442	542.62
496.66	516.62
496.877	567.62
497.094	532.62
497.312	555.62
497.529	557.62
497.746	567.62
497.963	554.62
498.181	565.62
498.398	560.62
498.615	585.62
498.832	594.62
499.049	610.62
499.267	633.62
499.484	637.62
499.701	648.62
499.918	656.62
500.135	695.62
500.352	713.62
500.569	713.62
500.786	728.62
501.003	694.62
501.22	677.62
501.437	645.62
501.654	673.62
501.871	662.62
502.088	628.62
