Data from 1971.PennyLincolnUp.Lamp.En5.5.200Scan.071719.P1._HRD10591_15-20-28-841.txt Node
Date: Thu Jul 18 15:20:28 EDT 2019
User: cochatt
Spectrometer: HR+D1059
Trigger mode: 1
Integration Time (sec): 1.000000E-1
Scans to average: 1
Electric dark correction enabled: true
Nonlinearity correction enabled: false
Boxcar width: 0
XAxis mode: Wavelengths
Number of Pixels in Spectrum: 2048
>>>>>Begin Spectral Data<<<<<
223.165	-20.31
223.4	-20.31
223.635	-20.31
223.869	-15.31
224.104	-33.31
224.338	-21.31
224.573	-13.31
224.808	-4.31
225.042	-1.31
225.277	3.69
225.511	-1.31
225.746	14.69
225.98	0.69
226.215	11.69
226.449	17.69
226.683	16.69
226.918	17.69
227.152	27.69
227.387	22.69
227.621	44.69
227.856	51.69
228.09	28.69
228.324	40.69
228.559	68.69
228.793	82.69
229.027	93.69
229.262	109.69
229.496	96.69
229.73	122.69
229.964	128.69
230.199	117.69
230.433	96.69
230.667	104.69
230.901	99.69
231.136	106.69
231.37	99.69
231.604	109.69
231.838	116.69
232.072	118.69
232.306	117.69
232.541	97.69
232.775	112.69
233.009	108.69
233.243	109.69
233.477	116.69
233.711	97.69
233.945	122.69
234.179	118.69
234.413	114.69
234.647	116.69
234.881	122.69
235.115	112.69
235.349	120.69
235.583	121.69
235.817	124.69
236.051	130.69
236.285	121.69
236.519	125.69
236.753	124.69
236.987	147.69
237.221	174.69
237.455	203.69
237.689	169.69
237.922	124.69
238.156	133.69
238.39	126.69
238.624	123.69
238.858	124.69
239.091	113.69
239.325	119.69
239.559	123.69
239.793	119.69
240.027	141.69
240.26	146.69
240.494	149.69
240.728	138.69
240.961	145.69
241.195	151.69
241.429	138.69
241.662	140.69
241.896	128.69
242.13	142.69
242.363	136.69
242.597	132.69
242.83	137.69
243.064	128.69
243.298	154.69
243.531	142.69
243.765	138.69
243.998	145.69
244.232	140.69
244.465	125.69
244.699	126.69
244.932	142.69
245.166	143.69
245.399	160.69
245.633	136.69
245.866	149.69
246.099	148.69
246.333	136.69
246.566	147.69
246.8	149.69
247.033	156.69
247.266	162.69
247.5	168.69
247.733	171.69
247.966	188.69
248.2	192.69
248.433	166.69
248.666	171.69
248.899	178.69
249.133	194.69
249.366	217.69
249.599	198.69
249.832	191.69
250.066	188.69
250.299	195.69
250.532	198.69
250.765	197.69
250.998	226.69
251.231	216.69
251.465	240.69
251.698	225.69
251.931	209.69
252.164	205.69
252.397	216.69
252.63	205.69
252.863	219.69
253.096	211.69
253.329	234.69
253.562	226.69
253.795	210.69
254.028	224.69
254.261	221.69
254.494	240.69
254.727	230.69
254.96	282.69
255.193	274.69
255.426	262.69
255.659	248.69
255.892	242.69
256.124	232.69
256.357	228.69
256.59	215.69
256.823	229.69
257.056	220.69
257.289	200.69
257.521	218.69
257.754	214.69
257.987	225.69
258.22	219.69
258.452	216.69
258.685	210.69
258.918	211.69
259.151	230.69
259.383	233.69
259.616	220.69
259.849	237.69
260.081	254.69
260.314	258.69
260.547	251.69
260.779	260.69
261.012	254.69
261.244	238.69
261.477	237.69
261.71	218.69
261.942	230.69
262.175	241.69
262.407	212.69
262.64	204.69
262.872	226.69
263.105	224.69
263.337	214.69
263.57	203.69
263.802	217.69
264.035	244.69
264.267	220.69
264.499	216.69
264.732	224.69
264.964	212.69
265.197	228.69
265.429	229.69
265.661	227.69
265.894	214.69
266.126	219.69
266.358	243.69
266.591	224.69
266.823	246.69
267.055	256.69
267.287	244.69
267.52	229.69
267.752	229.69
267.984	247.69
268.216	241.69
268.448	257.69
268.681	258.69
268.913	254.69
269.145	282.69
269.377	289.69
269.609	298.69
269.841	284.69
270.073	296.69
270.306	311.69
270.538	326.69
270.77	320.69
271.002	313.69
271.234	304.69
271.466	314.69
271.698	324.69
271.93	320.69
272.162	345.69
272.394	342.69
272.626	339.69
272.858	300.69
273.09	298.69
273.322	258.69
273.553	267.69
273.785	274.69
274.017	274.69
274.249	285.69
274.481	284.69
274.713	282.69
274.945	268.69
275.176	277.69
275.408	275.69
275.64	293.69
275.872	257.69
276.104	282.69
276.335	274.69
276.567	289.69
276.799	292.69
277.031	321.69
277.262	320.69
277.494	345.69
277.726	308.69
277.957	318.69
278.189	284.69
278.421	298.69
278.652	287.69
278.884	272.69
279.115	277.69
279.347	283.69
279.579	283.69
279.81	272.69
280.042	265.69
280.273	292.69
280.505	286.69
280.736	276.69
280.968	267.69
281.199	269.69
281.431	265.69
281.662	269.69
281.894	276.69
282.125	297.69
282.356	312.69
282.588	301.69
282.819	296.69
283.051	272.69
283.282	290.69
283.513	277.69
283.745	288.69
283.976	311.69
284.207	283.69
284.439	289.69
284.67	270.69
284.901	271.69
285.132	292.69
285.364	289.69
285.595	294.69
285.826	288.69
286.057	275.69
286.288	281.69
286.52	282.69
286.751	282.69
286.982	292.69
287.213	286.69
287.444	270.69
287.675	314.69
287.906	306.69
288.138	307.69
288.369	295.69
288.6	294.69
288.831	309.69
289.062	299.69
289.293	306.69
289.524	322.69
289.755	304.69
289.986	297.69
290.217	300.69
290.448	308.69
290.679	304.69
290.91	292.69
291.141	297.69
291.371	314.69
291.602	297.69
291.833	296.69
292.064	301.69
292.295	310.69
292.526	292.69
292.757	305.69
292.987	288.69
293.218	287.69
293.449	298.69
293.68	302.69
293.91	314.69
294.141	289.69
294.372	310.69
294.603	303.69
294.833	300.69
295.064	315.69
295.295	318.69
295.525	309.69
295.756	302.69
295.987	321.69
296.217	327.69
296.448	337.69
296.679	297.69
296.909	291.69
297.14	291.69
297.37	316.69
297.601	322.69
297.831	276.69
298.062	314.69
298.292	323.69
298.523	316.69
298.753	322.69
298.984	333.69
299.214	329.69
299.445	321.69
299.675	311.69
299.905	315.69
300.136	322.69
300.366	314.69
300.597	329.69
300.827	326.69
301.057	337.69
301.288	337.69
301.518	333.69
301.748	336.69
301.979	347.69
302.209	327.69
302.439	341.69
302.669	352.69
302.9	335.69
303.13	334.69
303.36	322.69
303.59	341.69
303.82	333.69
304.051	341.69
304.281	331.69
304.511	343.69
304.741	348.69
304.971	345.69
305.201	330.69
305.431	328.69
305.661	342.69
305.891	340.69
306.121	333.69
306.352	351.69
306.582	336.69
306.812	363.69
307.042	349.69
307.272	354.69
307.502	340.69
307.731	340.69
307.961	333.69
308.191	356.69
308.421	330.69
308.651	343.69
308.881	360.69
309.111	359.69
309.341	350.69
309.571	369.69
309.8	357.69
310.03	373.69
310.26	378.69
310.49	384.69
310.72	381.69
310.949	393.69
311.179	420.69
311.409	391.69
311.639	385.69
311.868	384.69
312.098	413.69
312.328	375.69
312.557	407.69
312.787	413.69
313.017	416.69
313.246	415.69
313.476	376.69
313.706	379.69
313.935	415.69
314.165	390.69
314.394	384.69
314.624	424.69
314.853	408.69
315.083	387.69
315.312	388.69
315.542	403.69
315.771	382.69
316.001	384.69
316.23	388.69
316.46	382.69
316.689	392.69
316.919	385.69
317.148	397.69
317.377	409.69
317.607	389.69
317.836	391.69
318.065	389.69
318.295	382.69
318.524	394.69
318.753	385.69
318.983	388.69
319.212	406.69
319.441	394.69
319.67	390.69
319.9	413.69
320.129	385.69
320.358	387.69
320.587	383.69
320.816	382.69
321.046	395.69
321.275	410.69
321.504	395.69
321.733	420.69
321.962	396.69
322.191	420.69
322.42	421.69
322.649	457.69
322.878	444.69
323.108	473.69
323.337	475.69
323.566	538.69
323.795	550.69
324.024	586.69
324.253	707.69
324.482	1057.69
324.71	1468.69
324.939	2034.69
325.168	1720.69
325.397	925.69
325.626	639.69
325.855	568.69
326.084	502.69
326.313	540.69
326.542	526.69
326.77	580.69
326.999	686.69
327.228	920.69
327.457	1299.69
327.686	1526.69
327.914	997.69
328.143	693.69
328.372	627.69
328.6	586.69
328.829	557.69
329.058	560.69
329.287	563.69
329.515	555.69
329.744	493.69
329.972	500.69
330.201	534.69
330.43	562.69
330.658	571.69
330.887	589.69
331.115	600.69
331.344	527.69
331.572	497.69
331.801	462.69
332.03	482.69
332.258	493.69
332.486	465.69
332.715	459.69
332.943	452.69
333.172	436.69
333.4	441.69
333.629	459.69
333.857	468.69
334.085	468.69
334.314	511.69
334.542	523.69
334.771	526.69
334.999	518.69
335.227	483.69
335.455	476.69
335.684	433.69
335.912	441.69
336.14	448.69
336.369	449.69
336.597	455.69
336.825	454.69
337.053	444.69
337.281	427.69
337.51	443.69
337.738	443.69
337.966	423.69
338.194	429.69
338.422	445.69
338.65	413.69
338.878	422.69
339.106	415.69
339.334	427.69
339.562	429.69
339.79	405.69
340.018	409.69
340.246	421.69
340.474	438.69
340.702	428.69
340.93	421.69
341.158	418.69
341.386	410.69
341.614	437.69
341.842	414.69
342.07	403.69
342.298	396.69
342.526	396.69
342.754	410.69
342.981	399.69
343.209	410.69
343.437	425.69
343.665	420.69
343.893	426.69
344.12	422.69
344.348	413.69
344.576	414.69
344.804	426.69
345.031	441.69
345.259	444.69
345.487	419.69
345.714	432.69
345.942	429.69
346.17	408.69
346.397	417.69
346.625	387.69
346.853	415.69
347.08	399.69
347.308	427.69
347.535	415.69
347.763	432.69
347.99	410.69
348.218	417.69
348.445	416.69
348.673	401.69
348.9	402.69
349.128	401.69
349.355	411.69
349.583	398.69
349.81	384.69
350.037	389.69
350.265	386.69
350.492	384.69
350.72	388.69
350.947	376.69
351.174	402.69
351.402	426.69
351.629	426.69
351.856	397.69
352.083	408.69
352.311	418.69
352.538	421.69
352.765	408.69
352.992	384.69
353.22	395.69
353.447	398.69
353.674	379.69
353.901	369.69
354.128	370.69
354.355	373.69
354.583	377.69
354.81	377.69
355.037	361.69
355.264	356.69
355.491	379.69
355.718	368.69
355.945	369.69
356.172	360.69
356.399	366.69
356.626	372.69
356.853	370.69
357.08	375.69
357.307	358.69
357.534	375.69
357.761	345.69
357.988	376.69
358.215	370.69
358.441	365.69
358.668	368.69
358.895	382.69
359.122	379.69
359.349	401.69
359.576	383.69
359.802	415.69
360.029	442.69
360.256	437.69
360.483	419.69
360.709	390.69
360.936	389.69
361.163	397.69
361.39	379.69
361.616	394.69
361.843	390.69
362.07	376.69
362.296	388.69
362.523	390.69
362.749	360.69
362.976	392.69
363.203	366.69
363.429	380.69
363.656	370.69
363.882	374.69
364.109	368.69
364.335	381.69
364.562	378.69
364.788	364.69
365.015	382.69
365.241	364.69
365.468	379.69
365.694	379.69
365.92	375.69
366.147	359.69
366.373	363.69
366.599	359.69
366.826	360.69
367.052	374.69
367.278	354.69
367.505	382.69
367.731	376.69
367.957	378.69
368.184	361.69
368.41	378.69
368.636	358.69
368.862	377.69
369.089	379.69
369.315	353.69
369.541	373.69
369.767	363.69
369.993	370.69
370.219	368.69
370.445	358.69
370.672	359.69
370.898	362.69
371.124	372.69
371.35	361.69
371.576	370.69
371.802	341.69
372.028	346.69
372.254	351.69
372.48	361.69
372.706	361.69
372.932	386.69
373.158	379.69
373.384	357.69
373.61	370.69
373.835	344.69
374.061	358.69
374.287	349.69
374.513	351.69
374.739	358.69
374.965	358.69
375.191	362.69
375.416	358.69
375.642	350.69
375.868	350.69
376.094	379.69
376.319	344.69
376.545	375.69
376.771	349.69
376.997	349.69
377.222	365.69
377.448	360.69
377.674	369.69
377.899	341.69
378.125	368.69
378.35	356.69
378.576	345.69
378.802	337.69
379.027	326.69
379.253	352.69
379.478	358.69
379.704	355.69
379.929	346.69
380.155	353.69
380.38	352.69
380.606	368.69
380.831	356.69
381.057	343.69
381.282	348.69
381.507	353.69
381.733	354.69
381.958	357.69
382.184	346.69
382.409	359.69
382.634	352.69
382.86	363.69
383.085	368.69
383.31	384.69
383.535	361.69
383.761	349.69
383.986	364.69
384.211	369.69
384.436	359.69
384.662	372.69
384.887	364.69
385.112	365.69
385.337	363.69
385.562	365.69
385.787	358.69
386.013	375.69
386.238	376.69
386.463	371.69
386.688	376.69
386.913	381.69
387.138	366.69
387.363	365.69
387.588	365.69
387.813	366.69
388.038	354.69
388.263	366.69
388.488	363.69
388.713	372.69
388.938	354.69
389.163	372.69
389.387	369.69
389.612	366.69
389.837	354.69
390.062	385.69
390.287	370.69
390.512	371.69
390.736	379.69
390.961	372.69
391.186	377.69
391.411	361.69
391.636	378.69
391.86	370.69
392.085	380.69
392.31	360.69
392.534	385.69
392.759	370.69
392.984	394.69
393.208	369.69
393.433	365.69
393.658	375.69
393.882	356.69
394.107	362.69
394.331	370.69
394.556	355.69
394.78	386.69
395.005	380.69
395.229	347.69
395.454	357.69
395.678	381.69
395.903	390.69
396.127	388.69
396.352	378.69
396.576	380.69
396.801	371.69
397.025	356.69
397.249	390.69
397.474	386.69
397.698	383.69
397.922	406.69
398.147	384.69
398.371	393.69
398.595	402.69
398.82	402.69
399.044	429.69
399.268	425.69
399.492	442.69
399.717	478.69
399.941	496.69
400.165	514.69
400.389	490.69
400.613	462.69
400.837	421.69
401.062	416.69
401.286	422.69
401.51	417.69
401.734	404.69
401.958	418.69
402.182	422.69
402.406	413.69
402.63	407.69
402.854	412.69
403.078	422.69
403.302	413.69
403.526	413.69
403.75	414.69
403.974	435.69
404.198	395.69
404.422	436.69
404.645	444.69
404.869	428.69
405.093	449.69
405.317	482.69
405.541	517.69
405.765	484.69
405.988	445.69
406.212	474.69
406.436	463.69
406.66	479.69
406.883	468.69
407.107	485.69
407.331	520.69
407.555	564.69
407.778	551.69
408.002	520.69
408.226	481.69
408.449	470.69
408.673	459.69
408.896	493.69
409.12	512.69
409.344	488.69
409.567	455.69
409.791	446.69
410.014	428.69
410.238	424.69
410.461	450.69
410.685	450.69
410.908	452.69
411.132	475.69
411.355	490.69
411.578	472.69
411.802	419.69
412.025	432.69
412.249	421.69
412.472	452.69
412.695	486.69
412.919	457.69
413.142	424.69
413.365	429.69
413.589	421.69
413.812	412.69
414.035	400.69
414.258	409.69
414.482	403.69
414.705	392.69
414.928	404.69
415.151	411.69
415.374	413.69
415.597	390.69
415.821	397.69
416.044	398.69
416.267	412.69
416.49	398.69
416.713	421.69
416.936	394.69
417.159	412.69
417.382	396.69
417.605	406.69
417.828	425.69
418.051	420.69
418.274	411.69
418.497	413.69
418.72	416.69
418.943	410.69
419.166	406.69
419.389	441.69
419.611	421.69
419.834	416.69
420.057	434.69
420.28	441.69
420.503	441.69
420.726	418.69
420.948	438.69
421.171	471.69
421.394	481.69
421.617	468.69
421.839	436.69
422.062	427.69
422.285	427.69
422.507	487.69
422.73	520.69
422.953	526.69
423.175	468.69
423.398	450.69
423.621	422.69
423.843	458.69
424.066	480.69
424.288	450.69
424.511	479.69
424.733	517.69
424.956	582.69
425.178	563.69
425.401	545.69
425.623	558.69
425.846	498.69
426.068	448.69
426.291	447.69
426.513	455.69
426.735	484.69
426.958	478.69
427.18	559.69
427.402	681.69
427.625	730.69
427.847	626.69
428.069	556.69
428.292	520.69
428.514	472.69
428.736	455.69
428.958	430.69
429.181	402.69
429.403	427.69
429.625	417.69
429.847	459.69
430.069	508.69
430.292	512.69
430.514	454.69
430.736	432.69
430.958	414.69
431.18	394.69
431.402	395.69
431.624	402.69
431.846	409.69
432.068	381.69
432.29	385.69
432.512	379.69
432.734	413.69
432.956	407.69
433.178	410.69
433.4	412.69
433.622	397.69
433.844	386.69
434.066	382.69
434.287	400.69
434.509	405.69
434.731	387.69
434.953	409.69
435.175	432.69
435.397	424.69
435.618	442.69
435.84	474.69
436.062	544.69
436.284	636.69
436.505	524.69
436.727	479.69
436.949	450.69
437.17	436.69
437.392	441.69
437.614	450.69
437.835	480.69
438.057	533.69
438.278	618.69
438.5	613.69
438.721	664.69
438.943	632.69
439.165	515.69
439.386	483.69
439.608	487.69
439.829	454.69
440.05	505.69
440.272	514.69
440.493	482.69
440.715	452.69
440.936	434.69
441.158	399.69
441.379	420.69
441.6	448.69
441.822	450.69
442.043	476.69
442.264	552.69
442.486	581.69
442.707	491.69
442.928	477.69
443.149	479.69
443.371	475.69
443.592	500.69
443.813	578.69
444.034	647.69
444.255	542.69
444.476	468.69
444.698	445.69
444.919	433.69
445.14	572.69
445.361	529.69
445.582	505.69
445.803	546.69
446.024	631.69
446.245	626.69
446.466	560.69
446.687	488.69
446.908	454.69
447.129	447.69
447.35	433.69
447.571	407.69
447.792	419.69
448.013	429.69
448.234	442.69
448.455	491.69
448.675	588.69
448.896	649.69
449.117	580.69
449.338	510.69
449.559	635.69
449.779	664.69
450	562.69
450.221	475.69
450.442	435.69
450.662	405.69
450.883	423.69
451.104	435.69
451.324	415.69
451.545	414.69
451.766	387.69
451.986	379.69
452.207	374.69
452.428	362.69
452.648	357.69
452.869	380.69
453.089	376.69
453.31	387.69
453.53	379.69
453.751	390.69
453.971	380.69
454.192	381.69
454.412	384.69
454.633	361.69
454.853	384.69
455.073	364.69
455.294	416.69
455.514	423.69
455.734	434.69
455.955	371.69
456.175	368.69
456.395	357.69
456.616	335.69
456.836	343.69
457.056	355.69
457.276	333.69
457.497	343.69
457.717	344.69
457.937	370.69
458.157	356.69
458.377	362.69
458.598	383.69
458.818	428.69
459.038	482.69
459.258	493.69
459.478	427.69
459.698	372.69
459.918	374.69
460.138	391.69
460.358	386.69
460.578	377.69
460.798	374.69
461.018	381.69
461.238	382.69
461.458	379.69
461.678	370.69
461.898	386.69
462.118	417.69
462.338	386.69
462.558	404.69
462.777	396.69
462.997	404.69
463.217	394.69
463.437	426.69
463.657	385.69
463.876	390.69
464.096	403.69
464.316	398.69
464.536	407.69
464.755	415.69
464.975	428.69
465.195	435.69
465.414	460.69
465.634	444.69
465.854	408.69
466.073	404.69
466.293	391.69
466.512	380.69
466.732	388.69
466.951	380.69
467.171	368.69
467.391	394.69
467.61	365.69
467.829	378.69
468.049	385.69
468.268	398.69
468.488	375.69
468.707	357.69
468.927	372.69
469.146	380.69
469.365	377.69
469.585	382.69
469.804	392.69
470.023	372.69
470.243	401.69
470.462	380.69
470.681	405.69
470.901	397.69
471.12	368.69
471.339	394.69
471.558	399.69
471.777	393.69
471.997	380.69
472.216	395.69
472.435	386.69
472.654	388.69
472.873	384.69
473.092	385.69
473.311	374.69
473.53	388.69
473.749	388.69
473.968	440.69
474.187	524.69
474.406	514.69
474.625	438.69
474.844	393.69
475.063	400.69
475.282	347.69
475.501	392.69
475.72	407.69
475.939	399.69
476.158	402.69
476.377	406.69
476.596	392.69
476.814	413.69
477.033	398.69
477.252	393.69
477.471	405.69
477.69	415.69
477.908	403.69
478.127	427.69
478.346	418.69
478.564	440.69
478.783	397.69
479.002	432.69
479.22	418.69
479.439	448.69
479.658	448.69
479.876	462.69
480.095	456.69
480.313	485.69
480.532	473.69
480.751	462.69
480.969	479.69
481.188	536.69
481.406	511.69
481.624	493.69
481.843	446.69
482.061	438.69
482.28	440.69
482.498	451.69
482.717	456.69
482.935	445.69
483.153	444.69
483.372	446.69
483.59	452.69
483.808	462.69
484.027	436.69
484.245	452.69
484.463	443.69
484.681	441.69
484.9	457.69
485.118	468.69
485.336	456.69
485.554	450.69
485.772	430.69
485.99	448.69
486.209	446.69
486.427	455.69
486.645	457.69
486.863	476.69
487.081	463.69
487.299	488.69
487.517	478.69
487.735	468.69
487.953	475.69
488.171	500.69
488.389	475.69
488.607	477.69
488.825	493.69
489.043	474.69
489.261	470.69
489.479	470.69
489.696	509.69
489.914	495.69
490.132	486.69
490.35	496.69
490.568	515.69
490.786	530.69
491.003	516.69
491.221	512.69
491.439	540.69
491.657	536.69
491.874	545.69
492.092	547.69
492.31	573.69
492.527	566.69
492.745	550.69
492.963	585.69
493.18	553.69
493.398	572.69
493.615	568.69
493.833	575.69
494.05	565.69
494.268	574.69
494.485	566.69
494.703	554.69
494.92	560.69
495.138	562.69
495.355	554.69
495.573	560.69
495.79	577.69
496.008	556.69
496.225	574.69
496.442	569.69
496.66	580.69
496.877	574.69
497.094	577.69
497.312	578.69
497.529	579.69
497.746	566.69
497.963	586.69
498.181	617.69
498.398	619.69
498.615	601.69
498.832	609.69
499.049	626.69
499.267	611.69
499.484	629.69
499.701	692.69
499.918	670.69
500.135	685.69
500.352	750.69
500.569	734.69
500.786	751.69
501.003	735.69
501.22	729.69
501.437	697.69
501.654	697.69
501.871	705.69
502.088	685.69
