Data from 1971.PennyLincolnUp.Lamp.En5.5.200Scan.071719.P1.Scan 2. Changed Angle._HRD10591_15-23-24-842.txt Node
Date: Thu Jul 18 15:23:24 EDT 2019
User: cochatt
Spectrometer: HR+D1059
Trigger mode: 1
Integration Time (sec): 1.000000E-1
Scans to average: 1
Electric dark correction enabled: true
Nonlinearity correction enabled: false
Boxcar width: 0
XAxis mode: Wavelengths
Number of Pixels in Spectrum: 2048
>>>>>Begin Spectral Data<<<<<
223.165	-13.06
223.4	-13.06
223.635	-13.06
223.869	-21.06
224.104	-19.06
224.338	-13.06
224.573	-24.06
224.808	-7.06
225.042	-18.06
225.277	-9.06
225.511	-10.06
225.746	3.94
225.98	10.94
226.215	20.94
226.449	7.94
226.683	22.94
226.918	35.94
227.152	31.94
227.387	29.94
227.621	24.94
227.856	48.94
228.09	48.94
228.324	53.94
228.559	57.94
228.793	66.94
229.027	110.94
229.262	121.94
229.496	122.94
229.73	152.94
229.964	158.94
230.199	130.94
230.433	124.94
230.667	114.94
230.901	132.94
231.136	122.94
231.37	109.94
231.604	125.94
231.838	108.94
232.072	125.94
232.306	104.94
232.541	121.94
232.775	110.94
233.009	129.94
233.243	122.94
233.477	119.94
233.711	111.94
233.945	124.94
234.179	126.94
234.413	122.94
234.647	125.94
234.881	122.94
235.115	100.94
235.349	134.94
235.583	113.94
235.817	123.94
236.051	133.94
236.285	129.94
236.519	123.94
236.753	137.94
236.987	150.94
237.221	194.94
237.455	241.94
237.689	221.94
237.922	147.94
238.156	122.94
238.39	147.94
238.624	114.94
238.858	124.94
239.091	118.94
239.325	132.94
239.559	118.94
239.793	129.94
240.027	144.94
240.26	148.94
240.494	166.94
240.728	167.94
240.961	163.94
241.195	136.94
241.429	142.94
241.662	136.94
241.896	132.94
242.13	134.94
242.363	135.94
242.597	136.94
242.83	143.94
243.064	126.94
243.298	132.94
243.531	149.94
243.765	149.94
243.998	144.94
244.232	153.94
244.465	151.94
244.699	144.94
244.932	157.94
245.166	164.94
245.399	146.94
245.633	137.94
245.866	150.94
246.099	160.94
246.333	145.94
246.566	138.94
246.8	144.94
247.033	153.94
247.266	159.94
247.5	179.94
247.733	176.94
247.966	177.94
248.2	186.94
248.433	185.94
248.666	175.94
248.899	184.94
249.133	204.94
249.366	233.94
249.599	191.94
249.832	186.94
250.066	217.94
250.299	196.94
250.532	207.94
250.765	210.94
250.998	225.94
251.231	253.94
251.465	232.94
251.698	216.94
251.931	218.94
252.164	198.94
252.397	215.94
252.63	205.94
252.863	225.94
253.096	236.94
253.329	247.94
253.562	232.94
253.795	232.94
254.028	234.94
254.261	233.94
254.494	225.94
254.727	281.94
254.96	298.94
255.193	285.94
255.426	262.94
255.659	234.94
255.892	222.94
256.124	244.94
256.357	250.94
256.59	228.94
256.823	215.94
257.056	218.94
257.289	219.94
257.521	234.94
257.754	218.94
257.987	221.94
258.22	222.94
258.452	207.94
258.685	203.94
258.918	191.94
259.151	213.94
259.383	241.94
259.616	224.94
259.849	231.94
260.081	233.94
260.314	269.94
260.547	264.94
260.779	250.94
261.012	229.94
261.244	244.94
261.477	228.94
261.71	223.94
261.942	241.94
262.175	243.94
262.407	258.94
262.64	234.94
262.872	221.94
263.105	215.94
263.337	218.94
263.57	244.94
263.802	205.94
264.035	222.94
264.267	206.94
264.499	185.94
264.732	201.94
264.964	196.94
265.197	219.94
265.429	224.94
265.661	225.94
265.894	200.94
266.126	220.94
266.358	217.94
266.591	213.94
266.823	242.94
267.055	233.94
267.287	221.94
267.52	215.94
267.752	224.94
267.984	232.94
268.216	235.94
268.448	225.94
268.681	239.94
268.913	236.94
269.145	253.94
269.377	274.94
269.609	278.94
269.841	297.94
270.073	260.94
270.306	300.94
270.538	311.94
270.77	316.94
271.002	321.94
271.234	309.94
271.466	314.94
271.698	318.94
271.93	336.94
272.162	324.94
272.394	330.94
272.626	322.94
272.858	288.94
273.09	279.94
273.322	264.94
273.553	253.94
273.785	262.94
274.017	258.94
274.249	270.94
274.481	284.94
274.713	276.94
274.945	257.94
275.176	275.94
275.408	273.94
275.64	266.94
275.872	256.94
276.104	248.94
276.335	256.94
276.567	260.94
276.799	281.94
277.031	288.94
277.262	307.94
277.494	316.94
277.726	296.94
277.957	280.94
278.189	282.94
278.421	267.94
278.652	269.94
278.884	268.94
279.115	252.94
279.347	259.94
279.579	235.94
279.81	244.94
280.042	259.94
280.273	249.94
280.505	269.94
280.736	265.94
280.968	252.94
281.199	253.94
281.431	269.94
281.662	259.94
281.894	274.94
282.125	256.94
282.356	277.94
282.588	298.94
282.819	312.94
283.051	280.94
283.282	259.94
283.513	249.94
283.745	273.94
283.976	276.94
284.207	268.94
284.439	262.94
284.67	263.94
284.901	258.94
285.132	262.94
285.364	262.94
285.595	275.94
285.826	240.94
286.057	255.94
286.288	245.94
286.52	256.94
286.751	269.94
286.982	260.94
287.213	256.94
287.444	261.94
287.675	269.94
287.906	286.94
288.138	285.94
288.369	283.94
288.6	298.94
288.831	281.94
289.062	289.94
289.293	281.94
289.524	262.94
289.755	262.94
289.986	290.94
290.217	273.94
290.448	269.94
290.679	279.94
290.91	272.94
291.141	276.94
291.371	248.94
291.602	256.94
291.833	281.94
292.064	294.94
292.295	265.94
292.526	284.94
292.757	280.94
292.987	267.94
293.218	267.94
293.449	282.94
293.68	255.94
293.91	256.94
294.141	266.94
294.372	262.94
294.603	277.94
294.833	268.94
295.064	258.94
295.295	283.94
295.525	274.94
295.756	283.94
295.987	301.94
296.217	302.94
296.448	334.94
296.679	285.94
296.909	276.94
297.14	278.94
297.37	268.94
297.601	278.94
297.831	280.94
298.062	271.94
298.292	265.94
298.523	295.94
298.753	283.94
298.984	273.94
299.214	284.94
299.445	272.94
299.675	309.94
299.905	306.94
300.136	300.94
300.366	301.94
300.597	293.94
300.827	312.94
301.057	298.94
301.288	323.94
301.518	308.94
301.748	302.94
301.979	306.94
302.209	314.94
302.439	314.94
302.669	291.94
302.9	299.94
303.13	291.94
303.36	312.94
303.59	313.94
303.82	339.94
304.051	300.94
304.281	318.94
304.511	321.94
304.741	306.94
304.971	312.94
305.201	300.94
305.431	302.94
305.661	313.94
305.891	309.94
306.121	302.94
306.352	318.94
306.582	314.94
306.812	308.94
307.042	315.94
307.272	296.94
307.502	323.94
307.731	315.94
307.961	314.94
308.191	299.94
308.421	322.94
308.651	306.94
308.881	316.94
309.111	326.94
309.341	325.94
309.571	330.94
309.8	352.94
310.03	357.94
310.26	382.94
310.49	370.94
310.72	382.94
310.949	413.94
311.179	394.94
311.409	391.94
311.639	382.94
311.868	369.94
312.098	364.94
312.328	390.94
312.557	386.94
312.787	412.94
313.017	389.94
313.246	391.94
313.476	371.94
313.706	380.94
313.935	366.94
314.165	375.94
314.394	396.94
314.624	401.94
314.853	382.94
315.083	357.94
315.312	367.94
315.542	364.94
315.771	347.94
316.001	350.94
316.23	360.94
316.46	369.94
316.689	349.94
316.919	370.94
317.148	380.94
317.377	363.94
317.607	352.94
317.836	368.94
318.065	358.94
318.295	366.94
318.524	371.94
318.753	377.94
318.983	398.94
319.212	368.94
319.441	373.94
319.67	379.94
319.9	376.94
320.129	379.94
320.358	365.94
320.587	382.94
320.816	391.94
321.046	388.94
321.275	412.94
321.504	396.94
321.733	387.94
321.962	398.94
322.191	429.94
322.42	443.94
322.649	449.94
322.878	458.94
323.108	487.94
323.337	488.94
323.566	517.94
323.795	572.94
324.024	600.94
324.253	783.94
324.482	1098.94
324.71	1748.94
324.939	2520.94
325.168	2137.94
325.397	1142.94
325.626	747.94
325.855	609.94
326.084	566.94
326.313	534.94
326.542	534.94
326.77	578.94
326.999	712.94
327.228	1012.94
327.457	1492.94
327.686	1872.94
327.914	1231.94
328.143	818.94
328.372	679.94
328.6	653.94
328.829	612.94
329.058	610.94
329.287	649.94
329.515	595.94
329.744	536.94
329.972	519.94
330.201	562.94
330.43	583.94
330.658	619.94
330.887	676.94
331.115	639.94
331.344	539.94
331.572	499.94
331.801	516.94
332.03	496.94
332.258	463.94
332.486	448.94
332.715	453.94
332.943	443.94
333.172	446.94
333.4	459.94
333.629	460.94
333.857	476.94
334.085	469.94
334.314	477.94
334.542	516.94
334.771	523.94
334.999	492.94
335.227	483.94
335.455	445.94
335.684	418.94
335.912	444.94
336.14	429.94
336.369	436.94
336.597	456.94
336.825	436.94
337.053	426.94
337.281	422.94
337.51	428.94
337.738	428.94
337.966	410.94
338.194	441.94
338.422	416.94
338.65	446.94
338.878	429.94
339.106	426.94
339.334	429.94
339.562	430.94
339.79	412.94
340.018	400.94
340.246	413.94
340.474	425.94
340.702	439.94
340.93	416.94
341.158	420.94
341.386	422.94
341.614	411.94
341.842	416.94
342.07	416.94
342.298	413.94
342.526	423.94
342.754	394.94
342.981	391.94
343.209	395.94
343.437	409.94
343.665	413.94
343.893	418.94
344.12	424.94
344.348	410.94
344.576	428.94
344.804	438.94
345.031	451.94
345.259	444.94
345.487	434.94
345.714	422.94
345.942	418.94
346.17	416.94
346.397	400.94
346.625	425.94
346.853	386.94
347.08	428.94
347.308	405.94
347.535	419.94
347.763	450.94
347.99	430.94
348.218	440.94
348.445	432.94
348.673	429.94
348.9	434.94
349.128	412.94
349.355	390.94
349.583	397.94
349.81	402.94
350.037	397.94
350.265	406.94
350.492	390.94
350.72	417.94
350.947	411.94
351.174	423.94
351.402	424.94
351.629	449.94
351.856	435.94
352.083	432.94
352.311	426.94
352.538	457.94
352.765	439.94
352.992	417.94
353.22	436.94
353.447	428.94
353.674	427.94
353.901	381.94
354.128	394.94
354.355	384.94
354.583	381.94
354.81	398.94
355.037	394.94
355.264	395.94
355.491	370.94
355.718	380.94
355.945	381.94
356.172	378.94
356.399	353.94
356.626	387.94
356.853	354.94
357.08	394.94
357.307	390.94
357.534	375.94
357.761	394.94
357.988	379.94
358.215	372.94
358.441	394.94
358.668	377.94
358.895	390.94
359.122	397.94
359.349	413.94
359.576	434.94
359.802	452.94
360.029	494.94
360.256	501.94
360.483	474.94
360.709	425.94
360.936	438.94
361.163	415.94
361.39	403.94
361.616	440.94
361.843	434.94
362.07	442.94
362.296	470.94
362.523	420.94
362.749	423.94
362.976	404.94
363.203	420.94
363.429	409.94
363.656	419.94
363.882	410.94
364.109	392.94
364.335	387.94
364.562	403.94
364.788	398.94
365.015	408.94
365.241	416.94
365.468	397.94
365.694	420.94
365.92	412.94
366.147	406.94
366.373	425.94
366.599	417.94
366.826	388.94
367.052	388.94
367.278	404.94
367.505	400.94
367.731	390.94
367.957	419.94
368.184	410.94
368.41	408.94
368.636	415.94
368.862	438.94
369.089	423.94
369.315	404.94
369.541	394.94
369.767	415.94
369.993	388.94
370.219	400.94
370.445	406.94
370.672	398.94
370.898	406.94
371.124	403.94
371.35	390.94
371.576	388.94
371.802	415.94
372.028	397.94
372.254	382.94
372.48	385.94
372.706	403.94
372.932	416.94
373.158	404.94
373.384	402.94
373.61	387.94
373.835	398.94
374.061	397.94
374.287	398.94
374.513	419.94
374.739	392.94
374.965	402.94
375.191	426.94
375.416	400.94
375.642	386.94
375.868	395.94
376.094	388.94
376.319	410.94
376.545	423.94
376.771	395.94
376.997	391.94
377.222	382.94
377.448	383.94
377.674	398.94
377.899	402.94
378.125	391.94
378.35	405.94
378.576	411.94
378.802	396.94
379.027	396.94
379.253	417.94
379.478	394.94
379.704	398.94
379.929	394.94
380.155	414.94
380.38	402.94
380.606	407.94
380.831	405.94
381.057	408.94
381.282	410.94
381.507	396.94
381.733	424.94
381.958	406.94
382.184	418.94
382.409	403.94
382.634	410.94
382.86	405.94
383.085	407.94
383.31	401.94
383.535	425.94
383.761	432.94
383.986	440.94
384.211	416.94
384.436	411.94
384.662	404.94
384.887	421.94
385.112	421.94
385.337	410.94
385.562	426.94
385.787	421.94
386.013	430.94
386.238	455.94
386.463	427.94
386.688	437.94
386.913	434.94
387.138	443.94
387.363	429.94
387.588	432.94
387.813	421.94
388.038	436.94
388.263	422.94
388.488	424.94
388.713	418.94
388.938	426.94
389.163	441.94
389.387	448.94
389.612	426.94
389.837	436.94
390.062	432.94
390.287	421.94
390.512	416.94
390.736	418.94
390.961	422.94
391.186	426.94
391.411	433.94
391.636	441.94
391.86	435.94
392.085	451.94
392.31	443.94
392.534	435.94
392.759	424.94
392.984	440.94
393.208	457.94
393.433	456.94
393.658	446.94
393.882	445.94
394.107	448.94
394.331	447.94
394.556	447.94
394.78	437.94
395.005	441.94
395.229	446.94
395.454	467.94
395.678	451.94
395.903	467.94
396.127	459.94
396.352	482.94
396.576	462.94
396.801	457.94
397.025	477.94
397.249	451.94
397.474	472.94
397.698	472.94
397.922	486.94
398.147	484.94
398.371	505.94
398.595	497.94
398.82	465.94
399.044	500.94
399.268	480.94
399.492	535.94
399.717	525.94
399.941	578.94
400.165	613.94
400.389	603.94
400.613	580.94
400.837	549.94
401.062	495.94
401.286	520.94
401.51	499.94
401.734	513.94
401.958	493.94
402.182	483.94
402.406	522.94
402.63	520.94
402.854	512.94
403.078	528.94
403.302	528.94
403.526	521.94
403.75	524.94
403.974	513.94
404.198	518.94
404.422	534.94
404.645	546.94
404.869	504.94
405.093	528.94
405.317	611.94
405.541	638.94
405.765	600.94
405.988	566.94
406.212	570.94
406.436	585.94
406.66	615.94
406.883	590.94
407.107	601.94
407.331	640.94
407.555	708.94
407.778	699.94
408.002	649.94
408.226	570.94
408.449	577.94
408.673	587.94
408.896	621.94
409.12	649.94
409.344	609.94
409.567	561.94
409.791	521.94
410.014	522.94
410.238	521.94
410.461	548.94
410.685	544.94
410.908	563.94
411.132	596.94
411.355	609.94
411.578	606.94
411.802	545.94
412.025	522.94
412.249	546.94
412.472	559.94
412.695	620.94
412.919	601.94
413.142	565.94
413.365	517.94
413.589	528.94
413.812	518.94
414.035	499.94
414.258	481.94
414.482	486.94
414.705	503.94
414.928	501.94
415.151	508.94
415.374	512.94
415.597	520.94
415.821	488.94
416.044	481.94
416.267	503.94
416.49	508.94
416.713	521.94
416.936	508.94
417.159	510.94
417.382	522.94
417.605	498.94
417.828	539.94
418.051	536.94
418.274	520.94
418.497	522.94
418.72	498.94
418.943	539.94
419.166	530.94
419.389	538.94
419.611	542.94
419.834	538.94
420.057	562.94
420.28	537.94
420.503	540.94
420.726	541.94
420.948	563.94
421.171	608.94
421.394	611.94
421.617	558.94
421.839	549.94
422.062	536.94
422.285	568.94
422.507	627.94
422.73	706.94
422.953	667.94
423.175	580.94
423.398	581.94
423.621	560.94
423.843	586.94
424.066	582.94
424.288	595.94
424.511	617.94
424.733	661.94
424.956	745.94
425.178	726.94
425.401	718.94
425.623	742.94
425.846	640.94
426.068	583.94
426.291	584.94
426.513	590.94
426.735	608.94
426.958	650.94
427.18	744.94
427.402	885.94
427.625	984.94
427.847	898.94
428.069	753.94
428.292	662.94
428.514	613.94
428.736	587.94
428.958	578.94
429.181	553.94
429.403	519.94
429.625	594.94
429.847	588.94
430.069	669.94
430.292	714.94
430.514	572.94
430.736	556.94
430.958	543.94
431.18	542.94
431.402	516.94
431.624	515.94
431.846	520.94
432.068	499.94
432.29	526.94
432.512	524.94
432.734	532.94
432.956	535.94
433.178	547.94
433.4	562.94
433.622	505.94
433.844	515.94
434.066	509.94
434.287	506.94
434.509	493.94
434.731	524.94
434.953	528.94
435.175	539.94
435.397	581.94
435.618	600.94
435.84	644.94
436.062	756.94
436.284	788.94
436.505	709.94
436.727	624.94
436.949	603.94
437.17	564.94
437.392	545.94
437.614	589.94
437.835	617.94
438.057	763.94
438.278	855.94
438.5	856.94
438.721	897.94
438.943	885.94
439.165	691.94
439.386	624.94
439.608	629.94
439.829	624.94
440.05	658.94
440.272	726.94
440.493	685.94
440.715	613.94
440.936	583.94
441.158	544.94
441.379	553.94
441.6	572.94
441.822	604.94
442.043	654.94
442.264	741.94
442.486	769.94
442.707	654.94
442.928	628.94
443.149	622.94
443.371	668.94
443.592	676.94
443.813	820.94
444.034	859.94
444.255	715.94
444.476	624.94
444.698	589.94
444.919	599.94
445.14	687.94
445.361	642.94
445.582	634.94
445.803	725.94
446.024	850.94
446.245	845.94
446.466	742.94
446.687	644.94
446.908	635.94
447.129	601.94
447.35	582.94
447.571	561.94
447.792	549.94
448.013	573.94
448.234	600.94
448.455	648.94
448.675	772.94
448.896	925.94
449.117	771.94
449.338	715.94
449.559	820.94
449.779	922.94
450	740.94
450.221	642.94
450.442	593.94
450.662	554.94
450.883	564.94
451.104	583.94
451.324	573.94
451.545	530.94
451.766	533.94
451.986	505.94
452.207	513.94
452.428	486.94
452.648	489.94
452.869	482.94
453.089	538.94
453.31	547.94
453.53	502.94
453.751	518.94
453.971	515.94
454.192	506.94
454.412	536.94
454.633	499.94
454.853	485.94
455.073	491.94
455.294	523.94
455.514	604.94
455.734	582.94
455.955	511.94
456.175	479.94
456.395	487.94
456.616	472.94
456.836	461.94
457.056	462.94
457.276	459.94
457.497	481.94
457.717	455.94
457.937	472.94
458.157	465.94
458.377	485.94
458.598	493.94
458.818	582.94
459.038	703.94
459.258	695.94
459.478	580.94
459.698	518.94
459.918	481.94
460.138	492.94
460.358	527.94
460.578	505.94
460.798	520.94
461.018	512.94
461.238	514.94
461.458	497.94
461.678	489.94
461.898	532.94
462.118	499.94
462.338	519.94
462.558	519.94
462.777	517.94
462.997	526.94
463.217	551.94
463.437	545.94
463.657	551.94
463.876	519.94
464.096	547.94
464.316	532.94
464.536	551.94
464.755	550.94
464.975	561.94
465.195	613.94
465.414	722.94
465.634	631.94
465.854	557.94
466.073	548.94
466.293	535.94
466.512	503.94
466.732	507.94
466.951	515.94
467.171	502.94
467.391	484.94
467.61	513.94
467.829	532.94
468.049	525.94
468.268	530.94
468.488	496.94
468.707	502.94
468.927	490.94
469.146	482.94
469.365	496.94
469.585	484.94
469.804	506.94
470.023	534.94
470.243	508.94
470.462	527.94
470.681	572.94
470.901	553.94
471.12	519.94
471.339	523.94
471.558	524.94
471.777	490.94
471.997	522.94
472.216	521.94
472.435	541.94
472.654	531.94
472.873	505.94
473.092	514.94
473.311	508.94
473.53	491.94
473.749	541.94
473.968	579.94
474.187	674.94
474.406	717.94
474.625	597.94
474.844	545.94
475.063	534.94
475.282	533.94
475.501	532.94
475.72	545.94
475.939	543.94
476.158	535.94
476.377	528.94
476.596	532.94
476.814	540.94
477.033	557.94
477.252	555.94
477.471	560.94
477.69	554.94
477.908	558.94
478.127	584.94
478.346	555.94
478.564	564.94
478.783	572.94
479.002	556.94
479.22	573.94
479.439	617.94
479.658	619.94
479.876	617.94
480.095	629.94
480.313	636.94
480.532	644.94
480.751	638.94
480.969	668.94
481.188	725.94
481.406	754.94
481.624	672.94
481.843	640.94
482.061	613.94
482.28	609.94
482.498	628.94
482.717	634.94
482.935	624.94
483.153	628.94
483.372	611.94
483.59	650.94
483.808	618.94
484.027	624.94
484.245	582.94
484.463	644.94
484.681	635.94
484.9	600.94
485.118	656.94
485.336	631.94
485.554	614.94
485.772	644.94
485.99	643.94
486.209	652.94
486.427	646.94
486.645	662.94
486.863	694.94
487.081	707.94
487.299	665.94
487.517	690.94
487.735	675.94
487.953	660.94
488.171	669.94
488.389	654.94
488.607	663.94
488.825	660.94
489.043	654.94
489.261	685.94
489.479	672.94
489.696	669.94
489.914	691.94
490.132	707.94
490.35	714.94
490.568	704.94
490.786	720.94
491.003	754.94
491.221	758.94
491.439	772.94
491.657	756.94
491.874	798.94
492.092	805.94
492.31	803.94
492.527	755.94
492.745	819.94
492.963	804.94
493.18	791.94
493.398	818.94
493.615	794.94
493.833	797.94
494.05	806.94
494.268	781.94
494.485	787.94
494.703	810.94
494.92	797.94
495.138	806.94
495.355	799.94
495.573	828.94
495.79	814.94
496.008	797.94
496.225	802.94
496.442	816.94
496.66	812.94
496.877	825.94
497.094	792.94
497.312	836.94
497.529	820.94
497.746	843.94
497.963	847.94
498.181	855.94
498.398	864.94
498.615	824.94
498.832	909.94
499.049	883.94
499.267	889.94
499.484	911.94
499.701	910.94
499.918	954.94
500.135	992.94
500.352	988.94
500.569	1001.94
500.786	1004.94
501.003	985.94
501.22	988.94
501.437	981.94
