Data from 1971.PennyLincolnUp.Lamp.En5.5.200Scan.071719.P1._HRD10591_15-17-53-841.txt Node
Date: Thu Jul 18 15:17:53 EDT 2019
User: cochatt
Spectrometer: HR+D1059
Trigger mode: 1
Integration Time (sec): 1.000000E-1
Scans to average: 1
Electric dark correction enabled: true
Nonlinearity correction enabled: false
Boxcar width: 0
XAxis mode: Wavelengths
Number of Pixels in Spectrum: 2048
>>>>>Begin Spectral Data<<<<<
223.165	-8.62
223.4	-8.62
223.635	-8.62
223.869	-4.62
224.104	-22.62
224.338	-18.62
224.573	-20.62
224.808	-23.62
225.042	-6.62
225.277	-4.62
225.511	-9.62
225.746	1.38
225.98	9.38
226.215	15.38
226.449	16.38
226.683	22.38
226.918	25.38
227.152	29.38
227.387	44.38
227.621	37.38
227.856	47.38
228.09	42.38
228.324	39.38
228.559	51.38
228.793	64.38
229.027	91.38
229.262	96.38
229.496	100.38
229.73	115.38
229.964	115.38
230.199	118.38
230.433	99.38
230.667	109.38
230.901	93.38
231.136	96.38
231.37	102.38
231.604	101.38
231.838	117.38
232.072	109.38
232.306	107.38
232.541	107.38
232.775	94.38
233.009	110.38
233.243	102.38
233.477	92.38
233.711	102.38
233.945	103.38
234.179	123.38
234.413	129.38
234.647	117.38
234.881	105.38
235.115	101.38
235.349	121.38
235.583	119.38
235.817	95.38
236.051	104.38
236.285	109.38
236.519	101.38
236.753	111.38
236.987	126.38
237.221	144.38
237.455	160.38
237.689	148.38
237.922	115.38
238.156	117.38
238.39	111.38
238.624	115.38
238.858	95.38
239.091	102.38
239.325	115.38
239.559	118.38
239.793	111.38
240.027	106.38
240.26	133.38
240.494	126.38
240.728	133.38
240.961	135.38
241.195	134.38
241.429	137.38
241.662	131.38
241.896	117.38
242.13	124.38
242.363	138.38
242.597	127.38
242.83	119.38
243.064	113.38
243.298	123.38
243.531	133.38
243.765	126.38
243.998	125.38
244.232	121.38
244.465	132.38
244.699	143.38
244.932	134.38
245.166	129.38
245.399	137.38
245.633	128.38
245.866	142.38
246.099	122.38
246.333	144.38
246.566	124.38
246.8	149.38
247.033	149.38
247.266	135.38
247.5	140.38
247.733	158.38
247.966	154.38
248.2	146.38
248.433	159.38
248.666	151.38
248.899	136.38
249.133	151.38
249.366	187.38
249.599	188.38
249.832	179.38
250.066	149.38
250.299	168.38
250.532	169.38
250.765	161.38
250.998	184.38
251.231	205.38
251.465	187.38
251.698	197.38
251.931	170.38
252.164	170.38
252.397	176.38
252.63	189.38
252.863	188.38
253.096	191.38
253.329	185.38
253.562	196.38
253.795	189.38
254.028	188.38
254.261	206.38
254.494	199.38
254.727	207.38
254.96	246.38
255.193	219.38
255.426	211.38
255.659	199.38
255.892	198.38
256.124	197.38
256.357	196.38
256.59	204.38
256.823	200.38
257.056	192.38
257.289	183.38
257.521	183.38
257.754	187.38
257.987	167.38
258.22	185.38
258.452	190.38
258.685	203.38
258.918	196.38
259.151	198.38
259.383	194.38
259.616	204.38
259.849	213.38
260.081	189.38
260.314	222.38
260.547	220.38
260.779	215.38
261.012	216.38
261.244	198.38
261.477	206.38
261.71	201.38
261.942	197.38
262.175	201.38
262.407	200.38
262.64	196.38
262.872	189.38
263.105	171.38
263.337	190.38
263.57	193.38
263.802	190.38
264.035	191.38
264.267	199.38
264.499	207.38
264.732	198.38
264.964	211.38
265.197	189.38
265.429	196.38
265.661	192.38
265.894	192.38
266.126	197.38
266.358	203.38
266.591	207.38
266.823	203.38
267.055	190.38
267.287	218.38
267.52	196.38
267.752	196.38
267.984	204.38
268.216	213.38
268.448	212.38
268.681	201.38
268.913	211.38
269.145	226.38
269.377	220.38
269.609	245.38
269.841	237.38
270.073	234.38
270.306	252.38
270.538	258.38
270.77	239.38
271.002	249.38
271.234	256.38
271.466	259.38
271.698	249.38
271.93	254.38
272.162	269.38
272.394	266.38
272.626	261.38
272.858	262.38
273.09	244.38
273.322	238.38
273.553	231.38
273.785	230.38
274.017	228.38
274.249	233.38
274.481	238.38
274.713	231.38
274.945	223.38
275.176	223.38
275.408	235.38
275.64	223.38
275.872	232.38
276.104	246.38
276.335	229.38
276.567	237.38
276.799	233.38
277.031	253.38
277.262	273.38
277.494	268.38
277.726	240.38
277.957	259.38
278.189	254.38
278.421	248.38
278.652	254.38
278.884	254.38
279.115	248.38
279.347	244.38
279.579	237.38
279.81	239.38
280.042	223.38
280.273	213.38
280.505	233.38
280.736	240.38
280.968	235.38
281.199	237.38
281.431	237.38
281.662	235.38
281.894	248.38
282.125	240.38
282.356	244.38
282.588	261.38
282.819	248.38
283.051	232.38
283.282	237.38
283.513	232.38
283.745	243.38
283.976	236.38
284.207	257.38
284.439	239.38
284.67	235.38
284.901	256.38
285.132	251.38
285.364	244.38
285.595	243.38
285.826	255.38
286.057	243.38
286.288	236.38
286.52	248.38
286.751	241.38
286.982	235.38
287.213	267.38
287.444	257.38
287.675	246.38
287.906	267.38
288.138	263.38
288.369	277.38
288.6	264.38
288.831	274.38
289.062	253.38
289.293	265.38
289.524	251.38
289.755	261.38
289.986	254.38
290.217	243.38
290.448	248.38
290.679	245.38
290.91	248.38
291.141	278.38
291.371	270.38
291.602	262.38
291.833	260.38
292.064	239.38
292.295	249.38
292.526	255.38
292.757	257.38
292.987	262.38
293.218	273.38
293.449	259.38
293.68	260.38
293.91	270.38
294.141	265.38
294.372	257.38
294.603	253.38
294.833	250.38
295.064	249.38
295.295	248.38
295.525	257.38
295.756	266.38
295.987	255.38
296.217	240.38
296.448	291.38
296.679	262.38
296.909	254.38
297.14	267.38
297.37	251.38
297.601	262.38
297.831	274.38
298.062	263.38
298.292	276.38
298.523	271.38
298.753	265.38
298.984	264.38
299.214	277.38
299.445	256.38
299.675	291.38
299.905	269.38
300.136	263.38
300.366	281.38
300.597	291.38
300.827	253.38
301.057	273.38
301.288	286.38
301.518	293.38
301.748	284.38
301.979	293.38
302.209	296.38
302.439	281.38
302.669	308.38
302.9	295.38
303.13	294.38
303.36	279.38
303.59	300.38
303.82	314.38
304.051	302.38
304.281	286.38
304.511	281.38
304.741	279.38
304.971	309.38
305.201	288.38
305.431	281.38
305.661	297.38
305.891	279.38
306.121	288.38
306.352	287.38
306.582	289.38
306.812	295.38
307.042	296.38
307.272	280.38
307.502	300.38
307.731	304.38
307.961	291.38
308.191	300.38
308.421	293.38
308.651	298.38
308.881	300.38
309.111	303.38
309.341	292.38
309.571	312.38
309.8	292.38
310.03	331.38
310.26	310.38
310.49	303.38
310.72	305.38
310.949	320.38
311.179	323.38
311.409	311.38
311.639	301.38
311.868	309.38
312.098	310.38
312.328	320.38
312.557	320.38
312.787	324.38
313.017	332.38
313.246	313.38
313.476	301.38
313.706	321.38
313.935	327.38
314.165	311.38
314.394	323.38
314.624	320.38
314.853	329.38
315.083	333.38
315.312	328.38
315.542	309.38
315.771	304.38
316.001	309.38
316.23	311.38
316.46	346.38
316.689	322.38
316.919	318.38
317.148	328.38
317.377	332.38
317.607	334.38
317.836	337.38
318.065	328.38
318.295	312.38
318.524	330.38
318.753	325.38
318.983	329.38
319.212	311.38
319.441	323.38
319.67	334.38
319.9	319.38
320.129	305.38
320.358	317.38
320.587	332.38
320.816	327.38
321.046	325.38
321.275	359.38
321.504	347.38
321.733	325.38
321.962	344.38
322.191	343.38
322.42	357.38
322.649	341.38
322.878	362.38
323.108	367.38
323.337	380.38
323.566	378.38
323.795	394.38
324.024	427.38
324.253	493.38
324.482	665.38
324.71	967.38
324.939	1297.38
325.168	1133.38
325.397	621.38
325.626	458.38
325.855	421.38
326.084	385.38
326.313	393.38
326.542	391.38
326.77	416.38
326.999	472.38
327.228	625.38
327.457	850.38
327.686	1005.38
327.914	696.38
328.143	503.38
328.372	444.38
328.6	413.38
328.829	414.38
329.058	407.38
329.287	417.38
329.515	391.38
329.744	387.38
329.972	391.38
330.201	404.38
330.43	387.38
330.658	418.38
330.887	432.38
331.115	405.38
331.344	397.38
331.572	401.38
331.801	380.38
332.03	377.38
332.258	382.38
332.486	373.38
332.715	375.38
332.943	373.38
333.172	368.38
333.4	375.38
333.629	365.38
333.857	382.38
334.085	381.38
334.314	387.38
334.542	379.38
334.771	403.38
334.999	397.38
335.227	374.38
335.455	366.38
335.684	381.38
335.912	383.38
336.14	367.38
336.369	378.38
336.597	382.38
336.825	372.38
337.053	345.38
337.281	364.38
337.51	326.38
337.738	371.38
337.966	357.38
338.194	364.38
338.422	361.38
338.65	359.38
338.878	363.38
339.106	340.38
339.334	343.38
339.562	340.38
339.79	349.38
340.018	335.38
340.246	353.38
340.474	373.38
340.702	355.38
340.93	373.38
341.158	361.38
341.386	348.38
341.614	357.38
341.842	342.38
342.07	345.38
342.298	346.38
342.526	359.38
342.754	329.38
342.981	350.38
343.209	347.38
343.437	352.38
343.665	364.38
343.893	366.38
344.12	362.38
344.348	358.38
344.576	363.38
344.804	361.38
345.031	361.38
345.259	369.38
345.487	347.38
345.714	352.38
345.942	337.38
346.17	325.38
346.397	331.38
346.625	339.38
346.853	348.38
347.08	336.38
347.308	348.38
347.535	338.38
347.763	345.38
347.99	353.38
348.218	336.38
348.445	343.38
348.673	346.38
348.9	341.38
349.128	341.38
349.355	326.38
349.583	341.38
349.81	332.38
350.037	339.38
350.265	327.38
350.492	344.38
350.72	323.38
350.947	337.38
351.174	325.38
351.402	340.38
351.629	333.38
351.856	349.38
352.083	344.38
352.311	359.38
352.538	329.38
352.765	342.38
352.992	339.38
353.22	328.38
353.447	341.38
353.674	329.38
353.901	316.38
354.128	323.38
354.355	326.38
354.583	321.38
354.81	318.38
355.037	306.38
355.264	317.38
355.491	315.38
355.718	319.38
355.945	309.38
356.172	311.38
356.399	289.38
356.626	311.38
356.853	303.38
357.08	308.38
357.307	305.38
357.534	319.38
357.761	316.38
357.988	314.38
358.215	319.38
358.441	314.38
358.668	326.38
358.895	318.38
359.122	325.38
359.349	312.38
359.576	327.38
359.802	338.38
360.029	341.38
360.256	343.38
360.483	349.38
360.709	318.38
360.936	331.38
361.163	316.38
361.39	337.38
361.616	327.38
361.843	330.38
362.07	319.38
362.296	329.38
362.523	327.38
362.749	321.38
362.976	311.38
363.203	314.38
363.429	329.38
363.656	307.38
363.882	318.38
364.109	312.38
364.335	296.38
364.562	327.38
364.788	321.38
365.015	310.38
365.241	327.38
365.468	328.38
365.694	318.38
365.92	327.38
366.147	317.38
366.373	316.38
366.599	308.38
366.826	314.38
367.052	318.38
367.278	303.38
367.505	310.38
367.731	321.38
367.957	312.38
368.184	299.38
368.41	320.38
368.636	337.38
368.862	320.38
369.089	309.38
369.315	307.38
369.541	298.38
369.767	315.38
369.993	322.38
370.219	304.38
370.445	325.38
370.672	318.38
370.898	315.38
371.124	315.38
371.35	310.38
371.576	321.38
371.802	348.38
372.028	311.38
372.254	299.38
372.48	304.38
372.706	307.38
372.932	309.38
373.158	313.38
373.384	340.38
373.61	328.38
373.835	329.38
374.061	316.38
374.287	321.38
374.513	314.38
374.739	302.38
374.965	327.38
375.191	309.38
375.416	331.38
375.642	336.38
375.868	327.38
376.094	322.38
376.319	312.38
376.545	309.38
376.771	339.38
376.997	309.38
377.222	313.38
377.448	316.38
377.674	295.38
377.899	300.38
378.125	320.38
378.35	316.38
378.576	315.38
378.802	325.38
379.027	305.38
379.253	309.38
379.478	307.38
379.704	303.38
379.929	294.38
380.155	312.38
380.38	310.38
380.606	319.38
380.831	313.38
381.057	320.38
381.282	323.38
381.507	333.38
381.733	328.38
381.958	301.38
382.184	321.38
382.409	316.38
382.634	295.38
382.86	319.38
383.085	307.38
383.31	317.38
383.535	336.38
383.761	329.38
383.986	318.38
384.211	333.38
384.436	323.38
384.662	313.38
384.887	319.38
385.112	316.38
385.337	342.38
385.562	328.38
385.787	337.38
386.013	347.38
386.238	343.38
386.463	343.38
386.688	323.38
386.913	317.38
387.138	328.38
387.363	320.38
387.588	308.38
387.813	326.38
388.038	326.38
388.263	346.38
388.488	323.38
388.713	334.38
388.938	317.38
389.163	329.38
389.387	330.38
389.612	310.38
389.837	312.38
390.062	314.38
390.287	342.38
390.512	309.38
390.736	341.38
390.961	317.38
391.186	342.38
391.411	347.38
391.636	335.38
391.86	350.38
392.085	337.38
392.31	337.38
392.534	327.38
392.759	328.38
392.984	352.38
393.208	347.38
393.433	350.38
393.658	343.38
393.882	317.38
394.107	345.38
394.331	333.38
394.556	316.38
394.78	336.38
395.005	335.38
395.229	363.38
395.454	339.38
395.678	359.38
395.903	328.38
396.127	364.38
396.352	352.38
396.576	368.38
396.801	326.38
397.025	378.38
397.249	345.38
397.474	356.38
397.698	343.38
397.922	357.38
398.147	356.38
398.371	352.38
398.595	348.38
398.82	363.38
399.044	367.38
399.268	383.38
399.492	381.38
399.717	409.38
399.941	406.38
400.165	449.38
400.389	451.38
400.613	407.38
400.837	388.38
401.062	365.38
401.286	383.38
401.51	360.38
401.734	377.38
401.958	364.38
402.182	350.38
402.406	352.38
402.63	360.38
402.854	376.38
403.078	360.38
403.302	362.38
403.526	370.38
403.75	382.38
403.974	389.38
404.198	383.38
404.422	365.38
404.645	375.38
404.869	364.38
405.093	383.38
405.317	405.38
405.541	433.38
405.765	407.38
405.988	388.38
406.212	407.38
406.436	428.38
406.66	400.38
406.883	401.38
407.107	414.38
407.331	436.38
407.555	462.38
407.778	473.38
408.002	448.38
408.226	398.38
408.449	406.38
408.673	408.38
408.896	428.38
409.12	464.38
409.344	429.38
409.567	407.38
409.791	374.38
410.014	384.38
410.238	375.38
410.461	386.38
410.685	400.38
410.908	401.38
411.132	410.38
411.355	432.38
411.578	398.38
411.802	379.38
412.025	364.38
412.249	346.38
412.472	371.38
412.695	419.38
412.919	368.38
413.142	387.38
413.365	356.38
413.589	381.38
413.812	365.38
414.035	354.38
414.258	361.38
414.482	363.38
414.705	341.38
414.928	347.38
415.151	350.38
415.374	367.38
415.597	343.38
415.821	343.38
416.044	352.38
416.267	356.38
416.49	349.38
416.713	342.38
416.936	366.38
417.159	329.38
417.382	352.38
417.605	339.38
417.828	358.38
418.051	366.38
418.274	359.38
418.497	352.38
418.72	345.38
418.943	329.38
419.166	371.38
419.389	365.38
419.611	381.38
419.834	365.38
420.057	347.38
420.28	361.38
420.503	358.38
420.726	369.38
420.948	382.38
421.171	417.38
421.394	413.38
421.617	397.38
421.839	377.38
422.062	397.38
422.285	387.38
422.507	401.38
422.73	459.38
422.953	442.38
423.175	414.38
423.398	381.38
423.621	391.38
423.843	382.38
424.066	392.38
424.288	381.38
424.511	400.38
424.733	432.38
424.956	483.38
425.178	458.38
425.401	477.38
425.623	487.38
425.846	402.38
426.068	402.38
426.291	398.38
426.513	384.38
426.735	383.38
426.958	418.38
427.18	445.38
427.402	545.38
427.625	587.38
427.847	503.38
428.069	447.38
428.292	393.38
428.514	375.38
428.736	368.38
428.958	379.38
429.181	343.38
429.403	342.38
429.625	367.38
429.847	372.38
430.069	424.38
430.292	420.38
430.514	379.38
430.736	353.38
430.958	359.38
431.18	342.38
431.402	355.38
431.624	338.38
431.846	333.38
432.068	320.38
432.29	352.38
432.512	356.38
432.734	348.38
432.956	347.38
433.178	338.38
433.4	351.38
433.622	367.38
433.844	342.38
434.066	338.38
434.287	331.38
434.509	341.38
434.731	348.38
434.953	346.38
435.175	368.38
435.397	356.38
435.618	375.38
435.84	410.38
436.062	457.38
436.284	488.38
436.505	440.38
436.727	405.38
436.949	368.38
437.17	366.38
437.392	359.38
437.614	359.38
437.835	376.38
438.057	443.38
438.278	486.38
438.5	515.38
438.721	555.38
438.943	539.38
439.165	438.38
439.386	418.38
439.608	401.38
439.829	410.38
440.05	391.38
440.272	415.38
440.493	407.38
440.715	381.38
440.936	363.38
441.158	355.38
441.379	353.38
441.6	377.38
441.822	368.38
442.043	401.38
442.264	475.38
442.486	470.38
442.707	415.38
442.928	383.38
443.149	388.38
443.371	396.38
443.592	439.38
443.813	480.38
444.034	525.38
444.255	438.38
444.476	393.38
444.698	382.38
444.919	364.38
445.14	501.38
445.361	439.38
445.582	401.38
445.803	445.38
446.024	506.38
446.245	525.38
446.466	445.38
446.687	391.38
446.908	391.38
447.129	372.38
447.35	358.38
447.571	359.38
447.792	337.38
448.013	362.38
448.234	372.38
448.455	408.38
448.675	463.38
448.896	545.38
449.117	480.38
449.338	463.38
449.559	527.38
449.779	570.38
450	456.38
450.221	381.38
450.442	369.38
450.662	357.38
450.883	348.38
451.104	343.38
451.324	340.38
451.545	335.38
451.766	333.38
451.986	339.38
452.207	317.38
452.428	327.38
452.648	301.38
452.869	303.38
453.089	337.38
453.31	322.38
453.53	320.38
453.751	307.38
453.971	309.38
454.192	320.38
454.412	329.38
454.633	313.38
454.853	306.38
455.073	334.38
455.294	334.38
455.514	379.38
455.734	354.38
455.955	319.38
456.175	310.38
456.395	297.38
456.616	293.38
456.836	311.38
457.056	304.38
457.276	313.38
457.497	304.38
457.717	295.38
457.937	316.38
458.157	312.38
458.377	315.38
458.598	325.38
458.818	334.38
459.038	391.38
459.258	411.38
459.478	371.38
459.698	348.38
459.918	333.38
460.138	327.38
460.358	324.38
460.578	333.38
460.798	345.38
461.018	345.38
461.238	338.38
461.458	334.38
461.678	329.38
461.898	363.38
462.118	347.38
462.338	360.38
462.558	344.38
462.777	351.38
462.997	360.38
463.217	373.38
463.437	371.38
463.657	363.38
463.876	345.38
464.096	367.38
464.316	360.38
464.536	373.38
464.755	367.38
464.975	359.38
465.195	381.38
465.414	387.38
465.634	365.38
465.854	351.38
466.073	345.38
466.293	333.38
466.512	325.38
466.732	348.38
466.951	320.38
467.171	323.38
467.391	319.38
467.61	328.38
467.829	334.38
468.049	301.38
468.268	337.38
468.488	346.38
468.707	314.38
468.927	319.38
469.146	321.38
469.365	333.38
469.585	325.38
469.804	317.38
470.023	336.38
470.243	330.38
470.462	327.38
470.681	346.38
470.901	335.38
471.12	336.38
471.339	340.38
471.558	334.38
471.777	344.38
471.997	337.38
472.216	331.38
472.435	335.38
472.654	344.38
472.873	341.38
473.092	317.38
473.311	331.38
473.53	344.38
473.749	317.38
473.968	352.38
474.187	403.38
474.406	443.38
474.625	377.38
474.844	353.38
475.063	339.38
475.282	364.38
475.501	353.38
475.72	330.38
475.939	336.38
476.158	342.38
476.377	335.38
476.596	337.38
476.814	335.38
477.033	342.38
477.252	352.38
477.471	367.38
477.69	349.38
477.908	360.38
478.127	366.38
478.346	356.38
478.564	377.38
478.783	363.38
479.002	377.38
479.22	368.38
479.439	386.38
479.658	377.38
479.876	397.38
480.095	393.38
480.313	401.38
480.532	413.38
480.751	388.38
480.969	377.38
481.188	419.38
481.406	409.38
481.624	390.38
481.843	381.38
482.061	382.38
482.28	380.38
482.498	380.38
482.717	390.38
482.935	381.38
483.153	374.38
483.372	394.38
483.59	384.38
483.808	384.38
484.027	361.38
484.245	373.38
484.463	379.38
484.681	383.38
484.9	371.38
485.118	396.38
485.336	408.38
485.554	385.38
485.772	391.38
485.99	384.38
486.209	373.38
486.427	409.38
486.645	427.38
486.863	404.38
487.081	409.38
487.299	402.38
487.517	396.38
487.735	413.38
487.953	418.38
488.171	433.38
488.389	397.38
488.607	404.38
488.825	402.38
489.043	404.38
489.261	399.38
489.479	411.38
489.696	427.38
489.914	412.38
490.132	401.38
490.35	448.38
490.568	443.38
490.786	453.38
491.003	444.38
491.221	456.38
491.439	428.38
491.657	456.38
491.874	455.38
492.092	456.38
492.31	479.38
492.527	464.38
492.745	446.38
492.963	469.38
493.18	456.38
493.398	471.38
493.615	468.38
493.833	477.38
494.05	468.38
494.268	497.38
494.485	477.38
494.703	474.38
494.92	495.38
495.138	456.38
495.355	479.38
495.573	484.38
495.79	473.38
496.008	468.38
496.225	466.38
496.442	492.38
496.66	484.38
496.877	462.38
497.094	473.38
497.312	507.38
497.529	501.38
497.746	495.38
497.963	496.38
498.181	497.38
498.398	514.38
498.615	521.38
498.832	533.38
499.049	552.38
499.267	567.38
499.484	575.38
499.701	576.38
499.918	599.38
500.135	621.38
500.352	661.38
500.569	663.38
500.786	677.38
501.003	671.38
501.22	648.38
501.437	652.38
501.654	607.38
501.871	601.38
502.088	574.38
