Data from 1971.PennyLincolnUp.Lamp.En5.5.200Scan.071719.P1._HRD10591_15-18-47-842.txt Node
Date: Thu Jul 18 15:18:47 EDT 2019
User: cochatt
Spectrometer: HR+D1059
Trigger mode: 1
Integration Time (sec): 1.000000E-1
Scans to average: 1
Electric dark correction enabled: true
Nonlinearity correction enabled: false
Boxcar width: 0
XAxis mode: Wavelengths
Number of Pixels in Spectrum: 2048
>>>>>Begin Spectral Data<<<<<
223.165	-16.75
223.4	-16.75
223.635	-16.75
223.869	-19.75
224.104	-20.75
224.338	-23.75
224.573	-17.75
224.808	-4.75
225.042	-5.75
225.277	-7.75
225.511	-8.75
225.746	4.25
225.98	9.25
226.215	23.25
226.449	15.25
226.683	18.25
226.918	22.25
227.152	33.25
227.387	37.25
227.621	41.25
227.856	57.25
228.09	53.25
228.324	49.25
228.559	62.25
228.793	67.25
229.027	76.25
229.262	118.25
229.496	106.25
229.73	102.25
229.964	131.25
230.199	135.25
230.433	105.25
230.667	119.25
230.901	108.25
231.136	110.25
231.37	121.25
231.604	108.25
231.838	122.25
232.072	107.25
232.306	106.25
232.541	119.25
232.775	114.25
233.009	109.25
233.243	116.25
233.477	105.25
233.711	122.25
233.945	119.25
234.179	134.25
234.413	132.25
234.647	111.25
234.881	121.25
235.115	113.25
235.349	122.25
235.583	120.25
235.817	134.25
236.051	129.25
236.285	134.25
236.519	127.25
236.753	122.25
236.987	149.25
237.221	185.25
237.455	214.25
237.689	165.25
237.922	127.25
238.156	128.25
238.39	128.25
238.624	118.25
238.858	132.25
239.091	117.25
239.325	120.25
239.559	126.25
239.793	136.25
240.027	131.25
240.26	128.25
240.494	139.25
240.728	147.25
240.961	151.25
241.195	149.25
241.429	143.25
241.662	132.25
241.896	115.25
242.13	134.25
242.363	134.25
242.597	145.25
242.83	144.25
243.064	129.25
243.298	134.25
243.531	150.25
243.765	125.25
243.998	143.25
244.232	145.25
244.465	126.25
244.699	148.25
244.932	136.25
245.166	153.25
245.399	155.25
245.633	145.25
245.866	160.25
246.099	137.25
246.333	152.25
246.566	156.25
246.8	140.25
247.033	146.25
247.266	160.25
247.5	168.25
247.733	171.25
247.966	176.25
248.2	173.25
248.433	158.25
248.666	174.25
248.899	176.25
249.133	174.25
249.366	190.25
249.599	201.25
249.832	188.25
250.066	174.25
250.299	194.25
250.532	183.25
250.765	202.25
250.998	220.25
251.231	209.25
251.465	220.25
251.698	200.25
251.931	193.25
252.164	208.25
252.397	207.25
252.63	202.25
252.863	210.25
253.096	209.25
253.329	225.25
253.562	235.25
253.795	213.25
254.028	228.25
254.261	200.25
254.494	231.25
254.727	252.25
254.96	281.25
255.193	264.25
255.426	235.25
255.659	228.25
255.892	229.25
256.124	230.25
256.357	223.25
256.59	221.25
256.823	212.25
257.056	216.25
257.289	203.25
257.521	200.25
257.754	214.25
257.987	204.25
258.22	217.25
258.452	206.25
258.685	210.25
258.918	218.25
259.151	229.25
259.383	225.25
259.616	235.25
259.849	236.25
260.081	224.25
260.314	247.25
260.547	268.25
260.779	245.25
261.012	230.25
261.244	214.25
261.477	216.25
261.71	236.25
261.942	222.25
262.175	228.25
262.407	230.25
262.64	211.25
262.872	217.25
263.105	216.25
263.337	229.25
263.57	225.25
263.802	222.25
264.035	212.25
264.267	225.25
264.499	222.25
264.732	209.25
264.964	210.25
265.197	215.25
265.429	212.25
265.661	211.25
265.894	214.25
266.126	218.25
266.358	214.25
266.591	225.25
266.823	226.25
267.055	223.25
267.287	233.25
267.52	241.25
267.752	221.25
267.984	239.25
268.216	239.25
268.448	233.25
268.681	232.25
268.913	258.25
269.145	266.25
269.377	269.25
269.609	273.25
269.841	264.25
270.073	289.25
270.306	288.25
270.538	315.25
270.77	325.25
271.002	311.25
271.234	304.25
271.466	316.25
271.698	296.25
271.93	324.25
272.162	336.25
272.394	317.25
272.626	312.25
272.858	294.25
273.09	278.25
273.322	279.25
273.553	267.25
273.785	289.25
274.017	288.25
274.249	262.25
274.481	279.25
274.713	255.25
274.945	263.25
275.176	262.25
275.408	248.25
275.64	276.25
275.872	268.25
276.104	268.25
276.335	264.25
276.567	277.25
276.799	286.25
277.031	316.25
277.262	292.25
277.494	299.25
277.726	282.25
277.957	281.25
278.189	279.25
278.421	272.25
278.652	273.25
278.884	267.25
279.115	259.25
279.347	266.25
279.579	264.25
279.81	281.25
280.042	270.25
280.273	278.25
280.505	271.25
280.736	275.25
280.968	276.25
281.199	273.25
281.431	265.25
281.662	279.25
281.894	276.25
282.125	247.25
282.356	295.25
282.588	296.25
282.819	294.25
283.051	280.25
283.282	266.25
283.513	313.25
283.745	266.25
283.976	274.25
284.207	290.25
284.439	275.25
284.67	261.25
284.901	278.25
285.132	275.25
285.364	276.25
285.595	289.25
285.826	274.25
286.057	270.25
286.288	276.25
286.52	293.25
286.751	287.25
286.982	297.25
287.213	286.25
287.444	289.25
287.675	283.25
287.906	292.25
288.138	300.25
288.369	301.25
288.6	314.25
288.831	310.25
289.062	286.25
289.293	297.25
289.524	293.25
289.755	298.25
289.986	298.25
290.217	290.25
290.448	275.25
290.679	280.25
290.91	297.25
291.141	282.25
291.371	285.25
291.602	287.25
291.833	290.25
292.064	304.25
292.295	304.25
292.526	284.25
292.757	279.25
292.987	298.25
293.218	301.25
293.449	289.25
293.68	292.25
293.91	298.25
294.141	279.25
294.372	284.25
294.603	284.25
294.833	311.25
295.064	287.25
295.295	295.25
295.525	278.25
295.756	299.25
295.987	296.25
296.217	315.25
296.448	326.25
296.679	301.25
296.909	304.25
297.14	314.25
297.37	288.25
297.601	297.25
297.831	312.25
298.062	310.25
298.292	295.25
298.523	287.25
298.753	294.25
298.984	294.25
299.214	309.25
299.445	300.25
299.675	314.25
299.905	310.25
300.136	296.25
300.366	310.25
300.597	327.25
300.827	318.25
301.057	325.25
301.288	330.25
301.518	328.25
301.748	316.25
301.979	330.25
302.209	330.25
302.439	332.25
302.669	328.25
302.9	301.25
303.13	314.25
303.36	326.25
303.59	334.25
303.82	330.25
304.051	329.25
304.281	316.25
304.511	326.25
304.741	338.25
304.971	350.25
305.201	339.25
305.431	334.25
305.661	326.25
305.891	321.25
306.121	339.25
306.352	347.25
306.582	357.25
306.812	319.25
307.042	318.25
307.272	322.25
307.502	336.25
307.731	350.25
307.961	334.25
308.191	332.25
308.421	341.25
308.651	344.25
308.881	341.25
309.111	328.25
309.341	346.25
309.571	340.25
309.8	355.25
310.03	365.25
310.26	371.25
310.49	346.25
310.72	381.25
310.949	362.25
311.179	400.25
311.409	365.25
311.639	365.25
311.868	364.25
312.098	380.25
312.328	377.25
312.557	400.25
312.787	395.25
313.017	397.25
313.246	398.25
313.476	375.25
313.706	360.25
313.935	385.25
314.165	380.25
314.394	381.25
314.624	405.25
314.853	368.25
315.083	388.25
315.312	376.25
315.542	364.25
315.771	365.25
316.001	364.25
316.23	364.25
316.46	366.25
316.689	381.25
316.919	384.25
317.148	374.25
317.377	365.25
317.607	372.25
317.836	367.25
318.065	366.25
318.295	373.25
318.524	380.25
318.753	377.25
318.983	364.25
319.212	366.25
319.441	355.25
319.67	385.25
319.9	399.25
320.129	378.25
320.358	367.25
320.587	376.25
320.816	375.25
321.046	394.25
321.275	398.25
321.504	386.25
321.733	391.25
321.962	416.25
322.191	419.25
322.42	412.25
322.649	421.25
322.878	445.25
323.108	446.25
323.337	449.25
323.566	461.25
323.795	502.25
324.024	542.25
324.253	677.25
324.482	938.25
324.71	1329.25
324.939	1811.25
325.168	1521.25
325.397	852.25
325.626	573.25
325.855	507.25
326.084	493.25
326.313	466.25
326.542	465.25
326.77	520.25
326.999	607.25
327.228	839.25
327.457	1175.25
327.686	1308.25
327.914	925.25
328.143	655.25
328.372	570.25
328.6	522.25
328.829	509.25
329.058	524.25
329.287	538.25
329.515	489.25
329.744	502.25
329.972	476.25
330.201	509.25
330.43	520.25
330.658	524.25
330.887	551.25
331.115	556.25
331.344	498.25
331.572	466.25
331.801	462.25
332.03	460.25
332.258	455.25
332.486	429.25
332.715	442.25
332.943	454.25
333.172	426.25
333.4	430.25
333.629	448.25
333.857	453.25
334.085	464.25
334.314	460.25
334.542	449.25
334.771	500.25
334.999	480.25
335.227	450.25
335.455	451.25
335.684	447.25
335.912	426.25
336.14	416.25
336.369	416.25
336.597	424.25
336.825	445.25
337.053	410.25
337.281	400.25
337.51	413.25
337.738	422.25
337.966	438.25
338.194	429.25
338.422	433.25
338.65	430.25
338.878	418.25
339.106	426.25
339.334	420.25
339.562	410.25
339.79	424.25
340.018	400.25
340.246	421.25
340.474	434.25
340.702	412.25
340.93	410.25
341.158	405.25
341.386	393.25
341.614	407.25
341.842	403.25
342.07	419.25
342.298	402.25
342.526	396.25
342.754	382.25
342.981	395.25
343.209	407.25
343.437	424.25
343.665	398.25
343.893	394.25
344.12	421.25
344.348	421.25
344.576	417.25
344.804	423.25
345.031	409.25
345.259	418.25
345.487	414.25
345.714	392.25
345.942	401.25
346.17	421.25
346.397	400.25
346.625	406.25
346.853	391.25
347.08	388.25
347.308	387.25
347.535	395.25
347.763	400.25
347.99	399.25
348.218	398.25
348.445	384.25
348.673	417.25
348.9	400.25
349.128	395.25
349.355	391.25
349.583	405.25
349.81	392.25
350.037	380.25
350.265	375.25
350.492	400.25
350.72	395.25
350.947	402.25
351.174	396.25
351.402	402.25
351.629	397.25
351.856	398.25
352.083	408.25
352.311	388.25
352.538	414.25
352.765	393.25
352.992	394.25
353.22	387.25
353.447	381.25
353.674	374.25
353.901	372.25
354.128	363.25
354.355	362.25
354.583	361.25
354.81	365.25
355.037	362.25
355.264	376.25
355.491	348.25
355.718	367.25
355.945	360.25
356.172	350.25
356.399	360.25
356.626	353.25
356.853	374.25
357.08	371.25
357.307	363.25
357.534	378.25
357.761	350.25
357.988	370.25
358.215	366.25
358.441	366.25
358.668	361.25
358.895	353.25
359.122	360.25
359.349	363.25
359.576	384.25
359.802	406.25
360.029	423.25
360.256	425.25
360.483	404.25
360.709	378.25
360.936	404.25
361.163	365.25
361.39	360.25
361.616	374.25
361.843	380.25
362.07	376.25
362.296	388.25
362.523	377.25
362.749	382.25
362.976	381.25
363.203	377.25
363.429	366.25
363.656	379.25
363.882	377.25
364.109	364.25
364.335	360.25
364.562	360.25
364.788	349.25
365.015	387.25
365.241	370.25
365.468	364.25
365.694	368.25
365.92	352.25
366.147	364.25
366.373	338.25
366.599	359.25
366.826	360.25
367.052	356.25
367.278	364.25
367.505	369.25
367.731	373.25
367.957	363.25
368.184	354.25
368.41	367.25
368.636	368.25
368.862	354.25
369.089	373.25
369.315	374.25
369.541	364.25
369.767	354.25
369.993	361.25
370.219	360.25
370.445	360.25
370.672	360.25
370.898	368.25
371.124	356.25
371.35	355.25
371.576	359.25
371.802	349.25
372.028	360.25
372.254	350.25
372.48	358.25
372.706	383.25
372.932	348.25
373.158	374.25
373.384	368.25
373.61	356.25
373.835	357.25
374.061	341.25
374.287	339.25
374.513	369.25
374.739	357.25
374.965	358.25
375.191	352.25
375.416	386.25
375.642	366.25
375.868	348.25
376.094	354.25
376.319	336.25
376.545	352.25
376.771	339.25
376.997	357.25
377.222	346.25
377.448	353.25
377.674	339.25
377.899	351.25
378.125	344.25
378.35	318.25
378.576	359.25
378.802	349.25
379.027	347.25
379.253	363.25
379.478	346.25
379.704	359.25
379.929	338.25
380.155	345.25
380.38	346.25
380.606	362.25
380.831	347.25
381.057	362.25
381.282	366.25
381.507	354.25
381.733	356.25
381.958	372.25
382.184	372.25
382.409	361.25
382.634	351.25
382.86	356.25
383.085	350.25
383.31	355.25
383.535	371.25
383.761	364.25
383.986	370.25
384.211	357.25
384.436	365.25
384.662	349.25
384.887	364.25
385.112	371.25
385.337	376.25
385.562	373.25
385.787	374.25
386.013	381.25
386.238	369.25
386.463	378.25
386.688	373.25
386.913	360.25
387.138	371.25
387.363	367.25
387.588	362.25
387.813	379.25
388.038	364.25
388.263	351.25
388.488	367.25
388.713	359.25
388.938	387.25
389.163	385.25
389.387	388.25
389.612	376.25
389.837	364.25
390.062	349.25
390.287	366.25
390.512	364.25
390.736	373.25
390.961	370.25
391.186	385.25
391.411	378.25
391.636	386.25
391.86	398.25
392.085	369.25
392.31	383.25
392.534	372.25
392.759	392.25
392.984	406.25
393.208	374.25
393.433	381.25
393.658	377.25
393.882	379.25
394.107	365.25
394.331	382.25
394.556	374.25
394.78	369.25
395.005	378.25
395.229	389.25
395.454	378.25
395.678	393.25
395.903	373.25
396.127	398.25
396.352	386.25
396.576	383.25
396.801	378.25
397.025	388.25
397.249	394.25
397.474	379.25
397.698	406.25
397.922	403.25
398.147	399.25
398.371	419.25
398.595	409.25
398.82	414.25
399.044	414.25
399.268	421.25
399.492	432.25
399.717	458.25
399.941	472.25
400.165	506.25
400.389	505.25
400.613	461.25
400.837	423.25
401.062	431.25
401.286	400.25
401.51	400.25
401.734	414.25
401.958	424.25
402.182	400.25
402.406	422.25
402.63	426.25
402.854	437.25
403.078	408.25
403.302	436.25
403.526	420.25
403.75	411.25
403.974	421.25
404.198	422.25
404.422	427.25
404.645	428.25
404.869	423.25
405.093	479.25
405.317	487.25
405.541	500.25
405.765	470.25
405.988	438.25
406.212	431.25
406.436	462.25
406.66	458.25
406.883	475.25
407.107	483.25
407.331	507.25
407.555	560.25
407.778	543.25
408.002	524.25
408.226	469.25
408.449	468.25
408.673	469.25
408.896	495.25
409.12	528.25
409.344	471.25
409.567	425.25
409.791	444.25
410.014	422.25
410.238	417.25
410.461	431.25
410.685	422.25
410.908	456.25
411.132	461.25
411.355	469.25
411.578	477.25
411.802	424.25
412.025	416.25
412.249	413.25
412.472	424.25
412.695	480.25
412.919	462.25
413.142	432.25
413.365	416.25
413.589	415.25
413.812	409.25
414.035	398.25
414.258	394.25
414.482	386.25
414.705	395.25
414.928	414.25
415.151	406.25
415.374	380.25
415.597	401.25
415.821	396.25
416.044	393.25
416.267	389.25
416.49	407.25
416.713	401.25
416.936	395.25
417.159	383.25
417.382	412.25
417.605	409.25
417.828	396.25
418.051	413.25
418.274	413.25
418.497	399.25
418.72	402.25
418.943	408.25
419.166	428.25
419.389	431.25
419.611	424.25
419.834	413.25
420.057	406.25
420.28	409.25
420.503	434.25
420.726	416.25
420.948	445.25
421.171	477.25
421.394	482.25
421.617	440.25
421.839	410.25
422.062	415.25
422.285	428.25
422.507	484.25
422.73	530.25
422.953	493.25
423.175	440.25
423.398	420.25
423.621	423.25
423.843	450.25
424.066	437.25
424.288	448.25
424.511	464.25
424.733	509.25
424.956	584.25
425.178	564.25
425.401	536.25
425.623	528.25
425.846	476.25
426.068	465.25
426.291	418.25
426.513	440.25
426.735	478.25
426.958	482.25
427.18	535.25
427.402	640.25
427.625	678.25
427.847	614.25
428.069	557.25
428.292	490.25
428.514	436.25
428.736	396.25
428.958	416.25
429.181	401.25
429.403	410.25
429.625	405.25
429.847	443.25
430.069	486.25
430.292	471.25
430.514	433.25
430.736	430.25
430.958	422.25
431.18	406.25
431.402	398.25
431.624	382.25
431.846	388.25
432.068	370.25
432.29	388.25
432.512	384.25
432.734	383.25
432.956	405.25
433.178	402.25
433.4	412.25
433.622	384.25
433.844	395.25
434.066	391.25
434.287	388.25
434.509	388.25
434.731	410.25
434.953	405.25
435.175	403.25
435.397	458.25
435.618	436.25
435.84	468.25
436.062	529.25
436.284	585.25
436.505	504.25
436.727	461.25
436.949	412.25
437.17	395.25
437.392	422.25
437.614	436.25
437.835	442.25
438.057	528.25
438.278	585.25
438.5	599.25
438.721	644.25
438.943	612.25
439.165	489.25
439.386	462.25
439.608	452.25
439.829	436.25
440.05	463.25
440.272	518.25
440.493	454.25
440.715	446.25
440.936	422.25
441.158	426.25
441.379	438.25
441.6	412.25
441.822	436.25
442.043	481.25
442.264	524.25
442.486	568.25
442.707	488.25
442.928	441.25
443.149	456.25
443.371	469.25
443.592	501.25
443.813	598.25
444.034	603.25
444.255	534.25
444.476	455.25
444.698	456.25
444.919	458.25
445.14	590.25
445.361	525.25
445.582	485.25
445.803	538.25
446.024	616.25
446.245	600.25
446.466	564.25
446.687	485.25
446.908	464.25
447.129	431.25
447.35	412.25
447.571	416.25
447.792	400.25
448.013	411.25
448.234	429.25
448.455	462.25
448.675	558.25
448.896	638.25
449.117	537.25
449.338	512.25
449.559	610.25
449.779	667.25
450	516.25
450.221	448.25
450.442	435.25
450.662	384.25
450.883	414.25
451.104	410.25
451.324	411.25
451.545	405.25
451.766	376.25
451.986	367.25
452.207	374.25
452.428	376.25
452.648	375.25
452.869	370.25
453.089	378.25
453.31	381.25
453.53	396.25
453.751	365.25
453.971	360.25
454.192	391.25
454.412	374.25
454.633	341.25
454.853	364.25
455.073	342.25
455.294	389.25
455.514	434.25
455.734	404.25
455.955	365.25
456.175	352.25
456.395	333.25
456.616	364.25
456.836	346.25
457.056	325.25
457.276	332.25
457.497	332.25
457.717	342.25
457.937	352.25
458.157	345.25
458.377	352.25
458.598	362.25
458.818	406.25
459.038	460.25
459.258	464.25
459.478	397.25
459.698	388.25
459.918	374.25
460.138	373.25
460.358	363.25
460.578	388.25
460.798	373.25
461.018	392.25
461.238	383.25
461.458	387.25
461.678	381.25
461.898	381.25
462.118	377.25
462.338	388.25
462.558	358.25
462.777	420.25
462.997	419.25
463.217	393.25
463.437	408.25
463.657	399.25
463.876	407.25
464.096	403.25
464.316	399.25
464.536	394.25
464.755	408.25
464.975	409.25
465.195	426.25
465.414	465.25
465.634	421.25
465.854	388.25
466.073	393.25
466.293	377.25
466.512	365.25
466.732	380.25
466.951	382.25
467.171	366.25
467.391	378.25
467.61	386.25
467.829	391.25
468.049	383.25
468.268	380.25
468.488	380.25
468.707	359.25
468.927	367.25
469.146	364.25
469.365	370.25
469.585	361.25
469.804	369.25
470.023	371.25
470.243	383.25
470.462	392.25
470.681	388.25
470.901	384.25
471.12	396.25
471.339	381.25
471.558	377.25
471.777	380.25
471.997	367.25
472.216	383.25
472.435	412.25
472.654	395.25
472.873	381.25
473.092	387.25
473.311	376.25
473.53	377.25
473.749	384.25
473.968	415.25
474.187	489.25
474.406	512.25
474.625	436.25
474.844	394.25
475.063	385.25
475.282	375.25
475.501	375.25
475.72	376.25
475.939	384.25
476.158	392.25
476.377	398.25
476.596	382.25
476.814	400.25
477.033	396.25
477.252	392.25
477.471	396.25
477.69	410.25
477.908	414.25
478.127	405.25
478.346	415.25
478.564	427.25
478.783	410.25
479.002	413.25
479.22	428.25
479.439	410.25
479.658	431.25
479.876	444.25
480.095	438.25
480.313	462.25
480.532	461.25
480.751	464.25
480.969	455.25
481.188	497.25
481.406	505.25
481.624	468.25
481.843	440.25
482.061	457.25
482.28	436.25
482.498	426.25
482.717	425.25
482.935	446.25
483.153	414.25
483.372	427.25
483.59	450.25
483.808	439.25
484.027	434.25
484.245	446.25
484.463	439.25
484.681	434.25
484.9	437.25
485.118	431.25
485.336	444.25
485.554	440.25
485.772	449.25
485.99	453.25
486.209	445.25
486.427	431.25
486.645	461.25
486.863	482.25
487.081	463.25
487.299	464.25
487.517	443.25
487.735	477.25
487.953	468.25
488.171	475.25
488.389	458.25
488.607	468.25
488.825	475.25
489.043	478.25
489.261	458.25
489.479	472.25
489.696	469.25
489.914	465.25
490.132	481.25
490.35	471.25
490.568	477.25
490.786	503.25
491.003	503.25
491.221	498.25
491.439	544.25
491.657	513.25
491.874	526.25
492.092	521.25
492.31	539.25
492.527	544.25
492.745	540.25
492.963	549.25
493.18	556.25
493.398	538.25
493.615	566.25
493.833	546.25
494.05	577.25
494.268	568.25
494.485	549.25
494.703	544.25
494.92	532.25
495.138	543.25
495.355	572.25
495.573	563.25
495.79	549.25
496.008	550.25
496.225	545.25
496.442	562.25
496.66	571.25
496.877	557.25
497.094	541.25
497.312	571.25
497.529	557.25
497.746	556.25
497.963	567.25
498.181	584.25
498.398	573.25
498.615	563.25
498.832	610.25
499.049	586.25
499.267	630.25
499.484	628.25
499.701	646.25
499.918	672.25
500.135	702.25
500.352	727.25
500.569	740.25
500.786	716.25
501.003	733.25
501.22	713.25
501.437	714.25
501.654	682.25
501.871	668.25
