Data from 1971.PennyLincolnUp.Lamp.En5.5.200Scan.071719.P1.Scan 2. Changed Angle._HRD10591_15-25-04-843.txt Node
Date: Thu Jul 18 15:25:04 EDT 2019
User: cochatt
Spectrometer: HR+D1059
Trigger mode: 1
Integration Time (sec): 1.000000E-1
Scans to average: 1
Electric dark correction enabled: true
Nonlinearity correction enabled: false
Boxcar width: 0
XAxis mode: Wavelengths
Number of Pixels in Spectrum: 2048
>>>>>Begin Spectral Data<<<<<
223.165	-14.81
223.4	-14.81
223.635	-14.81
223.869	-25.81
224.104	-5.81
224.338	-7.81
224.573	-12.81
224.808	-15.81
225.042	-0.81
225.277	-0.81
225.511	-4.81
225.746	2.19
225.98	15.19
226.215	1.19
226.449	13.19
226.683	9.19
226.918	15.19
227.152	33.19
227.387	39.19
227.621	32.19
227.856	39.19
228.09	44.19
228.324	53.19
228.559	55.19
228.793	83.19
229.027	95.19
229.262	116.19
229.496	137.19
229.73	152.19
229.964	191.19
230.199	155.19
230.433	111.19
230.667	137.19
230.901	131.19
231.136	110.19
231.37	119.19
231.604	127.19
231.838	136.19
232.072	113.19
232.306	120.19
232.541	119.19
232.775	125.19
233.009	116.19
233.243	112.19
233.477	113.19
233.711	111.19
233.945	114.19
234.179	117.19
234.413	129.19
234.647	131.19
234.881	131.19
235.115	133.19
235.349	131.19
235.583	131.19
235.817	137.19
236.051	115.19
236.285	134.19
236.519	126.19
236.753	142.19
236.987	159.19
237.221	206.19
237.455	279.19
237.689	223.19
237.922	156.19
238.156	153.19
238.39	135.19
238.624	141.19
238.858	129.19
239.091	130.19
239.325	142.19
239.559	142.19
239.793	126.19
240.027	148.19
240.26	166.19
240.494	167.19
240.728	175.19
240.961	173.19
241.195	151.19
241.429	146.19
241.662	138.19
241.896	140.19
242.13	152.19
242.363	155.19
242.597	153.19
242.83	153.19
243.064	148.19
243.298	166.19
243.531	158.19
243.765	140.19
243.998	143.19
244.232	150.19
244.465	149.19
244.699	155.19
244.932	153.19
245.166	153.19
245.399	142.19
245.633	153.19
245.866	151.19
246.099	150.19
246.333	153.19
246.566	151.19
246.8	154.19
247.033	170.19
247.266	180.19
247.5	181.19
247.733	171.19
247.966	179.19
248.2	178.19
248.433	169.19
248.666	197.19
248.899	187.19
249.133	212.19
249.366	246.19
249.599	224.19
249.832	205.19
250.066	225.19
250.299	206.19
250.532	205.19
250.765	223.19
250.998	253.19
251.231	256.19
251.465	245.19
251.698	228.19
251.931	237.19
252.164	222.19
252.397	221.19
252.63	221.19
252.863	234.19
253.096	224.19
253.329	243.19
253.562	268.19
253.795	246.19
254.028	231.19
254.261	243.19
254.494	268.19
254.727	281.19
254.96	316.19
255.193	325.19
255.426	283.19
255.659	274.19
255.892	261.19
256.124	261.19
256.357	273.19
256.59	258.19
256.823	237.19
257.056	223.19
257.289	219.19
257.521	233.19
257.754	225.19
257.987	225.19
258.22	225.19
258.452	225.19
258.685	229.19
258.918	222.19
259.151	229.19
259.383	231.19
259.616	245.19
259.849	248.19
260.081	279.19
260.314	289.19
260.547	283.19
260.779	279.19
261.012	254.19
261.244	260.19
261.477	231.19
261.71	243.19
261.942	263.19
262.175	277.19
262.407	262.19
262.64	234.19
262.872	218.19
263.105	226.19
263.337	226.19
263.57	216.19
263.802	216.19
264.035	226.19
264.267	218.19
264.499	211.19
264.732	200.19
264.964	210.19
265.197	216.19
265.429	233.19
265.661	222.19
265.894	211.19
266.126	211.19
266.358	233.19
266.591	227.19
266.823	237.19
267.055	250.19
267.287	246.19
267.52	228.19
267.752	262.19
267.984	238.19
268.216	251.19
268.448	246.19
268.681	244.19
268.913	253.19
269.145	275.19
269.377	293.19
269.609	291.19
269.841	282.19
270.073	300.19
270.306	325.19
270.538	321.19
270.77	373.19
271.002	337.19
271.234	332.19
271.466	327.19
271.698	337.19
271.93	329.19
272.162	358.19
272.394	363.19
272.626	327.19
272.858	322.19
273.09	310.19
273.322	294.19
273.553	285.19
273.785	271.19
274.017	275.19
274.249	296.19
274.481	275.19
274.713	292.19
274.945	267.19
275.176	275.19
275.408	289.19
275.64	281.19
275.872	274.19
276.104	266.19
276.335	278.19
276.567	285.19
276.799	320.19
277.031	311.19
277.262	331.19
277.494	353.19
277.726	315.19
277.957	311.19
278.189	300.19
278.421	299.19
278.652	275.19
278.884	270.19
279.115	276.19
279.347	275.19
279.579	287.19
279.81	267.19
280.042	261.19
280.273	271.19
280.505	260.19
280.736	277.19
280.968	273.19
281.199	257.19
281.431	284.19
281.662	276.19
281.894	271.19
282.125	277.19
282.356	293.19
282.588	332.19
282.819	309.19
283.051	296.19
283.282	277.19
283.513	277.19
283.745	271.19
283.976	281.19
284.207	264.19
284.439	273.19
284.67	281.19
284.901	269.19
285.132	263.19
285.364	269.19
285.595	284.19
285.826	275.19
286.057	284.19
286.288	300.19
286.52	271.19
286.751	285.19
286.982	274.19
287.213	285.19
287.444	282.19
287.675	271.19
287.906	299.19
288.138	297.19
288.369	316.19
288.6	294.19
288.831	296.19
289.062	283.19
289.293	284.19
289.524	290.19
289.755	278.19
289.986	285.19
290.217	276.19
290.448	278.19
290.679	272.19
290.91	285.19
291.141	279.19
291.371	279.19
291.602	288.19
291.833	271.19
292.064	283.19
292.295	279.19
292.526	279.19
292.757	279.19
292.987	314.19
293.218	289.19
293.449	281.19
293.68	283.19
293.91	303.19
294.141	281.19
294.372	272.19
294.603	307.19
294.833	301.19
295.064	292.19
295.295	301.19
295.525	274.19
295.756	288.19
295.987	302.19
296.217	335.19
296.448	322.19
296.679	310.19
296.909	277.19
297.14	283.19
297.37	295.19
297.601	299.19
297.831	280.19
298.062	294.19
298.292	289.19
298.523	294.19
298.753	307.19
298.984	307.19
299.214	294.19
299.445	310.19
299.675	289.19
299.905	306.19
300.136	311.19
300.366	298.19
300.597	300.19
300.827	309.19
301.057	332.19
301.288	321.19
301.518	303.19
301.748	302.19
301.979	320.19
302.209	321.19
302.439	332.19
302.669	326.19
302.9	312.19
303.13	302.19
303.36	318.19
303.59	327.19
303.82	344.19
304.051	334.19
304.281	324.19
304.511	331.19
304.741	309.19
304.971	305.19
305.201	313.19
305.431	332.19
305.661	323.19
305.891	334.19
306.121	321.19
306.352	338.19
306.582	342.19
306.812	309.19
307.042	327.19
307.272	323.19
307.502	326.19
307.731	325.19
307.961	333.19
308.191	334.19
308.421	349.19
308.651	337.19
308.881	334.19
309.111	359.19
309.341	342.19
309.571	346.19
309.8	357.19
310.03	383.19
310.26	389.19
310.49	381.19
310.72	411.19
310.949	413.19
311.179	418.19
311.409	389.19
311.639	381.19
311.868	391.19
312.098	400.19
312.328	389.19
312.557	426.19
312.787	441.19
313.017	430.19
313.246	418.19
313.476	393.19
313.706	383.19
313.935	399.19
314.165	426.19
314.394	423.19
314.624	421.19
314.853	411.19
315.083	389.19
315.312	377.19
315.542	373.19
315.771	351.19
316.001	374.19
316.23	376.19
316.46	393.19
316.689	387.19
316.919	405.19
317.148	377.19
317.377	393.19
317.607	419.19
317.836	393.19
318.065	387.19
318.295	393.19
318.524	377.19
318.753	385.19
318.983	379.19
319.212	361.19
319.441	391.19
319.67	417.19
319.9	389.19
320.129	386.19
320.358	397.19
320.587	391.19
320.816	393.19
321.046	405.19
321.275	434.19
321.504	438.19
321.733	429.19
321.962	433.19
322.191	423.19
322.42	472.19
322.649	509.19
322.878	517.19
323.108	530.19
323.337	529.19
323.566	553.19
323.795	623.19
324.024	694.19
324.253	876.19
324.482	1285.19
324.71	2018.19
324.939	2923.19
325.168	2530.19
325.397	1260.19
325.626	811.19
325.855	659.19
326.084	596.19
326.313	583.19
326.542	602.19
326.77	670.19
326.999	788.19
327.228	1137.19
327.457	1757.19
327.686	2167.19
327.914	1439.19
328.143	906.19
328.372	793.19
328.6	708.19
328.829	673.19
329.058	692.19
329.287	728.19
329.515	641.19
329.744	588.19
329.972	583.19
330.201	622.19
330.43	667.19
330.658	714.19
330.887	756.19
331.115	742.19
331.344	593.19
331.572	547.19
331.801	533.19
332.03	539.19
332.258	497.19
332.486	468.19
332.715	461.19
332.943	468.19
333.172	473.19
333.4	472.19
333.629	481.19
333.857	503.19
334.085	494.19
334.314	536.19
334.542	556.19
334.771	582.19
334.999	537.19
335.227	497.19
335.455	482.19
335.684	471.19
335.912	462.19
336.14	455.19
336.369	451.19
336.597	493.19
336.825	462.19
337.053	450.19
337.281	452.19
337.51	430.19
337.738	487.19
337.966	457.19
338.194	487.19
338.422	480.19
338.65	444.19
338.878	449.19
339.106	445.19
339.334	444.19
339.562	444.19
339.79	421.19
340.018	447.19
340.246	450.19
340.474	464.19
340.702	438.19
340.93	424.19
341.158	450.19
341.386	461.19
341.614	463.19
341.842	452.19
342.07	414.19
342.298	422.19
342.526	435.19
342.754	427.19
342.981	410.19
343.209	426.19
343.437	419.19
343.665	430.19
343.893	420.19
344.12	430.19
344.348	414.19
344.576	438.19
344.804	452.19
345.031	474.19
345.259	476.19
345.487	447.19
345.714	454.19
345.942	461.19
346.17	439.19
346.397	421.19
346.625	460.19
346.853	465.19
347.08	434.19
347.308	433.19
347.535	461.19
347.763	469.19
347.99	457.19
348.218	450.19
348.445	467.19
348.673	465.19
348.9	460.19
349.128	433.19
349.355	426.19
349.583	407.19
349.81	436.19
350.037	417.19
350.265	421.19
350.492	426.19
350.72	440.19
350.947	437.19
351.174	445.19
351.402	466.19
351.629	464.19
351.856	437.19
352.083	441.19
352.311	455.19
352.538	473.19
352.765	484.19
352.992	481.19
353.22	479.19
353.447	447.19
353.674	444.19
353.901	430.19
354.128	406.19
354.355	412.19
354.583	408.19
354.81	405.19
355.037	400.19
355.264	411.19
355.491	392.19
355.718	384.19
355.945	377.19
356.172	405.19
356.399	393.19
356.626	404.19
356.853	404.19
357.08	398.19
357.307	402.19
357.534	397.19
357.761	381.19
357.988	401.19
358.215	396.19
358.441	405.19
358.668	380.19
358.895	395.19
359.122	413.19
359.349	431.19
359.576	461.19
359.802	477.19
360.029	542.19
360.256	548.19
360.483	522.19
360.709	479.19
360.936	458.19
361.163	451.19
361.39	450.19
361.616	452.19
361.843	431.19
362.07	437.19
362.296	477.19
362.523	455.19
362.749	440.19
362.976	441.19
363.203	426.19
363.429	425.19
363.656	429.19
363.882	404.19
364.109	400.19
364.335	416.19
364.562	437.19
364.788	432.19
365.015	419.19
365.241	422.19
365.468	438.19
365.694	440.19
365.92	427.19
366.147	443.19
366.373	405.19
366.599	411.19
366.826	415.19
367.052	408.19
367.278	410.19
367.505	403.19
367.731	428.19
367.957	439.19
368.184	407.19
368.41	431.19
368.636	434.19
368.862	424.19
369.089	441.19
369.315	395.19
369.541	407.19
369.767	421.19
369.993	421.19
370.219	422.19
370.445	413.19
370.672	412.19
370.898	404.19
371.124	416.19
371.35	397.19
371.576	401.19
371.802	402.19
372.028	405.19
372.254	408.19
372.48	407.19
372.706	406.19
372.932	404.19
373.158	409.19
373.384	413.19
373.61	400.19
373.835	425.19
374.061	399.19
374.287	397.19
374.513	417.19
374.739	415.19
374.965	403.19
375.191	409.19
375.416	425.19
375.642	413.19
375.868	406.19
376.094	398.19
376.319	413.19
376.545	407.19
376.771	403.19
376.997	399.19
377.222	411.19
377.448	391.19
377.674	405.19
377.899	404.19
378.125	397.19
378.35	397.19
378.576	399.19
378.802	403.19
379.027	403.19
379.253	415.19
379.478	417.19
379.704	389.19
379.929	399.19
380.155	403.19
380.38	419.19
380.606	427.19
380.831	431.19
381.057	414.19
381.282	395.19
381.507	407.19
381.733	411.19
381.958	404.19
382.184	413.19
382.409	433.19
382.634	433.19
382.86	409.19
383.085	411.19
383.31	408.19
383.535	415.19
383.761	425.19
383.986	412.19
384.211	428.19
384.436	414.19
384.662	433.19
384.887	430.19
385.112	408.19
385.337	432.19
385.562	442.19
385.787	419.19
386.013	443.19
386.238	456.19
386.463	446.19
386.688	437.19
386.913	446.19
387.138	444.19
387.363	452.19
387.588	439.19
387.813	433.19
388.038	437.19
388.263	430.19
388.488	426.19
388.713	440.19
388.938	446.19
389.163	443.19
389.387	445.19
389.612	444.19
389.837	428.19
390.062	438.19
390.287	449.19
390.512	417.19
390.736	439.19
390.961	435.19
391.186	447.19
391.411	433.19
391.636	441.19
391.86	468.19
392.085	457.19
392.31	437.19
392.534	453.19
392.759	450.19
392.984	417.19
393.208	437.19
393.433	460.19
393.658	458.19
393.882	458.19
394.107	449.19
394.331	437.19
394.556	427.19
394.78	462.19
395.005	457.19
395.229	451.19
395.454	413.19
395.678	459.19
395.903	473.19
396.127	513.19
396.352	514.19
396.576	475.19
396.801	457.19
397.025	471.19
397.249	470.19
397.474	461.19
397.698	478.19
397.922	494.19
398.147	509.19
398.371	508.19
398.595	485.19
398.82	491.19
399.044	508.19
399.268	505.19
399.492	527.19
399.717	537.19
399.941	571.19
400.165	607.19
400.389	647.19
400.613	570.19
400.837	550.19
401.062	535.19
401.286	529.19
401.51	518.19
401.734	514.19
401.958	527.19
402.182	521.19
402.406	528.19
402.63	537.19
402.854	530.19
403.078	522.19
403.302	535.19
403.526	563.19
403.75	526.19
403.974	518.19
404.198	527.19
404.422	545.19
404.645	535.19
404.869	552.19
405.093	595.19
405.317	619.19
405.541	650.19
405.765	620.19
405.988	578.19
406.212	581.19
406.436	611.19
406.66	618.19
406.883	609.19
407.107	631.19
407.331	645.19
407.555	732.19
407.778	738.19
408.002	638.19
408.226	606.19
408.449	605.19
408.673	632.19
408.896	633.19
409.12	662.19
409.344	635.19
409.567	571.19
409.791	567.19
410.014	529.19
410.238	539.19
410.461	548.19
410.685	549.19
410.908	583.19
411.132	622.19
411.355	652.19
411.578	620.19
411.802	574.19
412.025	549.19
412.249	549.19
412.472	586.19
412.695	620.19
412.919	603.19
413.142	573.19
413.365	534.19
413.589	535.19
413.812	521.19
414.035	490.19
414.258	517.19
414.482	513.19
414.705	508.19
414.928	505.19
415.151	507.19
415.374	515.19
415.597	495.19
415.821	517.19
416.044	501.19
416.267	500.19
416.49	520.19
416.713	515.19
416.936	525.19
417.159	513.19
417.382	538.19
417.605	526.19
417.828	541.19
418.051	579.19
418.274	549.19
418.497	542.19
418.72	533.19
418.943	518.19
419.166	545.19
419.389	552.19
419.611	546.19
419.834	537.19
420.057	538.19
420.28	539.19
420.503	564.19
420.726	551.19
420.948	569.19
421.171	618.19
421.394	643.19
421.617	606.19
421.839	572.19
422.062	574.19
422.285	577.19
422.507	631.19
422.73	747.19
422.953	726.19
423.175	622.19
423.398	594.19
423.621	589.19
423.843	611.19
424.066	627.19
424.288	615.19
424.511	606.19
424.733	687.19
424.956	807.19
425.178	783.19
425.401	769.19
425.623	758.19
425.846	671.19
426.068	649.19
426.291	603.19
426.513	626.19
426.735	631.19
426.958	680.19
427.18	793.19
427.402	903.19
427.625	1011.19
427.847	922.19
428.069	799.19
428.292	696.19
428.514	602.19
428.736	614.19
428.958	589.19
429.181	605.19
429.403	551.19
429.625	559.19
429.847	631.19
430.069	733.19
430.292	673.19
430.514	613.19
430.736	574.19
430.958	561.19
431.18	529.19
431.402	542.19
431.624	550.19
431.846	513.19
432.068	521.19
432.29	504.19
432.512	536.19
432.734	528.19
432.956	557.19
433.178	537.19
433.4	550.19
433.622	562.19
433.844	519.19
434.066	533.19
434.287	532.19
434.509	540.19
434.731	545.19
434.953	541.19
435.175	550.19
435.397	606.19
435.618	631.19
435.84	663.19
436.062	761.19
436.284	853.19
436.505	725.19
436.727	640.19
436.949	616.19
437.17	576.19
437.392	606.19
437.614	597.19
437.835	656.19
438.057	753.19
438.278	859.19
438.5	892.19
438.721	919.19
438.943	919.19
439.165	732.19
439.386	653.19
439.608	639.19
439.829	653.19
440.05	720.19
440.272	750.19
440.493	699.19
440.715	630.19
440.936	598.19
441.158	587.19
441.379	594.19
441.6	602.19
441.822	611.19
442.043	668.19
442.264	771.19
442.486	829.19
442.707	695.19
442.928	685.19
443.149	677.19
443.371	718.19
443.592	729.19
443.813	854.19
444.034	885.19
444.255	748.19
444.476	657.19
444.698	612.19
444.919	628.19
445.14	756.19
445.361	701.19
445.582	671.19
445.803	771.19
446.024	898.19
446.245	920.19
446.466	799.19
446.687	669.19
446.908	656.19
447.129	606.19
447.35	589.19
447.571	573.19
447.792	566.19
448.013	579.19
448.234	646.19
448.455	676.19
448.675	792.19
448.896	916.19
449.117	784.19
449.338	757.19
449.559	865.19
449.779	987.19
450	805.19
450.221	656.19
450.442	619.19
450.662	581.19
450.883	603.19
451.104	605.19
451.324	621.19
451.545	585.19
451.766	564.19
451.986	536.19
452.207	526.19
452.428	511.19
452.648	506.19
452.869	536.19
453.089	550.19
453.31	551.19
453.53	549.19
453.751	532.19
453.971	540.19
454.192	558.19
454.412	565.19
454.633	551.19
454.853	530.19
455.073	524.19
455.294	549.19
455.514	634.19
455.734	619.19
455.955	536.19
456.175	515.19
456.395	494.19
456.616	481.19
456.836	474.19
457.056	487.19
457.276	469.19
457.497	480.19
457.717	484.19
457.937	502.19
458.157	489.19
458.377	477.19
458.598	503.19
458.818	616.19
459.038	719.19
459.258	717.19
459.478	623.19
459.698	581.19
459.918	527.19
460.138	526.19
460.358	525.19
460.578	529.19
460.798	535.19
461.018	527.19
461.238	493.19
461.458	497.19
461.678	503.19
461.898	517.19
462.118	530.19
462.338	526.19
462.558	541.19
462.777	529.19
462.997	563.19
463.217	535.19
463.437	562.19
463.657	551.19
463.876	525.19
464.096	538.19
464.316	573.19
464.536	562.19
464.755	544.19
464.975	587.19
465.195	657.19
465.414	763.19
465.634	656.19
465.854	581.19
466.073	586.19
466.293	567.19
466.512	517.19
466.732	526.19
466.951	509.19
467.171	487.19
467.391	516.19
467.61	537.19
467.829	552.19
468.049	565.19
468.268	544.19
468.488	527.19
468.707	523.19
468.927	545.19
469.146	504.19
469.365	504.19
469.585	493.19
469.804	515.19
470.023	541.19
470.243	563.19
470.462	555.19
470.681	571.19
470.901	578.19
471.12	543.19
471.339	526.19
471.558	556.19
471.777	540.19
471.997	522.19
472.216	544.19
472.435	603.19
472.654	579.19
472.873	534.19
473.092	537.19
473.311	521.19
473.53	533.19
473.749	535.19
473.968	610.19
474.187	707.19
474.406	780.19
474.625	627.19
474.844	569.19
475.063	551.19
475.282	542.19
475.501	543.19
475.72	556.19
475.939	553.19
476.158	557.19
476.377	554.19
476.596	556.19
476.814	566.19
477.033	581.19
477.252	567.19
477.471	585.19
477.69	580.19
477.908	568.19
478.127	582.19
478.346	563.19
478.564	592.19
478.783	587.19
479.002	614.19
479.22	593.19
479.439	617.19
479.658	654.19
479.876	648.19
480.095	654.19
480.313	693.19
480.532	661.19
480.751	663.19
480.969	686.19
481.188	760.19
481.406	833.19
481.624	729.19
481.843	679.19
482.061	645.19
482.28	658.19
482.498	651.19
482.717	622.19
482.935	646.19
483.153	639.19
483.372	666.19
483.59	639.19
483.808	642.19
484.027	637.19
484.245	651.19
484.463	636.19
484.681	665.19
484.9	645.19
485.118	622.19
485.336	666.19
485.554	673.19
485.772	631.19
485.99	667.19
486.209	654.19
486.427	682.19
486.645	706.19
486.863	719.19
487.081	717.19
487.299	689.19
487.517	711.19
487.735	707.19
487.953	674.19
488.171	691.19
488.389	696.19
488.607	695.19
488.825	711.19
489.043	685.19
489.261	691.19
489.479	712.19
489.696	707.19
489.914	715.19
490.132	695.19
490.35	733.19
490.568	735.19
490.786	746.19
491.003	761.19
491.221	779.19
491.439	807.19
491.657	837.19
491.874	791.19
492.092	830.19
492.31	811.19
492.527	810.19
492.745	843.19
492.963	831.19
493.18	860.19
493.398	845.19
493.615	832.19
493.833	840.19
494.05	859.19
494.268	858.19
494.485	843.19
494.703	855.19
494.92	847.19
495.138	830.19
495.355	871.19
495.573	868.19
495.79	858.19
496.008	857.19
496.225	853.19
496.442	825.19
496.66	850.19
496.877	841.19
497.094	853.19
497.312	853.19
497.529	854.19
497.746	851.19
497.963	855.19
498.181	905.19
498.398	899.19
498.615	868.19
498.832	896.19
499.049	907.19
499.267	910.19
499.484	918.19
499.701	973.19
499.918	951.19
500.135	979.19
500.352	1004.19
500.569	1022.19
500.786	1024.19
501.003	1012.19
501.22	974.19
501.437	997.19
