Data from 1971.PennyLincolnUp.Lamp.En5.5.200Scan.071719.P1._HRD10591_15-19-05-841.txt Node
Date: Thu Jul 18 15:19:05 EDT 2019
User: cochatt
Spectrometer: HR+D1059
Trigger mode: 1
Integration Time (sec): 1.000000E-1
Scans to average: 1
Electric dark correction enabled: true
Nonlinearity correction enabled: false
Boxcar width: 0
XAxis mode: Wavelengths
Number of Pixels in Spectrum: 2048
>>>>>Begin Spectral Data<<<<<
223.165	-19.06
223.4	-19.06
223.635	-19.06
223.869	-10.06
224.104	-11.06
224.338	-19.06
224.573	-12.06
224.808	-23.06
225.042	-13.06
225.277	-19.06
225.511	10.94
225.746	1.94
225.98	0.94
226.215	10.94
226.449	22.94
226.683	16.94
226.918	19.94
227.152	41.94
227.387	43.94
227.621	38.94
227.856	43.94
228.09	39.94
228.324	52.94
228.559	63.94
228.793	60.94
229.027	99.94
229.262	100.94
229.496	106.94
229.73	125.94
229.964	134.94
230.199	128.94
230.433	119.94
230.667	96.94
230.901	119.94
231.136	114.94
231.37	109.94
231.604	101.94
231.838	119.94
232.072	131.94
232.306	118.94
232.541	118.94
232.775	114.94
233.009	115.94
233.243	107.94
233.477	100.94
233.711	101.94
233.945	121.94
234.179	124.94
234.413	132.94
234.647	125.94
234.881	118.94
235.115	124.94
235.349	119.94
235.583	113.94
235.817	118.94
236.051	134.94
236.285	124.94
236.519	124.94
236.753	127.94
236.987	140.94
237.221	187.94
237.455	208.94
237.689	179.94
237.922	144.94
238.156	141.94
238.39	131.94
238.624	135.94
238.858	124.94
239.091	121.94
239.325	123.94
239.559	140.94
239.793	128.94
240.027	134.94
240.26	145.94
240.494	146.94
240.728	133.94
240.961	148.94
241.195	153.94
241.429	120.94
241.662	124.94
241.896	128.94
242.13	139.94
242.363	121.94
242.597	150.94
242.83	127.94
243.064	130.94
243.298	147.94
243.531	140.94
243.765	137.94
243.998	144.94
244.232	142.94
244.465	141.94
244.699	144.94
244.932	142.94
245.166	145.94
245.399	143.94
245.633	146.94
245.866	146.94
246.099	151.94
246.333	152.94
246.566	145.94
246.8	145.94
247.033	161.94
247.266	152.94
247.5	157.94
247.733	177.94
247.966	176.94
248.2	169.94
248.433	180.94
248.666	175.94
248.899	189.94
249.133	200.94
249.366	193.94
249.599	203.94
249.832	183.94
250.066	181.94
250.299	167.94
250.532	177.94
250.765	208.94
250.998	214.94
251.231	230.94
251.465	209.94
251.698	213.94
251.931	195.94
252.164	209.94
252.397	211.94
252.63	197.94
252.863	209.94
253.096	221.94
253.329	229.94
253.562	230.94
253.795	222.94
254.028	233.94
254.261	205.94
254.494	220.94
254.727	272.94
254.96	281.94
255.193	267.94
255.426	240.94
255.659	233.94
255.892	231.94
256.124	235.94
256.357	231.94
256.59	235.94
256.823	209.94
257.056	231.94
257.289	210.94
257.521	206.94
257.754	213.94
257.987	201.94
258.22	236.94
258.452	216.94
258.685	188.94
258.918	224.94
259.151	227.94
259.383	221.94
259.616	216.94
259.849	236.94
260.081	230.94
260.314	244.94
260.547	265.94
260.779	266.94
261.012	251.94
261.244	245.94
261.477	210.94
261.71	231.94
261.942	237.94
262.175	216.94
262.407	224.94
262.64	216.94
262.872	208.94
263.105	207.94
263.337	222.94
263.57	215.94
263.802	212.94
264.035	220.94
264.267	218.94
264.499	214.94
264.732	203.94
264.964	200.94
265.197	213.94
265.429	225.94
265.661	209.94
265.894	221.94
266.126	232.94
266.358	219.94
266.591	227.94
266.823	224.94
267.055	227.94
267.287	248.94
267.52	227.94
267.752	214.94
267.984	231.94
268.216	244.94
268.448	233.94
268.681	245.94
268.913	249.94
269.145	253.94
269.377	288.94
269.609	298.94
269.841	285.94
270.073	278.94
270.306	303.94
270.538	311.94
270.77	316.94
271.002	312.94
271.234	288.94
271.466	310.94
271.698	289.94
271.93	314.94
272.162	332.94
272.394	334.94
272.626	313.94
272.858	291.94
273.09	268.94
273.322	276.94
273.553	275.94
273.785	290.94
274.017	276.94
274.249	262.94
274.481	264.94
274.713	253.94
274.945	285.94
275.176	280.94
275.408	275.94
275.64	234.94
275.872	272.94
276.104	263.94
276.335	277.94
276.567	279.94
276.799	306.94
277.031	301.94
277.262	318.94
277.494	327.94
277.726	295.94
277.957	281.94
278.189	273.94
278.421	277.94
278.652	295.94
278.884	279.94
279.115	276.94
279.347	261.94
279.579	257.94
279.81	275.94
280.042	276.94
280.273	289.94
280.505	262.94
280.736	264.94
280.968	269.94
281.199	283.94
281.431	263.94
281.662	299.94
281.894	292.94
282.125	285.94
282.356	299.94
282.588	319.94
282.819	298.94
283.051	290.94
283.282	295.94
283.513	289.94
283.745	281.94
283.976	286.94
284.207	292.94
284.439	286.94
284.67	271.94
284.901	284.94
285.132	282.94
285.364	284.94
285.595	277.94
285.826	287.94
286.057	281.94
286.288	295.94
286.52	299.94
286.751	275.94
286.982	283.94
287.213	276.94
287.444	299.94
287.675	315.94
287.906	290.94
288.138	304.94
288.369	317.94
288.6	317.94
288.831	310.94
289.062	285.94
289.293	314.94
289.524	300.94
289.755	310.94
289.986	298.94
290.217	295.94
290.448	287.94
290.679	297.94
290.91	308.94
291.141	280.94
291.371	292.94
291.602	312.94
291.833	285.94
292.064	313.94
292.295	290.94
292.526	284.94
292.757	280.94
292.987	288.94
293.218	305.94
293.449	289.94
293.68	294.94
293.91	294.94
294.141	283.94
294.372	299.94
294.603	294.94
294.833	301.94
295.064	285.94
295.295	300.94
295.525	294.94
295.756	295.94
295.987	314.94
296.217	327.94
296.448	305.94
296.679	313.94
296.909	311.94
297.14	306.94
297.37	299.94
297.601	289.94
297.831	311.94
298.062	288.94
298.292	303.94
298.523	315.94
298.753	318.94
298.984	330.94
299.214	325.94
299.445	312.94
299.675	325.94
299.905	323.94
300.136	320.94
300.366	318.94
300.597	320.94
300.827	310.94
301.057	324.94
301.288	323.94
301.518	331.94
301.748	319.94
301.979	322.94
302.209	328.94
302.439	320.94
302.669	312.94
302.9	340.94
303.13	308.94
303.36	344.94
303.59	330.94
303.82	333.94
304.051	314.94
304.281	347.94
304.511	320.94
304.741	336.94
304.971	330.94
305.201	323.94
305.431	317.94
305.661	350.94
305.891	330.94
306.121	324.94
306.352	345.94
306.582	343.94
306.812	331.94
307.042	346.94
307.272	320.94
307.502	315.94
307.731	331.94
307.961	334.94
308.191	348.94
308.421	342.94
308.651	336.94
308.881	343.94
309.111	336.94
309.341	351.94
309.571	349.94
309.8	369.94
310.03	357.94
310.26	376.94
310.49	371.94
310.72	375.94
310.949	377.94
311.179	398.94
311.409	375.94
311.639	373.94
311.868	388.94
312.098	368.94
312.328	395.94
312.557	383.94
312.787	395.94
313.017	403.94
313.246	388.94
313.476	387.94
313.706	371.94
313.935	379.94
314.165	395.94
314.394	420.94
314.624	388.94
314.853	383.94
315.083	395.94
315.312	373.94
315.542	376.94
315.771	349.94
316.001	369.94
316.23	379.94
316.46	371.94
316.689	393.94
316.919	384.94
317.148	382.94
317.377	383.94
317.607	389.94
317.836	380.94
318.065	356.94
318.295	364.94
318.524	376.94
318.753	371.94
318.983	368.94
319.212	373.94
319.441	377.94
319.67	385.94
319.9	393.94
320.129	376.94
320.358	378.94
320.587	383.94
320.816	379.94
321.046	404.94
321.275	417.94
321.504	407.94
321.733	405.94
321.962	399.94
322.191	417.94
322.42	442.94
322.649	435.94
322.878	446.94
323.108	416.94
323.337	468.94
323.566	482.94
323.795	493.94
324.024	574.94
324.253	663.94
324.482	912.94
324.71	1384.94
324.939	1886.94
325.168	1598.94
325.397	836.94
325.626	591.94
325.855	534.94
326.084	493.94
326.313	463.94
326.542	485.94
326.77	540.94
326.999	623.94
327.228	847.94
327.457	1214.94
327.686	1428.94
327.914	935.94
328.143	649.94
328.372	575.94
328.6	543.94
328.829	521.94
329.058	546.94
329.287	537.94
329.515	504.94
329.744	480.94
329.972	493.94
330.201	521.94
330.43	525.94
330.658	544.94
330.887	550.94
331.115	521.94
331.344	523.94
331.572	459.94
331.801	474.94
332.03	468.94
332.258	441.94
332.486	445.94
332.715	421.94
332.943	453.94
333.172	436.94
333.4	439.94
333.629	445.94
333.857	456.94
334.085	460.94
334.314	488.94
334.542	474.94
334.771	494.94
334.999	450.94
335.227	444.94
335.455	453.94
335.684	445.94
335.912	449.94
336.14	428.94
336.369	437.94
336.597	443.94
336.825	436.94
337.053	416.94
337.281	431.94
337.51	437.94
337.738	412.94
337.966	423.94
338.194	438.94
338.422	421.94
338.65	428.94
338.878	394.94
339.106	407.94
339.334	420.94
339.562	419.94
339.79	405.94
340.018	419.94
340.246	419.94
340.474	441.94
340.702	413.94
340.93	419.94
341.158	394.94
341.386	401.94
341.614	408.94
341.842	411.94
342.07	421.94
342.298	412.94
342.526	403.94
342.754	396.94
342.981	387.94
343.209	415.94
343.437	417.94
343.665	414.94
343.893	410.94
344.12	406.94
344.348	421.94
344.576	404.94
344.804	433.94
345.031	414.94
345.259	423.94
345.487	432.94
345.714	420.94
345.942	404.94
346.17	402.94
346.397	400.94
346.625	395.94
346.853	378.94
347.08	392.94
347.308	379.94
347.535	409.94
347.763	405.94
347.99	404.94
348.218	385.94
348.445	393.94
348.673	401.94
348.9	397.94
349.128	384.94
349.355	376.94
349.583	364.94
349.81	374.94
350.037	373.94
350.265	380.94
350.492	388.94
350.72	371.94
350.947	400.94
351.174	392.94
351.402	404.94
351.629	400.94
351.856	383.94
352.083	398.94
352.311	399.94
352.538	396.94
352.765	395.94
352.992	375.94
353.22	377.94
353.447	406.94
353.674	383.94
353.901	381.94
354.128	363.94
354.355	359.94
354.583	362.94
354.81	374.94
355.037	387.94
355.264	366.94
355.491	364.94
355.718	359.94
355.945	363.94
356.172	379.94
356.399	350.94
356.626	360.94
356.853	376.94
357.08	347.94
357.307	360.94
357.534	364.94
357.761	366.94
357.988	368.94
358.215	360.94
358.441	362.94
358.668	341.94
358.895	363.94
359.122	375.94
359.349	371.94
359.576	378.94
359.802	405.94
360.029	424.94
360.256	416.94
360.483	406.94
360.709	380.94
360.936	380.94
361.163	363.94
361.39	379.94
361.616	405.94
361.843	383.94
362.07	384.94
362.296	384.94
362.523	378.94
362.749	383.94
362.976	380.94
363.203	378.94
363.429	364.94
363.656	367.94
363.882	373.94
364.109	366.94
364.335	373.94
364.562	363.94
364.788	375.94
365.015	365.94
365.241	375.94
365.468	384.94
365.694	384.94
365.92	367.94
366.147	357.94
366.373	345.94
366.599	353.94
366.826	353.94
367.052	364.94
367.278	352.94
367.505	367.94
367.731	360.94
367.957	362.94
368.184	365.94
368.41	357.94
368.636	374.94
368.862	345.94
369.089	366.94
369.315	343.94
369.541	361.94
369.767	379.94
369.993	356.94
370.219	353.94
370.445	349.94
370.672	348.94
370.898	337.94
371.124	357.94
371.35	360.94
371.576	355.94
371.802	352.94
372.028	365.94
372.254	358.94
372.48	349.94
372.706	358.94
372.932	371.94
373.158	375.94
373.384	345.94
373.61	364.94
373.835	367.94
374.061	368.94
374.287	354.94
374.513	337.94
374.739	357.94
374.965	355.94
375.191	368.94
375.416	330.94
375.642	365.94
375.868	353.94
376.094	351.94
376.319	358.94
376.545	336.94
376.771	354.94
376.997	345.94
377.222	352.94
377.448	341.94
377.674	346.94
377.899	335.94
378.125	341.94
378.35	339.94
378.576	324.94
378.802	336.94
379.027	365.94
379.253	350.94
379.478	335.94
379.704	352.94
379.929	362.94
380.155	343.94
380.38	351.94
380.606	343.94
380.831	354.94
381.057	340.94
381.282	352.94
381.507	350.94
381.733	354.94
381.958	346.94
382.184	352.94
382.409	369.94
382.634	361.94
382.86	339.94
383.085	351.94
383.31	360.94
383.535	382.94
383.761	378.94
383.986	357.94
384.211	364.94
384.436	350.94
384.662	334.94
384.887	364.94
385.112	364.94
385.337	372.94
385.562	371.94
385.787	353.94
386.013	369.94
386.238	372.94
386.463	366.94
386.688	376.94
386.913	375.94
387.138	385.94
387.363	355.94
387.588	363.94
387.813	383.94
388.038	363.94
388.263	369.94
388.488	376.94
388.713	362.94
388.938	361.94
389.163	371.94
389.387	373.94
389.612	374.94
389.837	373.94
390.062	372.94
390.287	355.94
390.512	346.94
390.736	347.94
390.961	352.94
391.186	374.94
391.411	359.94
391.636	361.94
391.86	379.94
392.085	375.94
392.31	389.94
392.534	387.94
392.759	380.94
392.984	362.94
393.208	364.94
393.433	362.94
393.658	344.94
393.882	366.94
394.107	371.94
394.331	365.94
394.556	368.94
394.78	362.94
395.005	392.94
395.229	399.94
395.454	389.94
395.678	387.94
395.903	392.94
396.127	411.94
396.352	410.94
396.576	392.94
396.801	383.94
397.025	375.94
397.249	386.94
397.474	377.94
397.698	381.94
397.922	386.94
398.147	411.94
398.371	404.94
398.595	402.94
398.82	435.94
399.044	397.94
399.268	439.94
399.492	445.94
399.717	461.94
399.941	472.94
400.165	478.94
400.389	515.94
400.613	464.94
400.837	423.94
401.062	424.94
401.286	424.94
401.51	389.94
401.734	400.94
401.958	387.94
402.182	415.94
402.406	408.94
402.63	408.94
402.854	399.94
403.078	444.94
403.302	421.94
403.526	414.94
403.75	416.94
403.974	402.94
404.198	419.94
404.422	424.94
404.645	438.94
404.869	443.94
405.093	468.94
405.317	479.94
405.541	528.94
405.765	466.94
405.988	444.94
406.212	453.94
406.436	481.94
406.66	475.94
406.883	450.94
407.107	461.94
407.331	516.94
407.555	547.94
407.778	539.94
408.002	502.94
408.226	457.94
408.449	473.94
408.673	471.94
408.896	487.94
409.12	521.94
409.344	470.94
409.567	453.94
409.791	423.94
410.014	429.94
410.238	410.94
410.461	414.94
410.685	442.94
410.908	445.94
411.132	453.94
411.355	479.94
411.578	469.94
411.802	436.94
412.025	415.94
412.249	432.94
412.472	431.94
412.695	461.94
412.919	461.94
413.142	438.94
413.365	405.94
413.589	421.94
413.812	413.94
414.035	401.94
414.258	432.94
414.482	415.94
414.705	410.94
414.928	395.94
415.151	389.94
415.374	379.94
415.597	404.94
415.821	379.94
416.044	391.94
416.267	408.94
416.49	406.94
416.713	400.94
416.936	405.94
417.159	385.94
417.382	388.94
417.605	401.94
417.828	411.94
418.051	402.94
418.274	403.94
418.497	400.94
418.72	403.94
418.943	384.94
419.166	409.94
419.389	419.94
419.611	406.94
419.834	421.94
420.057	409.94
420.28	430.94
420.503	397.94
420.726	405.94
420.948	423.94
421.171	458.94
421.394	472.94
421.617	422.94
421.839	401.94
422.062	416.94
422.285	415.94
422.507	465.94
422.73	537.94
422.953	513.94
423.175	449.94
423.398	432.94
423.621	418.94
423.843	455.94
424.066	440.94
424.288	439.94
424.511	468.94
424.733	497.94
424.956	575.94
425.178	530.94
425.401	535.94
425.623	548.94
425.846	500.94
426.068	457.94
426.291	442.94
426.513	450.94
426.735	447.94
426.958	472.94
427.18	567.94
427.402	641.94
427.625	706.94
427.847	616.94
428.069	526.94
428.292	479.94
428.514	422.94
428.736	429.94
428.958	423.94
429.181	409.94
429.403	405.94
429.625	408.94
429.847	465.94
430.069	492.94
430.292	484.94
430.514	433.94
430.736	398.94
430.958	401.94
431.18	414.94
431.402	396.94
431.624	391.94
431.846	389.94
432.068	381.94
432.29	381.94
432.512	384.94
432.734	400.94
432.956	375.94
433.178	388.94
433.4	410.94
433.622	393.94
433.844	392.94
434.066	389.94
434.287	396.94
434.509	405.94
434.731	394.94
434.953	394.94
435.175	419.94
435.397	441.94
435.618	436.94
435.84	462.94
436.062	562.94
436.284	589.94
436.505	503.94
436.727	439.94
436.949	428.94
437.17	418.94
437.392	412.94
437.614	417.94
437.835	435.94
438.057	516.94
438.278	584.94
438.5	611.94
438.721	660.94
438.943	603.94
439.165	496.94
439.386	472.94
439.608	435.94
439.829	454.94
440.05	449.94
440.272	516.94
440.493	473.94
440.715	419.94
440.936	441.94
441.158	405.94
441.379	407.94
441.6	429.94
441.822	432.94
442.043	487.94
442.264	524.94
442.486	566.94
442.707	495.94
442.928	454.94
443.149	474.94
443.371	468.94
443.592	536.94
443.813	572.94
444.034	604.94
444.255	517.94
444.476	451.94
444.698	442.94
444.919	432.94
445.14	568.94
445.361	504.94
445.582	481.94
445.803	514.94
446.024	599.94
446.245	619.94
446.466	552.94
446.687	487.94
446.908	435.94
447.129	414.94
447.35	425.94
447.571	402.94
447.792	402.94
448.013	419.94
448.234	439.94
448.455	467.94
448.675	552.94
448.896	607.94
449.117	544.94
449.338	526.94
449.559	628.94
449.779	667.94
450	544.94
450.221	463.94
450.442	419.94
450.662	413.94
450.883	408.94
451.104	418.94
451.324	400.94
451.545	398.94
451.766	378.94
451.986	373.94
452.207	343.94
452.428	347.94
452.648	364.94
452.869	357.94
453.089	375.94
453.31	373.94
453.53	367.94
453.751	355.94
453.971	378.94
454.192	371.94
454.412	385.94
454.633	368.94
454.853	355.94
455.073	358.94
455.294	381.94
455.514	447.94
455.734	422.94
455.955	352.94
456.175	357.94
456.395	348.94
456.616	341.94
456.836	329.94
457.056	337.94
457.276	342.94
457.497	342.94
457.717	328.94
457.937	353.94
458.157	348.94
458.377	354.94
458.598	375.94
458.818	409.94
459.038	460.94
459.258	483.94
459.478	418.94
459.698	381.94
459.918	384.94
460.138	367.94
460.358	358.94
460.578	383.94
460.798	395.94
461.018	384.94
461.238	390.94
461.458	389.94
461.678	368.94
461.898	383.94
462.118	375.94
462.338	390.94
462.558	398.94
462.777	382.94
462.997	400.94
463.217	406.94
463.437	412.94
463.657	395.94
463.876	395.94
464.096	378.94
464.316	398.94
464.536	406.94
464.755	414.94
464.975	393.94
465.195	439.94
465.414	478.94
465.634	435.94
465.854	384.94
466.073	393.94
466.293	383.94
466.512	357.94
466.732	360.94
466.951	386.94
467.171	359.94
467.391	359.94
467.61	381.94
467.829	384.94
468.049	371.94
468.268	364.94
468.488	359.94
468.707	343.94
468.927	354.94
469.146	360.94
469.365	371.94
469.585	375.94
469.804	356.94
470.023	367.94
470.243	368.94
470.462	381.94
470.681	415.94
470.901	372.94
471.12	352.94
471.339	352.94
471.558	374.94
471.777	375.94
471.997	383.94
472.216	396.94
472.435	387.94
472.654	365.94
472.873	373.94
473.092	367.94
473.311	379.94
473.53	379.94
473.749	390.94
473.968	412.94
474.187	485.94
474.406	506.94
474.625	417.94
474.844	378.94
475.063	383.94
475.282	398.94
475.501	388.94
475.72	364.94
475.939	406.94
476.158	387.94
476.377	387.94
476.596	368.94
476.814	385.94
477.033	377.94
477.252	389.94
477.471	395.94
477.69	396.94
477.908	389.94
478.127	414.94
478.346	402.94
478.564	439.94
478.783	429.94
479.002	430.94
479.22	422.94
479.439	446.94
479.658	446.94
479.876	437.94
480.095	463.94
480.313	463.94
480.532	452.94
480.751	462.94
480.969	437.94
481.188	473.94
481.406	496.94
481.624	459.94
481.843	461.94
482.061	445.94
482.28	429.94
482.498	433.94
482.717	419.94
482.935	444.94
483.153	435.94
483.372	421.94
483.59	430.94
483.808	439.94
484.027	417.94
484.245	424.94
484.463	439.94
484.681	456.94
484.9	436.94
485.118	452.94
485.336	426.94
485.554	454.94
485.772	460.94
485.99	451.94
486.209	443.94
486.427	456.94
486.645	466.94
486.863	483.94
487.081	480.94
487.299	457.94
487.517	468.94
487.735	469.94
487.953	480.94
488.171	480.94
488.389	463.94
488.607	470.94
488.825	469.94
489.043	460.94
489.261	481.94
489.479	484.94
489.696	487.94
489.914	457.94
490.132	477.94
490.35	493.94
490.568	478.94
490.786	495.94
491.003	516.94
491.221	532.94
491.439	511.94
491.657	537.94
491.874	542.94
492.092	544.94
492.31	523.94
492.527	550.94
492.745	568.94
492.963	541.94
493.18	537.94
493.398	567.94
493.615	556.94
493.833	565.94
494.05	556.94
494.268	529.94
494.485	553.94
494.703	567.94
494.92	574.94
495.138	549.94
495.355	549.94
495.573	552.94
495.79	570.94
496.008	562.94
496.225	561.94
496.442	553.94
496.66	544.94
496.877	551.94
497.094	572.94
497.312	554.94
497.529	555.94
497.746	576.94
497.963	567.94
498.181	576.94
498.398	577.94
498.615	602.94
498.832	595.94
499.049	613.94
499.267	621.94
499.484	628.94
499.701	662.94
499.918	676.94
500.135	685.94
500.352	729.94
500.569	710.94
500.786	747.94
501.003	730.94
501.22	714.94
501.437	710.94
501.654	673.94
501.871	662.94
