Data from 1971.PennyLincolnUp.Lamp.En5.5.200Scan.071719.P1.Scan 2. Changed Angle._HRD10591_15-23-21-843.txt Node
Date: Thu Jul 18 15:23:21 EDT 2019
User: cochatt
Spectrometer: HR+D1059
Trigger mode: 1
Integration Time (sec): 1.000000E-1
Scans to average: 1
Electric dark correction enabled: true
Nonlinearity correction enabled: false
Boxcar width: 0
XAxis mode: Wavelengths
Number of Pixels in Spectrum: 2048
>>>>>Begin Spectral Data<<<<<
223.165	-17.75
223.4	-17.75
223.635	-17.75
223.869	-14.75
224.104	-20.75
224.338	-18.75
224.573	1.25
224.808	-13.75
225.042	7.25
225.277	-9.75
225.511	-4.75
225.746	6.25
225.98	6.25
226.215	5.25
226.449	6.25
226.683	25.25
226.918	12.25
227.152	30.25
227.387	42.25
227.621	34.25
227.856	34.25
228.09	39.25
228.324	46.25
228.559	69.25
228.793	64.25
229.027	105.25
229.262	101.25
229.496	111.25
229.73	144.25
229.964	178.25
230.199	140.25
230.433	114.25
230.667	120.25
230.901	126.25
231.136	119.25
231.37	110.25
231.604	128.25
231.838	102.25
232.072	127.25
232.306	125.25
232.541	129.25
232.775	113.25
233.009	117.25
233.243	130.25
233.477	125.25
233.711	120.25
233.945	114.25
234.179	115.25
234.413	127.25
234.647	124.25
234.881	130.25
235.115	116.25
235.349	112.25
235.583	124.25
235.817	134.25
236.051	130.25
236.285	140.25
236.519	131.25
236.753	148.25
236.987	150.25
237.221	201.25
237.455	272.25
237.689	188.25
237.922	152.25
238.156	138.25
238.39	139.25
238.624	121.25
238.858	121.25
239.091	140.25
239.325	136.25
239.559	142.25
239.793	142.25
240.027	140.25
240.26	143.25
240.494	170.25
240.728	150.25
240.961	165.25
241.195	143.25
241.429	142.25
241.662	138.25
241.896	143.25
242.13	136.25
242.363	123.25
242.597	141.25
242.83	150.25
243.064	143.25
243.298	134.25
243.531	126.25
243.765	138.25
243.998	134.25
244.232	131.25
244.465	152.25
244.699	152.25
244.932	156.25
245.166	143.25
245.399	139.25
245.633	155.25
245.866	152.25
246.099	147.25
246.333	167.25
246.566	158.25
246.8	165.25
247.033	160.25
247.266	163.25
247.5	163.25
247.733	172.25
247.966	183.25
248.2	173.25
248.433	190.25
248.666	184.25
248.899	182.25
249.133	198.25
249.366	223.25
249.599	202.25
249.832	194.25
250.066	199.25
250.299	192.25
250.532	214.25
250.765	219.25
250.998	256.25
251.231	233.25
251.465	234.25
251.698	221.25
251.931	208.25
252.164	221.25
252.397	208.25
252.63	214.25
252.863	215.25
253.096	224.25
253.329	246.25
253.562	254.25
253.795	232.25
254.028	238.25
254.261	222.25
254.494	250.25
254.727	275.25
254.96	298.25
255.193	292.25
255.426	254.25
255.659	274.25
255.892	252.25
256.124	234.25
256.357	246.25
256.59	244.25
256.823	238.25
257.056	226.25
257.289	224.25
257.521	222.25
257.754	218.25
257.987	226.25
258.22	222.25
258.452	214.25
258.685	205.25
258.918	208.25
259.151	223.25
259.383	219.25
259.616	219.25
259.849	231.25
260.081	256.25
260.314	261.25
260.547	276.25
260.779	258.25
261.012	238.25
261.244	249.25
261.477	230.25
261.71	233.25
261.942	224.25
262.175	246.25
262.407	230.25
262.64	227.25
262.872	229.25
263.105	224.25
263.337	218.25
263.57	224.25
263.802	202.25
264.035	226.25
264.267	215.25
264.499	218.25
264.732	212.25
264.964	201.25
265.197	192.25
265.429	219.25
265.661	209.25
265.894	206.25
266.126	226.25
266.358	208.25
266.591	204.25
266.823	219.25
267.055	245.25
267.287	225.25
267.52	232.25
267.752	230.25
267.984	198.25
268.216	227.25
268.448	240.25
268.681	236.25
268.913	235.25
269.145	256.25
269.377	274.25
269.609	285.25
269.841	256.25
270.073	286.25
270.306	309.25
270.538	320.25
270.77	314.25
271.002	325.25
271.234	301.25
271.466	323.25
271.698	330.25
271.93	320.25
272.162	326.25
272.394	315.25
272.626	327.25
272.858	301.25
273.09	277.25
273.322	278.25
273.553	272.25
273.785	267.25
274.017	260.25
274.249	260.25
274.481	244.25
274.713	263.25
274.945	263.25
275.176	271.25
275.408	256.25
275.64	255.25
275.872	269.25
276.104	275.25
276.335	262.25
276.567	270.25
276.799	293.25
277.031	315.25
277.262	306.25
277.494	318.25
277.726	293.25
277.957	308.25
278.189	272.25
278.421	277.25
278.652	263.25
278.884	249.25
279.115	254.25
279.347	242.25
279.579	251.25
279.81	262.25
280.042	264.25
280.273	262.25
280.505	242.25
280.736	243.25
280.968	234.25
281.199	253.25
281.431	249.25
281.662	259.25
281.894	252.25
282.125	261.25
282.356	276.25
282.588	298.25
282.819	302.25
283.051	253.25
283.282	254.25
283.513	255.25
283.745	274.25
283.976	258.25
284.207	263.25
284.439	267.25
284.67	268.25
284.901	275.25
285.132	263.25
285.364	261.25
285.595	268.25
285.826	247.25
286.057	266.25
286.288	275.25
286.52	288.25
286.751	255.25
286.982	245.25
287.213	273.25
287.444	263.25
287.675	262.25
287.906	273.25
288.138	296.25
288.369	300.25
288.6	281.25
288.831	285.25
289.062	278.25
289.293	274.25
289.524	275.25
289.755	271.25
289.986	277.25
290.217	290.25
290.448	270.25
290.679	272.25
290.91	268.25
291.141	254.25
291.371	282.25
291.602	280.25
291.833	274.25
292.064	276.25
292.295	289.25
292.526	282.25
292.757	275.25
292.987	275.25
293.218	273.25
293.449	267.25
293.68	262.25
293.91	252.25
294.141	279.25
294.372	261.25
294.603	271.25
294.833	281.25
295.064	269.25
295.295	265.25
295.525	265.25
295.756	271.25
295.987	304.25
296.217	307.25
296.448	303.25
296.679	295.25
296.909	286.25
297.14	294.25
297.37	282.25
297.601	282.25
297.831	275.25
298.062	268.25
298.292	281.25
298.523	273.25
298.753	272.25
298.984	291.25
299.214	282.25
299.445	277.25
299.675	279.25
299.905	296.25
300.136	283.25
300.366	288.25
300.597	295.25
300.827	287.25
301.057	299.25
301.288	302.25
301.518	310.25
301.748	304.25
301.979	291.25
302.209	297.25
302.439	296.25
302.669	310.25
302.9	315.25
303.13	322.25
303.36	297.25
303.59	300.25
303.82	300.25
304.051	332.25
304.281	316.25
304.511	310.25
304.741	295.25
304.971	316.25
305.201	302.25
305.431	295.25
305.661	303.25
305.891	323.25
306.121	323.25
306.352	319.25
306.582	310.25
306.812	306.25
307.042	316.25
307.272	297.25
307.502	327.25
307.731	317.25
307.961	315.25
308.191	313.25
308.421	300.25
308.651	304.25
308.881	304.25
309.111	327.25
309.341	333.25
309.571	332.25
309.8	347.25
310.03	341.25
310.26	364.25
310.49	351.25
310.72	380.25
310.949	398.25
311.179	401.25
311.409	365.25
311.639	363.25
311.868	359.25
312.098	354.25
312.328	386.25
312.557	384.25
312.787	377.25
313.017	420.25
313.246	376.25
313.476	371.25
313.706	359.25
313.935	378.25
314.165	392.25
314.394	379.25
314.624	421.25
314.853	382.25
315.083	382.25
315.312	354.25
315.542	378.25
315.771	358.25
316.001	335.25
316.23	340.25
316.46	357.25
316.689	356.25
316.919	384.25
317.148	363.25
317.377	382.25
317.607	388.25
317.836	362.25
318.065	373.25
318.295	362.25
318.524	362.25
318.753	374.25
318.983	352.25
319.212	375.25
319.441	380.25
319.67	390.25
319.9	373.25
320.129	365.25
320.358	366.25
320.587	368.25
320.816	390.25
321.046	398.25
321.275	403.25
321.504	397.25
321.733	392.25
321.962	408.25
322.191	436.25
322.42	431.25
322.649	477.25
322.878	447.25
323.108	461.25
323.337	498.25
323.566	519.25
323.795	567.25
324.024	627.25
324.253	790.25
324.482	1131.25
324.71	1722.25
324.939	2419.25
325.168	2109.25
325.397	1122.25
325.626	751.25
325.855	606.25
326.084	557.25
326.313	525.25
326.542	528.25
326.77	576.25
326.999	704.25
327.228	990.25
327.457	1511.25
327.686	1898.25
327.914	1242.25
328.143	797.25
328.372	692.25
328.6	657.25
328.829	606.25
329.058	646.25
329.287	633.25
329.515	564.25
329.744	557.25
329.972	529.25
330.201	558.25
330.43	604.25
330.658	618.25
330.887	657.25
331.115	662.25
331.344	551.25
331.572	527.25
331.801	482.25
332.03	510.25
332.258	475.25
332.486	448.25
332.715	439.25
332.943	442.25
333.172	428.25
333.4	427.25
333.629	455.25
333.857	463.25
334.085	464.25
334.314	513.25
334.542	522.25
334.771	533.25
334.999	502.25
335.227	474.25
335.455	427.25
335.684	444.25
335.912	428.25
336.14	416.25
336.369	432.25
336.597	414.25
336.825	444.25
337.053	444.25
337.281	432.25
337.51	420.25
337.738	418.25
337.966	415.25
338.194	424.25
338.422	422.25
338.65	434.25
338.878	407.25
339.106	410.25
339.334	426.25
339.562	400.25
339.79	408.25
340.018	408.25
340.246	425.25
340.474	436.25
340.702	423.25
340.93	419.25
341.158	409.25
341.386	391.25
341.614	398.25
341.842	422.25
342.07	391.25
342.298	413.25
342.526	403.25
342.754	391.25
342.981	386.25
343.209	405.25
343.437	399.25
343.665	407.25
343.893	416.25
344.12	392.25
344.348	424.25
344.576	408.25
344.804	432.25
345.031	452.25
345.259	461.25
345.487	445.25
345.714	424.25
345.942	430.25
346.17	385.25
346.397	412.25
346.625	407.25
346.853	425.25
347.08	421.25
347.308	402.25
347.535	409.25
347.763	444.25
347.99	416.25
348.218	434.25
348.445	454.25
348.673	432.25
348.9	429.25
349.128	403.25
349.355	388.25
349.583	397.25
349.81	398.25
350.037	405.25
350.265	419.25
350.492	399.25
350.72	410.25
350.947	401.25
351.174	427.25
351.402	438.25
351.629	427.25
351.856	412.25
352.083	415.25
352.311	442.25
352.538	447.25
352.765	460.25
352.992	424.25
353.22	414.25
353.447	419.25
353.674	404.25
353.901	407.25
354.128	424.25
354.355	382.25
354.583	383.25
354.81	402.25
355.037	379.25
355.264	388.25
355.491	380.25
355.718	397.25
355.945	378.25
356.172	366.25
356.399	359.25
356.626	367.25
356.853	380.25
357.08	388.25
357.307	371.25
357.534	374.25
357.761	370.25
357.988	368.25
358.215	386.25
358.441	382.25
358.668	371.25
358.895	394.25
359.122	397.25
359.349	418.25
359.576	434.25
359.802	444.25
360.029	511.25
360.256	493.25
360.483	483.25
360.709	445.25
360.936	422.25
361.163	431.25
361.39	392.25
361.616	426.25
361.843	419.25
362.07	409.25
362.296	436.25
362.523	410.25
362.749	422.25
362.976	434.25
363.203	422.25
363.429	382.25
363.656	402.25
363.882	406.25
364.109	383.25
364.335	388.25
364.562	410.25
364.788	400.25
365.015	390.25
365.241	381.25
365.468	424.25
365.694	420.25
365.92	429.25
366.147	402.25
366.373	418.25
366.599	392.25
366.826	400.25
367.052	403.25
367.278	400.25
367.505	390.25
367.731	384.25
367.957	388.25
368.184	385.25
368.41	430.25
368.636	425.25
368.862	413.25
369.089	419.25
369.315	413.25
369.541	402.25
369.767	389.25
369.993	381.25
370.219	393.25
370.445	397.25
370.672	392.25
370.898	378.25
371.124	395.25
371.35	390.25
371.576	399.25
371.802	408.25
372.028	412.25
372.254	400.25
372.48	391.25
372.706	379.25
372.932	394.25
373.158	416.25
373.384	410.25
373.61	398.25
373.835	412.25
374.061	400.25
374.287	407.25
374.513	402.25
374.739	388.25
374.965	408.25
375.191	398.25
375.416	393.25
375.642	391.25
375.868	414.25
376.094	387.25
376.319	388.25
376.545	382.25
376.771	390.25
376.997	400.25
377.222	382.25
377.448	408.25
377.674	420.25
377.899	392.25
378.125	381.25
378.35	406.25
378.576	383.25
378.802	388.25
379.027	408.25
379.253	394.25
379.478	394.25
379.704	402.25
379.929	399.25
380.155	388.25
380.38	404.25
380.606	387.25
380.831	403.25
381.057	407.25
381.282	394.25
381.507	396.25
381.733	396.25
381.958	395.25
382.184	401.25
382.409	403.25
382.634	404.25
382.86	406.25
383.085	407.25
383.31	395.25
383.535	404.25
383.761	392.25
383.986	409.25
384.211	418.25
384.436	419.25
384.662	409.25
384.887	419.25
385.112	411.25
385.337	423.25
385.562	408.25
385.787	422.25
386.013	425.25
386.238	447.25
386.463	445.25
386.688	434.25
386.913	421.25
387.138	420.25
387.363	424.25
387.588	431.25
387.813	434.25
388.038	413.25
388.263	408.25
388.488	438.25
388.713	436.25
388.938	429.25
389.163	434.25
389.387	439.25
389.612	422.25
389.837	418.25
390.062	439.25
390.287	436.25
390.512	429.25
390.736	420.25
390.961	426.25
391.186	420.25
391.411	443.25
391.636	446.25
391.86	440.25
392.085	424.25
392.31	453.25
392.534	443.25
392.759	446.25
392.984	455.25
393.208	451.25
393.433	459.25
393.658	448.25
393.882	442.25
394.107	427.25
394.331	442.25
394.556	428.25
394.78	449.25
395.005	432.25
395.229	423.25
395.454	435.25
395.678	432.25
395.903	445.25
396.127	482.25
396.352	500.25
396.576	465.25
396.801	474.25
397.025	492.25
397.249	463.25
397.474	449.25
397.698	440.25
397.922	470.25
398.147	500.25
398.371	500.25
398.595	478.25
398.82	485.25
399.044	471.25
399.268	511.25
399.492	518.25
399.717	532.25
399.941	563.25
400.165	598.25
400.389	643.25
400.613	543.25
400.837	518.25
401.062	519.25
401.286	526.25
401.51	501.25
401.734	491.25
401.958	525.25
402.182	485.25
402.406	496.25
402.63	534.25
402.854	527.25
403.078	520.25
403.302	527.25
403.526	525.25
403.75	513.25
403.974	493.25
404.198	520.25
404.422	532.25
404.645	516.25
404.869	541.25
405.093	562.25
405.317	603.25
405.541	641.25
405.765	594.25
405.988	538.25
406.212	549.25
406.436	577.25
406.66	579.25
406.883	547.25
407.107	591.25
407.331	613.25
407.555	705.25
407.778	690.25
408.002	659.25
408.226	597.25
408.449	562.25
408.673	584.25
408.896	613.25
409.12	658.25
409.344	622.25
409.567	548.25
409.791	546.25
410.014	528.25
410.238	518.25
410.461	551.25
410.685	546.25
410.908	556.25
411.132	560.25
411.355	612.25
411.578	605.25
411.802	556.25
412.025	532.25
412.249	546.25
412.472	564.25
412.695	595.25
412.919	583.25
413.142	566.25
413.365	520.25
413.589	492.25
413.812	495.25
414.035	503.25
414.258	484.25
414.482	493.25
414.705	466.25
414.928	487.25
415.151	477.25
415.374	484.25
415.597	500.25
415.821	499.25
416.044	502.25
416.267	502.25
416.49	480.25
416.713	473.25
416.936	485.25
417.159	490.25
417.382	490.25
417.605	494.25
417.828	521.25
418.051	529.25
418.274	525.25
418.497	508.25
418.72	523.25
418.943	494.25
419.166	516.25
419.389	522.25
419.611	546.25
419.834	528.25
420.057	547.25
420.28	532.25
420.503	527.25
420.726	530.25
420.948	514.25
421.171	595.25
421.394	615.25
421.617	539.25
421.839	563.25
422.062	529.25
422.285	543.25
422.507	624.25
422.73	702.25
422.953	695.25
423.175	598.25
423.398	558.25
423.621	546.25
423.843	576.25
424.066	562.25
424.288	564.25
424.511	618.25
424.733	648.25
424.956	725.25
425.178	685.25
425.401	725.25
425.623	718.25
425.846	623.25
426.068	595.25
426.291	573.25
426.513	586.25
426.735	605.25
426.958	652.25
427.18	760.25
427.402	872.25
427.625	968.25
427.847	862.25
428.069	776.25
428.292	678.25
428.514	611.25
428.736	574.25
428.958	574.25
429.181	565.25
429.403	544.25
429.625	567.25
429.847	602.25
430.069	646.25
430.292	674.25
430.514	572.25
430.736	552.25
430.958	555.25
431.18	526.25
431.402	521.25
431.624	517.25
431.846	516.25
432.068	518.25
432.29	520.25
432.512	524.25
432.734	507.25
432.956	520.25
433.178	534.25
433.4	532.25
433.622	527.25
433.844	526.25
434.066	512.25
434.287	503.25
434.509	511.25
434.731	518.25
434.953	518.25
435.175	547.25
435.397	569.25
435.618	592.25
435.84	656.25
436.062	743.25
436.284	798.25
436.505	687.25
436.727	629.25
436.949	559.25
437.17	559.25
437.392	552.25
437.614	583.25
437.835	607.25
438.057	735.25
438.278	820.25
438.5	812.25
438.721	894.25
438.943	824.25
439.165	698.25
439.386	634.25
439.608	610.25
439.829	607.25
440.05	631.25
440.272	695.25
440.493	646.25
440.715	599.25
440.936	584.25
441.158	575.25
441.379	550.25
441.6	568.25
441.822	602.25
442.043	650.25
442.264	722.25
442.486	767.25
442.707	682.25
442.928	617.25
443.149	616.25
443.371	650.25
443.592	678.25
443.813	789.25
444.034	829.25
444.255	692.25
444.476	631.25
444.698	583.25
444.919	595.25
445.14	697.25
445.361	657.25
445.582	637.25
445.803	722.25
446.024	810.25
446.245	838.25
446.466	763.25
446.687	660.25
446.908	631.25
447.129	582.25
447.35	565.25
447.571	551.25
447.792	545.25
448.013	550.25
448.234	604.25
448.455	643.25
448.675	756.25
448.896	856.25
449.117	744.25
449.338	720.25
449.559	810.25
449.779	893.25
450	754.25
450.221	624.25
450.442	579.25
450.662	560.25
450.883	565.25
451.104	592.25
451.324	585.25
451.545	548.25
451.766	499.25
451.986	490.25
452.207	470.25
452.428	476.25
452.648	496.25
452.869	505.25
453.089	517.25
453.31	514.25
453.53	499.25
453.751	516.25
453.971	490.25
454.192	532.25
454.412	504.25
454.633	498.25
454.853	487.25
455.073	488.25
455.294	510.25
455.514	604.25
455.734	583.25
455.955	495.25
456.175	471.25
456.395	481.25
456.616	458.25
456.836	470.25
457.056	481.25
457.276	451.25
457.497	465.25
457.717	438.25
457.937	464.25
458.157	467.25
458.377	473.25
458.598	523.25
458.818	554.25
459.038	693.25
459.258	698.25
459.478	588.25
459.698	543.25
459.918	519.25
460.138	516.25
460.358	493.25
460.578	506.25
460.798	503.25
461.018	529.25
461.238	495.25
461.458	501.25
461.678	502.25
461.898	514.25
462.118	507.25
462.338	499.25
462.558	516.25
462.777	519.25
462.997	517.25
463.217	546.25
463.437	537.25
463.657	531.25
463.876	530.25
464.096	525.25
464.316	523.25
464.536	544.25
464.755	522.25
464.975	551.25
465.195	641.25
465.414	726.25
465.634	629.25
465.854	592.25
466.073	523.25
466.293	531.25
466.512	518.25
466.732	502.25
466.951	507.25
467.171	493.25
467.391	511.25
467.61	530.25
467.829	545.25
468.049	538.25
468.268	508.25
468.488	471.25
468.707	490.25
468.927	489.25
469.146	478.25
469.365	481.25
469.585	499.25
469.804	472.25
470.023	518.25
470.243	511.25
470.462	514.25
470.681	537.25
470.901	550.25
471.12	504.25
471.339	516.25
471.558	507.25
471.777	522.25
471.997	515.25
472.216	511.25
472.435	550.25
472.654	541.25
472.873	512.25
473.092	519.25
473.311	500.25
473.53	498.25
473.749	530.25
473.968	556.25
474.187	698.25
474.406	696.25
474.625	592.25
474.844	529.25
475.063	522.25
475.282	504.25
475.501	523.25
475.72	528.25
475.939	531.25
476.158	528.25
476.377	546.25
476.596	527.25
476.814	550.25
477.033	566.25
477.252	530.25
477.471	551.25
477.69	562.25
477.908	563.25
478.127	567.25
478.346	554.25
478.564	584.25
478.783	568.25
479.002	575.25
479.22	590.25
479.439	604.25
479.658	627.25
479.876	629.25
480.095	619.25
480.313	648.25
480.532	640.25
480.751	610.25
480.969	640.25
481.188	694.25
481.406	741.25
481.624	672.25
481.843	630.25
482.061	649.25
482.28	630.25
482.498	589.25
482.717	605.25
482.935	630.25
483.153	628.25
483.372	608.25
483.59	631.25
483.808	605.25
484.027	603.25
484.245	610.25
484.463	629.25
484.681	636.25
484.9	606.25
485.118	636.25
485.336	635.25
485.554	617.25
485.772	625.25
485.99	644.25
486.209	635.25
486.427	655.25
486.645	636.25
486.863	666.25
487.081	690.25
487.299	657.25
487.517	630.25
487.735	632.25
487.953	684.25
488.171	690.25
488.389	666.25
488.607	684.25
488.825	686.25
489.043	681.25
489.261	653.25
489.479	675.25
489.696	679.25
489.914	681.25
490.132	697.25
490.35	689.25
490.568	720.25
490.786	734.25
491.003	706.25
491.221	740.25
491.439	742.25
491.657	754.25
491.874	781.25
492.092	775.25
492.31	771.25
492.527	787.25
492.745	809.25
492.963	778.25
493.18	756.25
493.398	822.25
493.615	814.25
493.833	790.25
494.05	844.25
494.268	798.25
494.485	822.25
494.703	780.25
494.92	826.25
495.138	798.25
495.355	804.25
495.573	816.25
495.79	782.25
496.008	836.25
496.225	800.25
496.442	787.25
496.66	782.25
496.877	793.25
497.094	847.25
497.312	825.25
497.529	802.25
497.746	832.25
497.963	851.25
498.181	851.25
498.398	837.25
498.615	838.25
498.832	900.25
499.049	876.25
499.267	889.25
499.484	893.25
499.701	895.25
499.918	939.25
500.135	958.25
500.352	971.25
500.569	980.25
500.786	988.25
501.003	993.25
501.22	955.25
501.437	980.25
501.654	979.25
