Data from 1971.PennyLincolnUp.Lamp.En5.5.200Scan.071719.P1.Scan 2. Changed Angle._HRD10591_15-24-39-842.txt Node
Date: Thu Jul 18 15:24:39 EDT 2019
User: cochatt
Spectrometer: HR+D1059
Trigger mode: 1
Integration Time (sec): 1.000000E-1
Scans to average: 1
Electric dark correction enabled: true
Nonlinearity correction enabled: false
Boxcar width: 0
XAxis mode: Wavelengths
Number of Pixels in Spectrum: 2048
>>>>>Begin Spectral Data<<<<<
223.165	-21.69
223.4	-21.69
223.635	-21.69
223.869	-18.69
224.104	-19.69
224.338	-15.69
224.573	-18.69
224.808	-8.69
225.042	-5.69
225.277	7.31
225.511	-5.69
225.746	-9.69
225.98	3.31
226.215	7.31
226.449	19.31
226.683	20.31
226.918	20.31
227.152	46.31
227.387	34.31
227.621	28.31
227.856	51.31
228.09	42.31
228.324	50.31
228.559	50.31
228.793	66.31
229.027	117.31
229.262	114.31
229.496	128.31
229.73	152.31
229.964	182.31
230.199	142.31
230.433	133.31
230.667	119.31
230.901	116.31
231.136	114.31
231.37	113.31
231.604	121.31
231.838	118.31
232.072	122.31
232.306	110.31
232.541	133.31
232.775	119.31
233.009	124.31
233.243	124.31
233.477	111.31
233.711	114.31
233.945	119.31
234.179	117.31
234.413	134.31
234.647	110.31
234.881	117.31
235.115	102.31
235.349	117.31
235.583	132.31
235.817	114.31
236.051	129.31
236.285	134.31
236.519	132.31
236.753	145.31
236.987	154.31
237.221	196.31
237.455	235.31
237.689	212.31
237.922	150.31
238.156	145.31
238.39	154.31
238.624	141.31
238.858	134.31
239.091	128.31
239.325	138.31
239.559	134.31
239.793	137.31
240.027	143.31
240.26	163.31
240.494	173.31
240.728	170.31
240.961	174.31
241.195	158.31
241.429	154.31
241.662	146.31
241.896	151.31
242.13	156.31
242.363	138.31
242.597	146.31
242.83	147.31
243.064	137.31
243.298	141.31
243.531	139.31
243.765	156.31
243.998	148.31
244.232	138.31
244.465	142.31
244.699	160.31
244.932	163.31
245.166	147.31
245.399	149.31
245.633	161.31
245.866	179.31
246.099	168.31
246.333	164.31
246.566	150.31
246.8	168.31
247.033	155.31
247.266	156.31
247.5	172.31
247.733	194.31
247.966	188.31
248.2	193.31
248.433	177.31
248.666	191.31
248.899	202.31
249.133	218.31
249.366	235.31
249.599	221.31
249.832	197.31
250.066	206.31
250.299	215.31
250.532	216.31
250.765	216.31
250.998	259.31
251.231	242.31
251.465	246.31
251.698	222.31
251.931	225.31
252.164	221.31
252.397	204.31
252.63	226.31
252.863	217.31
253.096	220.31
253.329	242.31
253.562	253.31
253.795	248.31
254.028	244.31
254.261	230.31
254.494	260.31
254.727	284.31
254.96	318.31
255.193	327.31
255.426	296.31
255.659	273.31
255.892	264.31
256.124	258.31
256.357	258.31
256.59	247.31
256.823	248.31
257.056	237.31
257.289	242.31
257.521	227.31
257.754	238.31
257.987	236.31
258.22	233.31
258.452	209.31
258.685	225.31
258.918	228.31
259.151	229.31
259.383	238.31
259.616	257.31
259.849	247.31
260.081	268.31
260.314	292.31
260.547	275.31
260.779	262.31
261.012	277.31
261.244	260.31
261.477	244.31
261.71	243.31
261.942	273.31
262.175	265.31
262.407	238.31
262.64	243.31
262.872	210.31
263.105	225.31
263.337	220.31
263.57	203.31
263.802	234.31
264.035	226.31
264.267	231.31
264.499	229.31
264.732	237.31
264.964	234.31
265.197	217.31
265.429	237.31
265.661	210.31
265.894	222.31
266.126	227.31
266.358	211.31
266.591	243.31
266.823	253.31
267.055	226.31
267.287	256.31
267.52	226.31
267.752	229.31
267.984	244.31
268.216	228.31
268.448	257.31
268.681	243.31
268.913	251.31
269.145	279.31
269.377	308.31
269.609	280.31
269.841	269.31
270.073	294.31
270.306	324.31
270.538	356.31
270.77	341.31
271.002	327.31
271.234	331.31
271.466	338.31
271.698	336.31
271.93	340.31
272.162	339.31
272.394	343.31
272.626	333.31
272.858	296.31
273.09	297.31
273.322	295.31
273.553	280.31
273.785	271.31
274.017	281.31
274.249	274.31
274.481	279.31
274.713	292.31
274.945	298.31
275.176	289.31
275.408	277.31
275.64	272.31
275.872	279.31
276.104	284.31
276.335	288.31
276.567	282.31
276.799	295.31
277.031	355.31
277.262	345.31
277.494	347.31
277.726	332.31
277.957	307.31
278.189	311.31
278.421	280.31
278.652	274.31
278.884	265.31
279.115	279.31
279.347	272.31
279.579	274.31
279.81	274.31
280.042	272.31
280.273	274.31
280.505	275.31
280.736	263.31
280.968	264.31
281.199	266.31
281.431	261.31
281.662	272.31
281.894	259.31
282.125	287.31
282.356	300.31
282.588	316.31
282.819	314.31
283.051	286.31
283.282	270.31
283.513	265.31
283.745	289.31
283.976	277.31
284.207	280.31
284.439	274.31
284.67	297.31
284.901	280.31
285.132	271.31
285.364	266.31
285.595	268.31
285.826	270.31
286.057	273.31
286.288	284.31
286.52	285.31
286.751	295.31
286.982	288.31
287.213	272.31
287.444	269.31
287.675	292.31
287.906	300.31
288.138	292.31
288.369	325.31
288.6	312.31
288.831	286.31
289.062	284.31
289.293	290.31
289.524	285.31
289.755	289.31
289.986	290.31
290.217	294.31
290.448	280.31
290.679	279.31
290.91	283.31
291.141	297.31
291.371	285.31
291.602	291.31
291.833	303.31
292.064	293.31
292.295	293.31
292.526	290.31
292.757	295.31
292.987	312.31
293.218	285.31
293.449	270.31
293.68	292.31
293.91	293.31
294.141	302.31
294.372	281.31
294.603	281.31
294.833	270.31
295.064	276.31
295.295	299.31
295.525	311.31
295.756	310.31
295.987	304.31
296.217	332.31
296.448	344.31
296.679	316.31
296.909	290.31
297.14	280.31
297.37	292.31
297.601	293.31
297.831	282.31
298.062	289.31
298.292	276.31
298.523	296.31
298.753	309.31
298.984	295.31
299.214	305.31
299.445	323.31
299.675	304.31
299.905	320.31
300.136	316.31
300.366	304.31
300.597	292.31
300.827	308.31
301.057	330.31
301.288	333.31
301.518	316.31
301.748	307.31
301.979	340.31
302.209	344.31
302.439	324.31
302.669	320.31
302.9	311.31
303.13	312.31
303.36	333.31
303.59	334.31
303.82	341.31
304.051	329.31
304.281	323.31
304.511	314.31
304.741	316.31
304.971	314.31
305.201	338.31
305.431	324.31
305.661	304.31
305.891	333.31
306.121	304.31
306.352	342.31
306.582	326.31
306.812	323.31
307.042	306.31
307.272	340.31
307.502	332.31
307.731	353.31
307.961	346.31
308.191	345.31
308.421	328.31
308.651	342.31
308.881	338.31
309.111	361.31
309.341	346.31
309.571	347.31
309.8	394.31
310.03	396.31
310.26	401.31
310.49	395.31
310.72	414.31
310.949	425.31
311.179	433.31
311.409	388.31
311.639	402.31
311.868	392.31
312.098	395.31
312.328	398.31
312.557	428.31
312.787	437.31
313.017	426.31
313.246	414.31
313.476	399.31
313.706	362.31
313.935	370.31
314.165	406.31
314.394	439.31
314.624	417.31
314.853	410.31
315.083	407.31
315.312	392.31
315.542	393.31
315.771	390.31
316.001	374.31
316.23	384.31
316.46	390.31
316.689	394.31
316.919	389.31
317.148	396.31
317.377	419.31
317.607	392.31
317.836	378.31
318.065	406.31
318.295	397.31
318.524	391.31
318.753	379.31
318.983	389.31
319.212	393.31
319.441	393.31
319.67	388.31
319.9	402.31
320.129	401.31
320.358	383.31
320.587	412.31
320.816	402.31
321.046	437.31
321.275	427.31
321.504	431.31
321.733	446.31
321.962	458.31
322.191	439.31
322.42	460.31
322.649	486.31
322.878	506.31
323.108	514.31
323.337	543.31
323.566	593.31
323.795	633.31
324.024	689.31
324.253	857.31
324.482	1265.31
324.71	1982.31
324.939	2900.31
325.168	2432.31
325.397	1254.31
325.626	805.31
325.855	662.31
326.084	617.31
326.313	596.31
326.542	616.31
326.77	655.31
326.999	792.31
327.228	1142.31
327.457	1742.31
327.686	2140.31
327.914	1411.31
328.143	904.31
328.372	763.31
328.6	736.31
328.829	660.31
329.058	668.31
329.287	691.31
329.515	626.31
329.744	593.31
329.972	620.31
330.201	609.31
330.43	651.31
330.658	696.31
330.887	743.31
331.115	707.31
331.344	598.31
331.572	563.31
331.801	551.31
332.03	550.31
332.258	503.31
332.486	505.31
332.715	486.31
332.943	467.31
333.172	462.31
333.4	501.31
333.629	467.31
333.857	518.31
334.085	524.31
334.314	545.31
334.542	586.31
334.771	590.31
334.999	529.31
335.227	516.31
335.455	481.31
335.684	442.31
335.912	457.31
336.14	433.31
336.369	449.31
336.597	479.31
336.825	469.31
337.053	475.31
337.281	459.31
337.51	444.31
337.738	454.31
337.966	467.31
338.194	466.31
338.422	448.31
338.65	454.31
338.878	447.31
339.106	432.31
339.334	460.31
339.562	440.31
339.79	430.31
340.018	426.31
340.246	458.31
340.474	449.31
340.702	443.31
340.93	439.31
341.158	465.31
341.386	448.31
341.614	454.31
341.842	450.31
342.07	456.31
342.298	446.31
342.526	443.31
342.754	432.31
342.981	426.31
343.209	427.31
343.437	430.31
343.665	427.31
343.893	434.31
344.12	437.31
344.348	437.31
344.576	458.31
344.804	450.31
345.031	475.31
345.259	477.31
345.487	470.31
345.714	461.31
345.942	430.31
346.17	439.31
346.397	455.31
346.625	447.31
346.853	452.31
347.08	444.31
347.308	439.31
347.535	462.31
347.763	482.31
347.99	445.31
348.218	461.31
348.445	476.31
348.673	441.31
348.9	456.31
349.128	432.31
349.355	415.31
349.583	425.31
349.81	425.31
350.037	426.31
350.265	416.31
350.492	445.31
350.72	444.31
350.947	438.31
351.174	474.31
351.402	450.31
351.629	448.31
351.856	441.31
352.083	475.31
352.311	477.31
352.538	467.31
352.765	492.31
352.992	462.31
353.22	451.31
353.447	434.31
353.674	421.31
353.901	434.31
354.128	439.31
354.355	397.31
354.583	430.31
354.81	407.31
355.037	406.31
355.264	411.31
355.491	397.31
355.718	389.31
355.945	404.31
356.172	408.31
356.399	398.31
356.626	395.31
356.853	394.31
357.08	408.31
357.307	397.31
357.534	402.31
357.761	403.31
357.988	422.31
358.215	411.31
358.441	398.31
358.668	386.31
358.895	408.31
359.122	414.31
359.349	439.31
359.576	440.31
359.802	481.31
360.029	521.31
360.256	553.31
360.483	512.31
360.709	462.31
360.936	450.31
361.163	439.31
361.39	440.31
361.616	444.31
361.843	449.31
362.07	450.31
362.296	456.31
362.523	473.31
362.749	453.31
362.976	449.31
363.203	424.31
363.429	422.31
363.656	438.31
363.882	435.31
364.109	432.31
364.335	428.31
364.562	419.31
364.788	424.31
365.015	404.31
365.241	419.31
365.468	424.31
365.694	421.31
365.92	455.31
366.147	430.31
366.373	420.31
366.599	421.31
366.826	422.31
367.052	405.31
367.278	438.31
367.505	430.31
367.731	414.31
367.957	412.31
368.184	419.31
368.41	421.31
368.636	446.31
368.862	433.31
369.089	448.31
369.315	427.31
369.541	418.31
369.767	421.31
369.993	411.31
370.219	434.31
370.445	406.31
370.672	427.31
370.898	412.31
371.124	421.31
371.35	411.31
371.576	416.31
371.802	431.31
372.028	415.31
372.254	423.31
372.48	409.31
372.706	409.31
372.932	406.31
373.158	408.31
373.384	412.31
373.61	405.31
373.835	428.31
374.061	415.31
374.287	425.31
374.513	420.31
374.739	408.31
374.965	426.31
375.191	425.31
375.416	434.31
375.642	413.31
375.868	398.31
376.094	396.31
376.319	404.31
376.545	397.31
376.771	428.31
376.997	409.31
377.222	443.31
377.448	419.31
377.674	407.31
377.899	404.31
378.125	409.31
378.35	402.31
378.576	414.31
378.802	405.31
379.027	410.31
379.253	396.31
379.478	418.31
379.704	413.31
379.929	407.31
380.155	428.31
380.38	417.31
380.606	411.31
380.831	429.31
381.057	438.31
381.282	429.31
381.507	422.31
381.733	433.31
381.958	434.31
382.184	423.31
382.409	432.31
382.634	421.31
382.86	439.31
383.085	415.31
383.31	438.31
383.535	428.31
383.761	425.31
383.986	410.31
384.211	422.31
384.436	433.31
384.662	440.31
384.887	421.31
385.112	420.31
385.337	446.31
385.562	442.31
385.787	462.31
386.013	445.31
386.238	454.31
386.463	439.31
386.688	446.31
386.913	431.31
387.138	424.31
387.363	460.31
387.588	452.31
387.813	446.31
388.038	446.31
388.263	453.31
388.488	455.31
388.713	443.31
388.938	443.31
389.163	446.31
389.387	436.31
389.612	445.31
389.837	423.31
390.062	444.31
390.287	424.31
390.512	456.31
390.736	451.31
390.961	468.31
391.186	443.31
391.411	448.31
391.636	440.31
391.86	455.31
392.085	466.31
392.31	455.31
392.534	452.31
392.759	477.31
392.984	448.31
393.208	434.31
393.433	458.31
393.658	457.31
393.882	465.31
394.107	451.31
394.331	455.31
394.556	454.31
394.78	460.31
395.005	471.31
395.229	450.31
395.454	458.31
395.678	467.31
395.903	466.31
396.127	501.31
396.352	491.31
396.576	482.31
396.801	478.31
397.025	473.31
397.249	470.31
397.474	486.31
397.698	471.31
397.922	518.31
398.147	510.31
398.371	519.31
398.595	517.31
398.82	498.31
399.044	523.31
399.268	516.31
399.492	549.31
399.717	586.31
399.941	600.31
400.165	625.31
400.389	654.31
400.613	588.31
400.837	546.31
401.062	541.31
401.286	522.31
401.51	536.31
401.734	516.31
401.958	532.31
402.182	532.31
402.406	550.31
402.63	551.31
402.854	525.31
403.078	523.31
403.302	537.31
403.526	580.31
403.75	532.31
403.974	540.31
404.198	571.31
404.422	542.31
404.645	564.31
404.869	557.31
405.093	592.31
405.317	639.31
405.541	660.31
405.765	615.31
405.988	611.31
406.212	598.31
406.436	631.31
406.66	652.31
406.883	604.31
407.107	620.31
407.331	678.31
407.555	746.31
407.778	733.31
408.002	657.31
408.226	624.31
408.449	597.31
408.673	611.31
408.896	634.31
409.12	664.31
409.344	638.31
409.567	568.31
409.791	583.31
410.014	582.31
410.238	549.31
410.461	570.31
410.685	557.31
410.908	594.31
411.132	611.31
411.355	639.31
411.578	648.31
411.802	581.31
412.025	560.31
412.249	562.31
412.472	585.31
412.695	642.31
412.919	618.31
413.142	544.31
413.365	540.31
413.589	541.31
413.812	538.31
414.035	527.31
414.258	527.31
414.482	524.31
414.705	537.31
414.928	512.31
415.151	536.31
415.374	501.31
415.597	509.31
415.821	520.31
416.044	540.31
416.267	535.31
416.49	528.31
416.713	504.31
416.936	516.31
417.159	532.31
417.382	535.31
417.605	534.31
417.828	545.31
418.051	576.31
418.274	543.31
418.497	527.31
418.72	526.31
418.943	531.31
419.166	532.31
419.389	564.31
419.611	557.31
419.834	572.31
420.057	568.31
420.28	570.31
420.503	557.31
420.726	548.31
420.948	575.31
421.171	624.31
421.394	672.31
421.617	589.31
421.839	560.31
422.062	575.31
422.285	584.31
422.507	646.31
422.73	741.31
422.953	713.31
423.175	622.31
423.398	571.31
423.621	598.31
423.843	608.31
424.066	618.31
424.288	632.31
424.511	649.31
424.733	710.31
424.956	802.31
425.178	768.31
425.401	757.31
425.623	780.31
425.846	674.31
426.068	604.31
426.291	612.31
426.513	634.31
426.735	632.31
426.958	684.31
427.18	768.31
427.402	924.31
427.625	1049.31
427.847	932.31
428.069	839.31
428.292	726.31
428.514	626.31
428.736	605.31
428.958	590.31
429.181	564.31
429.403	578.31
429.625	604.31
429.847	634.31
430.069	716.31
430.292	710.31
430.514	606.31
430.736	605.31
430.958	555.31
431.18	539.31
431.402	549.31
431.624	506.31
431.846	553.31
432.068	514.31
432.29	529.31
432.512	534.31
432.734	549.31
432.956	544.31
433.178	560.31
433.4	572.31
433.622	552.31
433.844	533.31
434.066	521.31
434.287	522.31
434.509	552.31
434.731	537.31
434.953	571.31
435.175	572.31
435.397	606.31
435.618	642.31
435.84	682.31
436.062	771.31
436.284	836.31
436.505	716.31
436.727	667.31
436.949	621.31
437.17	605.31
437.392	581.31
437.614	629.31
437.835	652.31
438.057	757.31
438.278	904.31
438.5	881.31
438.721	944.31
438.943	933.31
439.165	715.31
439.386	664.31
439.608	666.31
439.829	667.31
440.05	729.31
440.272	729.31
440.493	708.31
440.715	642.31
440.936	615.31
441.158	611.31
441.379	578.31
441.6	602.31
441.822	669.31
442.043	690.31
442.264	792.31
442.486	819.31
442.707	702.31
442.928	666.31
443.149	667.31
443.371	675.31
443.592	743.31
443.813	855.31
444.034	866.31
444.255	742.31
444.476	685.31
444.698	632.31
444.919	627.31
445.14	734.31
445.361	714.31
445.582	704.31
445.803	775.31
446.024	875.31
446.245	876.31
446.466	825.31
446.687	678.31
446.908	660.31
447.129	626.31
447.35	594.31
447.571	604.31
447.792	583.31
448.013	614.31
448.234	613.31
448.455	686.31
448.675	816.31
448.896	936.31
449.117	776.31
449.338	774.31
449.559	854.31
449.779	982.31
450	798.31
450.221	681.31
450.442	605.31
450.662	596.31
450.883	638.31
451.104	627.31
451.324	596.31
451.545	572.31
451.766	553.31
451.986	530.31
452.207	512.31
452.428	513.31
452.648	526.31
452.869	544.31
453.089	562.31
453.31	542.31
453.53	515.31
453.751	546.31
453.971	545.31
454.192	565.31
454.412	550.31
454.633	550.31
454.853	542.31
455.073	507.31
455.294	556.31
455.514	665.31
455.734	634.31
455.955	526.31
456.175	508.31
456.395	484.31
456.616	485.31
456.836	482.31
457.056	469.31
457.276	488.31
457.497	494.31
457.717	482.31
457.937	481.31
458.157	522.31
458.377	514.31
458.598	538.31
458.818	625.31
459.038	764.31
459.258	740.31
459.478	637.31
459.698	576.31
459.918	542.31
460.138	516.31
460.358	552.31
460.578	522.31
460.798	538.31
461.018	539.31
461.238	556.31
461.458	524.31
461.678	518.31
461.898	506.31
462.118	519.31
462.338	522.31
462.558	532.31
462.777	532.31
462.997	552.31
463.217	539.31
463.437	546.31
463.657	557.31
463.876	553.31
464.096	549.31
464.316	559.31
464.536	569.31
464.755	578.31
464.975	575.31
465.195	645.31
465.414	770.31
465.634	666.31
465.854	596.31
466.073	579.31
466.293	567.31
466.512	530.31
466.732	536.31
466.951	539.31
467.171	518.31
467.391	521.31
467.61	552.31
467.829	550.31
468.049	541.31
468.268	564.31
468.488	537.31
468.707	512.31
468.927	530.31
469.146	507.31
469.365	503.31
469.585	514.31
469.804	532.31
470.023	548.31
470.243	563.31
470.462	538.31
470.681	592.31
470.901	571.31
471.12	538.31
471.339	567.31
471.558	544.31
471.777	514.31
471.997	525.31
472.216	554.31
472.435	581.31
472.654	591.31
472.873	533.31
473.092	529.31
473.311	527.31
473.53	536.31
473.749	549.31
473.968	618.31
474.187	732.31
474.406	736.31
474.625	648.31
474.844	555.31
475.063	539.31
475.282	548.31
475.501	565.31
475.72	549.31
475.939	551.31
476.158	547.31
476.377	554.31
476.596	559.31
476.814	580.31
477.033	574.31
477.252	578.31
477.471	563.31
477.69	573.31
477.908	589.31
478.127	585.31
478.346	585.31
478.564	613.31
478.783	611.31
479.002	605.31
479.22	598.31
479.439	612.31
479.658	629.31
479.876	676.31
480.095	663.31
480.313	672.31
480.532	691.31
480.751	674.31
480.969	650.31
481.188	774.31
481.406	832.31
481.624	741.31
481.843	684.31
482.061	668.31
482.28	644.31
482.498	646.31
482.717	656.31
482.935	639.31
483.153	631.31
483.372	657.31
483.59	646.31
483.808	650.31
484.027	647.31
484.245	638.31
484.463	662.31
484.681	652.31
484.9	653.31
485.118	659.31
485.336	653.31
485.554	669.31
485.772	646.31
485.99	665.31
486.209	701.31
486.427	683.31
486.645	677.31
486.863	700.31
487.081	735.31
487.299	708.31
487.517	729.31
487.735	711.31
487.953	721.31
488.171	693.31
488.389	713.31
488.607	708.31
488.825	696.31
489.043	712.31
489.261	722.31
489.479	708.31
489.696	720.31
489.914	712.31
490.132	716.31
490.35	722.31
490.568	743.31
490.786	766.31
491.003	792.31
491.221	773.31
491.439	808.31
491.657	811.31
491.874	809.31
492.092	850.31
492.31	845.31
492.527	830.31
492.745	836.31
492.963	813.31
493.18	839.31
493.398	858.31
493.615	848.31
493.833	856.31
494.05	865.31
494.268	844.31
494.485	864.31
494.703	850.31
494.92	862.31
495.138	856.31
495.355	864.31
495.573	860.31
495.79	862.31
496.008	859.31
496.225	876.31
496.442	873.31
496.66	859.31
496.877	851.31
497.094	863.31
497.312	857.31
497.529	872.31
497.746	856.31
497.963	876.31
498.181	926.31
498.398	892.31
498.615	909.31
498.832	930.31
499.049	916.31
499.267	918.31
499.484	938.31
499.701	962.31
499.918	969.31
500.135	989.31
500.352	1041.31
500.569	1069.31
500.786	1051.31
501.003	1051.31
501.22	1051.31
501.437	1030.31
