Data from 1971.PennyLincolnUp.Lamp.En5.5.200Scan.071719.P1.Scan 2. Changed Angle._HRD10591_15-25-13-843.txt Node
Date: Thu Jul 18 15:25:13 EDT 2019
User: cochatt
Spectrometer: HR+D1059
Trigger mode: 1
Integration Time (sec): 1.000000E-1
Scans to average: 1
Electric dark correction enabled: true
Nonlinearity correction enabled: false
Boxcar width: 0
XAxis mode: Wavelengths
Number of Pixels in Spectrum: 2048
>>>>>Begin Spectral Data<<<<<
223.165	-15.94
223.4	-15.94
223.635	-15.94
223.869	-8.94
224.104	-24.94
224.338	-19.94
224.573	-7.94
224.808	-11.94
225.042	-12.94
225.277	9.06
225.511	-9.94
225.746	1.06
225.98	1.06
226.215	15.06
226.449	10.06
226.683	17.06
226.918	37.06
227.152	22.06
227.387	27.06
227.621	31.06
227.856	48.06
228.09	39.06
228.324	54.06
228.559	39.06
228.793	66.06
229.027	79.06
229.262	117.06
229.496	127.06
229.73	158.06
229.964	182.06
230.199	140.06
230.433	127.06
230.667	123.06
230.901	132.06
231.136	129.06
231.37	108.06
231.604	121.06
231.838	124.06
232.072	112.06
232.306	113.06
232.541	125.06
232.775	120.06
233.009	128.06
233.243	119.06
233.477	112.06
233.711	120.06
233.945	122.06
234.179	118.06
234.413	122.06
234.647	125.06
234.881	118.06
235.115	126.06
235.349	122.06
235.583	115.06
235.817	126.06
236.051	143.06
236.285	125.06
236.519	136.06
236.753	147.06
236.987	156.06
237.221	202.06
237.455	283.06
237.689	220.06
237.922	157.06
238.156	146.06
238.39	136.06
238.624	126.06
238.858	139.06
239.091	131.06
239.325	131.06
239.559	136.06
239.793	142.06
240.027	140.06
240.26	158.06
240.494	188.06
240.728	167.06
240.961	152.06
241.195	141.06
241.429	162.06
241.662	153.06
241.896	158.06
242.13	157.06
242.363	142.06
242.597	142.06
242.83	141.06
243.064	151.06
243.298	141.06
243.531	155.06
243.765	140.06
243.998	152.06
244.232	143.06
244.465	146.06
244.699	166.06
244.932	153.06
245.166	154.06
245.399	150.06
245.633	156.06
245.866	145.06
246.099	152.06
246.333	166.06
246.566	151.06
246.8	170.06
247.033	167.06
247.266	165.06
247.5	163.06
247.733	186.06
247.966	190.06
248.2	188.06
248.433	173.06
248.666	188.06
248.899	192.06
249.133	219.06
249.366	219.06
249.599	218.06
249.832	206.06
250.066	202.06
250.299	208.06
250.532	206.06
250.765	241.06
250.998	253.06
251.231	278.06
251.465	247.06
251.698	231.06
251.931	216.06
252.164	225.06
252.397	203.06
252.63	209.06
252.863	230.06
253.096	232.06
253.329	251.06
253.562	268.06
253.795	254.06
254.028	230.06
254.261	253.06
254.494	244.06
254.727	282.06
254.96	310.06
255.193	311.06
255.426	302.06
255.659	254.06
255.892	263.06
256.124	259.06
256.357	256.06
256.59	262.06
256.823	258.06
257.056	234.06
257.289	235.06
257.521	224.06
257.754	230.06
257.987	224.06
258.22	210.06
258.452	222.06
258.685	227.06
258.918	231.06
259.151	221.06
259.383	237.06
259.616	233.06
259.849	241.06
260.081	250.06
260.314	270.06
260.547	274.06
260.779	261.06
261.012	257.06
261.244	243.06
261.477	246.06
261.71	232.06
261.942	247.06
262.175	261.06
262.407	246.06
262.64	229.06
262.872	232.06
263.105	231.06
263.337	227.06
263.57	237.06
263.802	225.06
264.035	223.06
264.267	225.06
264.499	216.06
264.732	251.06
264.964	207.06
265.197	205.06
265.429	213.06
265.661	221.06
265.894	229.06
266.126	228.06
266.358	225.06
266.591	222.06
266.823	240.06
267.055	229.06
267.287	225.06
267.52	234.06
267.752	214.06
267.984	214.06
268.216	236.06
268.448	236.06
268.681	228.06
268.913	280.06
269.145	269.06
269.377	297.06
269.609	317.06
269.841	286.06
270.073	306.06
270.306	322.06
270.538	326.06
270.77	343.06
271.002	328.06
271.234	333.06
271.466	316.06
271.698	334.06
271.93	348.06
272.162	362.06
272.394	347.06
272.626	327.06
272.858	328.06
273.09	306.06
273.322	297.06
273.553	281.06
273.785	285.06
274.017	277.06
274.249	262.06
274.481	267.06
274.713	285.06
274.945	292.06
275.176	261.06
275.408	285.06
275.64	268.06
275.872	283.06
276.104	284.06
276.335	264.06
276.567	294.06
276.799	309.06
277.031	320.06
277.262	331.06
277.494	322.06
277.726	311.06
277.957	316.06
278.189	274.06
278.421	282.06
278.652	276.06
278.884	284.06
279.115	290.06
279.347	268.06
279.579	279.06
279.81	261.06
280.042	276.06
280.273	247.06
280.505	248.06
280.736	254.06
280.968	275.06
281.199	262.06
281.431	268.06
281.662	264.06
281.894	286.06
282.125	280.06
282.356	289.06
282.588	304.06
282.819	318.06
283.051	268.06
283.282	268.06
283.513	261.06
283.745	261.06
283.976	284.06
284.207	266.06
284.439	273.06
284.67	278.06
284.901	268.06
285.132	280.06
285.364	287.06
285.595	271.06
285.826	282.06
286.057	279.06
286.288	269.06
286.52	278.06
286.751	280.06
286.982	278.06
287.213	267.06
287.444	266.06
287.675	288.06
287.906	297.06
288.138	292.06
288.369	312.06
288.6	310.06
288.831	284.06
289.062	287.06
289.293	288.06
289.524	297.06
289.755	276.06
289.986	285.06
290.217	281.06
290.448	295.06
290.679	281.06
290.91	263.06
291.141	275.06
291.371	286.06
291.602	266.06
291.833	282.06
292.064	258.06
292.295	295.06
292.526	278.06
292.757	301.06
292.987	285.06
293.218	269.06
293.449	291.06
293.68	269.06
293.91	267.06
294.141	276.06
294.372	274.06
294.603	299.06
294.833	298.06
295.064	278.06
295.295	288.06
295.525	283.06
295.756	283.06
295.987	296.06
296.217	321.06
296.448	328.06
296.679	276.06
296.909	308.06
297.14	286.06
297.37	296.06
297.601	313.06
297.831	288.06
298.062	308.06
298.292	276.06
298.523	292.06
298.753	309.06
298.984	292.06
299.214	304.06
299.445	307.06
299.675	286.06
299.905	312.06
300.136	296.06
300.366	303.06
300.597	294.06
300.827	314.06
301.057	302.06
301.288	322.06
301.518	344.06
301.748	314.06
301.979	306.06
302.209	319.06
302.439	320.06
302.669	317.06
302.9	318.06
303.13	330.06
303.36	339.06
303.59	328.06
303.82	325.06
304.051	338.06
304.281	323.06
304.511	320.06
304.741	293.06
304.971	287.06
305.201	320.06
305.431	324.06
305.661	320.06
305.891	324.06
306.121	326.06
306.352	316.06
306.582	341.06
306.812	335.06
307.042	317.06
307.272	316.06
307.502	329.06
307.731	323.06
307.961	342.06
308.191	309.06
308.421	334.06
308.651	350.06
308.881	340.06
309.111	347.06
309.341	361.06
309.571	361.06
309.8	377.06
310.03	379.06
310.26	386.06
310.49	376.06
310.72	402.06
310.949	416.06
311.179	441.06
311.409	382.06
311.639	392.06
311.868	382.06
312.098	397.06
312.328	390.06
312.557	409.06
312.787	435.06
313.017	452.06
313.246	399.06
313.476	387.06
313.706	385.06
313.935	410.06
314.165	413.06
314.394	417.06
314.624	411.06
314.853	406.06
315.083	410.06
315.312	373.06
315.542	389.06
315.771	374.06
316.001	364.06
316.23	360.06
316.46	373.06
316.689	366.06
316.919	397.06
317.148	415.06
317.377	406.06
317.607	406.06
317.836	406.06
318.065	389.06
318.295	378.06
318.524	378.06
318.753	364.06
318.983	384.06
319.212	388.06
319.441	393.06
319.67	390.06
319.9	408.06
320.129	378.06
320.358	414.06
320.587	397.06
320.816	386.06
321.046	405.06
321.275	423.06
321.504	417.06
321.733	424.06
321.962	425.06
322.191	460.06
322.42	461.06
322.649	490.06
322.878	492.06
323.108	501.06
323.337	531.06
323.566	575.06
323.795	624.06
324.024	682.06
324.253	836.06
324.482	1240.06
324.71	1988.06
324.939	2820.06
325.168	2478.06
325.397	1260.06
325.626	822.06
325.855	650.06
326.084	572.06
326.313	559.06
326.542	576.06
326.77	647.06
326.999	775.06
327.228	1092.06
327.457	1704.06
327.686	2097.06
327.914	1412.06
328.143	897.06
328.372	794.06
328.6	732.06
328.829	652.06
329.058	676.06
329.287	706.06
329.515	645.06
329.744	582.06
329.972	568.06
330.201	593.06
330.43	630.06
330.658	707.06
330.887	747.06
331.115	706.06
331.344	608.06
331.572	549.06
331.801	530.06
332.03	516.06
332.258	517.06
332.486	480.06
332.715	484.06
332.943	467.06
333.172	459.06
333.4	454.06
333.629	469.06
333.857	474.06
334.085	493.06
334.314	516.06
334.542	563.06
334.771	582.06
334.999	512.06
335.227	459.06
335.455	478.06
335.684	465.06
335.912	455.06
336.14	448.06
336.369	471.06
336.597	456.06
336.825	451.06
337.053	453.06
337.281	435.06
337.51	438.06
337.738	442.06
337.966	429.06
338.194	453.06
338.422	450.06
338.65	449.06
338.878	427.06
339.106	444.06
339.334	422.06
339.562	413.06
339.79	437.06
340.018	437.06
340.246	448.06
340.474	450.06
340.702	446.06
340.93	449.06
341.158	453.06
341.386	442.06
341.614	457.06
341.842	447.06
342.07	412.06
342.298	420.06
342.526	437.06
342.754	428.06
342.981	389.06
343.209	398.06
343.437	406.06
343.665	416.06
343.893	428.06
344.12	433.06
344.348	440.06
344.576	457.06
344.804	443.06
345.031	451.06
345.259	472.06
345.487	450.06
345.714	442.06
345.942	426.06
346.17	423.06
346.397	418.06
346.625	435.06
346.853	445.06
347.08	420.06
347.308	454.06
347.535	441.06
347.763	450.06
347.99	475.06
348.218	465.06
348.445	455.06
348.673	463.06
348.9	429.06
349.128	431.06
349.355	388.06
349.583	428.06
349.81	428.06
350.037	419.06
350.265	405.06
350.492	442.06
350.72	418.06
350.947	419.06
351.174	447.06
351.402	442.06
351.629	466.06
351.856	469.06
352.083	451.06
352.311	463.06
352.538	456.06
352.765	448.06
352.992	445.06
353.22	470.06
353.447	444.06
353.674	417.06
353.901	418.06
354.128	415.06
354.355	413.06
354.583	412.06
354.81	414.06
355.037	377.06
355.264	410.06
355.491	410.06
355.718	374.06
355.945	398.06
356.172	390.06
356.399	380.06
356.626	390.06
356.853	417.06
357.08	404.06
357.307	399.06
357.534	394.06
357.761	381.06
357.988	395.06
358.215	413.06
358.441	415.06
358.668	386.06
358.895	398.06
359.122	406.06
359.349	419.06
359.576	440.06
359.802	482.06
360.029	507.06
360.256	530.06
360.483	502.06
360.709	479.06
360.936	447.06
361.163	456.06
361.39	466.06
361.616	422.06
361.843	440.06
362.07	439.06
362.296	461.06
362.523	448.06
362.749	438.06
362.976	429.06
363.203	416.06
363.429	404.06
363.656	409.06
363.882	410.06
364.109	433.06
364.335	414.06
364.562	429.06
364.788	398.06
365.015	406.06
365.241	428.06
365.468	417.06
365.694	452.06
365.92	439.06
366.147	444.06
366.373	421.06
366.599	426.06
366.826	423.06
367.052	405.06
367.278	412.06
367.505	406.06
367.731	395.06
367.957	416.06
368.184	398.06
368.41	421.06
368.636	442.06
368.862	427.06
369.089	424.06
369.315	420.06
369.541	415.06
369.767	421.06
369.993	402.06
370.219	418.06
370.445	411.06
370.672	406.06
370.898	388.06
371.124	426.06
371.35	412.06
371.576	412.06
371.802	374.06
372.028	404.06
372.254	401.06
372.48	395.06
372.706	394.06
372.932	388.06
373.158	410.06
373.384	396.06
373.61	410.06
373.835	395.06
374.061	402.06
374.287	415.06
374.513	444.06
374.739	397.06
374.965	409.06
375.191	422.06
375.416	424.06
375.642	410.06
375.868	410.06
376.094	405.06
376.319	420.06
376.545	402.06
376.771	394.06
376.997	408.06
377.222	396.06
377.448	419.06
377.674	420.06
377.899	404.06
378.125	381.06
378.35	394.06
378.576	417.06
378.802	407.06
379.027	413.06
379.253	422.06
379.478	395.06
379.704	403.06
379.929	408.06
380.155	408.06
380.38	410.06
380.606	419.06
380.831	420.06
381.057	424.06
381.282	402.06
381.507	426.06
381.733	404.06
381.958	404.06
382.184	396.06
382.409	425.06
382.634	408.06
382.86	403.06
383.085	404.06
383.31	408.06
383.535	433.06
383.761	410.06
383.986	428.06
384.211	405.06
384.436	408.06
384.662	423.06
384.887	427.06
385.112	419.06
385.337	433.06
385.562	449.06
385.787	428.06
386.013	433.06
386.238	463.06
386.463	449.06
386.688	469.06
386.913	434.06
387.138	442.06
387.363	418.06
387.588	452.06
387.813	450.06
388.038	441.06
388.263	429.06
388.488	417.06
388.713	446.06
388.938	436.06
389.163	463.06
389.387	442.06
389.612	423.06
389.837	446.06
390.062	434.06
390.287	434.06
390.512	445.06
390.736	440.06
390.961	444.06
391.186	437.06
391.411	442.06
391.636	460.06
391.86	450.06
392.085	448.06
392.31	436.06
392.534	436.06
392.759	442.06
392.984	450.06
393.208	432.06
393.433	447.06
393.658	445.06
393.882	441.06
394.107	443.06
394.331	435.06
394.556	425.06
394.78	451.06
395.005	443.06
395.229	437.06
395.454	434.06
395.678	456.06
395.903	455.06
396.127	480.06
396.352	479.06
396.576	474.06
396.801	463.06
397.025	452.06
397.249	449.06
397.474	465.06
397.698	472.06
397.922	481.06
398.147	488.06
398.371	488.06
398.595	507.06
398.82	464.06
399.044	514.06
399.268	506.06
399.492	518.06
399.717	546.06
399.941	573.06
400.165	582.06
400.389	616.06
400.613	581.06
400.837	542.06
401.062	541.06
401.286	503.06
401.51	482.06
401.734	500.06
401.958	514.06
402.182	498.06
402.406	530.06
402.63	525.06
402.854	512.06
403.078	517.06
403.302	549.06
403.526	553.06
403.75	527.06
403.974	518.06
404.198	527.06
404.422	544.06
404.645	532.06
404.869	562.06
405.093	575.06
405.317	604.06
405.541	651.06
405.765	588.06
405.988	566.06
406.212	601.06
406.436	618.06
406.66	617.06
406.883	589.06
407.107	608.06
407.331	648.06
407.555	709.06
407.778	738.06
408.002	641.06
408.226	607.06
408.449	593.06
408.673	621.06
408.896	627.06
409.12	688.06
409.344	632.06
409.567	556.06
409.791	546.06
410.014	544.06
410.238	536.06
410.461	531.06
410.685	553.06
410.908	563.06
411.132	594.06
411.355	622.06
411.578	614.06
411.802	534.06
412.025	565.06
412.249	526.06
412.472	585.06
412.695	611.06
412.919	612.06
413.142	545.06
413.365	537.06
413.589	514.06
413.812	516.06
414.035	521.06
414.258	523.06
414.482	487.06
414.705	517.06
414.928	512.06
415.151	490.06
415.374	498.06
415.597	520.06
415.821	523.06
416.044	515.06
416.267	502.06
416.49	510.06
416.713	502.06
416.936	522.06
417.159	506.06
417.382	544.06
417.605	501.06
417.828	539.06
418.051	542.06
418.274	544.06
418.497	510.06
418.72	524.06
418.943	518.06
419.166	526.06
419.389	530.06
419.611	547.06
419.834	555.06
420.057	550.06
420.28	558.06
420.503	562.06
420.726	564.06
420.948	554.06
421.171	619.06
421.394	627.06
421.617	606.06
421.839	574.06
422.062	546.06
422.285	599.06
422.507	640.06
422.73	717.06
422.953	705.06
423.175	608.06
423.398	580.06
423.621	577.06
423.843	608.06
424.066	606.06
424.288	624.06
424.511	629.06
424.733	690.06
424.956	783.06
425.178	737.06
425.401	744.06
425.623	785.06
425.846	655.06
426.068	632.06
426.291	628.06
426.513	627.06
426.735	652.06
426.958	679.06
427.18	781.06
427.402	852.06
427.625	1002.06
427.847	908.06
428.069	793.06
428.292	708.06
428.514	650.06
428.736	588.06
428.958	596.06
429.181	563.06
429.403	567.06
429.625	591.06
429.847	613.06
430.069	682.06
430.292	685.06
430.514	584.06
430.736	584.06
430.958	557.06
431.18	531.06
431.402	528.06
431.624	510.06
431.846	525.06
432.068	517.06
432.29	504.06
432.512	524.06
432.734	534.06
432.956	548.06
433.178	548.06
433.4	568.06
433.622	541.06
433.844	526.06
434.066	522.06
434.287	506.06
434.509	533.06
434.731	506.06
434.953	524.06
435.175	573.06
435.397	609.06
435.618	615.06
435.84	683.06
436.062	781.06
436.284	836.06
436.505	693.06
436.727	643.06
436.949	595.06
437.17	584.06
437.392	573.06
437.614	577.06
437.835	644.06
438.057	773.06
438.278	909.06
438.5	871.06
438.721	898.06
438.943	894.06
439.165	737.06
439.386	653.06
439.608	638.06
439.829	633.06
440.05	682.06
440.272	743.06
440.493	705.06
440.715	651.06
440.936	590.06
441.158	587.06
441.379	556.06
441.6	625.06
441.822	635.06
442.043	676.06
442.264	768.06
442.486	813.06
442.707	692.06
442.928	630.06
443.149	633.06
443.371	674.06
443.592	717.06
443.813	814.06
444.034	876.06
444.255	707.06
444.476	628.06
444.698	638.06
444.919	626.06
445.14	727.06
445.361	696.06
445.582	652.06
445.803	762.06
446.024	870.06
446.245	906.06
446.466	808.06
446.687	686.06
446.908	654.06
447.129	598.06
447.35	580.06
447.571	571.06
447.792	578.06
448.013	582.06
448.234	580.06
448.455	672.06
448.675	793.06
448.896	921.06
449.117	797.06
449.338	732.06
449.559	854.06
449.779	925.06
450	752.06
450.221	654.06
450.442	606.06
450.662	572.06
450.883	596.06
451.104	643.06
451.324	580.06
451.545	580.06
451.766	564.06
451.986	523.06
452.207	532.06
452.428	503.06
452.648	520.06
452.869	513.06
453.089	522.06
453.31	535.06
453.53	525.06
453.751	505.06
453.971	530.06
454.192	553.06
454.412	532.06
454.633	516.06
454.853	525.06
455.073	510.06
455.294	549.06
455.514	642.06
455.734	612.06
455.955	525.06
456.175	487.06
456.395	473.06
456.616	513.06
456.836	488.06
457.056	474.06
457.276	480.06
457.497	488.06
457.717	484.06
457.937	484.06
458.157	484.06
458.377	512.06
458.598	518.06
458.818	608.06
459.038	727.06
459.258	737.06
459.478	602.06
459.698	538.06
459.918	541.06
460.138	536.06
460.358	557.06
460.578	514.06
460.798	518.06
461.018	525.06
461.238	516.06
461.458	507.06
461.678	508.06
461.898	514.06
462.118	481.06
462.338	514.06
462.558	508.06
462.777	530.06
462.997	512.06
463.217	534.06
463.437	553.06
463.657	555.06
463.876	531.06
464.096	546.06
464.316	540.06
464.536	545.06
464.755	552.06
464.975	566.06
465.195	627.06
465.414	764.06
465.634	658.06
465.854	624.06
466.073	568.06
466.293	537.06
466.512	525.06
466.732	516.06
466.951	519.06
467.171	523.06
467.391	535.06
467.61	516.06
467.829	547.06
468.049	539.06
468.268	558.06
468.488	525.06
468.707	518.06
468.927	506.06
469.146	499.06
469.365	493.06
469.585	494.06
469.804	507.06
470.023	530.06
470.243	544.06
470.462	529.06
470.681	572.06
470.901	550.06
471.12	556.06
471.339	517.06
471.558	537.06
471.777	522.06
471.997	522.06
472.216	528.06
472.435	598.06
472.654	573.06
472.873	541.06
473.092	538.06
473.311	529.06
473.53	518.06
473.749	561.06
473.968	604.06
474.187	708.06
474.406	724.06
474.625	606.06
474.844	574.06
475.063	537.06
475.282	541.06
475.501	545.06
475.72	534.06
475.939	542.06
476.158	535.06
476.377	542.06
476.596	562.06
476.814	546.06
477.033	558.06
477.252	552.06
477.471	554.06
477.69	570.06
477.908	579.06
478.127	557.06
478.346	584.06
478.564	580.06
478.783	589.06
479.002	613.06
479.22	617.06
479.439	605.06
479.658	651.06
479.876	658.06
480.095	644.06
480.313	672.06
480.532	655.06
480.751	647.06
480.969	657.06
481.188	742.06
481.406	792.06
481.624	686.06
481.843	684.06
482.061	645.06
482.28	643.06
482.498	661.06
482.717	618.06
482.935	633.06
483.153	620.06
483.372	646.06
483.59	611.06
483.808	621.06
484.027	620.06
484.245	632.06
484.463	642.06
484.681	655.06
484.9	616.06
485.118	640.06
485.336	631.06
485.554	657.06
485.772	657.06
485.99	640.06
486.209	639.06
486.427	684.06
486.645	690.06
486.863	716.06
487.081	676.06
487.299	696.06
487.517	709.06
487.735	723.06
487.953	694.06
488.171	703.06
488.389	675.06
488.607	697.06
488.825	680.06
489.043	682.06
489.261	714.06
489.479	719.06
489.696	710.06
489.914	715.06
490.132	706.06
490.35	746.06
490.568	744.06
490.786	740.06
491.003	781.06
491.221	793.06
491.439	767.06
491.657	791.06
491.874	816.06
492.092	814.06
492.31	837.06
492.527	853.06
492.745	812.06
492.963	824.06
493.18	822.06
493.398	836.06
493.615	834.06
493.833	842.06
494.05	825.06
494.268	851.06
494.485	844.06
494.703	831.06
494.92	819.06
495.138	837.06
495.355	837.06
495.573	828.06
495.79	815.06
496.008	841.06
496.225	833.06
496.442	833.06
496.66	822.06
496.877	840.06
497.094	820.06
497.312	833.06
497.529	846.06
497.746	853.06
497.963	855.06
498.181	880.06
498.398	890.06
498.615	867.06
498.832	886.06
499.049	903.06
499.267	898.06
499.484	924.06
499.701	924.06
499.918	917.06
500.135	995.06
500.352	1007.06
500.569	997.06
500.786	993.06
501.003	985.06
501.22	988.06
501.437	979.06
501.654	973.06
