Data from 1971.PennyLincolnUp.Lamp.En5.5.200Scan.071719.P1._HRD10591_15-18-36-840.txt Node
Date: Thu Jul 18 15:18:36 EDT 2019
User: cochatt
Spectrometer: HR+D1059
Trigger mode: 1
Integration Time (sec): 1.000000E-1
Scans to average: 1
Electric dark correction enabled: true
Nonlinearity correction enabled: false
Boxcar width: 0
XAxis mode: Wavelengths
Number of Pixels in Spectrum: 2048
>>>>>Begin Spectral Data<<<<<
223.165	-11.5
223.4	-11.5
223.635	-11.5
223.869	-17.5
224.104	-33.5
224.338	-19.5
224.573	-0.5
224.808	-5.5
225.042	-16.5
225.277	-1.5
225.511	1.5
225.746	2.5
225.98	3.5
226.215	-3.5
226.449	11.5
226.683	20.5
226.918	29.5
227.152	40.5
227.387	37.5
227.621	43.5
227.856	34.5
228.09	40.5
228.324	44.5
228.559	48.5
228.793	59.5
229.027	83.5
229.262	100.5
229.496	105.5
229.73	115.5
229.964	135.5
230.199	114.5
230.433	114.5
230.667	109.5
230.901	89.5
231.136	109.5
231.37	97.5
231.604	106.5
231.838	100.5
232.072	90.5
232.306	111.5
232.541	115.5
232.775	93.5
233.009	109.5
233.243	103.5
233.477	112.5
233.711	108.5
233.945	103.5
234.179	108.5
234.413	113.5
234.647	120.5
234.881	118.5
235.115	115.5
235.349	101.5
235.583	105.5
235.817	130.5
236.051	119.5
236.285	121.5
236.519	125.5
236.753	125.5
236.987	134.5
237.221	164.5
237.455	196.5
237.689	171.5
237.922	123.5
238.156	131.5
238.39	120.5
238.624	115.5
238.858	117.5
239.091	111.5
239.325	121.5
239.559	121.5
239.793	111.5
240.027	128.5
240.26	132.5
240.494	140.5
240.728	133.5
240.961	137.5
241.195	133.5
241.429	122.5
241.662	120.5
241.896	133.5
242.13	119.5
242.363	109.5
242.597	138.5
242.83	140.5
243.064	119.5
243.298	139.5
243.531	129.5
243.765	131.5
243.998	148.5
244.232	143.5
244.465	130.5
244.699	149.5
244.932	137.5
245.166	120.5
245.399	142.5
245.633	125.5
245.866	136.5
246.099	146.5
246.333	152.5
246.566	151.5
246.8	135.5
247.033	159.5
247.266	150.5
247.5	163.5
247.733	151.5
247.966	153.5
248.2	161.5
248.433	177.5
248.666	169.5
248.899	176.5
249.133	185.5
249.366	195.5
249.599	194.5
249.832	181.5
250.066	175.5
250.299	194.5
250.532	192.5
250.765	196.5
250.998	205.5
251.231	213.5
251.465	215.5
251.698	202.5
251.931	199.5
252.164	173.5
252.397	188.5
252.63	206.5
252.863	197.5
253.096	204.5
253.329	202.5
253.562	220.5
253.795	211.5
254.028	212.5
254.261	230.5
254.494	221.5
254.727	221.5
254.96	258.5
255.193	243.5
255.426	231.5
255.659	210.5
255.892	216.5
256.124	225.5
256.357	217.5
256.59	223.5
256.823	213.5
257.056	202.5
257.289	211.5
257.521	200.5
257.754	209.5
257.987	205.5
258.22	213.5
258.452	221.5
258.685	216.5
258.918	192.5
259.151	217.5
259.383	212.5
259.616	213.5
259.849	220.5
260.081	229.5
260.314	233.5
260.547	254.5
260.779	250.5
261.012	218.5
261.244	201.5
261.477	227.5
261.71	214.5
261.942	211.5
262.175	223.5
262.407	219.5
262.64	224.5
262.872	195.5
263.105	190.5
263.337	222.5
263.57	196.5
263.802	208.5
264.035	209.5
264.267	212.5
264.499	198.5
264.732	217.5
264.964	203.5
265.197	215.5
265.429	205.5
265.661	200.5
265.894	218.5
266.126	214.5
266.358	206.5
266.591	211.5
266.823	235.5
267.055	218.5
267.287	248.5
267.52	225.5
267.752	232.5
267.984	223.5
268.216	229.5
268.448	223.5
268.681	234.5
268.913	243.5
269.145	257.5
269.377	259.5
269.609	273.5
269.841	259.5
270.073	277.5
270.306	293.5
270.538	298.5
270.77	309.5
271.002	289.5
271.234	285.5
271.466	278.5
271.698	308.5
271.93	317.5
272.162	326.5
272.394	294.5
272.626	298.5
272.858	289.5
273.09	279.5
273.322	268.5
273.553	258.5
273.785	255.5
274.017	265.5
274.249	248.5
274.481	262.5
274.713	259.5
274.945	268.5
275.176	263.5
275.408	265.5
275.64	251.5
275.872	243.5
276.104	267.5
276.335	261.5
276.567	266.5
276.799	264.5
277.031	288.5
277.262	300.5
277.494	308.5
277.726	310.5
277.957	276.5
278.189	292.5
278.421	282.5
278.652	271.5
278.884	262.5
279.115	276.5
279.347	267.5
279.579	278.5
279.81	275.5
280.042	269.5
280.273	269.5
280.505	256.5
280.736	266.5
280.968	275.5
281.199	267.5
281.431	263.5
281.662	281.5
281.894	252.5
282.125	249.5
282.356	283.5
282.588	277.5
282.819	290.5
283.051	265.5
283.282	268.5
283.513	276.5
283.745	256.5
283.976	286.5
284.207	260.5
284.439	290.5
284.67	279.5
284.901	272.5
285.132	281.5
285.364	269.5
285.595	269.5
285.826	293.5
286.057	283.5
286.288	294.5
286.52	266.5
286.751	257.5
286.982	271.5
287.213	281.5
287.444	291.5
287.675	279.5
287.906	286.5
288.138	288.5
288.369	293.5
288.6	288.5
288.831	270.5
289.062	289.5
289.293	290.5
289.524	287.5
289.755	297.5
289.986	291.5
290.217	281.5
290.448	290.5
290.679	295.5
290.91	272.5
291.141	293.5
291.371	285.5
291.602	292.5
291.833	308.5
292.064	296.5
292.295	291.5
292.526	293.5
292.757	304.5
292.987	295.5
293.218	301.5
293.449	277.5
293.68	275.5
293.91	265.5
294.141	286.5
294.372	272.5
294.603	300.5
294.833	290.5
295.064	265.5
295.295	298.5
295.525	279.5
295.756	285.5
295.987	290.5
296.217	308.5
296.448	308.5
296.679	299.5
296.909	297.5
297.14	296.5
297.37	292.5
297.601	284.5
297.831	299.5
298.062	311.5
298.292	306.5
298.523	318.5
298.753	291.5
298.984	300.5
299.214	306.5
299.445	308.5
299.675	314.5
299.905	301.5
300.136	299.5
300.366	304.5
300.597	319.5
300.827	313.5
301.057	311.5
301.288	316.5
301.518	313.5
301.748	310.5
301.979	314.5
302.209	317.5
302.439	321.5
302.669	327.5
302.9	319.5
303.13	300.5
303.36	333.5
303.59	316.5
303.82	304.5
304.051	328.5
304.281	323.5
304.511	305.5
304.741	307.5
304.971	309.5
305.201	329.5
305.431	315.5
305.661	321.5
305.891	318.5
306.121	325.5
306.352	320.5
306.582	315.5
306.812	324.5
307.042	319.5
307.272	315.5
307.502	319.5
307.731	314.5
307.961	313.5
308.191	328.5
308.421	348.5
308.651	314.5
308.881	343.5
309.111	344.5
309.341	323.5
309.571	351.5
309.8	352.5
310.03	357.5
310.26	331.5
310.49	353.5
310.72	344.5
310.949	348.5
311.179	345.5
311.409	348.5
311.639	356.5
311.868	354.5
312.098	374.5
312.328	367.5
312.557	390.5
312.787	384.5
313.017	375.5
313.246	354.5
313.476	355.5
313.706	356.5
313.935	362.5
314.165	387.5
314.394	387.5
314.624	370.5
314.853	370.5
315.083	378.5
315.312	359.5
315.542	381.5
315.771	344.5
316.001	335.5
316.23	349.5
316.46	356.5
316.689	361.5
316.919	367.5
317.148	372.5
317.377	364.5
317.607	351.5
317.836	360.5
318.065	385.5
318.295	355.5
318.524	361.5
318.753	372.5
318.983	358.5
319.212	367.5
319.441	369.5
319.67	369.5
319.9	369.5
320.129	362.5
320.358	371.5
320.587	364.5
320.816	385.5
321.046	377.5
321.275	381.5
321.504	376.5
321.733	367.5
321.962	397.5
322.191	402.5
322.42	413.5
322.649	428.5
322.878	415.5
323.108	439.5
323.337	472.5
323.566	465.5
323.795	497.5
324.024	528.5
324.253	637.5
324.482	893.5
324.71	1273.5
324.939	1723.5
325.168	1436.5
325.397	799.5
325.626	580.5
325.855	512.5
326.084	460.5
326.313	466.5
326.542	458.5
326.77	489.5
326.999	600.5
327.228	780.5
327.457	1165.5
327.686	1300.5
327.914	869.5
328.143	627.5
328.372	569.5
328.6	513.5
328.829	519.5
329.058	527.5
329.287	516.5
329.515	463.5
329.744	459.5
329.972	449.5
330.201	476.5
330.43	518.5
330.658	501.5
330.887	504.5
331.115	511.5
331.344	459.5
331.572	460.5
331.801	468.5
332.03	443.5
332.258	448.5
332.486	434.5
332.715	429.5
332.943	419.5
333.172	417.5
333.4	416.5
333.629	436.5
333.857	445.5
334.085	453.5
334.314	468.5
334.542	479.5
334.771	487.5
334.999	472.5
335.227	453.5
335.455	436.5
335.684	435.5
335.912	416.5
336.14	401.5
336.369	435.5
336.597	427.5
336.825	435.5
337.053	420.5
337.281	397.5
337.51	414.5
337.738	404.5
337.966	397.5
338.194	401.5
338.422	423.5
338.65	409.5
338.878	426.5
339.106	405.5
339.334	421.5
339.562	412.5
339.79	402.5
340.018	384.5
340.246	394.5
340.474	392.5
340.702	427.5
340.93	403.5
341.158	399.5
341.386	408.5
341.614	402.5
341.842	420.5
342.07	395.5
342.298	409.5
342.526	400.5
342.754	401.5
342.981	389.5
343.209	385.5
343.437	403.5
343.665	392.5
343.893	400.5
344.12	401.5
344.348	412.5
344.576	412.5
344.804	411.5
345.031	388.5
345.259	415.5
345.487	407.5
345.714	396.5
345.942	410.5
346.17	379.5
346.397	385.5
346.625	375.5
346.853	382.5
347.08	389.5
347.308	391.5
347.535	404.5
347.763	392.5
347.99	375.5
348.218	385.5
348.445	385.5
348.673	401.5
348.9	372.5
349.128	377.5
349.355	369.5
349.583	353.5
349.81	380.5
350.037	370.5
350.265	361.5
350.492	363.5
350.72	374.5
350.947	385.5
351.174	390.5
351.402	377.5
351.629	379.5
351.856	380.5
352.083	393.5
352.311	398.5
352.538	400.5
352.765	393.5
352.992	388.5
353.22	385.5
353.447	356.5
353.674	341.5
353.901	376.5
354.128	339.5
354.355	354.5
354.583	367.5
354.81	355.5
355.037	350.5
355.264	377.5
355.491	369.5
355.718	363.5
355.945	345.5
356.172	352.5
356.399	347.5
356.626	348.5
356.853	355.5
357.08	344.5
357.307	348.5
357.534	344.5
357.761	352.5
357.988	374.5
358.215	331.5
358.441	340.5
358.668	344.5
358.895	353.5
359.122	368.5
359.349	373.5
359.576	370.5
359.802	398.5
360.029	420.5
360.256	401.5
360.483	396.5
360.709	359.5
360.936	355.5
361.163	373.5
361.39	374.5
361.616	376.5
361.843	368.5
362.07	354.5
362.296	353.5
362.523	356.5
362.749	361.5
362.976	368.5
363.203	361.5
363.429	352.5
363.656	350.5
363.882	355.5
364.109	359.5
364.335	352.5
364.562	358.5
364.788	357.5
365.015	355.5
365.241	338.5
365.468	371.5
365.694	380.5
365.92	343.5
366.147	353.5
366.373	349.5
366.599	354.5
366.826	355.5
367.052	359.5
367.278	337.5
367.505	348.5
367.731	360.5
367.957	371.5
368.184	364.5
368.41	371.5
368.636	362.5
368.862	358.5
369.089	356.5
369.315	365.5
369.541	340.5
369.767	356.5
369.993	370.5
370.219	348.5
370.445	339.5
370.672	341.5
370.898	344.5
371.124	355.5
371.35	355.5
371.576	344.5
371.802	345.5
372.028	345.5
372.254	338.5
372.48	333.5
372.706	348.5
372.932	344.5
373.158	343.5
373.384	364.5
373.61	344.5
373.835	368.5
374.061	355.5
374.287	340.5
374.513	354.5
374.739	360.5
374.965	337.5
375.191	368.5
375.416	356.5
375.642	369.5
375.868	343.5
376.094	339.5
376.319	345.5
376.545	347.5
376.771	349.5
376.997	341.5
377.222	335.5
377.448	362.5
377.674	339.5
377.899	342.5
378.125	344.5
378.35	348.5
378.576	328.5
378.802	321.5
379.027	358.5
379.253	337.5
379.478	321.5
379.704	345.5
379.929	350.5
380.155	351.5
380.38	359.5
380.606	354.5
380.831	341.5
381.057	345.5
381.282	344.5
381.507	346.5
381.733	333.5
381.958	330.5
382.184	359.5
382.409	351.5
382.634	331.5
382.86	356.5
383.085	340.5
383.31	347.5
383.535	352.5
383.761	346.5
383.986	355.5
384.211	347.5
384.436	363.5
384.662	352.5
384.887	349.5
385.112	351.5
385.337	377.5
385.562	359.5
385.787	366.5
386.013	364.5
386.238	392.5
386.463	380.5
386.688	350.5
386.913	381.5
387.138	367.5
387.363	360.5
387.588	351.5
387.813	357.5
388.038	344.5
388.263	372.5
388.488	359.5
388.713	375.5
388.938	368.5
389.163	349.5
389.387	382.5
389.612	375.5
389.837	359.5
390.062	371.5
390.287	359.5
390.512	343.5
390.736	353.5
390.961	373.5
391.186	359.5
391.411	367.5
391.636	364.5
391.86	364.5
392.085	378.5
392.31	377.5
392.534	371.5
392.759	371.5
392.984	367.5
393.208	367.5
393.433	374.5
393.658	362.5
393.882	351.5
394.107	379.5
394.331	379.5
394.556	355.5
394.78	351.5
395.005	368.5
395.229	363.5
395.454	370.5
395.678	359.5
395.903	367.5
396.127	381.5
396.352	406.5
396.576	399.5
396.801	357.5
397.025	385.5
397.249	373.5
397.474	369.5
397.698	374.5
397.922	416.5
398.147	393.5
398.371	412.5
398.595	402.5
398.82	394.5
399.044	428.5
399.268	404.5
399.492	424.5
399.717	453.5
399.941	462.5
400.165	479.5
400.389	518.5
400.613	435.5
400.837	409.5
401.062	402.5
401.286	407.5
401.51	378.5
401.734	404.5
401.958	408.5
402.182	398.5
402.406	417.5
402.63	403.5
402.854	403.5
403.078	413.5
403.302	412.5
403.526	416.5
403.75	398.5
403.974	409.5
404.198	426.5
404.422	428.5
404.645	419.5
404.869	421.5
405.093	455.5
405.317	467.5
405.541	497.5
405.765	455.5
405.988	433.5
406.212	436.5
406.436	431.5
406.66	443.5
406.883	472.5
407.107	465.5
407.331	496.5
407.555	538.5
407.778	545.5
408.002	502.5
408.226	437.5
408.449	443.5
408.673	467.5
408.896	461.5
409.12	508.5
409.344	473.5
409.567	418.5
409.791	414.5
410.014	420.5
410.238	406.5
410.461	407.5
410.685	396.5
410.908	444.5
411.132	458.5
411.355	464.5
411.578	457.5
411.802	423.5
412.025	409.5
412.249	418.5
412.472	433.5
412.695	472.5
412.919	452.5
413.142	419.5
413.365	397.5
413.589	397.5
413.812	389.5
414.035	412.5
414.258	407.5
414.482	381.5
414.705	374.5
414.928	377.5
415.151	394.5
415.374	384.5
415.597	374.5
415.821	389.5
416.044	386.5
416.267	391.5
416.49	382.5
416.713	388.5
416.936	395.5
417.159	403.5
417.382	384.5
417.605	393.5
417.828	392.5
418.051	405.5
418.274	407.5
418.497	396.5
418.72	367.5
418.943	389.5
419.166	396.5
419.389	419.5
419.611	410.5
419.834	391.5
420.057	398.5
420.28	407.5
420.503	404.5
420.726	401.5
420.948	415.5
421.171	454.5
421.394	452.5
421.617	417.5
421.839	409.5
422.062	410.5
422.285	413.5
422.507	458.5
422.73	509.5
422.953	504.5
423.175	425.5
423.398	409.5
423.621	410.5
423.843	456.5
424.066	428.5
424.288	445.5
424.511	463.5
424.733	517.5
424.956	558.5
425.178	543.5
425.401	530.5
425.623	522.5
425.846	468.5
426.068	438.5
426.291	431.5
426.513	433.5
426.735	432.5
426.958	480.5
427.18	525.5
427.402	639.5
427.625	687.5
427.847	599.5
428.069	507.5
428.292	464.5
428.514	421.5
428.736	411.5
428.958	412.5
429.181	401.5
429.403	392.5
429.625	403.5
429.847	443.5
430.069	459.5
430.292	491.5
430.514	421.5
430.736	421.5
430.958	410.5
431.18	376.5
431.402	378.5
431.624	385.5
431.846	385.5
432.068	372.5
432.29	372.5
432.512	387.5
432.734	389.5
432.956	375.5
433.178	399.5
433.4	411.5
433.622	395.5
433.844	380.5
434.066	375.5
434.287	384.5
434.509	392.5
434.731	388.5
434.953	385.5
435.175	405.5
435.397	429.5
435.618	428.5
435.84	470.5
436.062	548.5
436.284	571.5
436.505	473.5
436.727	447.5
436.949	417.5
437.17	395.5
437.392	404.5
437.614	442.5
437.835	440.5
438.057	523.5
438.278	592.5
438.5	606.5
438.721	635.5
438.943	592.5
439.165	490.5
439.386	431.5
439.608	440.5
439.829	419.5
440.05	474.5
440.272	517.5
440.493	457.5
440.715	420.5
440.936	422.5
441.158	416.5
441.379	411.5
441.6	407.5
441.822	417.5
442.043	453.5
442.264	529.5
442.486	551.5
442.707	456.5
442.928	456.5
443.149	453.5
443.371	454.5
443.592	480.5
443.813	571.5
444.034	605.5
444.255	518.5
444.476	437.5
444.698	429.5
444.919	447.5
445.14	559.5
445.361	495.5
445.582	462.5
445.803	520.5
446.024	588.5
446.245	601.5
446.466	529.5
446.687	473.5
446.908	435.5
447.129	415.5
447.35	431.5
447.571	393.5
447.792	411.5
448.013	405.5
448.234	402.5
448.455	443.5
448.675	539.5
448.896	598.5
449.117	526.5
449.338	492.5
449.559	607.5
449.779	657.5
450	536.5
450.221	453.5
450.442	403.5
450.662	385.5
450.883	388.5
451.104	419.5
451.324	382.5
451.545	380.5
451.766	369.5
451.986	365.5
452.207	343.5
452.428	368.5
452.648	356.5
452.869	344.5
453.089	355.5
453.31	365.5
453.53	353.5
453.751	367.5
453.971	361.5
454.192	373.5
454.412	355.5
454.633	363.5
454.853	354.5
455.073	344.5
455.294	378.5
455.514	427.5
455.734	409.5
455.955	369.5
456.175	338.5
456.395	356.5
456.616	338.5
456.836	348.5
457.056	332.5
457.276	330.5
457.497	337.5
457.717	312.5
457.937	328.5
458.157	319.5
458.377	368.5
458.598	363.5
458.818	409.5
459.038	440.5
459.258	472.5
459.478	391.5
459.698	362.5
459.918	361.5
460.138	361.5
460.358	374.5
460.578	380.5
460.798	386.5
461.018	395.5
461.238	367.5
461.458	391.5
461.678	376.5
461.898	370.5
462.118	375.5
462.338	387.5
462.558	381.5
462.777	406.5
462.997	400.5
463.217	398.5
463.437	403.5
463.657	418.5
463.876	407.5
464.096	390.5
464.316	401.5
464.536	379.5
464.755	391.5
464.975	388.5
465.195	420.5
465.414	465.5
465.634	431.5
465.854	391.5
466.073	381.5
466.293	356.5
466.512	335.5
466.732	356.5
466.951	343.5
467.171	345.5
467.391	355.5
467.61	384.5
467.829	358.5
468.049	380.5
468.268	363.5
468.488	366.5
468.707	364.5
468.927	354.5
469.146	343.5
469.365	358.5
469.585	349.5
469.804	360.5
470.023	373.5
470.243	381.5
470.462	364.5
470.681	387.5
470.901	398.5
471.12	377.5
471.339	360.5
471.558	380.5
471.777	371.5
471.997	364.5
472.216	361.5
472.435	377.5
472.654	369.5
472.873	364.5
473.092	367.5
473.311	371.5
473.53	354.5
473.749	358.5
473.968	393.5
474.187	466.5
474.406	491.5
474.625	425.5
474.844	379.5
475.063	392.5
475.282	384.5
475.501	377.5
475.72	377.5
475.939	377.5
476.158	380.5
476.377	384.5
476.596	369.5
476.814	373.5
477.033	385.5
477.252	379.5
477.471	399.5
477.69	384.5
477.908	385.5
478.127	412.5
478.346	416.5
478.564	403.5
478.783	410.5
479.002	436.5
479.22	447.5
479.439	431.5
479.658	439.5
479.876	434.5
480.095	431.5
480.313	442.5
480.532	458.5
480.751	436.5
480.969	443.5
481.188	473.5
481.406	477.5
481.624	433.5
481.843	445.5
482.061	415.5
482.28	428.5
482.498	417.5
482.717	411.5
482.935	415.5
483.153	439.5
483.372	439.5
483.59	450.5
483.808	442.5
484.027	433.5
484.245	420.5
484.463	420.5
484.681	437.5
484.9	439.5
485.118	438.5
485.336	434.5
485.554	443.5
485.772	434.5
485.99	438.5
486.209	461.5
486.427	450.5
486.645	448.5
486.863	443.5
487.081	439.5
487.299	450.5
487.517	433.5
487.735	443.5
487.953	460.5
488.171	460.5
488.389	438.5
488.607	465.5
488.825	450.5
489.043	458.5
489.261	424.5
489.479	451.5
489.696	468.5
489.914	467.5
490.132	479.5
490.35	477.5
490.568	503.5
490.786	483.5
491.003	510.5
491.221	521.5
491.439	502.5
491.657	519.5
491.874	543.5
492.092	539.5
492.31	529.5
492.527	531.5
492.745	526.5
492.963	555.5
493.18	531.5
493.398	529.5
493.615	507.5
493.833	534.5
494.05	533.5
494.268	525.5
494.485	528.5
494.703	526.5
494.92	533.5
495.138	551.5
495.355	526.5
495.573	529.5
495.79	554.5
496.008	529.5
496.225	553.5
496.442	550.5
496.66	537.5
496.877	529.5
497.094	554.5
497.312	521.5
497.529	552.5
497.746	553.5
497.963	571.5
498.181	579.5
498.398	572.5
498.615	596.5
498.832	588.5
499.049	601.5
499.267	616.5
499.484	635.5
499.701	658.5
499.918	666.5
500.135	683.5
500.352	714.5
500.569	728.5
500.786	753.5
501.003	729.5
501.22	714.5
501.437	684.5
501.654	649.5
501.871	676.5
502.088	656.5
502.305	616.5
502.522	637.5
502.739	575.5
502.956	581.5
503.172	570.5
503.389	558.5
503.606	563.5
503.823	543.5
504.04	535.5
504.256	532.5
504.473	533.5
504.69	538.5
504.907	548.5
505.123	491.5
505.34	515.5
505.557	513.5
505.773	519.5
505.99	498.5
506.207	495.5
506.423	512.5
506.64	500.5
506.856	499.5
507.073	503.5
507.289	478.5
507.506	492.5
507.722	500.5
507.939	517.5
508.155	493.5
508.372	484.5
508.588	493.5
508.805	478.5
509.021	469.5
509.238	487.5
509.454	480.5
509.67	496.5
509.887	487.5
510.103	482.5
510.319	492.5
510.536	563.5
510.752	859.5
510.968	674.5
511.184	492.5
511.401	465.5
511.617	466.5
511.833	466.5
512.049	439.5
512.265	443.5
512.481	444.5
512.698	470.5
512.914	469.5
513.13	484.5
513.346	449.5
513.562	476.5
513.778	449.5
513.994	455.5
514.21	462.5
514.426	472.5
514.642	497.5
514.858	499.5
515.074	546.5
515.29	615.5
515.506	887.5
515.721	739.5
515.937	518.5
516.153	495.5
516.369	471.5
516.585	482.5
516.801	476.5
517.016	451.5
517.232	455.5
517.448	453.5
517.664	480.5
517.879	457.5
518.095	491.5
518.311	459.5
518.527	445.5
518.742	450.5
518.958	470.5
519.173	474.5
519.389	441.5
519.605	459.5
519.82	452.5
520.036	456.5
