Data from 1971.PennyLincolnUp.Lamp.En5.5.200Scan.071719.P1._HRD10591_15-18-49-841.txt Node
Date: Thu Jul 18 15:18:49 EDT 2019
User: cochatt
Spectrometer: HR+D1059
Trigger mode: 1
Integration Time (sec): 1.000000E-1
Scans to average: 1
Electric dark correction enabled: true
Nonlinearity correction enabled: false
Boxcar width: 0
XAxis mode: Wavelengths
Number of Pixels in Spectrum: 2048
>>>>>Begin Spectral Data<<<<<
223.165	-4.62
223.4	-4.62
223.635	-4.62
223.869	-19.62
224.104	-11.62
224.338	-24.62
224.573	-13.62
224.808	-22.62
225.042	-11.62
225.277	-19.62
225.511	-10.62
225.746	16.38
225.98	6.38
226.215	13.38
226.449	22.38
226.683	12.38
226.918	29.38
227.152	38.38
227.387	50.38
227.621	36.38
227.856	52.38
228.09	50.38
228.324	53.38
228.559	65.38
228.793	62.38
229.027	69.38
229.262	109.38
229.496	96.38
229.73	130.38
229.964	132.38
230.199	113.38
230.433	109.38
230.667	118.38
230.901	94.38
231.136	115.38
231.37	102.38
231.604	100.38
231.838	109.38
232.072	106.38
232.306	111.38
232.541	108.38
232.775	97.38
233.009	115.38
233.243	105.38
233.477	116.38
233.711	121.38
233.945	112.38
234.179	120.38
234.413	111.38
234.647	99.38
234.881	96.38
235.115	107.38
235.349	122.38
235.583	107.38
235.817	122.38
236.051	125.38
236.285	132.38
236.519	111.38
236.753	119.38
236.987	134.38
237.221	184.38
237.455	180.38
237.689	172.38
237.922	148.38
238.156	130.38
238.39	135.38
238.624	132.38
238.858	121.38
239.091	121.38
239.325	125.38
239.559	138.38
239.793	130.38
240.027	133.38
240.26	125.38
240.494	146.38
240.728	148.38
240.961	139.38
241.195	132.38
241.429	130.38
241.662	126.38
241.896	122.38
242.13	148.38
242.363	137.38
242.597	141.38
242.83	121.38
243.064	136.38
243.298	125.38
243.531	142.38
243.765	143.38
243.998	154.38
244.232	138.38
244.465	149.38
244.699	141.38
244.932	150.38
245.166	134.38
245.399	126.38
245.633	144.38
245.866	140.38
246.099	148.38
246.333	146.38
246.566	139.38
246.8	131.38
247.033	166.38
247.266	159.38
247.5	158.38
247.733	160.38
247.966	171.38
248.2	182.38
248.433	163.38
248.666	172.38
248.899	173.38
249.133	194.38
249.366	198.38
249.599	180.38
249.832	166.38
250.066	173.38
250.299	195.38
250.532	194.38
250.765	188.38
250.998	214.38
251.231	215.38
251.465	207.38
251.698	212.38
251.931	210.38
252.164	195.38
252.397	184.38
252.63	187.38
252.863	197.38
253.096	201.38
253.329	201.38
253.562	216.38
253.795	213.38
254.028	223.38
254.261	214.38
254.494	218.38
254.727	245.38
254.96	256.38
255.193	273.38
255.426	258.38
255.659	227.38
255.892	223.38
256.124	230.38
256.357	223.38
256.59	223.38
256.823	212.38
257.056	196.38
257.289	212.38
257.521	210.38
257.754	213.38
257.987	218.38
258.22	204.38
258.452	215.38
258.685	217.38
258.918	200.38
259.151	213.38
259.383	231.38
259.616	222.38
259.849	223.38
260.081	219.38
260.314	256.38
260.547	258.38
260.779	223.38
261.012	218.38
261.244	213.38
261.477	224.38
261.71	214.38
261.942	219.38
262.175	231.38
262.407	219.38
262.64	202.38
262.872	218.38
263.105	203.38
263.337	207.38
263.57	208.38
263.802	208.38
264.035	206.38
264.267	215.38
264.499	219.38
264.732	224.38
264.964	206.38
265.197	233.38
265.429	217.38
265.661	213.38
265.894	215.38
266.126	201.38
266.358	213.38
266.591	229.38
266.823	208.38
267.055	227.38
267.287	231.38
267.52	233.38
267.752	230.38
267.984	226.38
268.216	232.38
268.448	232.38
268.681	244.38
268.913	255.38
269.145	276.38
269.377	253.38
269.609	274.38
269.841	250.38
270.073	283.38
270.306	276.38
270.538	303.38
270.77	306.38
271.002	291.38
271.234	290.38
271.466	294.38
271.698	311.38
271.93	320.38
272.162	283.38
272.394	319.38
272.626	287.38
272.858	281.38
273.09	262.38
273.322	282.38
273.553	267.38
273.785	260.38
274.017	251.38
274.249	272.38
274.481	273.38
274.713	258.38
274.945	256.38
275.176	267.38
275.408	258.38
275.64	266.38
275.872	266.38
276.104	249.38
276.335	236.38
276.567	286.38
276.799	291.38
277.031	304.38
277.262	289.38
277.494	316.38
277.726	284.38
277.957	291.38
278.189	284.38
278.421	282.38
278.652	256.38
278.884	261.38
279.115	257.38
279.347	260.38
279.579	270.38
279.81	260.38
280.042	255.38
280.273	266.38
280.505	267.38
280.736	258.38
280.968	251.38
281.199	251.38
281.431	263.38
281.662	261.38
281.894	260.38
282.125	269.38
282.356	283.38
282.588	277.38
282.819	306.38
283.051	278.38
283.282	266.38
283.513	263.38
283.745	286.38
283.976	284.38
284.207	288.38
284.439	288.38
284.67	285.38
284.901	257.38
285.132	259.38
285.364	269.38
285.595	280.38
285.826	269.38
286.057	272.38
286.288	264.38
286.52	275.38
286.751	281.38
286.982	272.38
287.213	286.38
287.444	279.38
287.675	302.38
287.906	301.38
288.138	307.38
288.369	294.38
288.6	280.38
288.831	286.38
289.062	280.38
289.293	285.38
289.524	297.38
289.755	296.38
289.986	263.38
290.217	282.38
290.448	278.38
290.679	286.38
290.91	294.38
291.141	297.38
291.371	283.38
291.602	285.38
291.833	277.38
292.064	284.38
292.295	278.38
292.526	273.38
292.757	279.38
292.987	285.38
293.218	280.38
293.449	299.38
293.68	288.38
293.91	285.38
294.141	299.38
294.372	270.38
294.603	283.38
294.833	296.38
295.064	300.38
295.295	299.38
295.525	296.38
295.756	297.38
295.987	289.38
296.217	299.38
296.448	330.38
296.679	304.38
296.909	296.38
297.14	285.38
297.37	278.38
297.601	288.38
297.831	290.38
298.062	284.38
298.292	294.38
298.523	290.38
298.753	299.38
298.984	291.38
299.214	296.38
299.445	297.38
299.675	305.38
299.905	308.38
300.136	318.38
300.366	332.38
300.597	316.38
300.827	293.38
301.057	310.38
301.288	320.38
301.518	324.38
301.748	323.38
301.979	319.38
302.209	311.38
302.439	315.38
302.669	331.38
302.9	330.38
303.13	324.38
303.36	322.38
303.59	333.38
303.82	318.38
304.051	327.38
304.281	318.38
304.511	325.38
304.741	325.38
304.971	325.38
305.201	325.38
305.431	315.38
305.661	313.38
305.891	312.38
306.121	326.38
306.352	313.38
306.582	326.38
306.812	302.38
307.042	342.38
307.272	322.38
307.502	322.38
307.731	320.38
307.961	319.38
308.191	308.38
308.421	335.38
308.651	339.38
308.881	336.38
309.111	332.38
309.341	329.38
309.571	328.38
309.8	338.38
310.03	347.38
310.26	365.38
310.49	368.38
310.72	382.38
310.949	365.38
311.179	356.38
311.409	374.38
311.639	367.38
311.868	343.38
312.098	356.38
312.328	371.38
312.557	375.38
312.787	393.38
313.017	381.38
313.246	363.38
313.476	371.38
313.706	345.38
313.935	376.38
314.165	375.38
314.394	381.38
314.624	378.38
314.853	385.38
315.083	371.38
315.312	360.38
315.542	363.38
315.771	354.38
316.001	358.38
316.23	373.38
316.46	365.38
316.689	364.38
316.919	375.38
317.148	363.38
317.377	352.38
317.607	382.38
317.836	378.38
318.065	376.38
318.295	365.38
318.524	372.38
318.753	371.38
318.983	368.38
319.212	376.38
319.441	366.38
319.67	370.38
319.9	336.38
320.129	354.38
320.358	374.38
320.587	372.38
320.816	388.38
321.046	385.38
321.275	390.38
321.504	378.38
321.733	390.38
321.962	395.38
322.191	389.38
322.42	412.38
322.649	411.38
322.878	411.38
323.108	425.38
323.337	436.38
323.566	482.38
323.795	470.38
324.024	519.38
324.253	626.38
324.482	870.38
324.71	1278.38
324.939	1756.38
325.168	1470.38
325.397	781.38
325.626	570.38
325.855	508.38
326.084	485.38
326.313	458.38
326.542	464.38
326.77	502.38
326.999	602.38
327.228	795.38
327.457	1123.38
327.686	1257.38
327.914	859.38
328.143	597.38
328.372	537.38
328.6	525.38
328.829	516.38
329.058	495.38
329.287	499.38
329.515	497.38
329.744	465.38
329.972	459.38
330.201	475.38
330.43	485.38
330.658	516.38
330.887	520.38
331.115	509.38
331.344	458.38
331.572	451.38
331.801	469.38
332.03	467.38
332.258	427.38
332.486	413.38
332.715	419.38
332.943	421.38
333.172	432.38
333.4	423.38
333.629	447.38
333.857	440.38
334.085	428.38
334.314	432.38
334.542	460.38
334.771	468.38
334.999	482.38
335.227	443.38
335.455	398.38
335.684	424.38
335.912	417.38
336.14	407.38
336.369	414.38
336.597	420.38
336.825	406.38
337.053	412.38
337.281	402.38
337.51	388.38
337.738	406.38
337.966	412.38
338.194	408.38
338.422	414.38
338.65	411.38
338.878	386.38
339.106	361.38
339.334	385.38
339.562	401.38
339.79	396.38
340.018	392.38
340.246	414.38
340.474	405.38
340.702	396.38
340.93	402.38
341.158	382.38
341.386	391.38
341.614	421.38
341.842	406.38
342.07	378.38
342.298	389.38
342.526	412.38
342.754	386.38
342.981	368.38
343.209	388.38
343.437	404.38
343.665	391.38
343.893	398.38
344.12	412.38
344.348	393.38
344.576	416.38
344.804	384.38
345.031	408.38
345.259	420.38
345.487	382.38
345.714	394.38
345.942	413.38
346.17	382.38
346.397	388.38
346.625	398.38
346.853	406.38
347.08	390.38
347.308	391.38
347.535	374.38
347.763	393.38
347.99	396.38
348.218	398.38
348.445	384.38
348.673	394.38
348.9	393.38
349.128	390.38
349.355	399.38
349.583	378.38
349.81	371.38
350.037	367.38
350.265	379.38
350.492	376.38
350.72	367.38
350.947	388.38
351.174	370.38
351.402	376.38
351.629	375.38
351.856	383.38
352.083	390.38
352.311	394.38
352.538	386.38
352.765	385.38
352.992	371.38
353.22	378.38
353.447	351.38
353.674	370.38
353.901	334.38
354.128	353.38
354.355	347.38
354.583	372.38
354.81	352.38
355.037	372.38
355.264	353.38
355.491	354.38
355.718	347.38
355.945	350.38
356.172	350.38
356.399	340.38
356.626	354.38
356.853	345.38
357.08	352.38
357.307	354.38
357.534	347.38
357.761	343.38
357.988	340.38
358.215	372.38
358.441	341.38
358.668	353.38
358.895	374.38
359.122	368.38
359.349	375.38
359.576	381.38
359.802	380.38
360.029	387.38
360.256	437.38
360.483	373.38
360.709	365.38
360.936	382.38
361.163	377.38
361.39	354.38
361.616	363.38
361.843	372.38
362.07	370.38
362.296	357.38
362.523	374.38
362.749	365.38
362.976	365.38
363.203	350.38
363.429	349.38
363.656	340.38
363.882	362.38
364.109	355.38
364.335	358.38
364.562	343.38
364.788	339.38
365.015	339.38
365.241	352.38
365.468	364.38
365.694	362.38
365.92	347.38
366.147	356.38
366.373	349.38
366.599	366.38
366.826	351.38
367.052	342.38
367.278	341.38
367.505	339.38
367.731	368.38
367.957	342.38
368.184	362.38
368.41	369.38
368.636	382.38
368.862	368.38
369.089	351.38
369.315	354.38
369.541	337.38
369.767	343.38
369.993	332.38
370.219	357.38
370.445	345.38
370.672	350.38
370.898	360.38
371.124	355.38
371.35	355.38
371.576	352.38
371.802	340.38
372.028	330.38
372.254	370.38
372.48	340.38
372.706	342.38
372.932	345.38
373.158	347.38
373.384	336.38
373.61	334.38
373.835	354.38
374.061	350.38
374.287	328.38
374.513	357.38
374.739	350.38
374.965	350.38
375.191	366.38
375.416	356.38
375.642	322.38
375.868	348.38
376.094	366.38
376.319	344.38
376.545	349.38
376.771	348.38
376.997	338.38
377.222	330.38
377.448	331.38
377.674	339.38
377.899	325.38
378.125	343.38
378.35	332.38
378.576	351.38
378.802	333.38
379.027	330.38
379.253	357.38
379.478	329.38
379.704	326.38
379.929	346.38
380.155	352.38
380.38	335.38
380.606	333.38
380.831	336.38
381.057	354.38
381.282	339.38
381.507	334.38
381.733	340.38
381.958	348.38
382.184	357.38
382.409	328.38
382.634	340.38
382.86	320.38
383.085	365.38
383.31	362.38
383.535	347.38
383.761	345.38
383.986	359.38
384.211	327.38
384.436	365.38
384.662	352.38
384.887	360.38
385.112	330.38
385.337	352.38
385.562	354.38
385.787	350.38
386.013	375.38
386.238	379.38
386.463	370.38
386.688	341.38
386.913	360.38
387.138	344.38
387.363	346.38
387.588	349.38
387.813	370.38
388.038	350.38
388.263	360.38
388.488	356.38
388.713	361.38
388.938	350.38
389.163	350.38
389.387	360.38
389.612	349.38
389.837	363.38
390.062	346.38
390.287	349.38
390.512	353.38
390.736	347.38
390.961	360.38
391.186	348.38
391.411	364.38
391.636	371.38
391.86	362.38
392.085	360.38
392.31	343.38
392.534	353.38
392.759	375.38
392.984	360.38
393.208	378.38
393.433	365.38
393.658	352.38
393.882	359.38
394.107	358.38
394.331	338.38
394.556	392.38
394.78	341.38
395.005	343.38
395.229	354.38
395.454	342.38
395.678	356.38
395.903	391.38
396.127	378.38
396.352	401.38
396.576	360.38
396.801	367.38
397.025	369.38
397.249	354.38
397.474	376.38
397.698	374.38
397.922	381.38
398.147	398.38
398.371	384.38
398.595	386.38
398.82	384.38
399.044	406.38
399.268	410.38
399.492	399.38
399.717	418.38
399.941	475.38
400.165	477.38
400.389	483.38
400.613	440.38
400.837	430.38
401.062	398.38
401.286	396.38
401.51	401.38
401.734	410.38
401.958	412.38
402.182	410.38
402.406	412.38
402.63	395.38
402.854	397.38
403.078	393.38
403.302	409.38
403.526	387.38
403.75	420.38
403.974	422.38
404.198	399.38
404.422	409.38
404.645	418.38
404.869	411.38
405.093	438.38
405.317	466.38
405.541	482.38
405.765	441.38
405.988	444.38
406.212	434.38
406.436	457.38
406.66	462.38
406.883	438.38
407.107	458.38
407.331	479.38
407.555	542.38
407.778	512.38
408.002	497.38
408.226	438.38
408.449	457.38
408.673	447.38
408.896	459.38
409.12	474.38
409.344	453.38
409.567	432.38
409.791	438.38
410.014	398.38
410.238	392.38
410.461	415.38
410.685	413.38
410.908	434.38
411.132	449.38
411.355	473.38
411.578	445.38
411.802	392.38
412.025	398.38
412.249	390.38
412.472	417.38
412.695	449.38
412.919	442.38
413.142	415.38
413.365	404.38
413.589	396.38
413.812	361.38
414.035	381.38
414.258	392.38
414.482	390.38
414.705	395.38
414.928	388.38
415.151	385.38
415.374	383.38
415.597	386.38
415.821	378.38
416.044	368.38
416.267	381.38
416.49	372.38
416.713	378.38
416.936	390.38
417.159	383.38
417.382	363.38
417.605	368.38
417.828	380.38
418.051	396.38
418.274	378.38
418.497	387.38
418.72	384.38
418.943	378.38
419.166	397.38
419.389	410.38
419.611	405.38
419.834	412.38
420.057	396.38
420.28	414.38
420.503	406.38
420.726	410.38
420.948	419.38
421.171	448.38
421.394	460.38
421.617	422.38
421.839	394.38
422.062	395.38
422.285	406.38
422.507	451.38
422.73	502.38
422.953	495.38
423.175	422.38
423.398	403.38
423.621	422.38
423.843	435.38
424.066	450.38
424.288	435.38
424.511	426.38
424.733	495.38
424.956	547.38
425.178	524.38
425.401	517.38
425.623	510.38
425.846	459.38
426.068	430.38
426.291	419.38
426.513	435.38
426.735	448.38
426.958	487.38
427.18	538.38
427.402	617.38
427.625	663.38
427.847	579.38
428.069	493.38
428.292	467.38
428.514	441.38
428.736	399.38
428.958	401.38
429.181	412.38
429.403	403.38
429.625	399.38
429.847	404.38
430.069	474.38
430.292	478.38
430.514	404.38
430.736	388.38
430.958	396.38
431.18	392.38
431.402	355.38
431.624	375.38
431.846	364.38
432.068	384.38
432.29	370.38
432.512	364.38
432.734	378.38
432.956	388.38
433.178	380.38
433.4	400.38
433.622	382.38
433.844	372.38
434.066	376.38
434.287	379.38
434.509	365.38
434.731	387.38
434.953	382.38
435.175	406.38
435.397	397.38
435.618	429.38
435.84	462.38
436.062	548.38
436.284	563.38
436.505	506.38
436.727	465.38
436.949	394.38
437.17	411.38
437.392	399.38
437.614	410.38
437.835	429.38
438.057	497.38
438.278	556.38
438.5	581.38
438.721	614.38
438.943	584.38
439.165	507.38
439.386	432.38
439.608	452.38
439.829	431.38
440.05	459.38
440.272	476.38
440.493	444.38
440.715	418.38
440.936	417.38
441.158	399.38
441.379	427.38
441.6	412.38
441.822	439.38
442.043	454.38
442.264	518.38
442.486	544.38
442.707	460.38
442.928	452.38
443.149	450.38
443.371	467.38
443.592	489.38
443.813	558.38
444.034	602.38
444.255	497.38
444.476	442.38
444.698	431.38
444.919	435.38
445.14	552.38
445.361	504.38
445.582	475.38
445.803	516.38
446.024	561.38
446.245	593.38
446.466	538.38
446.687	449.38
446.908	431.38
447.129	398.38
447.35	390.38
447.571	423.38
447.792	414.38
448.013	406.38
448.234	410.38
448.455	443.38
448.675	562.38
448.896	619.38
449.117	520.38
449.338	496.38
449.559	576.38
449.779	648.38
450	525.38
450.221	442.38
450.442	420.38
450.662	382.38
450.883	396.38
451.104	406.38
451.324	386.38
451.545	378.38
451.766	354.38
451.986	343.38
452.207	349.38
452.428	356.38
452.648	357.38
452.869	355.38
453.089	361.38
453.31	379.38
453.53	330.38
453.751	349.38
453.971	353.38
454.192	354.38
454.412	359.38
454.633	359.38
454.853	334.38
455.073	360.38
455.294	354.38
455.514	425.38
455.734	415.38
455.955	364.38
456.175	338.38
456.395	336.38
456.616	350.38
456.836	328.38
457.056	343.38
457.276	350.38
457.497	328.38
457.717	346.38
457.937	329.38
458.157	359.38
458.377	358.38
458.598	363.38
458.818	399.38
459.038	440.38
459.258	455.38
459.478	417.38
459.698	382.38
459.918	380.38
460.138	364.38
460.358	374.38
460.578	352.38
460.798	381.38
461.018	390.38
461.238	377.38
461.458	380.38
461.678	375.38
461.898	378.38
462.118	379.38
462.338	366.38
462.558	374.38
462.777	386.38
462.997	364.38
463.217	368.38
463.437	376.38
463.657	382.38
463.876	394.38
464.096	397.38
464.316	367.38
464.536	380.38
464.755	382.38
464.975	396.38
465.195	434.38
465.414	448.38
465.634	422.38
465.854	379.38
466.073	373.38
466.293	363.38
466.512	362.38
466.732	361.38
466.951	352.38
467.171	350.38
467.391	347.38
467.61	371.38
467.829	380.38
468.049	374.38
468.268	360.38
468.488	362.38
468.707	346.38
468.927	335.38
469.146	351.38
469.365	366.38
469.585	344.38
469.804	367.38
470.023	368.38
470.243	372.38
470.462	367.38
470.681	388.38
470.901	362.38
471.12	374.38
471.339	398.38
471.558	370.38
471.777	374.38
471.997	366.38
472.216	364.38
472.435	382.38
472.654	372.38
472.873	366.38
473.092	362.38
473.311	346.38
473.53	381.38
473.749	381.38
473.968	416.38
474.187	481.38
474.406	474.38
474.625	422.38
474.844	374.38
475.063	372.38
475.282	390.38
475.501	361.38
475.72	392.38
475.939	377.38
476.158	384.38
476.377	385.38
476.596	373.38
476.814	374.38
477.033	376.38
477.252	376.38
477.471	362.38
477.69	384.38
477.908	398.38
478.127	392.38
478.346	406.38
478.564	407.38
478.783	395.38
479.002	397.38
479.22	389.38
479.439	411.38
479.658	435.38
479.876	411.38
480.095	451.38
480.313	447.38
480.532	428.38
480.751	422.38
480.969	454.38
481.188	470.38
481.406	479.38
481.624	438.38
481.843	446.38
482.061	415.38
482.28	426.38
482.498	421.38
482.717	419.38
482.935	428.38
483.153	428.38
483.372	439.38
483.59	434.38
483.808	419.38
484.027	424.38
484.245	426.38
484.463	415.38
484.681	452.38
484.9	408.38
485.118	420.38
485.336	438.38
485.554	440.38
485.772	443.38
485.99	419.38
486.209	436.38
486.427	428.38
486.645	448.38
486.863	444.38
487.081	468.38
487.299	448.38
487.517	438.38
487.735	433.38
487.953	445.38
488.171	456.38
488.389	470.38
488.607	460.38
488.825	448.38
489.043	466.38
489.261	450.38
489.479	443.38
489.696	473.38
489.914	466.38
490.132	461.38
490.35	468.38
490.568	486.38
490.786	494.38
491.003	502.38
491.221	503.38
491.439	512.38
491.657	502.38
491.874	536.38
492.092	508.38
492.31	529.38
492.527	540.38
492.745	537.38
492.963	540.38
493.18	508.38
493.398	519.38
493.615	526.38
493.833	531.38
494.05	525.38
494.268	536.38
494.485	510.38
494.703	530.38
494.92	549.38
495.138	527.38
495.355	536.38
495.573	544.38
495.79	539.38
496.008	552.38
496.225	542.38
496.442	521.38
496.66	538.38
496.877	570.38
497.094	533.38
497.312	550.38
497.529	563.38
497.746	560.38
497.963	576.38
498.181	565.38
498.398	585.38
498.615	588.38
498.832	599.38
499.049	587.38
499.267	619.38
499.484	638.38
499.701	623.38
499.918	635.38
500.135	691.38
500.352	694.38
500.569	730.38
500.786	725.38
501.003	709.38
501.22	674.38
501.437	666.38
501.654	686.38
501.871	675.38
502.088	624.38
