Data from 1971.PennyLincolnUp.Lamp.En5.5.200Scan.071719.P1._HRD10591_15-19-58-841.txt Node
Date: Thu Jul 18 15:19:58 EDT 2019
User: cochatt
Spectrometer: HR+D1059
Trigger mode: 1
Integration Time (sec): 1.000000E-1
Scans to average: 1
Electric dark correction enabled: true
Nonlinearity correction enabled: false
Boxcar width: 0
XAxis mode: Wavelengths
Number of Pixels in Spectrum: 2048
>>>>>Begin Spectral Data<<<<<
223.165	-10.5
223.4	-10.5
223.635	-10.5
223.869	-2.5
224.104	-22.5
224.338	-23.5
224.573	-8.5
224.808	-10.5
225.042	-20.5
225.277	8.5
225.511	2.5
225.746	-6.5
225.98	9.5
226.215	19.5
226.449	14.5
226.683	16.5
226.918	16.5
227.152	17.5
227.387	17.5
227.621	37.5
227.856	60.5
228.09	40.5
228.324	56.5
228.559	62.5
228.793	64.5
229.027	88.5
229.262	96.5
229.496	97.5
229.73	125.5
229.964	132.5
230.199	117.5
230.433	120.5
230.667	116.5
230.901	119.5
231.136	106.5
231.37	103.5
231.604	102.5
231.838	110.5
232.072	118.5
232.306	108.5
232.541	126.5
232.775	119.5
233.009	105.5
233.243	107.5
233.477	114.5
233.711	114.5
233.945	130.5
234.179	105.5
234.413	126.5
234.647	119.5
234.881	122.5
235.115	124.5
235.349	123.5
235.583	119.5
235.817	122.5
236.051	126.5
236.285	128.5
236.519	113.5
236.753	136.5
236.987	154.5
237.221	184.5
237.455	224.5
237.689	186.5
237.922	153.5
238.156	121.5
238.39	127.5
238.624	150.5
238.858	113.5
239.091	128.5
239.325	121.5
239.559	132.5
239.793	133.5
240.027	143.5
240.26	134.5
240.494	157.5
240.728	165.5
240.961	145.5
241.195	144.5
241.429	145.5
241.662	141.5
241.896	131.5
242.13	145.5
242.363	131.5
242.597	154.5
242.83	144.5
243.064	136.5
243.298	130.5
243.531	125.5
243.765	133.5
243.998	140.5
244.232	135.5
244.465	133.5
244.699	142.5
244.932	149.5
245.166	153.5
245.399	144.5
245.633	152.5
245.866	161.5
246.099	167.5
246.333	156.5
246.566	164.5
246.8	160.5
247.033	153.5
247.266	171.5
247.5	170.5
247.733	180.5
247.966	179.5
248.2	171.5
248.433	179.5
248.666	184.5
248.899	184.5
249.133	208.5
249.366	209.5
249.599	206.5
249.832	194.5
250.066	209.5
250.299	180.5
250.532	196.5
250.765	223.5
250.998	223.5
251.231	238.5
251.465	213.5
251.698	221.5
251.931	212.5
252.164	190.5
252.397	218.5
252.63	207.5
252.863	189.5
253.096	217.5
253.329	232.5
253.562	235.5
253.795	228.5
254.028	204.5
254.261	217.5
254.494	231.5
254.727	277.5
254.96	293.5
255.193	290.5
255.426	272.5
255.659	240.5
255.892	230.5
256.124	251.5
256.357	249.5
256.59	241.5
256.823	224.5
257.056	217.5
257.289	236.5
257.521	216.5
257.754	229.5
257.987	222.5
258.22	225.5
258.452	211.5
258.685	217.5
258.918	217.5
259.151	218.5
259.383	247.5
259.616	237.5
259.849	230.5
260.081	246.5
260.314	264.5
260.547	270.5
260.779	253.5
261.012	249.5
261.244	242.5
261.477	242.5
261.71	221.5
261.942	230.5
262.175	228.5
262.407	241.5
262.64	230.5
262.872	216.5
263.105	226.5
263.337	246.5
263.57	235.5
263.802	228.5
264.035	227.5
264.267	228.5
264.499	229.5
264.732	233.5
264.964	221.5
265.197	224.5
265.429	246.5
265.661	227.5
265.894	235.5
266.126	217.5
266.358	214.5
266.591	217.5
266.823	228.5
267.055	241.5
267.287	245.5
267.52	227.5
267.752	237.5
267.984	248.5
268.216	250.5
268.448	250.5
268.681	256.5
268.913	264.5
269.145	268.5
269.377	303.5
269.609	295.5
269.841	293.5
270.073	304.5
270.306	302.5
270.538	334.5
270.77	349.5
271.002	316.5
271.234	308.5
271.466	309.5
271.698	340.5
271.93	349.5
272.162	348.5
272.394	342.5
272.626	329.5
272.858	312.5
273.09	297.5
273.322	288.5
273.553	279.5
273.785	285.5
274.017	281.5
274.249	284.5
274.481	274.5
274.713	281.5
274.945	277.5
275.176	281.5
275.408	286.5
275.64	282.5
275.872	277.5
276.104	288.5
276.335	286.5
276.567	289.5
276.799	304.5
277.031	313.5
277.262	351.5
277.494	324.5
277.726	304.5
277.957	305.5
278.189	282.5
278.421	290.5
278.652	280.5
278.884	278.5
279.115	286.5
279.347	283.5
279.579	286.5
279.81	291.5
280.042	291.5
280.273	295.5
280.505	293.5
280.736	296.5
280.968	276.5
281.199	289.5
281.431	298.5
281.662	304.5
281.894	287.5
282.125	280.5
282.356	295.5
282.588	322.5
282.819	335.5
283.051	290.5
283.282	285.5
283.513	303.5
283.745	297.5
283.976	301.5
284.207	305.5
284.439	289.5
284.67	300.5
284.901	287.5
285.132	292.5
285.364	299.5
285.595	298.5
285.826	273.5
286.057	280.5
286.288	305.5
286.52	305.5
286.751	298.5
286.982	302.5
287.213	288.5
287.444	300.5
287.675	311.5
287.906	320.5
288.138	330.5
288.369	306.5
288.6	316.5
288.831	316.5
289.062	303.5
289.293	291.5
289.524	314.5
289.755	295.5
289.986	312.5
290.217	303.5
290.448	302.5
290.679	307.5
290.91	314.5
291.141	312.5
291.371	304.5
291.602	290.5
291.833	296.5
292.064	293.5
292.295	303.5
292.526	299.5
292.757	303.5
292.987	309.5
293.218	324.5
293.449	318.5
293.68	300.5
293.91	305.5
294.141	301.5
294.372	321.5
294.603	322.5
294.833	323.5
295.064	320.5
295.295	308.5
295.525	317.5
295.756	314.5
295.987	318.5
296.217	328.5
296.448	337.5
296.679	330.5
296.909	302.5
297.14	331.5
297.37	330.5
297.601	326.5
297.831	318.5
298.062	303.5
298.292	312.5
298.523	310.5
298.753	333.5
298.984	315.5
299.214	314.5
299.445	308.5
299.675	310.5
299.905	325.5
300.136	322.5
300.366	324.5
300.597	335.5
300.827	330.5
301.057	325.5
301.288	353.5
301.518	349.5
301.748	337.5
301.979	349.5
302.209	355.5
302.439	335.5
302.669	338.5
302.9	343.5
303.13	350.5
303.36	333.5
303.59	337.5
303.82	361.5
304.051	363.5
304.281	359.5
304.511	341.5
304.741	343.5
304.971	329.5
305.201	348.5
305.431	334.5
305.661	335.5
305.891	346.5
306.121	331.5
306.352	366.5
306.582	358.5
306.812	356.5
307.042	356.5
307.272	338.5
307.502	356.5
307.731	363.5
307.961	367.5
308.191	354.5
308.421	354.5
308.651	341.5
308.881	360.5
309.111	364.5
309.341	362.5
309.571	381.5
309.8	370.5
310.03	378.5
310.26	401.5
310.49	387.5
310.72	394.5
310.949	408.5
311.179	413.5
311.409	395.5
311.639	394.5
311.868	398.5
312.098	397.5
312.328	391.5
312.557	419.5
312.787	427.5
313.017	420.5
313.246	411.5
313.476	393.5
313.706	390.5
313.935	401.5
314.165	414.5
314.394	427.5
314.624	423.5
314.853	412.5
315.083	406.5
315.312	400.5
315.542	384.5
315.771	400.5
316.001	393.5
316.23	398.5
316.46	393.5
316.689	398.5
316.919	379.5
317.148	411.5
317.377	409.5
317.607	395.5
317.836	401.5
318.065	376.5
318.295	408.5
318.524	405.5
318.753	388.5
318.983	403.5
319.212	396.5
319.441	402.5
319.67	408.5
319.9	404.5
320.129	383.5
320.358	406.5
320.587	406.5
320.816	405.5
321.046	418.5
321.275	422.5
321.504	418.5
321.733	413.5
321.962	429.5
322.191	431.5
322.42	432.5
322.649	474.5
322.878	469.5
323.108	481.5
323.337	495.5
323.566	517.5
323.795	543.5
324.024	608.5
324.253	730.5
324.482	988.5
324.71	1518.5
324.939	2026.5
325.168	1729.5
325.397	926.5
325.626	658.5
325.855	542.5
326.084	494.5
326.313	527.5
326.542	494.5
326.77	574.5
326.999	651.5
327.228	916.5
327.457	1304.5
327.686	1502.5
327.914	1014.5
328.143	681.5
328.372	606.5
328.6	570.5
328.829	554.5
329.058	559.5
329.287	583.5
329.515	565.5
329.744	512.5
329.972	501.5
330.201	524.5
330.43	544.5
330.658	585.5
330.887	598.5
331.115	592.5
331.344	528.5
331.572	504.5
331.801	498.5
332.03	477.5
332.258	470.5
332.486	451.5
332.715	460.5
332.943	472.5
333.172	447.5
333.4	488.5
333.629	484.5
333.857	468.5
334.085	491.5
334.314	506.5
334.542	528.5
334.771	533.5
334.999	516.5
335.227	460.5
335.455	447.5
335.684	486.5
335.912	454.5
336.14	445.5
336.369	465.5
336.597	466.5
336.825	478.5
337.053	452.5
337.281	441.5
337.51	465.5
337.738	458.5
337.966	456.5
338.194	461.5
338.422	460.5
338.65	427.5
338.878	449.5
339.106	443.5
339.334	426.5
339.562	433.5
339.79	423.5
340.018	444.5
340.246	418.5
340.474	429.5
340.702	425.5
340.93	436.5
341.158	417.5
341.386	447.5
341.614	445.5
341.842	421.5
342.07	398.5
342.298	433.5
342.526	412.5
342.754	414.5
342.981	417.5
343.209	430.5
343.437	440.5
343.665	421.5
343.893	433.5
344.12	448.5
344.348	431.5
344.576	450.5
344.804	441.5
345.031	427.5
345.259	438.5
345.487	427.5
345.714	433.5
345.942	427.5
346.17	423.5
346.397	424.5
346.625	420.5
346.853	410.5
347.08	409.5
347.308	418.5
347.535	402.5
347.763	412.5
347.99	414.5
348.218	422.5
348.445	419.5
348.673	412.5
348.9	397.5
349.128	404.5
349.355	392.5
349.583	398.5
349.81	384.5
350.037	399.5
350.265	408.5
350.492	381.5
350.72	408.5
350.947	396.5
351.174	425.5
351.402	415.5
351.629	398.5
351.856	414.5
352.083	446.5
352.311	423.5
352.538	398.5
352.765	442.5
352.992	418.5
353.22	393.5
353.447	398.5
353.674	380.5
353.901	398.5
354.128	382.5
354.355	404.5
354.583	375.5
354.81	389.5
355.037	386.5
355.264	384.5
355.491	370.5
355.718	372.5
355.945	356.5
356.172	371.5
356.399	372.5
356.626	375.5
356.853	366.5
357.08	388.5
357.307	346.5
357.534	394.5
357.761	368.5
357.988	384.5
358.215	384.5
358.441	369.5
358.668	376.5
358.895	396.5
359.122	400.5
359.349	393.5
359.576	400.5
359.802	427.5
360.029	440.5
360.256	436.5
360.483	429.5
360.709	402.5
360.936	417.5
361.163	413.5
361.39	417.5
361.616	410.5
361.843	403.5
362.07	392.5
362.296	398.5
362.523	401.5
362.749	365.5
362.976	382.5
363.203	382.5
363.429	377.5
363.656	374.5
363.882	380.5
364.109	398.5
364.335	374.5
364.562	368.5
364.788	370.5
365.015	382.5
365.241	386.5
365.468	388.5
365.694	382.5
365.92	387.5
366.147	366.5
366.373	372.5
366.599	374.5
366.826	361.5
367.052	374.5
367.278	360.5
367.505	369.5
367.731	383.5
367.957	365.5
368.184	390.5
368.41	365.5
368.636	363.5
368.862	365.5
369.089	381.5
369.315	377.5
369.541	374.5
369.767	371.5
369.993	382.5
370.219	377.5
370.445	356.5
370.672	373.5
370.898	380.5
371.124	380.5
371.35	377.5
371.576	374.5
371.802	376.5
372.028	355.5
372.254	374.5
372.48	371.5
372.706	362.5
372.932	364.5
373.158	358.5
373.384	350.5
373.61	376.5
373.835	369.5
374.061	351.5
374.287	378.5
374.513	372.5
374.739	354.5
374.965	374.5
375.191	380.5
375.416	380.5
375.642	385.5
375.868	368.5
376.094	367.5
376.319	368.5
376.545	376.5
376.771	369.5
376.997	358.5
377.222	370.5
377.448	370.5
377.674	374.5
377.899	374.5
378.125	359.5
378.35	359.5
378.576	362.5
378.802	378.5
379.027	355.5
379.253	355.5
379.478	350.5
379.704	366.5
379.929	365.5
380.155	349.5
380.38	358.5
380.606	378.5
380.831	361.5
381.057	376.5
381.282	380.5
381.507	363.5
381.733	361.5
381.958	360.5
382.184	364.5
382.409	376.5
382.634	382.5
382.86	365.5
383.085	366.5
383.31	374.5
383.535	368.5
383.761	383.5
383.986	378.5
384.211	382.5
384.436	360.5
384.662	354.5
384.887	376.5
385.112	379.5
385.337	363.5
385.562	368.5
385.787	390.5
386.013	398.5
386.238	374.5
386.463	392.5
386.688	388.5
386.913	362.5
387.138	380.5
387.363	386.5
387.588	389.5
387.813	383.5
388.038	357.5
388.263	383.5
388.488	388.5
388.713	380.5
388.938	378.5
389.163	374.5
389.387	375.5
389.612	396.5
389.837	377.5
390.062	392.5
390.287	364.5
390.512	378.5
390.736	384.5
390.961	384.5
391.186	374.5
391.411	395.5
391.636	379.5
391.86	381.5
392.085	379.5
392.31	373.5
392.534	413.5
392.759	387.5
392.984	358.5
393.208	396.5
393.433	384.5
393.658	378.5
393.882	375.5
394.107	373.5
394.331	370.5
394.556	386.5
394.78	402.5
395.005	379.5
395.229	364.5
395.454	364.5
395.678	388.5
395.903	399.5
396.127	431.5
396.352	421.5
396.576	400.5
396.801	406.5
397.025	388.5
397.249	403.5
397.474	402.5
397.698	393.5
397.922	421.5
398.147	440.5
398.371	431.5
398.595	431.5
398.82	426.5
399.044	415.5
399.268	448.5
399.492	472.5
399.717	474.5
399.941	489.5
400.165	528.5
400.389	520.5
400.613	472.5
400.837	455.5
401.062	448.5
401.286	435.5
401.51	425.5
401.734	407.5
401.958	415.5
402.182	425.5
402.406	450.5
402.63	452.5
402.854	456.5
403.078	438.5
403.302	443.5
403.526	462.5
403.75	432.5
403.974	432.5
404.198	444.5
404.422	446.5
404.645	456.5
404.869	435.5
405.093	445.5
405.317	504.5
405.541	532.5
405.765	478.5
405.988	479.5
406.212	465.5
406.436	447.5
406.66	487.5
406.883	450.5
407.107	477.5
407.331	532.5
407.555	587.5
407.778	574.5
408.002	520.5
408.226	497.5
408.449	465.5
408.673	476.5
408.896	505.5
409.12	528.5
409.344	494.5
409.567	480.5
409.791	459.5
410.014	439.5
410.238	422.5
410.461	446.5
410.685	446.5
410.908	459.5
411.132	472.5
411.355	505.5
411.578	493.5
411.802	466.5
412.025	428.5
412.249	475.5
412.472	468.5
412.695	490.5
412.919	483.5
413.142	437.5
413.365	436.5
413.589	406.5
413.812	408.5
414.035	403.5
414.258	406.5
414.482	409.5
414.705	401.5
414.928	412.5
415.151	400.5
415.374	422.5
415.597	394.5
415.821	427.5
416.044	410.5
416.267	426.5
416.49	401.5
416.713	398.5
416.936	405.5
417.159	416.5
417.382	420.5
417.605	426.5
417.828	433.5
418.051	427.5
418.274	426.5
418.497	417.5
418.72	419.5
418.943	417.5
419.166	423.5
419.389	450.5
419.611	461.5
419.834	422.5
420.057	434.5
420.28	428.5
420.503	437.5
420.726	422.5
420.948	417.5
421.171	476.5
421.394	510.5
421.617	441.5
421.839	430.5
422.062	458.5
422.285	447.5
422.507	493.5
422.73	559.5
422.953	524.5
423.175	469.5
423.398	461.5
423.621	450.5
423.843	472.5
424.066	477.5
424.288	475.5
424.511	489.5
424.733	513.5
424.956	585.5
425.178	566.5
425.401	576.5
425.623	591.5
425.846	510.5
426.068	463.5
426.291	464.5
426.513	471.5
426.735	494.5
426.958	505.5
427.18	574.5
427.402	682.5
427.625	757.5
427.847	656.5
428.069	574.5
428.292	508.5
428.514	452.5
428.736	444.5
428.958	446.5
429.181	426.5
429.403	438.5
429.625	451.5
429.847	462.5
430.069	529.5
430.292	505.5
430.514	448.5
430.736	418.5
430.958	404.5
431.18	428.5
431.402	409.5
431.624	411.5
431.846	384.5
432.068	404.5
432.29	408.5
432.512	396.5
432.734	410.5
432.956	396.5
433.178	408.5
433.4	425.5
433.622	402.5
433.844	410.5
434.066	420.5
434.287	407.5
434.509	408.5
434.731	399.5
434.953	404.5
435.175	410.5
435.397	463.5
435.618	487.5
435.84	508.5
436.062	584.5
436.284	629.5
436.505	540.5
436.727	482.5
436.949	451.5
437.17	442.5
437.392	430.5
437.614	438.5
437.835	482.5
438.057	561.5
438.278	641.5
438.5	630.5
438.721	713.5
438.943	649.5
439.165	520.5
439.386	485.5
439.608	471.5
439.829	482.5
440.05	489.5
440.272	528.5
440.493	490.5
440.715	445.5
440.936	455.5
441.158	440.5
441.379	433.5
441.6	440.5
441.822	467.5
442.043	507.5
442.264	564.5
442.486	586.5
442.707	512.5
442.928	477.5
443.149	470.5
443.371	495.5
443.592	540.5
443.813	597.5
444.034	668.5
444.255	561.5
444.476	503.5
444.698	463.5
444.919	478.5
445.14	570.5
445.361	511.5
445.582	491.5
445.803	538.5
446.024	614.5
446.245	646.5
446.466	590.5
446.687	494.5
446.908	470.5
447.129	458.5
447.35	430.5
447.571	446.5
447.792	432.5
448.013	443.5
448.234	450.5
448.455	481.5
448.675	594.5
448.896	685.5
449.117	568.5
449.338	564.5
449.559	648.5
449.779	719.5
450	576.5
450.221	463.5
450.442	449.5
450.662	418.5
450.883	405.5
451.104	426.5
451.324	419.5
451.545	419.5
451.766	406.5
451.986	401.5
452.207	362.5
452.428	380.5
452.648	380.5
452.869	391.5
453.089	372.5
453.31	384.5
453.53	394.5
453.751	381.5
453.971	391.5
454.192	403.5
454.412	392.5
454.633	380.5
454.853	365.5
455.073	372.5
455.294	406.5
455.514	437.5
455.734	465.5
455.955	374.5
456.175	357.5
456.395	368.5
456.616	347.5
456.836	362.5
457.056	367.5
457.276	349.5
457.497	357.5
457.717	359.5
457.937	374.5
458.157	374.5
458.377	367.5
458.598	388.5
458.818	441.5
459.038	496.5
459.258	513.5
459.478	423.5
459.698	405.5
459.918	394.5
460.138	374.5
460.358	380.5
460.578	401.5
460.798	402.5
461.018	399.5
461.238	392.5
461.458	379.5
461.678	378.5
461.898	375.5
462.118	399.5
462.338	411.5
462.558	418.5
462.777	416.5
462.997	408.5
463.217	410.5
463.437	430.5
463.657	411.5
463.876	414.5
464.096	413.5
464.316	424.5
464.536	431.5
464.755	429.5
464.975	415.5
465.195	462.5
465.414	498.5
465.634	437.5
465.854	422.5
466.073	406.5
466.293	378.5
466.512	378.5
466.732	385.5
466.951	372.5
467.171	381.5
467.391	380.5
467.61	378.5
467.829	399.5
468.049	395.5
468.268	376.5
468.488	397.5
468.707	386.5
468.927	383.5
469.146	386.5
469.365	374.5
469.585	373.5
469.804	387.5
470.023	392.5
470.243	393.5
470.462	423.5
470.681	407.5
470.901	405.5
471.12	386.5
471.339	382.5
471.558	398.5
471.777	396.5
471.997	399.5
472.216	399.5
472.435	412.5
472.654	394.5
472.873	375.5
473.092	378.5
473.311	385.5
473.53	396.5
473.749	412.5
473.968	443.5
474.187	536.5
474.406	528.5
474.625	449.5
474.844	400.5
475.063	400.5
475.282	399.5
475.501	386.5
475.72	413.5
475.939	406.5
476.158	415.5
476.377	408.5
476.596	411.5
476.814	394.5
477.033	409.5
477.252	406.5
477.471	415.5
477.69	413.5
477.908	430.5
478.127	425.5
478.346	416.5
478.564	450.5
478.783	442.5
479.002	424.5
479.22	441.5
479.439	450.5
479.658	466.5
479.876	475.5
480.095	463.5
480.313	494.5
480.532	496.5
480.751	461.5
480.969	479.5
481.188	526.5
481.406	526.5
481.624	486.5
481.843	446.5
482.061	470.5
482.28	449.5
482.498	438.5
482.717	428.5
482.935	437.5
483.153	462.5
483.372	451.5
483.59	473.5
483.808	453.5
484.027	447.5
484.245	460.5
484.463	440.5
484.681	442.5
484.9	464.5
485.118	457.5
485.336	460.5
485.554	454.5
485.772	462.5
485.99	466.5
486.209	464.5
486.427	465.5
486.645	479.5
486.863	488.5
487.081	500.5
487.299	478.5
487.517	480.5
487.735	491.5
487.953	488.5
488.171	502.5
488.389	488.5
488.607	485.5
488.825	482.5
489.043	471.5
489.261	503.5
489.479	496.5
489.696	526.5
489.914	504.5
490.132	498.5
490.35	488.5
490.568	515.5
490.786	540.5
491.003	539.5
491.221	544.5
491.439	534.5
491.657	537.5
491.874	568.5
492.092	567.5
492.31	584.5
492.527	560.5
492.745	588.5
492.963	558.5
493.18	565.5
493.398	578.5
493.615	586.5
493.833	582.5
494.05	587.5
494.268	566.5
494.485	559.5
494.703	568.5
494.92	578.5
495.138	568.5
495.355	582.5
495.573	576.5
495.79	593.5
496.008	586.5
496.225	557.5
496.442	591.5
496.66	600.5
496.877	586.5
497.094	589.5
497.312	591.5
497.529	605.5
497.746	599.5
497.963	608.5
498.181	641.5
498.398	629.5
498.615	604.5
498.832	644.5
499.049	654.5
499.267	652.5
499.484	670.5
499.701	689.5
499.918	714.5
500.135	701.5
500.352	730.5
500.569	749.5
500.786	768.5
501.003	761.5
501.22	724.5
501.437	728.5
501.654	723.5
501.871	705.5
502.088	690.5
502.305	695.5
502.522	644.5
502.739	628.5
502.956	600.5
503.172	606.5
503.389	597.5
503.606	605.5
503.823	609.5
504.04	603.5
504.256	590.5
504.473	585.5
504.69	560.5
504.907	559.5
505.123	550.5
505.34	564.5
505.557	539.5
505.773	571.5
505.99	570.5
506.207	556.5
506.423	558.5
506.64	578.5
506.856	544.5
507.073	533.5
507.289	530.5
507.506	528.5
507.722	569.5
507.939	588.5
508.155	540.5
508.372	529.5
508.588	516.5
508.805	529.5
509.021	520.5
509.238	556.5
509.454	536.5
509.67	541.5
509.887	523.5
510.103	544.5
510.319	534.5
510.536	626.5
510.752	910.5
510.968	726.5
511.184	534.5
511.401	507.5
511.617	496.5
511.833	502.5
512.049	490.5
512.265	502.5
512.481	512.5
512.698	483.5
512.914	485.5
513.13	474.5
513.346	466.5
513.562	482.5
513.778	500.5
513.994	487.5
514.21	516.5
514.426	524.5
514.642	535.5
514.858	546.5
515.074	602.5
515.29	668.5
515.506	939.5
515.721	797.5
515.937	578.5
516.153	538.5
516.369	510.5
516.585	489.5
516.801	500.5
517.016	502.5
517.232	506.5
517.448	480.5
517.664	506.5
517.879	515.5
518.095	519.5
518.311	513.5
518.527	493.5
518.742	497.5
518.958	508.5
519.173	472.5
519.389	482.5
519.605	486.5
519.82	481.5
