Data from 1971.PennyLincolnUp.Lamp.En5.5.200Scan.071719.P1._HRD10591_15-18-52-841.txt Node
Date: Thu Jul 18 15:18:52 EDT 2019
User: cochatt
Spectrometer: HR+D1059
Trigger mode: 1
Integration Time (sec): 1.000000E-1
Scans to average: 1
Electric dark correction enabled: true
Nonlinearity correction enabled: false
Boxcar width: 0
XAxis mode: Wavelengths
Number of Pixels in Spectrum: 2048
>>>>>Begin Spectral Data<<<<<
223.165	-17.19
223.4	-17.19
223.635	-17.19
223.869	-12.19
224.104	-18.19
224.338	-11.19
224.573	-18.19
224.808	-16.19
225.042	-6.19
225.277	-4.19
225.511	-3.19
225.746	-10.19
225.98	4.81
226.215	23.81
226.449	23.81
226.683	19.81
226.918	15.81
227.152	28.81
227.387	31.81
227.621	47.81
227.856	23.81
228.09	44.81
228.324	48.81
228.559	59.81
228.793	64.81
229.027	90.81
229.262	90.81
229.496	96.81
229.73	109.81
229.964	153.81
230.199	119.81
230.433	115.81
230.667	114.81
230.901	110.81
231.136	100.81
231.37	105.81
231.604	104.81
231.838	113.81
232.072	101.81
232.306	94.81
232.541	108.81
232.775	117.81
233.009	113.81
233.243	116.81
233.477	120.81
233.711	110.81
233.945	126.81
234.179	119.81
234.413	121.81
234.647	120.81
234.881	106.81
235.115	120.81
235.349	111.81
235.583	133.81
235.817	106.81
236.051	113.81
236.285	118.81
236.519	116.81
236.753	119.81
236.987	143.81
237.221	152.81
237.455	200.81
237.689	162.81
237.922	119.81
238.156	130.81
238.39	126.81
238.624	128.81
238.858	112.81
239.091	115.81
239.325	121.81
239.559	125.81
239.793	127.81
240.027	132.81
240.26	147.81
240.494	143.81
240.728	154.81
240.961	143.81
241.195	138.81
241.429	129.81
241.662	115.81
241.896	128.81
242.13	123.81
242.363	143.81
242.597	148.81
242.83	123.81
243.064	130.81
243.298	133.81
243.531	135.81
243.765	142.81
243.998	142.81
244.232	138.81
244.465	140.81
244.699	140.81
244.932	148.81
245.166	149.81
245.399	138.81
245.633	144.81
245.866	166.81
246.099	163.81
246.333	155.81
246.566	142.81
246.8	155.81
247.033	173.81
247.266	171.81
247.5	161.81
247.733	169.81
247.966	168.81
248.2	181.81
248.433	179.81
248.666	175.81
248.899	179.81
249.133	194.81
249.366	216.81
249.599	209.81
249.832	183.81
250.066	167.81
250.299	196.81
250.532	204.81
250.765	188.81
250.998	218.81
251.231	219.81
251.465	209.81
251.698	207.81
251.931	190.81
252.164	206.81
252.397	200.81
252.63	203.81
252.863	201.81
253.096	227.81
253.329	197.81
253.562	218.81
253.795	218.81
254.028	222.81
254.261	234.81
254.494	235.81
254.727	245.81
254.96	277.81
255.193	267.81
255.426	248.81
255.659	223.81
255.892	232.81
256.124	236.81
256.357	233.81
256.59	231.81
256.823	212.81
257.056	210.81
257.289	202.81
257.521	205.81
257.754	213.81
257.987	196.81
258.22	215.81
258.452	206.81
258.685	217.81
258.918	217.81
259.151	206.81
259.383	213.81
259.616	228.81
259.849	207.81
260.081	241.81
260.314	241.81
260.547	243.81
260.779	251.81
261.012	236.81
261.244	232.81
261.477	226.81
261.71	224.81
261.942	226.81
262.175	237.81
262.407	237.81
262.64	214.81
262.872	216.81
263.105	222.81
263.337	220.81
263.57	229.81
263.802	226.81
264.035	213.81
264.267	229.81
264.499	211.81
264.732	217.81
264.964	226.81
265.197	221.81
265.429	211.81
265.661	205.81
265.894	233.81
266.126	238.81
266.358	227.81
266.591	218.81
266.823	222.81
267.055	243.81
267.287	220.81
267.52	217.81
267.752	227.81
267.984	226.81
268.216	234.81
268.448	241.81
268.681	237.81
268.913	243.81
269.145	257.81
269.377	254.81
269.609	276.81
269.841	275.81
270.073	286.81
270.306	299.81
270.538	332.81
270.77	316.81
271.002	310.81
271.234	299.81
271.466	291.81
271.698	318.81
271.93	314.81
272.162	303.81
272.394	301.81
272.626	294.81
272.858	290.81
273.09	288.81
273.322	291.81
273.553	274.81
273.785	265.81
274.017	277.81
274.249	281.81
274.481	284.81
274.713	262.81
274.945	258.81
275.176	269.81
275.408	290.81
275.64	270.81
275.872	272.81
276.104	255.81
276.335	263.81
276.567	253.81
276.799	283.81
277.031	303.81
277.262	300.81
277.494	307.81
277.726	295.81
277.957	300.81
278.189	278.81
278.421	275.81
278.652	263.81
278.884	294.81
279.115	285.81
279.347	247.81
279.579	279.81
279.81	270.81
280.042	271.81
280.273	268.81
280.505	270.81
280.736	268.81
280.968	281.81
281.199	282.81
281.431	273.81
281.662	250.81
281.894	270.81
282.125	266.81
282.356	293.81
282.588	285.81
282.819	296.81
283.051	281.81
283.282	280.81
283.513	282.81
283.745	278.81
283.976	292.81
284.207	293.81
284.439	290.81
284.67	291.81
284.901	283.81
285.132	276.81
285.364	264.81
285.595	285.81
285.826	269.81
286.057	306.81
286.288	293.81
286.52	285.81
286.751	276.81
286.982	316.81
287.213	282.81
287.444	305.81
287.675	278.81
287.906	307.81
288.138	293.81
288.369	303.81
288.6	294.81
288.831	306.81
289.062	293.81
289.293	307.81
289.524	301.81
289.755	286.81
289.986	306.81
290.217	297.81
290.448	279.81
290.679	314.81
290.91	305.81
291.141	295.81
291.371	282.81
291.602	309.81
291.833	293.81
292.064	284.81
292.295	289.81
292.526	290.81
292.757	308.81
292.987	305.81
293.218	300.81
293.449	298.81
293.68	316.81
293.91	294.81
294.141	304.81
294.372	283.81
294.603	295.81
294.833	297.81
295.064	310.81
295.295	297.81
295.525	297.81
295.756	299.81
295.987	310.81
296.217	313.81
296.448	325.81
296.679	294.81
296.909	302.81
297.14	288.81
297.37	302.81
297.601	305.81
297.831	289.81
298.062	324.81
298.292	310.81
298.523	315.81
298.753	306.81
298.984	320.81
299.214	308.81
299.445	311.81
299.675	305.81
299.905	316.81
300.136	305.81
300.366	309.81
300.597	319.81
300.827	309.81
301.057	312.81
301.288	323.81
301.518	315.81
301.748	305.81
301.979	331.81
302.209	318.81
302.439	307.81
302.669	317.81
302.9	333.81
303.13	334.81
303.36	333.81
303.59	325.81
303.82	330.81
304.051	335.81
304.281	338.81
304.511	319.81
304.741	326.81
304.971	324.81
305.201	309.81
305.431	325.81
305.661	331.81
305.891	325.81
306.121	337.81
306.352	321.81
306.582	338.81
306.812	335.81
307.042	331.81
307.272	332.81
307.502	320.81
307.731	345.81
307.961	329.81
308.191	332.81
308.421	341.81
308.651	346.81
308.881	347.81
309.111	349.81
309.341	342.81
309.571	339.81
309.8	353.81
310.03	373.81
310.26	381.81
310.49	388.81
310.72	359.81
310.949	372.81
311.179	389.81
311.409	365.81
311.639	369.81
311.868	363.81
312.098	387.81
312.328	399.81
312.557	398.81
312.787	396.81
313.017	395.81
313.246	379.81
313.476	357.81
313.706	375.81
313.935	406.81
314.165	382.81
314.394	372.81
314.624	394.81
314.853	363.81
315.083	385.81
315.312	371.81
315.542	379.81
315.771	377.81
316.001	376.81
316.23	363.81
316.46	355.81
316.689	367.81
316.919	370.81
317.148	395.81
317.377	395.81
317.607	382.81
317.836	398.81
318.065	372.81
318.295	395.81
318.524	369.81
318.753	359.81
318.983	377.81
319.212	363.81
319.441	381.81
319.67	381.81
319.9	380.81
320.129	390.81
320.358	383.81
320.587	371.81
320.816	376.81
321.046	399.81
321.275	409.81
321.504	394.81
321.733	393.81
321.962	412.81
322.191	417.81
322.42	414.81
322.649	426.81
322.878	440.81
323.108	439.81
323.337	471.81
323.566	468.81
323.795	488.81
324.024	545.81
324.253	642.81
324.482	931.81
324.71	1365.81
324.939	1857.81
325.168	1525.81
325.397	833.81
325.626	608.81
325.855	512.81
326.084	485.81
326.313	462.81
326.542	481.81
326.77	515.81
326.999	612.81
327.228	830.81
327.457	1173.81
327.686	1330.81
327.914	939.81
328.143	641.81
328.372	568.81
328.6	537.81
328.829	525.81
329.058	536.81
329.287	539.81
329.515	512.81
329.744	484.81
329.972	489.81
330.201	515.81
330.43	517.81
330.658	543.81
330.887	559.81
331.115	542.81
331.344	487.81
331.572	456.81
331.801	474.81
332.03	466.81
332.258	438.81
332.486	434.81
332.715	428.81
332.943	452.81
333.172	441.81
333.4	422.81
333.629	451.81
333.857	445.81
334.085	468.81
334.314	487.81
334.542	489.81
334.771	486.81
334.999	449.81
335.227	458.81
335.455	431.81
335.684	447.81
335.912	425.81
336.14	449.81
336.369	439.81
336.597	440.81
336.825	447.81
337.053	427.81
337.281	413.81
337.51	409.81
337.738	438.81
337.966	435.81
338.194	443.81
338.422	431.81
338.65	433.81
338.878	419.81
339.106	438.81
339.334	428.81
339.562	415.81
339.79	409.81
340.018	412.81
340.246	421.81
340.474	402.81
340.702	398.81
340.93	400.81
341.158	403.81
341.386	414.81
341.614	419.81
341.842	412.81
342.07	373.81
342.298	417.81
342.526	396.81
342.754	426.81
342.981	395.81
343.209	375.81
343.437	411.81
343.665	412.81
343.893	415.81
344.12	416.81
344.348	403.81
344.576	413.81
344.804	414.81
345.031	428.81
345.259	435.81
345.487	437.81
345.714	408.81
345.942	374.81
346.17	395.81
346.397	411.81
346.625	390.81
346.853	391.81
347.08	378.81
347.308	400.81
347.535	411.81
347.763	410.81
347.99	420.81
348.218	399.81
348.445	406.81
348.673	417.81
348.9	389.81
349.128	380.81
349.355	382.81
349.583	393.81
349.81	371.81
350.037	388.81
350.265	396.81
350.492	377.81
350.72	372.81
350.947	375.81
351.174	387.81
351.402	386.81
351.629	389.81
351.856	389.81
352.083	378.81
352.311	402.81
352.538	396.81
352.765	396.81
352.992	409.81
353.22	401.81
353.447	395.81
353.674	356.81
353.901	383.81
354.128	373.81
354.355	355.81
354.583	367.81
354.81	376.81
355.037	364.81
355.264	367.81
355.491	378.81
355.718	343.81
355.945	365.81
356.172	359.81
356.399	369.81
356.626	387.81
356.853	362.81
357.08	369.81
357.307	361.81
357.534	335.81
357.761	374.81
357.988	362.81
358.215	361.81
358.441	355.81
358.668	357.81
358.895	361.81
359.122	358.81
359.349	380.81
359.576	403.81
359.802	394.81
360.029	403.81
360.256	399.81
360.483	399.81
360.709	381.81
360.936	377.81
361.163	365.81
361.39	405.81
361.616	380.81
361.843	369.81
362.07	371.81
362.296	369.81
362.523	390.81
362.749	387.81
362.976	364.81
363.203	389.81
363.429	383.81
363.656	384.81
363.882	369.81
364.109	369.81
364.335	374.81
364.562	375.81
364.788	354.81
365.015	350.81
365.241	378.81
365.468	365.81
365.694	373.81
365.92	378.81
366.147	381.81
366.373	350.81
366.599	356.81
366.826	357.81
367.052	373.81
367.278	363.81
367.505	354.81
367.731	366.81
367.957	359.81
368.184	342.81
368.41	368.81
368.636	350.81
368.862	356.81
369.089	359.81
369.315	356.81
369.541	362.81
369.767	354.81
369.993	365.81
370.219	381.81
370.445	365.81
370.672	359.81
370.898	352.81
371.124	349.81
371.35	351.81
371.576	351.81
371.802	350.81
372.028	336.81
372.254	353.81
372.48	375.81
372.706	350.81
372.932	352.81
373.158	361.81
373.384	357.81
373.61	358.81
373.835	350.81
374.061	358.81
374.287	381.81
374.513	354.81
374.739	381.81
374.965	369.81
375.191	364.81
375.416	369.81
375.642	358.81
375.868	358.81
376.094	346.81
376.319	349.81
376.545	365.81
376.771	381.81
376.997	346.81
377.222	346.81
377.448	359.81
377.674	350.81
377.899	364.81
378.125	351.81
378.35	345.81
378.576	365.81
378.802	350.81
379.027	362.81
379.253	351.81
379.478	356.81
379.704	337.81
379.929	348.81
380.155	370.81
380.38	342.81
380.606	347.81
380.831	327.81
381.057	347.81
381.282	346.81
381.507	349.81
381.733	382.81
381.958	356.81
382.184	357.81
382.409	346.81
382.634	366.81
382.86	357.81
383.085	348.81
383.31	353.81
383.535	367.81
383.761	358.81
383.986	374.81
384.211	366.81
384.436	373.81
384.662	358.81
384.887	350.81
385.112	381.81
385.337	364.81
385.562	366.81
385.787	365.81
386.013	377.81
386.238	392.81
386.463	390.81
386.688	363.81
386.913	363.81
387.138	359.81
387.363	359.81
387.588	370.81
387.813	369.81
388.038	381.81
388.263	394.81
388.488	372.81
388.713	365.81
388.938	379.81
389.163	377.81
389.387	378.81
389.612	365.81
389.837	367.81
390.062	358.81
390.287	376.81
390.512	359.81
390.736	355.81
390.961	359.81
391.186	373.81
391.411	364.81
391.636	372.81
391.86	377.81
392.085	375.81
392.31	400.81
392.534	384.81
392.759	381.81
392.984	389.81
393.208	360.81
393.433	365.81
393.658	386.81
393.882	376.81
394.107	360.81
394.331	365.81
394.556	363.81
394.78	379.81
395.005	366.81
395.229	354.81
395.454	388.81
395.678	381.81
395.903	375.81
396.127	412.81
396.352	410.81
396.576	390.81
396.801	371.81
397.025	375.81
397.249	387.81
397.474	396.81
397.698	390.81
397.922	398.81
398.147	399.81
398.371	415.81
398.595	394.81
398.82	421.81
399.044	411.81
399.268	430.81
399.492	434.81
399.717	461.81
399.941	487.81
400.165	526.81
400.389	498.81
400.613	462.81
400.837	442.81
401.062	415.81
401.286	411.81
401.51	409.81
401.734	422.81
401.958	427.81
402.182	414.81
402.406	445.81
402.63	425.81
402.854	410.81
403.078	425.81
403.302	414.81
403.526	463.81
403.75	420.81
403.974	415.81
404.198	410.81
404.422	454.81
404.645	434.81
404.869	433.81
405.093	465.81
405.317	474.81
405.541	492.81
405.765	468.81
405.988	465.81
406.212	452.81
406.436	461.81
406.66	468.81
406.883	460.81
407.107	507.81
407.331	532.81
407.555	543.81
407.778	556.81
408.002	512.81
408.226	485.81
408.449	458.81
408.673	489.81
408.896	473.81
409.12	523.81
409.344	474.81
409.567	448.81
409.791	436.81
410.014	414.81
410.238	425.81
410.461	428.81
410.685	430.81
410.908	435.81
411.132	463.81
411.355	501.81
411.578	482.81
411.802	435.81
412.025	439.81
412.249	420.81
412.472	451.81
412.695	458.81
412.919	471.81
413.142	428.81
413.365	419.81
413.589	395.81
413.812	406.81
414.035	401.81
414.258	393.81
414.482	409.81
414.705	405.81
414.928	392.81
415.151	395.81
415.374	393.81
415.597	386.81
415.821	387.81
416.044	390.81
416.267	399.81
416.49	393.81
416.713	407.81
416.936	400.81
417.159	382.81
417.382	403.81
417.605	385.81
417.828	407.81
418.051	420.81
418.274	417.81
418.497	404.81
418.72	412.81
418.943	419.81
419.166	420.81
419.389	421.81
419.611	406.81
419.834	424.81
420.057	408.81
420.28	412.81
420.503	420.81
420.726	422.81
420.948	434.81
421.171	466.81
421.394	462.81
421.617	426.81
421.839	398.81
422.062	423.81
422.285	447.81
422.507	484.81
422.73	539.81
422.953	511.81
423.175	469.81
423.398	430.81
423.621	417.81
423.843	456.81
424.066	457.81
424.288	454.81
424.511	461.81
424.733	506.81
424.956	563.81
425.178	539.81
425.401	558.81
425.623	561.81
425.846	474.81
426.068	466.81
426.291	444.81
426.513	443.81
426.735	470.81
426.958	514.81
427.18	522.81
427.402	645.81
427.625	716.81
427.847	618.81
428.069	531.81
428.292	484.81
428.514	445.81
428.736	410.81
428.958	404.81
429.181	416.81
429.403	409.81
429.625	422.81
429.847	438.81
430.069	485.81
430.292	493.81
430.514	419.81
430.736	425.81
430.958	418.81
431.18	386.81
431.402	397.81
431.624	384.81
431.846	390.81
432.068	405.81
432.29	403.81
432.512	391.81
432.734	407.81
432.956	398.81
433.178	421.81
433.4	426.81
433.622	390.81
433.844	369.81
434.066	390.81
434.287	394.81
434.509	366.81
434.731	410.81
434.953	395.81
435.175	419.81
435.397	435.81
435.618	459.81
435.84	488.81
436.062	570.81
436.284	610.81
436.505	511.81
436.727	457.81
436.949	425.81
437.17	426.81
437.392	416.81
437.614	406.81
437.835	440.81
438.057	527.81
438.278	604.81
438.5	582.81
438.721	647.81
438.943	610.81
439.165	509.81
439.386	464.81
439.608	428.81
439.829	450.81
440.05	471.81
440.272	508.81
440.493	493.81
440.715	442.81
440.936	409.81
441.158	422.81
441.379	420.81
441.6	434.81
441.822	436.81
442.043	483.81
442.264	545.81
442.486	577.81
442.707	503.81
442.928	456.81
443.149	474.81
443.371	458.81
443.592	503.81
443.813	585.81
444.034	611.81
444.255	512.81
444.476	478.81
444.698	438.81
444.919	461.81
445.14	563.81
445.361	522.81
445.582	485.81
445.803	537.81
446.024	597.81
446.245	629.81
446.466	574.81
446.687	468.81
446.908	467.81
447.129	405.81
447.35	430.81
447.571	401.81
447.792	387.81
448.013	412.81
448.234	419.81
448.455	462.81
448.675	573.81
448.896	647.81
449.117	533.81
449.338	508.81
449.559	614.81
449.779	653.81
450	538.81
450.221	457.81
450.442	419.81
450.662	406.81
450.883	394.81
451.104	435.81
451.324	405.81
451.545	377.81
451.766	376.81
451.986	379.81
452.207	378.81
452.428	378.81
452.648	374.81
452.869	381.81
453.089	366.81
453.31	373.81
453.53	371.81
453.751	354.81
453.971	371.81
454.192	384.81
454.412	386.81
454.633	361.81
454.853	355.81
455.073	367.81
455.294	382.81
455.514	433.81
455.734	431.81
455.955	383.81
456.175	355.81
456.395	329.81
456.616	346.81
456.836	350.81
457.056	345.81
457.276	332.81
457.497	342.81
457.717	346.81
457.937	341.81
458.157	355.81
458.377	388.81
458.598	375.81
458.818	433.81
459.038	471.81
459.258	471.81
459.478	403.81
459.698	387.81
459.918	374.81
460.138	371.81
460.358	375.81
460.578	393.81
460.798	392.81
461.018	385.81
461.238	397.81
461.458	393.81
461.678	373.81
461.898	372.81
462.118	381.81
462.338	378.81
462.558	397.81
462.777	419.81
462.997	401.81
463.217	429.81
463.437	391.81
463.657	397.81
463.876	405.81
464.096	395.81
464.316	389.81
464.536	408.81
464.755	421.81
464.975	408.81
465.195	428.81
465.414	471.81
465.634	418.81
465.854	395.81
466.073	375.81
466.293	385.81
466.512	377.81
466.732	358.81
466.951	376.81
467.171	351.81
467.391	372.81
467.61	370.81
467.829	376.81
468.049	368.81
468.268	375.81
468.488	359.81
468.707	379.81
468.927	377.81
469.146	360.81
469.365	372.81
469.585	355.81
469.804	370.81
470.023	389.81
470.243	374.81
470.462	375.81
470.681	384.81
470.901	381.81
471.12	373.81
471.339	381.81
471.558	385.81
471.777	355.81
471.997	350.81
472.216	371.81
472.435	399.81
472.654	387.81
472.873	367.81
473.092	376.81
473.311	381.81
473.53	387.81
473.749	379.81
473.968	434.81
474.187	513.81
474.406	514.81
474.625	437.81
474.844	391.81
475.063	382.81
475.282	376.81
475.501	381.81
475.72	393.81
475.939	384.81
476.158	390.81
476.377	389.81
476.596	413.81
476.814	398.81
477.033	388.81
477.252	397.81
477.471	404.81
477.69	407.81
477.908	418.81
478.127	387.81
478.346	425.81
478.564	404.81
478.783	435.81
479.002	428.81
479.22	411.81
479.439	435.81
479.658	429.81
479.876	461.81
480.095	434.81
480.313	475.81
480.532	463.81
480.751	427.81
480.969	442.81
481.188	485.81
481.406	521.81
481.624	460.81
481.843	448.81
482.061	443.81
482.28	441.81
482.498	435.81
482.717	425.81
482.935	448.81
483.153	440.81
483.372	454.81
483.59	444.81
483.808	438.81
484.027	444.81
484.245	445.81
484.463	443.81
484.681	438.81
484.9	443.81
485.118	465.81
485.336	447.81
485.554	443.81
485.772	458.81
485.99	437.81
486.209	456.81
486.427	441.81
486.645	472.81
486.863	460.81
487.081	450.81
487.299	456.81
487.517	461.81
487.735	458.81
487.953	478.81
488.171	483.81
488.389	465.81
488.607	466.81
488.825	476.81
489.043	459.81
489.261	470.81
489.479	487.81
489.696	466.81
489.914	470.81
490.132	497.81
490.35	483.81
490.568	474.81
490.786	496.81
491.003	521.81
491.221	512.81
491.439	526.81
491.657	505.81
491.874	521.81
492.092	554.81
492.31	540.81
492.527	555.81
492.745	546.81
492.963	549.81
493.18	546.81
493.398	533.81
493.615	553.81
493.833	539.81
494.05	545.81
494.268	553.81
494.485	564.81
494.703	565.81
494.92	538.81
495.138	546.81
495.355	539.81
495.573	564.81
495.79	567.81
496.008	578.81
496.225	572.81
496.442	563.81
496.66	545.81
496.877	554.81
497.094	560.81
497.312	576.81
497.529	566.81
497.746	555.81
497.963	556.81
498.181	590.81
498.398	607.81
498.615	599.81
498.832	605.81
499.049	625.81
499.267	620.81
499.484	653.81
499.701	669.81
499.918	701.81
500.135	702.81
500.352	721.81
500.569	739.81
500.786	718.81
501.003	731.81
501.22	706.81
501.437	705.81
501.654	711.81
501.871	692.81
