Data from 1971.PennyLincolnUp.Lamp.En5.5.200Scan.071719.P1.Scan 2. Changed Angle._HRD10591_15-24-11-842.txt Node
Date: Thu Jul 18 15:24:11 EDT 2019
User: cochatt
Spectrometer: HR+D1059
Trigger mode: 1
Integration Time (sec): 1.000000E-1
Scans to average: 1
Electric dark correction enabled: true
Nonlinearity correction enabled: false
Boxcar width: 0
XAxis mode: Wavelengths
Number of Pixels in Spectrum: 2048
>>>>>Begin Spectral Data<<<<<
223.165	-11.62
223.4	-11.62
223.635	-11.62
223.869	-20.62
224.104	-21.62
224.338	-7.62
224.573	-8.62
224.808	-12.62
225.042	-2.62
225.277	-18.62
225.511	1.38
225.746	5.38
225.98	-10.62
226.215	21.38
226.449	22.38
226.683	22.38
226.918	20.38
227.152	21.38
227.387	39.38
227.621	45.38
227.856	41.38
228.09	46.38
228.324	62.38
228.559	43.38
228.793	95.38
229.027	108.38
229.262	122.38
229.496	133.38
229.73	149.38
229.964	180.38
230.199	136.38
230.433	140.38
230.667	132.38
230.901	117.38
231.136	121.38
231.37	121.38
231.604	121.38
231.838	116.38
232.072	136.38
232.306	118.38
232.541	108.38
232.775	128.38
233.009	112.38
233.243	121.38
233.477	133.38
233.711	103.38
233.945	128.38
234.179	123.38
234.413	129.38
234.647	125.38
234.881	129.38
235.115	112.38
235.349	124.38
235.583	143.38
235.817	131.38
236.051	136.38
236.285	138.38
236.519	146.38
236.753	155.38
236.987	155.38
237.221	200.38
237.455	254.38
237.689	211.38
237.922	168.38
238.156	141.38
238.39	138.38
238.624	126.38
238.858	134.38
239.091	124.38
239.325	153.38
239.559	144.38
239.793	143.38
240.027	144.38
240.26	166.38
240.494	176.38
240.728	182.38
240.961	155.38
241.195	156.38
241.429	140.38
241.662	137.38
241.896	150.38
242.13	135.38
242.363	157.38
242.597	140.38
242.83	149.38
243.064	136.38
243.298	143.38
243.531	151.38
243.765	145.38
243.998	142.38
244.232	143.38
244.465	152.38
244.699	146.38
244.932	134.38
245.166	149.38
245.399	151.38
245.633	140.38
245.866	157.38
246.099	143.38
246.333	158.38
246.566	146.38
246.8	153.38
247.033	174.38
247.266	164.38
247.5	176.38
247.733	180.38
247.966	176.38
248.2	190.38
248.433	197.38
248.666	185.38
248.899	194.38
249.133	215.38
249.366	235.38
249.599	220.38
249.832	184.38
250.066	213.38
250.299	197.38
250.532	192.38
250.765	213.38
250.998	238.38
251.231	255.38
251.465	230.38
251.698	225.38
251.931	206.38
252.164	208.38
252.397	223.38
252.63	227.38
252.863	229.38
253.096	224.38
253.329	250.38
253.562	246.38
253.795	256.38
254.028	238.38
254.261	256.38
254.494	253.38
254.727	291.38
254.96	316.38
255.193	287.38
255.426	279.38
255.659	268.38
255.892	251.38
256.124	237.38
256.357	262.38
256.59	253.38
256.823	251.38
257.056	234.38
257.289	253.38
257.521	232.38
257.754	234.38
257.987	198.38
258.22	231.38
258.452	223.38
258.685	217.38
258.918	227.38
259.151	214.38
259.383	231.38
259.616	225.38
259.849	233.38
260.081	244.38
260.314	269.38
260.547	276.38
260.779	269.38
261.012	258.38
261.244	260.38
261.477	230.38
261.71	233.38
261.942	243.38
262.175	260.38
262.407	257.38
262.64	215.38
262.872	212.38
263.105	228.38
263.337	227.38
263.57	230.38
263.802	224.38
264.035	207.38
264.267	232.38
264.499	205.38
264.732	217.38
264.964	230.38
265.197	229.38
265.429	224.38
265.661	219.38
265.894	211.38
266.126	222.38
266.358	211.38
266.591	229.38
266.823	228.38
267.055	236.38
267.287	225.38
267.52	239.38
267.752	246.38
267.984	211.38
268.216	236.38
268.448	241.38
268.681	244.38
268.913	254.38
269.145	262.38
269.377	301.38
269.609	277.38
269.841	266.38
270.073	292.38
270.306	300.38
270.538	338.38
270.77	309.38
271.002	322.38
271.234	311.38
271.466	331.38
271.698	337.38
271.93	322.38
272.162	335.38
272.394	349.38
272.626	331.38
272.858	290.38
273.09	288.38
273.322	282.38
273.553	259.38
273.785	286.38
274.017	272.38
274.249	255.38
274.481	287.38
274.713	279.38
274.945	283.38
275.176	284.38
275.408	284.38
275.64	274.38
275.872	275.38
276.104	271.38
276.335	271.38
276.567	285.38
276.799	283.38
277.031	314.38
277.262	314.38
277.494	313.38
277.726	315.38
277.957	291.38
278.189	299.38
278.421	277.38
278.652	272.38
278.884	270.38
279.115	285.38
279.347	263.38
279.579	271.38
279.81	268.38
280.042	260.38
280.273	289.38
280.505	265.38
280.736	269.38
280.968	280.38
281.199	251.38
281.431	270.38
281.662	284.38
281.894	257.38
282.125	260.38
282.356	277.38
282.588	305.38
282.819	293.38
283.051	278.38
283.282	268.38
283.513	266.38
283.745	296.38
283.976	281.38
284.207	278.38
284.439	291.38
284.67	298.38
284.901	284.38
285.132	286.38
285.364	278.38
285.595	265.38
285.826	258.38
286.057	267.38
286.288	275.38
286.52	289.38
286.751	279.38
286.982	275.38
287.213	288.38
287.444	280.38
287.675	285.38
287.906	296.38
288.138	301.38
288.369	304.38
288.6	287.38
288.831	285.38
289.062	296.38
289.293	277.38
289.524	282.38
289.755	297.38
289.986	285.38
290.217	299.38
290.448	286.38
290.679	285.38
290.91	293.38
291.141	287.38
291.371	281.38
291.602	297.38
291.833	286.38
292.064	301.38
292.295	291.38
292.526	286.38
292.757	288.38
292.987	274.38
293.218	277.38
293.449	295.38
293.68	291.38
293.91	284.38
294.141	288.38
294.372	281.38
294.603	279.38
294.833	284.38
295.064	285.38
295.295	294.38
295.525	277.38
295.756	291.38
295.987	300.38
296.217	343.38
296.448	321.38
296.679	311.38
296.909	288.38
297.14	270.38
297.37	295.38
297.601	281.38
297.831	305.38
298.062	285.38
298.292	295.38
298.523	303.38
298.753	296.38
298.984	292.38
299.214	302.38
299.445	312.38
299.675	317.38
299.905	314.38
300.136	316.38
300.366	286.38
300.597	303.38
300.827	311.38
301.057	304.38
301.288	309.38
301.518	323.38
301.748	318.38
301.979	320.38
302.209	315.38
302.439	311.38
302.669	312.38
302.9	338.38
303.13	305.38
303.36	324.38
303.59	316.38
303.82	322.38
304.051	318.38
304.281	305.38
304.511	305.38
304.741	313.38
304.971	318.38
305.201	317.38
305.431	333.38
305.661	317.38
305.891	336.38
306.121	304.38
306.352	332.38
306.582	336.38
306.812	338.38
307.042	323.38
307.272	325.38
307.502	351.38
307.731	332.38
307.961	313.38
308.191	325.38
308.421	340.38
308.651	342.38
308.881	337.38
309.111	346.38
309.341	355.38
309.571	377.38
309.8	369.38
310.03	389.38
310.26	385.38
310.49	368.38
310.72	409.38
310.949	406.38
311.179	437.38
311.409	393.38
311.639	368.38
311.868	379.38
312.098	385.38
312.328	389.38
312.557	412.38
312.787	425.38
313.017	424.38
313.246	413.38
313.476	383.38
313.706	373.38
313.935	398.38
314.165	401.38
314.394	415.38
314.624	405.38
314.853	391.38
315.083	398.38
315.312	384.38
315.542	378.38
315.771	365.38
316.001	356.38
316.23	371.38
316.46	364.38
316.689	371.38
316.919	367.38
317.148	407.38
317.377	396.38
317.607	389.38
317.836	406.38
318.065	382.38
318.295	362.38
318.524	375.38
318.753	397.38
318.983	375.38
319.212	384.38
319.441	398.38
319.67	398.38
319.9	385.38
320.129	381.38
320.358	381.38
320.587	392.38
320.816	396.38
321.046	411.38
321.275	407.38
321.504	394.38
321.733	417.38
321.962	425.38
322.191	451.38
322.42	467.38
322.649	478.38
322.878	499.38
323.108	483.38
323.337	519.38
323.566	567.38
323.795	604.38
324.024	664.38
324.253	769.38
324.482	1187.38
324.71	1851.38
324.939	2634.38
325.168	2265.38
325.397	1206.38
325.626	774.38
325.855	632.38
326.084	565.38
326.313	580.38
326.542	559.38
326.77	622.38
326.999	768.38
327.228	1038.38
327.457	1612.38
327.686	1961.38
327.914	1356.38
328.143	866.38
328.372	751.38
328.6	699.38
328.829	670.38
329.058	658.38
329.287	680.38
329.515	599.38
329.744	543.38
329.972	555.38
330.201	589.38
330.43	621.38
330.658	674.38
330.887	707.38
331.115	691.38
331.344	543.38
331.572	541.38
331.801	550.38
332.03	549.38
332.258	522.38
332.486	502.38
332.715	472.38
332.943	466.38
333.172	455.38
333.4	473.38
333.629	469.38
333.857	495.38
334.085	516.38
334.314	493.38
334.542	544.38
334.771	565.38
334.999	529.38
335.227	483.38
335.455	469.38
335.684	473.38
335.912	441.38
336.14	437.38
336.369	443.38
336.597	467.38
336.825	460.38
337.053	451.38
337.281	437.38
337.51	434.38
337.738	430.38
337.966	433.38
338.194	447.38
338.422	436.38
338.65	438.38
338.878	439.38
339.106	436.38
339.334	419.38
339.562	433.38
339.79	422.38
340.018	412.38
340.246	439.38
340.474	439.38
340.702	434.38
340.93	433.38
341.158	421.38
341.386	444.38
341.614	434.38
341.842	430.38
342.07	433.38
342.298	439.38
342.526	424.38
342.754	412.38
342.981	431.38
343.209	428.38
343.437	422.38
343.665	410.38
343.893	437.38
344.12	429.38
344.348	435.38
344.576	424.38
344.804	454.38
345.031	465.38
345.259	472.38
345.487	456.38
345.714	430.38
345.942	429.38
346.17	437.38
346.397	424.38
346.625	402.38
346.853	428.38
347.08	418.38
347.308	433.38
347.535	458.38
347.763	453.38
347.99	464.38
348.218	428.38
348.445	461.38
348.673	469.38
348.9	449.38
349.128	432.38
349.355	435.38
349.583	425.38
349.81	422.38
350.037	424.38
350.265	414.38
350.492	405.38
350.72	431.38
350.947	406.38
351.174	429.38
351.402	455.38
351.629	453.38
351.856	444.38
352.083	465.38
352.311	466.38
352.538	451.38
352.765	476.38
352.992	461.38
353.22	437.38
353.447	428.38
353.674	412.38
353.901	422.38
354.128	414.38
354.355	402.38
354.583	402.38
354.81	385.38
355.037	411.38
355.264	409.38
355.491	390.38
355.718	391.38
355.945	399.38
356.172	401.38
356.399	405.38
356.626	379.38
356.853	390.38
357.08	386.38
357.307	399.38
357.534	385.38
357.761	400.38
357.988	404.38
358.215	402.38
358.441	413.38
358.668	387.38
358.895	403.38
359.122	425.38
359.349	432.38
359.576	443.38
359.802	466.38
360.029	513.38
360.256	528.38
360.483	501.38
360.709	445.38
360.936	462.38
361.163	453.38
361.39	443.38
361.616	429.38
361.843	430.38
362.07	437.38
362.296	452.38
362.523	429.38
362.749	440.38
362.976	424.38
363.203	423.38
363.429	425.38
363.656	414.38
363.882	439.38
364.109	410.38
364.335	419.38
364.562	407.38
364.788	401.38
365.015	431.38
365.241	432.38
365.468	422.38
365.694	427.38
365.92	444.38
366.147	431.38
366.373	417.38
366.599	413.38
366.826	416.38
367.052	410.38
367.278	413.38
367.505	431.38
367.731	429.38
367.957	412.38
368.184	410.38
368.41	422.38
368.636	428.38
368.862	428.38
369.089	404.38
369.315	456.38
369.541	430.38
369.767	420.38
369.993	433.38
370.219	424.38
370.445	412.38
370.672	429.38
370.898	419.38
371.124	400.38
371.35	403.38
371.576	405.38
371.802	407.38
372.028	397.38
372.254	420.38
372.48	415.38
372.706	417.38
372.932	406.38
373.158	384.38
373.384	425.38
373.61	425.38
373.835	405.38
374.061	412.38
374.287	412.38
374.513	407.38
374.739	444.38
374.965	419.38
375.191	409.38
375.416	389.38
375.642	394.38
375.868	413.38
376.094	417.38
376.319	412.38
376.545	428.38
376.771	405.38
376.997	391.38
377.222	414.38
377.448	419.38
377.674	416.38
377.899	402.38
378.125	421.38
378.35	387.38
378.576	409.38
378.802	423.38
379.027	410.38
379.253	421.38
379.478	399.38
379.704	411.38
379.929	409.38
380.155	408.38
380.38	419.38
380.606	422.38
380.831	424.38
381.057	419.38
381.282	419.38
381.507	404.38
381.733	419.38
381.958	407.38
382.184	414.38
382.409	427.38
382.634	402.38
382.86	437.38
383.085	435.38
383.31	440.38
383.535	432.38
383.761	437.38
383.986	447.38
384.211	411.38
384.436	422.38
384.662	413.38
384.887	426.38
385.112	423.38
385.337	447.38
385.562	447.38
385.787	444.38
386.013	470.38
386.238	464.38
386.463	444.38
386.688	441.38
386.913	454.38
387.138	449.38
387.363	435.38
387.588	463.38
387.813	429.38
388.038	440.38
388.263	447.38
388.488	442.38
388.713	444.38
388.938	439.38
389.163	436.38
389.387	448.38
389.612	448.38
389.837	446.38
390.062	427.38
390.287	433.38
390.512	435.38
390.736	451.38
390.961	447.38
391.186	456.38
391.411	459.38
391.636	462.38
391.86	451.38
392.085	467.38
392.31	467.38
392.534	451.38
392.759	447.38
392.984	469.38
393.208	457.38
393.433	462.38
393.658	451.38
393.882	447.38
394.107	451.38
394.331	446.38
394.556	465.38
394.78	468.38
395.005	432.38
395.229	452.38
395.454	461.38
395.678	444.38
395.903	461.38
396.127	505.38
396.352	508.38
396.576	476.38
396.801	478.38
397.025	480.38
397.249	456.38
397.474	461.38
397.698	475.38
397.922	493.38
398.147	524.38
398.371	510.38
398.595	501.38
398.82	501.38
399.044	508.38
399.268	500.38
399.492	558.38
399.717	572.38
399.941	580.38
400.165	635.38
400.389	643.38
400.613	568.38
400.837	555.38
401.062	521.38
401.286	528.38
401.51	508.38
401.734	527.38
401.958	526.38
402.182	529.38
402.406	553.38
402.63	523.38
402.854	530.38
403.078	543.38
403.302	538.38
403.526	549.38
403.75	545.38
403.974	539.38
404.198	541.38
404.422	564.38
404.645	555.38
404.869	550.38
405.093	580.38
405.317	613.38
405.541	684.38
405.765	616.38
405.988	574.38
406.212	597.38
406.436	612.38
406.66	622.38
406.883	605.38
407.107	640.38
407.331	652.38
407.555	708.38
407.778	727.38
408.002	668.38
408.226	611.38
408.449	586.38
408.673	596.38
408.896	629.38
409.12	684.38
409.344	641.38
409.567	560.38
409.791	538.38
410.014	540.38
410.238	539.38
410.461	540.38
410.685	557.38
410.908	568.38
411.132	584.38
411.355	617.38
411.578	591.38
411.802	561.38
412.025	557.38
412.249	552.38
412.472	583.38
412.695	637.38
412.919	583.38
413.142	576.38
413.365	565.38
413.589	548.38
413.812	534.38
414.035	531.38
414.258	505.38
414.482	507.38
414.705	519.38
414.928	521.38
415.151	523.38
415.374	513.38
415.597	525.38
415.821	488.38
416.044	511.38
416.267	517.38
416.49	513.38
416.713	524.38
416.936	521.38
417.159	517.38
417.382	537.38
417.605	528.38
417.828	571.38
418.051	558.38
418.274	535.38
418.497	533.38
418.72	542.38
418.943	522.38
419.166	535.38
419.389	547.38
419.611	553.38
419.834	547.38
420.057	549.38
420.28	550.38
420.503	545.38
420.726	536.38
420.948	567.38
421.171	607.38
421.394	644.38
421.617	587.38
421.839	549.38
422.062	554.38
422.285	575.38
422.507	652.38
422.73	709.38
422.953	683.38
423.175	612.38
423.398	569.38
423.621	594.38
423.843	601.38
424.066	605.38
424.288	595.38
424.511	623.38
424.733	692.38
424.956	777.38
425.178	734.38
425.401	774.38
425.623	774.38
425.846	639.38
426.068	623.38
426.291	605.38
426.513	605.38
426.735	645.38
426.958	667.38
427.18	758.38
427.402	919.38
427.625	995.38
427.847	902.38
428.069	783.38
428.292	685.38
428.514	608.38
428.736	588.38
428.958	589.38
429.181	581.38
429.403	577.38
429.625	584.38
429.847	646.38
430.069	694.38
430.292	697.38
430.514	591.38
430.736	573.38
430.958	568.38
431.18	552.38
431.402	529.38
431.624	522.38
431.846	521.38
432.068	523.38
432.29	532.38
432.512	520.38
432.734	541.38
432.956	524.38
433.178	571.38
433.4	571.38
433.622	548.38
433.844	554.38
434.066	524.38
434.287	526.38
434.509	527.38
434.731	541.38
434.953	553.38
435.175	571.38
435.397	605.38
435.618	653.38
435.84	679.38
436.062	790.38
436.284	827.38
436.505	716.38
436.727	641.38
436.949	599.38
437.17	581.38
437.392	607.38
437.614	586.38
437.835	638.38
438.057	759.38
438.278	849.38
438.5	862.38
438.721	901.38
438.943	878.38
439.165	718.38
439.386	639.38
439.608	659.38
439.829	647.38
440.05	692.38
440.272	702.38
440.493	677.38
440.715	628.38
440.936	615.38
441.158	591.38
441.379	585.38
441.6	588.38
441.822	625.38
442.043	669.38
442.264	775.38
442.486	821.38
442.707	695.38
442.928	629.38
443.149	664.38
443.371	657.38
443.592	716.38
443.813	807.38
444.034	848.38
444.255	709.38
444.476	639.38
444.698	636.38
444.919	618.38
445.14	707.38
445.361	665.38
445.582	683.38
445.803	746.38
446.024	864.38
446.245	878.38
446.466	823.38
446.687	688.38
446.908	636.38
447.129	610.38
447.35	582.38
447.571	581.38
447.792	590.38
448.013	586.38
448.234	606.38
448.455	670.38
448.675	793.38
448.896	903.38
449.117	764.38
449.338	778.38
449.559	867.38
449.779	929.38
450	777.38
450.221	664.38
450.442	603.38
450.662	591.38
450.883	567.38
451.104	616.38
451.324	602.38
451.545	566.38
451.766	545.38
451.986	537.38
452.207	521.38
452.428	506.38
452.648	520.38
452.869	539.38
453.089	535.38
453.31	527.38
453.53	540.38
453.751	519.38
453.971	504.38
454.192	551.38
454.412	529.38
454.633	528.38
454.853	533.38
455.073	506.38
455.294	541.38
455.514	636.38
455.734	599.38
455.955	524.38
456.175	496.38
456.395	499.38
456.616	491.38
456.836	489.38
457.056	472.38
457.276	475.38
457.497	465.38
457.717	483.38
457.937	493.38
458.157	494.38
458.377	519.38
458.598	550.38
458.818	633.38
459.038	709.38
459.258	715.38
459.478	622.38
459.698	563.38
459.918	539.38
460.138	535.38
460.358	535.38
460.578	534.38
460.798	525.38
461.018	527.38
461.238	526.38
461.458	519.38
461.678	529.38
461.898	514.38
462.118	529.38
462.338	548.38
462.558	535.38
462.777	551.38
462.997	540.38
463.217	558.38
463.437	535.38
463.657	549.38
463.876	548.38
464.096	560.38
464.316	525.38
464.536	555.38
464.755	557.38
464.975	588.38
465.195	623.38
465.414	758.38
465.634	664.38
465.854	587.38
466.073	565.38
466.293	537.38
466.512	561.38
466.732	521.38
466.951	520.38
467.171	515.38
467.391	537.38
467.61	559.38
467.829	554.38
468.049	527.38
468.268	537.38
468.488	518.38
468.707	495.38
468.927	517.38
469.146	519.38
469.365	506.38
469.585	515.38
469.804	554.38
470.023	525.38
470.243	543.38
470.462	536.38
470.681	561.38
470.901	575.38
471.12	558.38
471.339	553.38
471.558	526.38
471.777	539.38
471.997	512.38
472.216	569.38
472.435	593.38
472.654	572.38
472.873	550.38
473.092	519.38
473.311	524.38
473.53	541.38
473.749	551.38
473.968	588.38
474.187	710.38
474.406	731.38
474.625	615.38
474.844	594.38
475.063	550.38
475.282	566.38
475.501	534.38
475.72	542.38
475.939	550.38
476.158	568.38
476.377	552.38
476.596	531.38
476.814	553.38
477.033	605.38
477.252	567.38
477.471	539.38
477.69	542.38
477.908	568.38
478.127	553.38
478.346	599.38
478.564	583.38
478.783	615.38
479.002	616.38
479.22	591.38
479.439	599.38
479.658	637.38
479.876	636.38
480.095	670.38
480.313	682.38
480.532	663.38
480.751	643.38
480.969	656.38
481.188	735.38
481.406	819.38
481.624	712.38
481.843	664.38
482.061	656.38
482.28	664.38
482.498	671.38
482.717	652.38
482.935	655.38
483.153	649.38
483.372	657.38
483.59	633.38
483.808	627.38
484.027	634.38
484.245	622.38
484.463	641.38
484.681	650.38
484.9	647.38
485.118	643.38
485.336	677.38
485.554	661.38
485.772	653.38
485.99	665.38
486.209	647.38
486.427	661.38
486.645	670.38
486.863	722.38
487.081	686.38
487.299	693.38
487.517	691.38
487.735	681.38
487.953	700.38
488.171	693.38
488.389	692.38
488.607	711.38
488.825	687.38
489.043	727.38
489.261	709.38
489.479	723.38
489.696	708.38
489.914	712.38
490.132	737.38
490.35	735.38
490.568	728.38
490.786	753.38
491.003	779.38
491.221	779.38
491.439	790.38
491.657	785.38
491.874	821.38
492.092	810.38
492.31	847.38
492.527	809.38
492.745	821.38
492.963	835.38
493.18	855.38
493.398	860.38
493.615	839.38
493.833	827.38
494.05	834.38
494.268	820.38
494.485	813.38
494.703	815.38
494.92	833.38
495.138	836.38
495.355	841.38
495.573	845.38
495.79	838.38
496.008	863.38
496.225	853.38
496.442	837.38
496.66	835.38
496.877	830.38
497.094	847.38
497.312	826.38
497.529	852.38
497.746	846.38
497.963	884.38
498.181	900.38
498.398	897.38
498.615	889.38
498.832	891.38
499.049	919.38
499.267	922.38
499.484	925.38
499.701	943.38
499.918	961.38
500.135	980.38
500.352	1020.38
500.569	1022.38
500.786	1062.38
501.003	1039.38
501.22	1037.38
501.437	999.38
