Data from 1971.PennyLincolnUp.Lamp.En5.5.200Scan.071719.P1.Scan 2. Changed Angle._HRD10591_15-23-57-842.txt Node
Date: Thu Jul 18 15:23:57 EDT 2019
User: cochatt
Spectrometer: HR+D1059
Trigger mode: 1
Integration Time (sec): 1.000000E-1
Scans to average: 1
Electric dark correction enabled: true
Nonlinearity correction enabled: false
Boxcar width: 0
XAxis mode: Wavelengths
Number of Pixels in Spectrum: 2048
>>>>>Begin Spectral Data<<<<<
223.165	-23.06
223.4	-23.06
223.635	-23.06
223.869	-25.06
224.104	-24.06
224.338	-9.06
224.573	-5.06
224.808	0.94
225.042	-5.06
225.277	-4.06
225.511	-3.06
225.746	0.94
225.98	-2.06
226.215	3.94
226.449	12.94
226.683	21.94
226.918	18.94
227.152	40.94
227.387	39.94
227.621	31.94
227.856	53.94
228.09	35.94
228.324	47.94
228.559	43.94
228.793	66.94
229.027	108.94
229.262	102.94
229.496	138.94
229.73	144.94
229.964	184.94
230.199	145.94
230.433	118.94
230.667	114.94
230.901	119.94
231.136	113.94
231.37	124.94
231.604	127.94
231.838	121.94
232.072	122.94
232.306	129.94
232.541	112.94
232.775	124.94
233.009	116.94
233.243	127.94
233.477	106.94
233.711	126.94
233.945	108.94
234.179	120.94
234.413	118.94
234.647	121.94
234.881	122.94
235.115	125.94
235.349	122.94
235.583	135.94
235.817	134.94
236.051	155.94
236.285	136.94
236.519	128.94
236.753	147.94
236.987	158.94
237.221	190.94
237.455	244.94
237.689	205.94
237.922	164.94
238.156	141.94
238.39	142.94
238.624	135.94
238.858	128.94
239.091	138.94
239.325	130.94
239.559	132.94
239.793	132.94
240.027	143.94
240.26	155.94
240.494	169.94
240.728	159.94
240.961	153.94
241.195	148.94
241.429	145.94
241.662	139.94
241.896	128.94
242.13	133.94
242.363	148.94
242.597	134.94
242.83	150.94
243.064	149.94
243.298	139.94
243.531	130.94
243.765	154.94
243.998	142.94
244.232	148.94
244.465	152.94
244.699	155.94
244.932	154.94
245.166	145.94
245.399	151.94
245.633	148.94
245.866	150.94
246.099	152.94
246.333	153.94
246.566	143.94
246.8	150.94
247.033	158.94
247.266	174.94
247.5	180.94
247.733	180.94
247.966	183.94
248.2	188.94
248.433	180.94
248.666	190.94
248.899	195.94
249.133	218.94
249.366	224.94
249.599	232.94
249.832	183.94
250.066	192.94
250.299	189.94
250.532	213.94
250.765	229.94
250.998	239.94
251.231	259.94
251.465	233.94
251.698	203.94
251.931	220.94
252.164	212.94
252.397	211.94
252.63	213.94
252.863	219.94
253.096	231.94
253.329	261.94
253.562	245.94
253.795	242.94
254.028	227.94
254.261	222.94
254.494	249.94
254.727	271.94
254.96	315.94
255.193	296.94
255.426	298.94
255.659	258.94
255.892	238.94
256.124	242.94
256.357	266.94
256.59	227.94
256.823	241.94
257.056	212.94
257.289	224.94
257.521	211.94
257.754	206.94
257.987	223.94
258.22	223.94
258.452	214.94
258.685	198.94
258.918	230.94
259.151	224.94
259.383	237.94
259.616	224.94
259.849	235.94
260.081	233.94
260.314	249.94
260.547	278.94
260.779	245.94
261.012	257.94
261.244	234.94
261.477	237.94
261.71	222.94
261.942	252.94
262.175	249.94
262.407	232.94
262.64	224.94
262.872	225.94
263.105	226.94
263.337	226.94
263.57	227.94
263.802	234.94
264.035	209.94
264.267	213.94
264.499	209.94
264.732	206.94
264.964	212.94
265.197	215.94
265.429	208.94
265.661	220.94
265.894	198.94
266.126	206.94
266.358	221.94
266.591	229.94
266.823	204.94
267.055	231.94
267.287	219.94
267.52	218.94
267.752	227.94
267.984	237.94
268.216	235.94
268.448	222.94
268.681	221.94
268.913	256.94
269.145	269.94
269.377	272.94
269.609	275.94
269.841	282.94
270.073	275.94
270.306	288.94
270.538	321.94
270.77	328.94
271.002	316.94
271.234	290.94
271.466	313.94
271.698	310.94
271.93	325.94
272.162	333.94
272.394	316.94
272.626	300.94
272.858	295.94
273.09	298.94
273.322	274.94
273.553	277.94
273.785	272.94
274.017	254.94
274.249	256.94
274.481	278.94
274.713	258.94
274.945	271.94
275.176	292.94
275.408	268.94
275.64	273.94
275.872	260.94
276.104	260.94
276.335	283.94
276.567	261.94
276.799	291.94
277.031	312.94
277.262	336.94
277.494	341.94
277.726	297.94
277.957	317.94
278.189	300.94
278.421	270.94
278.652	250.94
278.884	261.94
279.115	270.94
279.347	252.94
279.579	258.94
279.81	278.94
280.042	260.94
280.273	265.94
280.505	260.94
280.736	252.94
280.968	242.94
281.199	252.94
281.431	267.94
281.662	252.94
281.894	266.94
282.125	273.94
282.356	284.94
282.588	304.94
282.819	305.94
283.051	276.94
283.282	262.94
283.513	235.94
283.745	264.94
283.976	258.94
284.207	268.94
284.439	272.94
284.67	293.94
284.901	277.94
285.132	255.94
285.364	249.94
285.595	264.94
285.826	257.94
286.057	258.94
286.288	273.94
286.52	250.94
286.751	259.94
286.982	272.94
287.213	279.94
287.444	276.94
287.675	295.94
287.906	279.94
288.138	293.94
288.369	298.94
288.6	291.94
288.831	266.94
289.062	273.94
289.293	267.94
289.524	254.94
289.755	263.94
289.986	282.94
290.217	274.94
290.448	273.94
290.679	272.94
290.91	268.94
291.141	271.94
291.371	264.94
291.602	275.94
291.833	263.94
292.064	261.94
292.295	276.94
292.526	269.94
292.757	271.94
292.987	265.94
293.218	269.94
293.449	270.94
293.68	290.94
293.91	270.94
294.141	259.94
294.372	261.94
294.603	279.94
294.833	269.94
295.064	277.94
295.295	279.94
295.525	276.94
295.756	282.94
295.987	290.94
296.217	308.94
296.448	327.94
296.679	292.94
296.909	279.94
297.14	272.94
297.37	266.94
297.601	269.94
297.831	264.94
298.062	273.94
298.292	272.94
298.523	278.94
298.753	279.94
298.984	291.94
299.214	277.94
299.445	264.94
299.675	290.94
299.905	278.94
300.136	297.94
300.366	291.94
300.597	275.94
300.827	300.94
301.057	286.94
301.288	312.94
301.518	295.94
301.748	289.94
301.979	308.94
302.209	308.94
302.439	310.94
302.669	293.94
302.9	297.94
303.13	296.94
303.36	304.94
303.59	310.94
303.82	309.94
304.051	302.94
304.281	319.94
304.511	309.94
304.741	300.94
304.971	296.94
305.201	299.94
305.431	303.94
305.661	308.94
305.891	303.94
306.121	316.94
306.352	317.94
306.582	326.94
306.812	308.94
307.042	290.94
307.272	313.94
307.502	318.94
307.731	334.94
307.961	313.94
308.191	307.94
308.421	315.94
308.651	336.94
308.881	326.94
309.111	347.94
309.341	326.94
309.571	349.94
309.8	356.94
310.03	363.94
310.26	378.94
310.49	382.94
310.72	380.94
310.949	381.94
311.179	403.94
311.409	365.94
311.639	356.94
311.868	383.94
312.098	396.94
312.328	388.94
312.557	379.94
312.787	410.94
313.017	408.94
313.246	381.94
313.476	372.94
313.706	363.94
313.935	367.94
314.165	406.94
314.394	404.94
314.624	406.94
314.853	377.94
315.083	373.94
315.312	377.94
315.542	355.94
315.771	343.94
316.001	372.94
316.23	358.94
316.46	356.94
316.689	362.94
316.919	364.94
317.148	380.94
317.377	402.94
317.607	379.94
317.836	379.94
318.065	374.94
318.295	361.94
318.524	365.94
318.753	352.94
318.983	363.94
319.212	380.94
319.441	376.94
319.67	376.94
319.9	374.94
320.129	371.94
320.358	382.94
320.587	378.94
320.816	389.94
321.046	403.94
321.275	406.94
321.504	399.94
321.733	400.94
321.962	409.94
322.191	425.94
322.42	443.94
322.649	463.94
322.878	445.94
323.108	500.94
323.337	526.94
323.566	541.94
323.795	582.94
324.024	623.94
324.253	800.94
324.482	1174.94
324.71	1773.94
324.939	2536.94
325.168	2235.94
325.397	1172.94
325.626	747.94
325.855	608.94
326.084	570.94
326.313	543.94
326.542	545.94
326.77	629.94
326.999	741.94
327.228	1014.94
327.457	1616.94
327.686	1909.94
327.914	1304.94
328.143	845.94
328.372	735.94
328.6	658.94
328.829	615.94
329.058	649.94
329.287	655.94
329.515	602.94
329.744	559.94
329.972	549.94
330.201	546.94
330.43	637.94
330.658	640.94
330.887	676.94
331.115	659.94
331.344	564.94
331.572	505.94
331.801	513.94
332.03	511.94
332.258	466.94
332.486	464.94
332.715	441.94
332.943	440.94
333.172	436.94
333.4	431.94
333.629	457.94
333.857	474.94
334.085	491.94
334.314	494.94
334.542	524.94
334.771	534.94
334.999	484.94
335.227	478.94
335.455	454.94
335.684	432.94
335.912	444.94
336.14	415.94
336.369	428.94
336.597	439.94
336.825	440.94
337.053	435.94
337.281	418.94
337.51	417.94
337.738	422.94
337.966	424.94
338.194	436.94
338.422	446.94
338.65	426.94
338.878	399.94
339.106	411.94
339.334	413.94
339.562	420.94
339.79	438.94
340.018	420.94
340.246	416.94
340.474	418.94
340.702	405.94
340.93	393.94
341.158	406.94
341.386	432.94
341.614	411.94
341.842	424.94
342.07	409.94
342.298	406.94
342.526	403.94
342.754	407.94
342.981	391.94
343.209	399.94
343.437	407.94
343.665	394.94
343.893	414.94
344.12	413.94
344.348	406.94
344.576	406.94
344.804	415.94
345.031	438.94
345.259	440.94
345.487	465.94
345.714	425.94
345.942	394.94
346.17	404.94
346.397	394.94
346.625	431.94
346.853	428.94
347.08	420.94
347.308	414.94
347.535	429.94
347.763	427.94
347.99	423.94
348.218	433.94
348.445	436.94
348.673	431.94
348.9	422.94
349.128	415.94
349.355	407.94
349.583	384.94
349.81	388.94
350.037	400.94
350.265	421.94
350.492	402.94
350.72	389.94
350.947	390.94
351.174	426.94
351.402	445.94
351.629	442.94
351.856	429.94
352.083	438.94
352.311	447.94
352.538	436.94
352.765	426.94
352.992	421.94
353.22	446.94
353.447	424.94
353.674	411.94
353.901	392.94
354.128	396.94
354.355	388.94
354.583	390.94
354.81	363.94
355.037	398.94
355.264	373.94
355.491	382.94
355.718	381.94
355.945	391.94
356.172	383.94
356.399	374.94
356.626	376.94
356.853	390.94
357.08	400.94
357.307	384.94
357.534	370.94
357.761	368.94
357.988	392.94
358.215	398.94
358.441	388.94
358.668	376.94
358.895	414.94
359.122	396.94
359.349	396.94
359.576	442.94
359.802	464.94
360.029	486.94
360.256	514.94
360.483	463.94
360.709	419.94
360.936	432.94
361.163	432.94
361.39	443.94
361.616	425.94
361.843	412.94
362.07	432.94
362.296	421.94
362.523	432.94
362.749	418.94
362.976	411.94
363.203	410.94
363.429	404.94
363.656	420.94
363.882	389.94
364.109	399.94
364.335	391.94
364.562	406.94
364.788	390.94
365.015	397.94
365.241	399.94
365.468	401.94
365.694	395.94
365.92	415.94
366.147	410.94
366.373	380.94
366.599	407.94
366.826	400.94
367.052	401.94
367.278	393.94
367.505	389.94
367.731	377.94
367.957	390.94
368.184	400.94
368.41	411.94
368.636	415.94
368.862	430.94
369.089	431.94
369.315	394.94
369.541	410.94
369.767	404.94
369.993	427.94
370.219	406.94
370.445	410.94
370.672	403.94
370.898	398.94
371.124	408.94
371.35	412.94
371.576	391.94
371.802	390.94
372.028	395.94
372.254	375.94
372.48	396.94
372.706	376.94
372.932	382.94
373.158	408.94
373.384	391.94
373.61	406.94
373.835	409.94
374.061	406.94
374.287	401.94
374.513	404.94
374.739	390.94
374.965	383.94
375.191	378.94
375.416	384.94
375.642	380.94
375.868	404.94
376.094	383.94
376.319	398.94
376.545	399.94
376.771	392.94
376.997	364.94
377.222	400.94
377.448	413.94
377.674	386.94
377.899	394.94
378.125	393.94
378.35	391.94
378.576	389.94
378.802	376.94
379.027	382.94
379.253	384.94
379.478	392.94
379.704	390.94
379.929	404.94
380.155	399.94
380.38	386.94
380.606	386.94
380.831	393.94
381.057	398.94
381.282	407.94
381.507	410.94
381.733	386.94
381.958	379.94
382.184	408.94
382.409	405.94
382.634	410.94
382.86	396.94
383.085	382.94
383.31	406.94
383.535	406.94
383.761	408.94
383.986	405.94
384.211	418.94
384.436	434.94
384.662	422.94
384.887	418.94
385.112	403.94
385.337	421.94
385.562	417.94
385.787	422.94
386.013	440.94
386.238	456.94
386.463	450.94
386.688	432.94
386.913	402.94
387.138	423.94
387.363	419.94
387.588	410.94
387.813	421.94
388.038	408.94
388.263	391.94
388.488	400.94
388.713	431.94
388.938	424.94
389.163	446.94
389.387	440.94
389.612	416.94
389.837	422.94
390.062	414.94
390.287	407.94
390.512	419.94
390.736	407.94
390.961	412.94
391.186	409.94
391.411	445.94
391.636	424.94
391.86	445.94
392.085	422.94
392.31	430.94
392.534	427.94
392.759	431.94
392.984	429.94
393.208	438.94
393.433	406.94
393.658	422.94
393.882	435.94
394.107	426.94
394.331	429.94
394.556	416.94
394.78	422.94
395.005	432.94
395.229	428.94
395.454	418.94
395.678	435.94
395.903	460.94
396.127	481.94
396.352	486.94
396.576	439.94
396.801	455.94
397.025	452.94
397.249	432.94
397.474	454.94
397.698	451.94
397.922	455.94
398.147	492.94
398.371	500.94
398.595	477.94
398.82	467.94
399.044	474.94
399.268	490.94
399.492	503.94
399.717	538.94
399.941	562.94
400.165	584.94
400.389	581.94
400.613	544.94
400.837	503.94
401.062	498.94
401.286	500.94
401.51	475.94
401.734	465.94
401.958	495.94
402.182	493.94
402.406	521.94
402.63	501.94
402.854	493.94
403.078	501.94
403.302	503.94
403.526	508.94
403.75	530.94
403.974	512.94
404.198	516.94
404.422	509.94
404.645	531.94
404.869	520.94
405.093	551.94
405.317	608.94
405.541	597.94
405.765	572.94
405.988	557.94
406.212	539.94
406.436	596.94
406.66	604.94
406.883	574.94
407.107	581.94
407.331	641.94
407.555	701.94
407.778	688.94
408.002	628.94
408.226	574.94
408.449	557.94
408.673	585.94
408.896	602.94
409.12	643.94
409.344	604.94
409.567	550.94
409.791	510.94
410.014	532.94
410.238	514.94
410.461	527.94
410.685	525.94
410.908	520.94
411.132	595.94
411.355	596.94
411.578	568.94
411.802	534.94
412.025	515.94
412.249	526.94
412.472	548.94
412.695	585.94
412.919	581.94
413.142	550.94
413.365	521.94
413.589	511.94
413.812	486.94
414.035	494.94
414.258	492.94
414.482	477.94
414.705	487.94
414.928	476.94
415.151	491.94
415.374	501.94
415.597	474.94
415.821	474.94
416.044	479.94
416.267	482.94
416.49	475.94
416.713	475.94
416.936	469.94
417.159	473.94
417.382	488.94
417.605	487.94
417.828	502.94
418.051	527.94
418.274	524.94
418.497	510.94
418.72	496.94
418.943	499.94
419.166	514.94
419.389	527.94
419.611	505.94
419.834	511.94
420.057	526.94
420.28	510.94
420.503	512.94
420.726	512.94
420.948	542.94
421.171	579.94
421.394	617.94
421.617	541.94
421.839	524.94
422.062	556.94
422.285	540.94
422.507	603.94
422.73	690.94
422.953	688.94
423.175	596.94
423.398	572.94
423.621	540.94
423.843	570.94
424.066	573.94
424.288	574.94
424.511	607.94
424.733	660.94
424.956	748.94
425.178	718.94
425.401	711.94
425.623	756.94
425.846	634.94
426.068	586.94
426.291	586.94
426.513	585.94
426.735	607.94
426.958	642.94
427.18	728.94
427.402	866.94
427.625	979.94
427.847	869.94
428.069	738.94
428.292	675.94
428.514	605.94
428.736	548.94
428.958	574.94
429.181	565.94
429.403	560.94
429.625	571.94
429.847	602.94
430.069	692.94
430.292	654.94
430.514	582.94
430.736	550.94
430.958	543.94
431.18	517.94
431.402	514.94
431.624	519.94
431.846	491.94
432.068	497.94
432.29	509.94
432.512	518.94
432.734	528.94
432.956	522.94
433.178	511.94
433.4	547.94
433.622	517.94
433.844	507.94
434.066	491.94
434.287	495.94
434.509	503.94
434.731	480.94
434.953	530.94
435.175	550.94
435.397	574.94
435.618	594.94
435.84	643.94
436.062	754.94
436.284	799.94
436.505	668.94
436.727	615.94
436.949	568.94
437.17	556.94
437.392	540.94
437.614	579.94
437.835	616.94
438.057	719.94
438.278	851.94
438.5	830.94
438.721	860.94
438.943	871.94
439.165	706.94
439.386	637.94
439.608	623.94
439.829	618.94
440.05	646.94
440.272	699.94
440.493	662.94
440.715	566.94
440.936	552.94
441.158	539.94
441.379	552.94
441.6	567.94
441.822	603.94
442.043	649.94
442.264	749.94
442.486	786.94
442.707	654.94
442.928	589.94
443.149	618.94
443.371	657.94
443.592	687.94
443.813	776.94
444.034	834.94
444.255	690.94
444.476	627.94
444.698	584.94
444.919	585.94
445.14	651.94
445.361	645.94
445.582	652.94
445.803	739.94
446.024	819.94
446.245	834.94
446.466	755.94
446.687	667.94
446.908	614.94
447.129	580.94
447.35	582.94
447.571	542.94
447.792	552.94
448.013	557.94
448.234	581.94
448.455	628.94
448.675	761.94
448.896	855.94
449.117	754.94
449.338	721.94
449.559	810.94
449.779	908.94
450	724.94
450.221	628.94
450.442	586.94
450.662	554.94
450.883	574.94
451.104	601.94
451.324	574.94
451.545	549.94
451.766	528.94
451.986	494.94
452.207	497.94
452.428	500.94
452.648	518.94
452.869	501.94
453.089	519.94
453.31	522.94
453.53	519.94
453.751	500.94
453.971	508.94
454.192	538.94
454.412	508.94
454.633	501.94
454.853	478.94
455.073	506.94
455.294	515.94
455.514	592.94
455.734	614.94
455.955	520.94
456.175	476.94
456.395	470.94
456.616	454.94
456.836	455.94
457.056	447.94
457.276	452.94
457.497	465.94
457.717	449.94
457.937	476.94
458.157	465.94
458.377	465.94
458.598	504.94
458.818	576.94
459.038	683.94
459.258	700.94
459.478	583.94
459.698	513.94
459.918	514.94
460.138	505.94
460.358	522.94
460.578	501.94
460.798	510.94
461.018	519.94
461.238	489.94
461.458	493.94
461.678	495.94
461.898	484.94
462.118	495.94
462.338	487.94
462.558	521.94
462.777	483.94
462.997	511.94
463.217	532.94
463.437	530.94
463.657	531.94
463.876	511.94
464.096	507.94
464.316	510.94
464.536	545.94
464.755	535.94
464.975	542.94
465.195	603.94
465.414	718.94
465.634	612.94
465.854	581.94
466.073	537.94
466.293	534.94
466.512	495.94
466.732	500.94
466.951	484.94
467.171	492.94
467.391	503.94
467.61	519.94
467.829	524.94
468.049	543.94
468.268	522.94
468.488	518.94
468.707	496.94
468.927	500.94
469.146	493.94
469.365	498.94
469.585	465.94
469.804	510.94
470.023	535.94
470.243	526.94
470.462	523.94
470.681	545.94
470.901	540.94
471.12	519.94
471.339	506.94
471.558	522.94
471.777	519.94
471.997	503.94
472.216	519.94
472.435	561.94
472.654	538.94
472.873	519.94
473.092	509.94
473.311	499.94
473.53	484.94
473.749	536.94
473.968	562.94
474.187	674.94
474.406	690.94
474.625	588.94
474.844	568.94
475.063	550.94
475.282	509.94
475.501	507.94
475.72	524.94
475.939	529.94
476.158	508.94
476.377	546.94
476.596	533.94
476.814	514.94
477.033	553.94
477.252	531.94
477.471	538.94
477.69	527.94
477.908	549.94
478.127	543.94
478.346	582.94
478.564	568.94
478.783	580.94
479.002	554.94
479.22	587.94
479.439	593.94
479.658	628.94
479.876	635.94
480.095	612.94
480.313	636.94
480.532	615.94
480.751	618.94
480.969	639.94
481.188	701.94
481.406	747.94
481.624	654.94
481.843	649.94
482.061	621.94
482.28	626.94
482.498	592.94
482.717	587.94
482.935	608.94
483.153	622.94
483.372	598.94
483.59	596.94
483.808	598.94
484.027	607.94
484.245	616.94
484.463	619.94
484.681	618.94
484.9	620.94
485.118	618.94
485.336	614.94
485.554	608.94
485.772	611.94
485.99	632.94
486.209	636.94
486.427	628.94
486.645	640.94
486.863	664.94
487.081	667.94
487.299	656.94
487.517	674.94
487.735	678.94
487.953	653.94
488.171	668.94
488.389	665.94
488.607	682.94
488.825	656.94
489.043	667.94
489.261	663.94
489.479	673.94
489.696	662.94
489.914	679.94
490.132	689.94
490.35	715.94
490.568	722.94
490.786	704.94
491.003	724.94
491.221	746.94
491.439	735.94
491.657	751.94
491.874	751.94
492.092	762.94
492.31	766.94
492.527	812.94
492.745	790.94
492.963	797.94
493.18	818.94
493.398	804.94
493.615	809.94
493.833	792.94
494.05	790.94
494.268	812.94
494.485	804.94
494.703	794.94
494.92	789.94
495.138	794.94
495.355	810.94
495.573	797.94
495.79	797.94
496.008	796.94
496.225	812.94
496.442	820.94
496.66	811.94
496.877	795.94
497.094	799.94
497.312	804.94
497.529	832.94
497.746	782.94
497.963	808.94
498.181	849.94
498.398	840.94
498.615	860.94
498.832	843.94
499.049	847.94
499.267	868.94
499.484	866.94
499.701	892.94
499.918	902.94
500.135	958.94
500.352	979.94
500.569	948.94
500.786	1001.94
501.003	985.94
501.22	932.94
501.437	933.94
501.654	918.94
