Data from 1971.PennyLincolnUp.Lamp.En5.5.200Scan.071719.P1._HRD10591_15-18-40-842.txt Node
Date: Thu Jul 18 15:18:40 EDT 2019
User: cochatt
Spectrometer: HR+D1059
Trigger mode: 1
Integration Time (sec): 1.000000E-1
Scans to average: 1
Electric dark correction enabled: true
Nonlinearity correction enabled: false
Boxcar width: 0
XAxis mode: Wavelengths
Number of Pixels in Spectrum: 2048
>>>>>Begin Spectral Data<<<<<
223.165	-24.19
223.4	-24.19
223.635	-24.19
223.869	-0.19
224.104	-28.19
224.338	-20.19
224.573	-11.19
224.808	-12.19
225.042	-17.19
225.277	-14.19
225.511	-0.19
225.746	1.81
225.98	15.81
226.215	21.81
226.449	6.81
226.683	23.81
226.918	26.81
227.152	30.81
227.387	29.81
227.621	49.81
227.856	50.81
228.09	46.81
228.324	46.81
228.559	54.81
228.793	65.81
229.027	91.81
229.262	101.81
229.496	103.81
229.73	131.81
229.964	129.81
230.199	138.81
230.433	112.81
230.667	107.81
230.901	90.81
231.136	113.81
231.37	102.81
231.604	100.81
231.838	96.81
232.072	128.81
232.306	123.81
232.541	117.81
232.775	95.81
233.009	106.81
233.243	108.81
233.477	112.81
233.711	123.81
233.945	108.81
234.179	113.81
234.413	118.81
234.647	118.81
234.881	117.81
235.115	100.81
235.349	123.81
235.583	122.81
235.817	116.81
236.051	123.81
236.285	105.81
236.519	125.81
236.753	125.81
236.987	137.81
237.221	175.81
237.455	201.81
237.689	164.81
237.922	125.81
238.156	117.81
238.39	107.81
238.624	98.81
238.858	111.81
239.091	118.81
239.325	120.81
239.559	120.81
239.793	127.81
240.027	127.81
240.26	122.81
240.494	155.81
240.728	148.81
240.961	136.81
241.195	127.81
241.429	137.81
241.662	145.81
241.896	135.81
242.13	127.81
242.363	133.81
242.597	139.81
242.83	136.81
243.064	148.81
243.298	140.81
243.531	144.81
243.765	129.81
243.998	134.81
244.232	142.81
244.465	135.81
244.699	134.81
244.932	141.81
245.166	147.81
245.399	136.81
245.633	143.81
245.866	152.81
246.099	143.81
246.333	137.81
246.566	139.81
246.8	146.81
247.033	158.81
247.266	156.81
247.5	152.81
247.733	152.81
247.966	170.81
248.2	160.81
248.433	181.81
248.666	186.81
248.899	172.81
249.133	197.81
249.366	197.81
249.599	184.81
249.832	182.81
250.066	196.81
250.299	186.81
250.532	197.81
250.765	199.81
250.998	205.81
251.231	214.81
251.465	210.81
251.698	190.81
251.931	211.81
252.164	199.81
252.397	189.81
252.63	185.81
252.863	202.81
253.096	202.81
253.329	204.81
253.562	206.81
253.795	216.81
254.028	203.81
254.261	219.81
254.494	232.81
254.727	228.81
254.96	260.81
255.193	242.81
255.426	244.81
255.659	236.81
255.892	226.81
256.124	236.81
256.357	213.81
256.59	215.81
256.823	235.81
257.056	225.81
257.289	195.81
257.521	219.81
257.754	217.81
257.987	200.81
258.22	197.81
258.452	198.81
258.685	216.81
258.918	219.81
259.151	215.81
259.383	214.81
259.616	194.81
259.849	243.81
260.081	228.81
260.314	237.81
260.547	254.81
260.779	241.81
261.012	237.81
261.244	233.81
261.477	228.81
261.71	221.81
261.942	222.81
262.175	233.81
262.407	212.81
262.64	219.81
262.872	227.81
263.105	205.81
263.337	206.81
263.57	185.81
263.802	215.81
264.035	216.81
264.267	207.81
264.499	207.81
264.732	203.81
264.964	196.81
265.197	194.81
265.429	214.81
265.661	213.81
265.894	213.81
266.126	220.81
266.358	215.81
266.591	212.81
266.823	234.81
267.055	233.81
267.287	223.81
267.52	227.81
267.752	230.81
267.984	223.81
268.216	221.81
268.448	228.81
268.681	233.81
268.913	240.81
269.145	255.81
269.377	279.81
269.609	270.81
269.841	280.81
270.073	279.81
270.306	279.81
270.538	307.81
270.77	299.81
271.002	290.81
271.234	290.81
271.466	302.81
271.698	300.81
271.93	302.81
272.162	311.81
272.394	318.81
272.626	295.81
272.858	280.81
273.09	281.81
273.322	263.81
273.553	275.81
273.785	271.81
274.017	262.81
274.249	260.81
274.481	269.81
274.713	257.81
274.945	257.81
275.176	270.81
275.408	252.81
275.64	251.81
275.872	263.81
276.104	274.81
276.335	265.81
276.567	285.81
276.799	279.81
277.031	313.81
277.262	284.81
277.494	317.81
277.726	295.81
277.957	276.81
278.189	284.81
278.421	267.81
278.652	277.81
278.884	281.81
279.115	275.81
279.347	273.81
279.579	246.81
279.81	260.81
280.042	265.81
280.273	271.81
280.505	238.81
280.736	265.81
280.968	261.81
281.199	260.81
281.431	238.81
281.662	264.81
281.894	269.81
282.125	274.81
282.356	286.81
282.588	291.81
282.819	302.81
283.051	295.81
283.282	275.81
283.513	273.81
283.745	282.81
283.976	272.81
284.207	282.81
284.439	262.81
284.67	292.81
284.901	275.81
285.132	279.81
285.364	269.81
285.595	288.81
285.826	276.81
286.057	270.81
286.288	282.81
286.52	277.81
286.751	283.81
286.982	283.81
287.213	291.81
287.444	296.81
287.675	265.81
287.906	285.81
288.138	298.81
288.369	283.81
288.6	284.81
288.831	285.81
289.062	302.81
289.293	293.81
289.524	279.81
289.755	281.81
289.986	282.81
290.217	280.81
290.448	284.81
290.679	290.81
290.91	276.81
291.141	286.81
291.371	280.81
291.602	289.81
291.833	294.81
292.064	288.81
292.295	280.81
292.526	271.81
292.757	289.81
292.987	285.81
293.218	276.81
293.449	287.81
293.68	299.81
293.91	284.81
294.141	291.81
294.372	289.81
294.603	283.81
294.833	296.81
295.064	293.81
295.295	299.81
295.525	294.81
295.756	307.81
295.987	286.81
296.217	313.81
296.448	320.81
296.679	305.81
296.909	305.81
297.14	301.81
297.37	286.81
297.601	276.81
297.831	304.81
298.062	299.81
298.292	285.81
298.523	306.81
298.753	300.81
298.984	300.81
299.214	298.81
299.445	302.81
299.675	302.81
299.905	326.81
300.136	298.81
300.366	324.81
300.597	319.81
300.827	294.81
301.057	308.81
301.288	325.81
301.518	302.81
301.748	323.81
301.979	317.81
302.209	335.81
302.439	322.81
302.669	318.81
302.9	319.81
303.13	331.81
303.36	324.81
303.59	326.81
303.82	337.81
304.051	324.81
304.281	317.81
304.511	321.81
304.741	302.81
304.971	330.81
305.201	294.81
305.431	329.81
305.661	321.81
305.891	323.81
306.121	313.81
306.352	331.81
306.582	326.81
306.812	335.81
307.042	323.81
307.272	324.81
307.502	317.81
307.731	337.81
307.961	327.81
308.191	312.81
308.421	311.81
308.651	325.81
308.881	326.81
309.111	338.81
309.341	334.81
309.571	339.81
309.8	342.81
310.03	348.81
310.26	352.81
310.49	347.81
310.72	372.81
310.949	375.81
311.179	379.81
311.409	358.81
311.639	377.81
311.868	366.81
312.098	369.81
312.328	372.81
312.557	372.81
312.787	378.81
313.017	367.81
313.246	358.81
313.476	360.81
313.706	353.81
313.935	350.81
314.165	401.81
314.394	396.81
314.624	371.81
314.853	389.81
315.083	375.81
315.312	352.81
315.542	377.81
315.771	369.81
316.001	360.81
316.23	346.81
316.46	347.81
316.689	381.81
316.919	373.81
317.148	365.81
317.377	378.81
317.607	378.81
317.836	357.81
318.065	362.81
318.295	369.81
318.524	381.81
318.753	355.81
318.983	340.81
319.212	370.81
319.441	375.81
319.67	374.81
319.9	363.81
320.129	369.81
320.358	361.81
320.587	391.81
320.816	391.81
321.046	381.81
321.275	381.81
321.504	388.81
321.733	363.81
321.962	403.81
322.191	409.81
322.42	414.81
322.649	421.81
322.878	424.81
323.108	434.81
323.337	449.81
323.566	472.81
323.795	493.81
324.024	528.81
324.253	637.81
324.482	878.81
324.71	1316.81
324.939	1778.81
325.168	1492.81
325.397	809.81
325.626	562.81
325.855	479.81
326.084	465.81
326.313	455.81
326.542	477.81
326.77	531.81
326.999	612.81
327.228	818.81
327.457	1159.81
327.686	1319.81
327.914	907.81
328.143	644.81
328.372	547.81
328.6	502.81
328.829	513.81
329.058	493.81
329.287	511.81
329.515	499.81
329.744	445.81
329.972	463.81
330.201	475.81
330.43	515.81
330.658	524.81
330.887	527.81
331.115	523.81
331.344	458.81
331.572	449.81
331.801	446.81
332.03	444.81
332.258	436.81
332.486	425.81
332.715	405.81
332.943	418.81
333.172	422.81
333.4	423.81
333.629	427.81
333.857	425.81
334.085	454.81
334.314	459.81
334.542	484.81
334.771	477.81
334.999	455.81
335.227	433.81
335.455	415.81
335.684	417.81
335.912	417.81
336.14	414.81
336.369	412.81
336.597	429.81
336.825	428.81
337.053	427.81
337.281	398.81
337.51	399.81
337.738	399.81
337.966	426.81
338.194	431.81
338.422	420.81
338.65	404.81
338.878	405.81
339.106	406.81
339.334	402.81
339.562	404.81
339.79	388.81
340.018	407.81
340.246	411.81
340.474	410.81
340.702	400.81
340.93	407.81
341.158	380.81
341.386	412.81
341.614	406.81
341.842	389.81
342.07	387.81
342.298	391.81
342.526	375.81
342.754	383.81
342.981	385.81
343.209	390.81
343.437	401.81
343.665	394.81
343.893	389.81
344.12	425.81
344.348	418.81
344.576	416.81
344.804	408.81
345.031	404.81
345.259	422.81
345.487	382.81
345.714	390.81
345.942	389.81
346.17	390.81
346.397	381.81
346.625	385.81
346.853	397.81
347.08	388.81
347.308	377.81
347.535	382.81
347.763	394.81
347.99	385.81
348.218	389.81
348.445	405.81
348.673	392.81
348.9	382.81
349.128	403.81
349.355	365.81
349.583	378.81
349.81	385.81
350.037	374.81
350.265	383.81
350.492	376.81
350.72	355.81
350.947	375.81
351.174	383.81
351.402	382.81
351.629	391.81
351.856	404.81
352.083	381.81
352.311	385.81
352.538	392.81
352.765	380.81
352.992	381.81
353.22	381.81
353.447	369.81
353.674	366.81
353.901	348.81
354.128	353.81
354.355	371.81
354.583	349.81
354.81	361.81
355.037	370.81
355.264	345.81
355.491	353.81
355.718	347.81
355.945	346.81
356.172	347.81
356.399	347.81
356.626	341.81
356.853	353.81
357.08	342.81
357.307	341.81
357.534	362.81
357.761	344.81
357.988	348.81
358.215	345.81
358.441	360.81
358.668	347.81
358.895	354.81
359.122	371.81
359.349	354.81
359.576	359.81
359.802	395.81
360.029	415.81
360.256	401.81
360.483	407.81
360.709	379.81
360.936	373.81
361.163	366.81
361.39	379.81
361.616	376.81
361.843	377.81
362.07	379.81
362.296	382.81
362.523	366.81
362.749	361.81
362.976	393.81
363.203	365.81
363.429	355.81
363.656	340.81
363.882	372.81
364.109	364.81
364.335	363.81
364.562	346.81
364.788	340.81
365.015	345.81
365.241	341.81
365.468	361.81
365.694	370.81
365.92	346.81
366.147	337.81
366.373	326.81
366.599	360.81
366.826	363.81
367.052	343.81
367.278	373.81
367.505	346.81
367.731	337.81
367.957	339.81
368.184	326.81
368.41	350.81
368.636	353.81
368.862	367.81
369.089	355.81
369.315	348.81
369.541	377.81
369.767	341.81
369.993	353.81
370.219	339.81
370.445	357.81
370.672	329.81
370.898	350.81
371.124	361.81
371.35	348.81
371.576	331.81
371.802	362.81
372.028	358.81
372.254	350.81
372.48	365.81
372.706	348.81
372.932	345.81
373.158	349.81
373.384	360.81
373.61	365.81
373.835	337.81
374.061	335.81
374.287	358.81
374.513	338.81
374.739	368.81
374.965	361.81
375.191	358.81
375.416	338.81
375.642	345.81
375.868	357.81
376.094	334.81
376.319	363.81
376.545	348.81
376.771	341.81
376.997	331.81
377.222	328.81
377.448	331.81
377.674	339.81
377.899	340.81
378.125	329.81
378.35	345.81
378.576	325.81
378.802	342.81
379.027	345.81
379.253	331.81
379.478	329.81
379.704	352.81
379.929	347.81
380.155	350.81
380.38	339.81
380.606	330.81
380.831	327.81
381.057	343.81
381.282	340.81
381.507	321.81
381.733	332.81
381.958	345.81
382.184	341.81
382.409	340.81
382.634	362.81
382.86	359.81
383.085	335.81
383.31	348.81
383.535	350.81
383.761	370.81
383.986	369.81
384.211	350.81
384.436	363.81
384.662	362.81
384.887	351.81
385.112	355.81
385.337	372.81
385.562	353.81
385.787	374.81
386.013	373.81
386.238	359.81
386.463	342.81
386.688	358.81
386.913	356.81
387.138	365.81
387.363	354.81
387.588	355.81
387.813	352.81
388.038	367.81
388.263	371.81
388.488	366.81
388.713	374.81
388.938	359.81
389.163	362.81
389.387	361.81
389.612	373.81
389.837	350.81
390.062	339.81
390.287	349.81
390.512	368.81
390.736	374.81
390.961	355.81
391.186	365.81
391.411	373.81
391.636	375.81
391.86	374.81
392.085	378.81
392.31	346.81
392.534	359.81
392.759	379.81
392.984	360.81
393.208	377.81
393.433	369.81
393.658	367.81
393.882	386.81
394.107	374.81
394.331	363.81
394.556	345.81
394.78	358.81
395.005	357.81
395.229	379.81
395.454	389.81
395.678	395.81
395.903	367.81
396.127	387.81
396.352	375.81
396.576	364.81
396.801	366.81
397.025	365.81
397.249	374.81
397.474	385.81
397.698	389.81
397.922	395.81
398.147	397.81
398.371	388.81
398.595	401.81
398.82	407.81
399.044	430.81
399.268	420.81
399.492	437.81
399.717	445.81
399.941	465.81
400.165	486.81
400.389	505.81
400.613	451.81
400.837	410.81
401.062	395.81
401.286	408.81
401.51	379.81
401.734	394.81
401.958	399.81
402.182	418.81
402.406	391.81
402.63	381.81
402.854	416.81
403.078	426.81
403.302	422.81
403.526	400.81
403.75	409.81
403.974	410.81
404.198	392.81
404.422	421.81
404.645	422.81
404.869	421.81
405.093	449.81
405.317	468.81
405.541	481.81
405.765	433.81
405.988	405.81
406.212	429.81
406.436	433.81
406.66	475.81
406.883	445.81
407.107	475.81
407.331	488.81
407.555	539.81
407.778	537.81
408.002	504.81
408.226	459.81
408.449	460.81
408.673	443.81
408.896	478.81
409.12	491.81
409.344	482.81
409.567	419.81
409.791	438.81
410.014	410.81
410.238	392.81
410.461	403.81
410.685	419.81
410.908	435.81
411.132	446.81
411.355	481.81
411.578	446.81
411.802	406.81
412.025	414.81
412.249	431.81
412.472	415.81
412.695	446.81
412.919	447.81
413.142	413.81
413.365	391.81
413.589	399.81
413.812	408.81
414.035	388.81
414.258	394.81
414.482	388.81
414.705	387.81
414.928	381.81
415.151	392.81
415.374	405.81
415.597	395.81
415.821	375.81
416.044	400.81
416.267	394.81
416.49	377.81
416.713	388.81
416.936	385.81
417.159	366.81
417.382	401.81
417.605	381.81
417.828	403.81
418.051	416.81
418.274	410.81
418.497	386.81
418.72	399.81
418.943	388.81
419.166	395.81
419.389	400.81
419.611	406.81
419.834	402.81
420.057	422.81
420.28	395.81
420.503	397.81
420.726	422.81
420.948	440.81
421.171	447.81
421.394	476.81
421.617	434.81
421.839	387.81
422.062	403.81
422.285	423.81
422.507	458.81
422.73	514.81
422.953	492.81
423.175	463.81
423.398	416.81
423.621	413.81
423.843	454.81
424.066	441.81
424.288	425.81
424.511	464.81
424.733	491.81
424.956	552.81
425.178	540.81
425.401	504.81
425.623	519.81
425.846	462.81
426.068	444.81
426.291	440.81
426.513	422.81
426.735	449.81
426.958	487.81
427.18	533.81
427.402	615.81
427.625	692.81
427.847	591.81
428.069	531.81
428.292	450.81
428.514	435.81
428.736	412.81
428.958	440.81
429.181	397.81
429.403	382.81
429.625	414.81
429.847	450.81
430.069	497.81
430.292	486.81
430.514	431.81
430.736	398.81
430.958	410.81
431.18	401.81
431.402	379.81
431.624	393.81
431.846	374.81
432.068	366.81
432.29	353.81
432.512	390.81
432.734	387.81
432.956	387.81
433.178	404.81
433.4	405.81
433.622	373.81
433.844	378.81
434.066	364.81
434.287	389.81
434.509	379.81
434.731	385.81
434.953	381.81
435.175	411.81
435.397	428.81
435.618	440.81
435.84	469.81
436.062	552.81
436.284	574.81
436.505	499.81
436.727	441.81
436.949	427.81
437.17	404.81
437.392	413.81
437.614	402.81
437.835	437.81
438.057	469.81
438.278	580.81
438.5	589.81
438.721	651.81
438.943	605.81
439.165	494.81
439.386	450.81
439.608	458.81
439.829	445.81
440.05	462.81
440.272	500.81
440.493	481.81
440.715	447.81
440.936	414.81
441.158	414.81
441.379	391.81
441.6	420.81
441.822	437.81
442.043	479.81
442.264	538.81
442.486	544.81
442.707	471.81
442.928	438.81
443.149	452.81
443.371	445.81
443.592	488.81
443.813	586.81
444.034	618.81
444.255	511.81
444.476	455.81
444.698	441.81
444.919	449.81
445.14	569.81
445.361	502.81
445.582	475.81
445.803	507.81
446.024	594.81
446.245	604.81
446.466	562.81
446.687	456.81
446.908	431.81
447.129	417.81
447.35	391.81
447.571	412.81
447.792	393.81
448.013	405.81
448.234	418.81
448.455	460.81
448.675	566.81
448.896	627.81
449.117	542.81
449.338	508.81
449.559	592.81
449.779	636.81
450	519.81
450.221	438.81
450.442	417.81
450.662	390.81
450.883	403.81
451.104	413.81
451.324	390.81
451.545	384.81
451.766	362.81
451.986	381.81
452.207	346.81
452.428	340.81
452.648	362.81
452.869	342.81
453.089	354.81
453.31	376.81
453.53	371.81
453.751	363.81
453.971	350.81
454.192	377.81
454.412	357.81
454.633	352.81
454.853	362.81
455.073	353.81
455.294	376.81
455.514	403.81
455.734	410.81
455.955	369.81
456.175	349.81
456.395	364.81
456.616	321.81
456.836	334.81
457.056	342.81
457.276	342.81
457.497	324.81
457.717	327.81
457.937	336.81
458.157	349.81
458.377	341.81
458.598	361.81
458.818	425.81
459.038	467.81
459.258	459.81
459.478	394.81
459.698	389.81
459.918	372.81
460.138	358.81
460.358	361.81
460.578	353.81
460.798	365.81
461.018	381.81
461.238	371.81
461.458	382.81
461.678	379.81
461.898	380.81
462.118	379.81
462.338	365.81
462.558	379.81
462.777	381.81
462.997	394.81
463.217	417.81
463.437	392.81
463.657	399.81
463.876	391.81
464.096	397.81
464.316	389.81
464.536	413.81
464.755	389.81
464.975	395.81
465.195	426.81
465.414	471.81
465.634	418.81
465.854	395.81
466.073	374.81
466.293	379.81
466.512	363.81
466.732	369.81
466.951	352.81
467.171	363.81
467.391	369.81
467.61	383.81
467.829	369.81
468.049	369.81
468.268	370.81
468.488	377.81
468.707	367.81
468.927	342.81
469.146	353.81
469.365	338.81
469.585	363.81
469.804	364.81
470.023	374.81
470.243	369.81
470.462	353.81
470.681	379.81
470.901	380.81
471.12	372.81
471.339	375.81
471.558	375.81
471.777	367.81
471.997	371.81
472.216	372.81
472.435	381.81
472.654	382.81
472.873	371.81
473.092	381.81
473.311	362.81
473.53	379.81
473.749	387.81
473.968	407.81
474.187	499.81
474.406	492.81
474.625	406.81
474.844	369.81
475.063	360.81
475.282	373.81
475.501	377.81
475.72	380.81
475.939	399.81
476.158	367.81
476.377	391.81
476.596	364.81
476.814	385.81
477.033	383.81
477.252	394.81
477.471	372.81
477.69	391.81
477.908	372.81
478.127	382.81
478.346	374.81
478.564	398.81
478.783	393.81
479.002	426.81
479.22	407.81
479.439	423.81
479.658	434.81
479.876	427.81
480.095	445.81
480.313	462.81
480.532	458.81
480.751	430.81
480.969	433.81
481.188	479.81
481.406	489.81
481.624	441.81
481.843	425.81
482.061	443.81
482.28	434.81
482.498	407.81
482.717	427.81
482.935	439.81
483.153	427.81
483.372	445.81
483.59	437.81
483.808	423.81
484.027	417.81
484.245	429.81
484.463	436.81
484.681	428.81
484.9	432.81
485.118	430.81
485.336	438.81
485.554	451.81
485.772	438.81
485.99	470.81
486.209	413.81
486.427	443.81
486.645	453.81
486.863	459.81
487.081	453.81
487.299	465.81
487.517	443.81
487.735	423.81
487.953	464.81
488.171	469.81
488.389	469.81
488.607	466.81
488.825	435.81
489.043	461.81
489.261	451.81
489.479	460.81
489.696	453.81
489.914	463.81
490.132	471.81
490.35	498.81
490.568	492.81
490.786	479.81
491.003	475.81
491.221	512.81
491.439	511.81
491.657	512.81
491.874	513.81
492.092	551.81
492.31	536.81
492.527	555.81
492.745	517.81
492.963	539.81
493.18	531.81
493.398	535.81
493.615	539.81
493.833	540.81
494.05	549.81
494.268	547.81
494.485	537.81
494.703	536.81
494.92	531.81
495.138	553.81
495.355	548.81
495.573	558.81
495.79	544.81
496.008	566.81
496.225	525.81
496.442	513.81
496.66	539.81
496.877	541.81
497.094	543.81
497.312	549.81
497.529	546.81
497.746	565.81
497.963	552.81
498.181	585.81
498.398	579.81
498.615	593.81
498.832	587.81
499.049	602.81
499.267	608.81
499.484	646.81
499.701	641.81
499.918	665.81
500.135	687.81
500.352	740.81
500.569	716.81
500.786	740.81
501.003	694.81
501.22	705.81
501.437	681.81
501.654	683.81
501.871	664.81
