Data from 1971.PennyLincolnUp.Lamp.En5.5.200Scan.071719.P1._HRD10591_15-18-08-842.txt Node
Date: Thu Jul 18 15:18:08 EDT 2019
User: cochatt
Spectrometer: HR+D1059
Trigger mode: 1
Integration Time (sec): 1.000000E-1
Scans to average: 1
Electric dark correction enabled: true
Nonlinearity correction enabled: false
Boxcar width: 0
XAxis mode: Wavelengths
Number of Pixels in Spectrum: 2048
>>>>>Begin Spectral Data<<<<<
223.165	-1.62
223.4	-1.62
223.635	-1.62
223.869	-29.62
224.104	-24.62
224.338	-8.62
224.573	-13.62
224.808	-5.62
225.042	-8.62
225.277	-7.62
225.511	4.38
225.746	2.38
225.98	15.38
226.215	0.38
226.449	16.38
226.683	17.38
226.918	19.38
227.152	24.38
227.387	55.38
227.621	41.38
227.856	50.38
228.09	30.38
228.324	42.38
228.559	65.38
228.793	79.38
229.027	94.38
229.262	98.38
229.496	111.38
229.73	103.38
229.964	126.38
230.199	118.38
230.433	114.38
230.667	95.38
230.901	109.38
231.136	98.38
231.37	112.38
231.604	109.38
231.838	116.38
232.072	111.38
232.306	106.38
232.541	103.38
232.775	105.38
233.009	105.38
233.243	108.38
233.477	109.38
233.711	128.38
233.945	111.38
234.179	104.38
234.413	108.38
234.647	115.38
234.881	126.38
235.115	101.38
235.349	111.38
235.583	94.38
235.817	122.38
236.051	116.38
236.285	122.38
236.519	113.38
236.753	112.38
236.987	142.38
237.221	158.38
237.455	188.38
237.689	173.38
237.922	143.38
238.156	125.38
238.39	110.38
238.624	113.38
238.858	115.38
239.091	116.38
239.325	119.38
239.559	118.38
239.793	115.38
240.027	120.38
240.26	141.38
240.494	158.38
240.728	144.38
240.961	129.38
241.195	145.38
241.429	136.38
241.662	124.38
241.896	140.38
242.13	135.38
242.363	132.38
242.597	132.38
242.83	116.38
243.064	124.38
243.298	132.38
243.531	130.38
243.765	132.38
243.998	133.38
244.232	140.38
244.465	152.38
244.699	136.38
244.932	136.38
245.166	125.38
245.399	150.38
245.633	133.38
245.866	125.38
246.099	144.38
246.333	143.38
246.566	131.38
246.8	144.38
247.033	145.38
247.266	132.38
247.5	154.38
247.733	163.38
247.966	154.38
248.2	171.38
248.433	144.38
248.666	158.38
248.899	172.38
249.133	177.38
249.366	202.38
249.599	177.38
249.832	163.38
250.066	180.38
250.299	159.38
250.532	168.38
250.765	176.38
250.998	192.38
251.231	210.38
251.465	200.38
251.698	196.38
251.931	194.38
252.164	196.38
252.397	191.38
252.63	188.38
252.863	183.38
253.096	218.38
253.329	222.38
253.562	190.38
253.795	214.38
254.028	205.38
254.261	198.38
254.494	198.38
254.727	225.38
254.96	254.38
255.193	252.38
255.426	231.38
255.659	223.38
255.892	223.38
256.124	216.38
256.357	223.38
256.59	213.38
256.823	204.38
257.056	205.38
257.289	205.38
257.521	225.38
257.754	198.38
257.987	198.38
258.22	201.38
258.452	204.38
258.685	192.38
258.918	207.38
259.151	217.38
259.383	198.38
259.616	235.38
259.849	229.38
260.081	222.38
260.314	229.38
260.547	221.38
260.779	213.38
261.012	212.38
261.244	224.38
261.477	219.38
261.71	206.38
261.942	222.38
262.175	210.38
262.407	189.38
262.64	205.38
262.872	202.38
263.105	183.38
263.337	203.38
263.57	200.38
263.802	210.38
264.035	196.38
264.267	198.38
264.499	203.38
264.732	211.38
264.964	208.38
265.197	213.38
265.429	201.38
265.661	206.38
265.894	196.38
266.126	203.38
266.358	196.38
266.591	218.38
266.823	223.38
267.055	201.38
267.287	210.38
267.52	208.38
267.752	210.38
267.984	234.38
268.216	221.38
268.448	230.38
268.681	220.38
268.913	225.38
269.145	266.38
269.377	272.38
269.609	257.38
269.841	245.38
270.073	256.38
270.306	276.38
270.538	284.38
270.77	286.38
271.002	289.38
271.234	268.38
271.466	280.38
271.698	285.38
271.93	297.38
272.162	293.38
272.394	305.38
272.626	299.38
272.858	263.38
273.09	257.38
273.322	275.38
273.553	261.38
273.785	234.38
274.017	244.38
274.249	252.38
274.481	259.38
274.713	252.38
274.945	250.38
275.176	241.38
275.408	244.38
275.64	268.38
275.872	253.38
276.104	265.38
276.335	267.38
276.567	268.38
276.799	273.38
277.031	270.38
277.262	278.38
277.494	272.38
277.726	273.38
277.957	278.38
278.189	271.38
278.421	276.38
278.652	273.38
278.884	268.38
279.115	265.38
279.347	261.38
279.579	261.38
279.81	258.38
280.042	262.38
280.273	246.38
280.505	254.38
280.736	247.38
280.968	251.38
281.199	255.38
281.431	257.38
281.662	251.38
281.894	241.38
282.125	244.38
282.356	269.38
282.588	262.38
282.819	283.38
283.051	260.38
283.282	245.38
283.513	262.38
283.745	253.38
283.976	260.38
284.207	273.38
284.439	281.38
284.67	267.38
284.901	283.38
285.132	237.38
285.364	273.38
285.595	267.38
285.826	289.38
286.057	260.38
286.288	282.38
286.52	276.38
286.751	271.38
286.982	275.38
287.213	266.38
287.444	264.38
287.675	273.38
287.906	285.38
288.138	271.38
288.369	275.38
288.6	278.38
288.831	286.38
289.062	270.38
289.293	262.38
289.524	274.38
289.755	280.38
289.986	282.38
290.217	278.38
290.448	267.38
290.679	275.38
290.91	291.38
291.141	294.38
291.371	284.38
291.602	288.38
291.833	273.38
292.064	250.38
292.295	276.38
292.526	279.38
292.757	269.38
292.987	282.38
293.218	279.38
293.449	270.38
293.68	272.38
293.91	269.38
294.141	280.38
294.372	272.38
294.603	281.38
294.833	275.38
295.064	269.38
295.295	288.38
295.525	280.38
295.756	289.38
295.987	280.38
296.217	315.38
296.448	320.38
296.679	290.38
296.909	299.38
297.14	292.38
297.37	281.38
297.601	278.38
297.831	274.38
298.062	287.38
298.292	291.38
298.523	278.38
298.753	284.38
298.984	285.38
299.214	305.38
299.445	290.38
299.675	284.38
299.905	287.38
300.136	282.38
300.366	319.38
300.597	289.38
300.827	294.38
301.057	304.38
301.288	296.38
301.518	310.38
301.748	303.38
301.979	302.38
302.209	310.38
302.439	320.38
302.669	289.38
302.9	301.38
303.13	312.38
303.36	296.38
303.59	310.38
303.82	303.38
304.051	314.38
304.281	301.38
304.511	315.38
304.741	311.38
304.971	302.38
305.201	318.38
305.431	303.38
305.661	305.38
305.891	320.38
306.121	304.38
306.352	321.38
306.582	304.38
306.812	314.38
307.042	308.38
307.272	302.38
307.502	319.38
307.731	324.38
307.961	319.38
308.191	321.38
308.421	299.38
308.651	322.38
308.881	331.38
309.111	332.38
309.341	333.38
309.571	323.38
309.8	330.38
310.03	337.38
310.26	330.38
310.49	331.38
310.72	340.38
310.949	348.38
311.179	354.38
311.409	353.38
311.639	340.38
311.868	341.38
312.098	360.38
312.328	349.38
312.557	363.38
312.787	360.38
313.017	374.38
313.246	355.38
313.476	342.38
313.706	363.38
313.935	361.38
314.165	356.38
314.394	347.38
314.624	367.38
314.853	368.38
315.083	351.38
315.312	347.38
315.542	348.38
315.771	341.38
316.001	342.38
316.23	337.38
316.46	361.38
316.689	348.38
316.919	352.38
317.148	344.38
317.377	358.38
317.607	356.38
317.836	348.38
318.065	347.38
318.295	342.38
318.524	338.38
318.753	343.38
318.983	363.38
319.212	367.38
319.441	349.38
319.67	376.38
319.9	365.38
320.129	330.38
320.358	340.38
320.587	347.38
320.816	381.38
321.046	378.38
321.275	349.38
321.504	363.38
321.733	353.38
321.962	383.38
322.191	383.38
322.42	368.38
322.649	400.38
322.878	414.38
323.108	417.38
323.337	432.38
323.566	439.38
323.795	457.38
324.024	503.38
324.253	578.38
324.482	786.38
324.71	1156.38
324.939	1530.38
325.168	1325.38
325.397	713.38
325.626	550.38
325.855	465.38
326.084	452.38
326.313	418.38
326.542	440.38
326.77	460.38
326.999	540.38
327.228	688.38
327.457	1016.38
327.686	1137.38
327.914	804.38
328.143	562.38
328.372	520.38
328.6	476.38
328.829	479.38
329.058	497.38
329.287	481.38
329.515	441.38
329.744	450.38
329.972	401.38
330.201	456.38
330.43	461.38
330.658	491.38
330.887	495.38
331.115	493.38
331.344	454.38
331.572	434.38
331.801	414.38
332.03	445.38
332.258	413.38
332.486	433.38
332.715	387.38
332.943	408.38
333.172	407.38
333.4	427.38
333.629	411.38
333.857	415.38
334.085	425.38
334.314	417.38
334.542	442.38
334.771	434.38
334.999	438.38
335.227	418.38
335.455	425.38
335.684	415.38
335.912	424.38
336.14	402.38
336.369	390.38
336.597	414.38
336.825	392.38
337.053	392.38
337.281	398.38
337.51	384.38
337.738	387.38
337.966	399.38
338.194	395.38
338.422	402.38
338.65	387.38
338.878	388.38
339.106	386.38
339.334	389.38
339.562	385.38
339.79	383.38
340.018	375.38
340.246	396.38
340.474	403.38
340.702	377.38
340.93	401.38
341.158	390.38
341.386	387.38
341.614	388.38
341.842	385.38
342.07	369.38
342.298	359.38
342.526	352.38
342.754	377.38
342.981	367.38
343.209	369.38
343.437	391.38
343.665	396.38
343.893	391.38
344.12	414.38
344.348	398.38
344.576	381.38
344.804	381.38
345.031	402.38
345.259	378.38
345.487	380.38
345.714	375.38
345.942	376.38
346.17	379.38
346.397	364.38
346.625	385.38
346.853	382.38
347.08	369.38
347.308	392.38
347.535	380.38
347.763	400.38
347.99	388.38
348.218	367.38
348.445	397.38
348.673	387.38
348.9	379.38
349.128	362.38
349.355	350.38
349.583	366.38
349.81	358.38
350.037	356.38
350.265	365.38
350.492	375.38
350.72	362.38
350.947	382.38
351.174	368.38
351.402	375.38
351.629	369.38
351.856	375.38
352.083	377.38
352.311	357.38
352.538	367.38
352.765	363.38
352.992	368.38
353.22	378.38
353.447	372.38
353.674	348.38
353.901	356.38
354.128	353.38
354.355	347.38
354.583	352.38
354.81	350.38
355.037	355.38
355.264	328.38
355.491	344.38
355.718	336.38
355.945	335.38
356.172	315.38
356.399	338.38
356.626	328.38
356.853	356.38
357.08	339.38
357.307	358.38
357.534	315.38
357.761	345.38
357.988	341.38
358.215	345.38
358.441	362.38
358.668	339.38
358.895	341.38
359.122	354.38
359.349	349.38
359.576	361.38
359.802	384.38
360.029	394.38
360.256	388.38
360.483	377.38
360.709	362.38
360.936	349.38
361.163	359.38
361.39	365.38
361.616	360.38
361.843	355.38
362.07	366.38
362.296	359.38
362.523	358.38
362.749	358.38
362.976	347.38
363.203	344.38
363.429	340.38
363.656	365.38
363.882	353.38
364.109	329.38
364.335	338.38
364.562	344.38
364.788	350.38
365.015	356.38
365.241	344.38
365.468	338.38
365.694	342.38
365.92	329.38
366.147	350.38
366.373	335.38
366.599	347.38
366.826	337.38
367.052	328.38
367.278	338.38
367.505	340.38
367.731	352.38
367.957	345.38
368.184	330.38
368.41	342.38
368.636	340.38
368.862	353.38
369.089	345.38
369.315	354.38
369.541	325.38
369.767	358.38
369.993	351.38
370.219	357.38
370.445	337.38
370.672	345.38
370.898	341.38
371.124	350.38
371.35	338.38
371.576	338.38
371.802	349.38
372.028	337.38
372.254	342.38
372.48	338.38
372.706	349.38
372.932	337.38
373.158	346.38
373.384	344.38
373.61	327.38
373.835	351.38
374.061	345.38
374.287	328.38
374.513	319.38
374.739	343.38
374.965	344.38
375.191	353.38
375.416	345.38
375.642	365.38
375.868	344.38
376.094	329.38
376.319	347.38
376.545	325.38
376.771	341.38
376.997	338.38
377.222	336.38
377.448	338.38
377.674	332.38
377.899	329.38
378.125	333.38
378.35	329.38
378.576	320.38
378.802	351.38
379.027	328.38
379.253	343.38
379.478	340.38
379.704	329.38
379.929	329.38
380.155	324.38
380.38	347.38
380.606	339.38
380.831	342.38
381.057	353.38
381.282	329.38
381.507	332.38
381.733	344.38
381.958	336.38
382.184	337.38
382.409	334.38
382.634	338.38
382.86	343.38
383.085	329.38
383.31	329.38
383.535	341.38
383.761	332.38
383.986	334.38
384.211	342.38
384.436	347.38
384.662	352.38
384.887	336.38
385.112	354.38
385.337	363.38
385.562	346.38
385.787	356.38
386.013	362.38
386.238	361.38
386.463	350.38
386.688	346.38
386.913	362.38
387.138	349.38
387.363	344.38
387.588	345.38
387.813	351.38
388.038	369.38
388.263	361.38
388.488	339.38
388.713	352.38
388.938	342.38
389.163	352.38
389.387	347.38
389.612	331.38
389.837	338.38
390.062	337.38
390.287	343.38
390.512	348.38
390.736	364.38
390.961	348.38
391.186	358.38
391.411	355.38
391.636	353.38
391.86	362.38
392.085	376.38
392.31	367.38
392.534	370.38
392.759	361.38
392.984	361.38
393.208	365.38
393.433	391.38
393.658	386.38
393.882	371.38
394.107	337.38
394.331	353.38
394.556	356.38
394.78	352.38
395.005	354.38
395.229	357.38
395.454	372.38
395.678	390.38
395.903	383.38
396.127	395.38
396.352	397.38
396.576	359.38
396.801	376.38
397.025	354.38
397.249	380.38
397.474	370.38
397.698	357.38
397.922	391.38
398.147	396.38
398.371	404.38
398.595	391.38
398.82	385.38
399.044	392.38
399.268	384.38
399.492	430.38
399.717	433.38
399.941	460.38
400.165	500.38
400.389	491.38
400.613	448.38
400.837	408.38
401.062	403.38
401.286	377.38
401.51	429.38
401.734	398.38
401.958	393.38
402.182	390.38
402.406	400.38
402.63	399.38
402.854	395.38
403.078	383.38
403.302	399.38
403.526	403.38
403.75	408.38
403.974	409.38
404.198	404.38
404.422	406.38
404.645	401.38
404.869	392.38
405.093	452.38
405.317	462.38
405.541	462.38
405.765	436.38
405.988	431.38
406.212	440.38
406.436	424.38
406.66	437.38
406.883	430.38
407.107	454.38
407.331	460.38
407.555	511.38
407.778	526.38
408.002	476.38
408.226	431.38
408.449	432.38
408.673	449.38
408.896	474.38
409.12	502.38
409.344	465.38
409.567	422.38
409.791	414.38
410.014	416.38
410.238	402.38
410.461	397.38
410.685	412.38
410.908	419.38
411.132	432.38
411.355	467.38
411.578	438.38
411.802	420.38
412.025	413.38
412.249	391.38
412.472	403.38
412.695	451.38
412.919	444.38
413.142	398.38
413.365	409.38
413.589	403.38
413.812	386.38
414.035	396.38
414.258	385.38
414.482	384.38
414.705	377.38
414.928	390.38
415.151	380.38
415.374	364.38
415.597	379.38
415.821	358.38
416.044	376.38
416.267	395.38
416.49	368.38
416.713	364.38
416.936	394.38
417.159	375.38
417.382	373.38
417.605	390.38
417.828	368.38
418.051	396.38
418.274	391.38
418.497	381.38
418.72	383.38
418.943	376.38
419.166	396.38
419.389	409.38
419.611	403.38
419.834	389.38
420.057	405.38
420.28	384.38
420.503	379.38
420.726	390.38
420.948	393.38
421.171	429.38
421.394	459.38
421.617	410.38
421.839	392.38
422.062	407.38
422.285	409.38
422.507	443.38
422.73	494.38
422.953	474.38
423.175	432.38
423.398	424.38
423.621	403.38
423.843	420.38
424.066	441.38
424.288	414.38
424.511	430.38
424.733	480.38
424.956	525.38
425.178	508.38
425.401	489.38
425.623	504.38
425.846	458.38
426.068	422.38
426.291	426.38
426.513	407.38
426.735	440.38
426.958	460.38
427.18	541.38
427.402	608.38
427.625	654.38
427.847	580.38
428.069	481.38
428.292	436.38
428.514	411.38
428.736	386.38
428.958	399.38
429.181	374.38
429.403	381.38
429.625	396.38
429.847	419.38
430.069	455.38
430.292	463.38
430.514	391.38
430.736	397.38
430.958	384.38
431.18	376.38
431.402	374.38
431.624	351.38
431.846	338.38
432.068	357.38
432.29	361.38
432.512	346.38
432.734	379.38
432.956	382.38
433.178	375.38
433.4	370.38
433.622	376.38
433.844	376.38
434.066	356.38
434.287	355.38
434.509	349.38
434.731	378.38
434.953	391.38
435.175	400.38
435.397	416.38
435.618	433.38
435.84	442.38
436.062	509.38
436.284	568.38
436.505	487.38
436.727	420.38
436.949	393.38
437.17	382.38
437.392	406.38
437.614	395.38
437.835	408.38
438.057	475.38
438.278	541.38
438.5	544.38
438.721	616.38
438.943	589.38
439.165	460.38
439.386	433.38
439.608	440.38
439.829	421.38
440.05	457.38
440.272	449.38
440.493	449.38
440.715	412.38
440.936	398.38
441.158	382.38
441.379	399.38
441.6	400.38
441.822	410.38
442.043	425.38
442.264	498.38
442.486	514.38
442.707	463.38
442.928	439.38
443.149	429.38
443.371	434.38
443.592	505.38
443.813	546.38
444.034	566.38
444.255	494.38
444.476	410.38
444.698	409.38
444.919	446.38
445.14	561.38
445.361	480.38
445.582	448.38
445.803	480.38
446.024	549.38
446.245	573.38
446.466	521.38
446.687	450.38
446.908	413.38
447.129	417.38
447.35	380.38
447.571	374.38
447.792	382.38
448.013	401.38
448.234	384.38
448.455	418.38
448.675	504.38
448.896	574.38
449.117	521.38
449.338	479.38
449.559	558.38
449.779	612.38
450	504.38
450.221	423.38
450.442	402.38
450.662	364.38
450.883	379.38
451.104	396.38
451.324	360.38
451.545	366.38
451.766	343.38
451.986	344.38
452.207	349.38
452.428	352.38
452.648	347.38
452.869	352.38
453.089	349.38
453.31	358.38
453.53	333.38
453.751	353.38
453.971	362.38
454.192	337.38
454.412	329.38
454.633	328.38
454.853	341.38
455.073	347.38
455.294	351.38
455.514	394.38
455.734	402.38
455.955	359.38
456.175	354.38
456.395	318.38
456.616	337.38
456.836	307.38
457.056	336.38
457.276	314.38
457.497	328.38
457.717	321.38
457.937	327.38
458.157	328.38
458.377	337.38
458.598	352.38
458.818	401.38
459.038	428.38
459.258	432.38
459.478	383.38
459.698	367.38
459.918	357.38
460.138	377.38
460.358	354.38
460.578	372.38
460.798	374.38
461.018	374.38
461.238	365.38
461.458	370.38
461.678	377.38
461.898	364.38
462.118	380.38
462.338	384.38
462.558	367.38
462.777	387.38
462.997	368.38
463.217	413.38
463.437	402.38
463.657	373.38
463.876	394.38
464.096	395.38
464.316	382.38
464.536	399.38
464.755	369.38
464.975	402.38
465.195	396.38
465.414	424.38
465.634	391.38
465.854	382.38
466.073	379.38
466.293	381.38
466.512	362.38
466.732	370.38
466.951	351.38
467.171	360.38
467.391	358.38
467.61	361.38
467.829	358.38
468.049	362.38
468.268	362.38
468.488	352.38
468.707	342.38
468.927	334.38
469.146	352.38
469.365	341.38
469.585	356.38
469.804	351.38
470.023	372.38
470.243	354.38
470.462	358.38
470.681	361.38
470.901	368.38
471.12	360.38
471.339	365.38
471.558	345.38
471.777	352.38
471.997	353.38
472.216	358.38
472.435	369.38
472.654	348.38
472.873	342.38
473.092	357.38
473.311	358.38
473.53	342.38
473.749	373.38
473.968	408.38
474.187	466.38
474.406	473.38
474.625	406.38
474.844	365.38
475.063	348.38
475.282	376.38
475.501	356.38
475.72	355.38
475.939	354.38
476.158	361.38
476.377	379.38
476.596	337.38
476.814	347.38
477.033	369.38
477.252	375.38
477.471	403.38
477.69	389.38
477.908	388.38
478.127	372.38
478.346	373.38
478.564	383.38
478.783	393.38
479.002	396.38
479.22	387.38
479.439	408.38
479.658	421.38
479.876	415.38
480.095	422.38
480.313	446.38
480.532	430.38
480.751	412.38
480.969	406.38
481.188	451.38
481.406	467.38
481.624	440.38
481.843	405.38
482.061	441.38
482.28	412.38
482.498	398.38
482.717	396.38
482.935	400.38
483.153	429.38
483.372	406.38
483.59	394.38
483.808	414.38
484.027	399.38
484.245	398.38
484.463	407.38
484.681	433.38
484.9	394.38
485.118	417.38
485.336	425.38
485.554	427.38
485.772	433.38
485.99	417.38
486.209	425.38
486.427	420.38
486.645	439.38
486.863	443.38
487.081	414.38
487.299	440.38
487.517	442.38
487.735	456.38
487.953	452.38
488.171	461.38
488.389	456.38
488.607	456.38
488.825	447.38
489.043	429.38
489.261	436.38
489.479	447.38
489.696	458.38
489.914	447.38
490.132	460.38
490.35	464.38
490.568	467.38
490.786	446.38
491.003	485.38
491.221	476.38
491.439	489.38
491.657	495.38
491.874	496.38
492.092	492.38
492.31	524.38
492.527	501.38
492.745	500.38
492.963	481.38
493.18	516.38
493.398	511.38
493.615	498.38
493.833	528.38
494.05	526.38
494.268	498.38
494.485	506.38
494.703	512.38
494.92	516.38
495.138	505.38
495.355	516.38
495.573	525.38
495.79	525.38
496.008	510.38
496.225	515.38
496.442	531.38
496.66	519.38
496.877	512.38
497.094	519.38
497.312	554.38
497.529	521.38
497.746	530.38
497.963	570.38
498.181	544.38
498.398	556.38
498.615	562.38
498.832	573.38
499.049	584.38
499.267	601.38
499.484	612.38
499.701	616.38
499.918	621.38
500.135	664.38
500.352	701.38
500.569	687.38
500.786	708.38
501.003	703.38
501.22	657.38
501.437	657.38
501.654	657.38
501.871	655.38
502.088	634.38
