Data from 1971.PennyLincolnUp.Lamp.En5.5.200Scan.071719.P1.Scan 2. Changed Angle._HRD10591_15-25-40-842.txt Node
Date: Thu Jul 18 15:25:40 EDT 2019
User: cochatt
Spectrometer: HR+D1059
Trigger mode: 1
Integration Time (sec): 1.000000E-1
Scans to average: 1
Electric dark correction enabled: true
Nonlinearity correction enabled: false
Boxcar width: 0
XAxis mode: Wavelengths
Number of Pixels in Spectrum: 2048
>>>>>Begin Spectral Data<<<<<
223.165	-2.88
223.4	-2.88
223.635	-2.88
223.869	-22.88
224.104	-20.88
224.338	-19.88
224.573	-7.88
224.808	-7.88
225.042	-7.88
225.277	-13.88
225.511	-4.88
225.746	9.12
225.98	9.12
226.215	5.12
226.449	23.12
226.683	18.12
226.918	16.12
227.152	28.12
227.387	38.12
227.621	31.12
227.856	44.12
228.09	41.12
228.324	54.12
228.559	64.12
228.793	75.12
229.027	100.12
229.262	135.12
229.496	143.12
229.73	152.12
229.964	181.12
230.199	165.12
230.433	135.12
230.667	135.12
230.901	108.12
231.136	122.12
231.37	121.12
231.604	137.12
231.838	123.12
232.072	108.12
232.306	129.12
232.541	130.12
232.775	117.12
233.009	137.12
233.243	124.12
233.477	117.12
233.711	131.12
233.945	120.12
234.179	116.12
234.413	125.12
234.647	131.12
234.881	124.12
235.115	110.12
235.349	126.12
235.583	125.12
235.817	140.12
236.051	145.12
236.285	145.12
236.519	138.12
236.753	150.12
236.987	179.12
237.221	217.12
237.455	295.12
237.689	227.12
237.922	158.12
238.156	159.12
238.39	137.12
238.624	143.12
238.858	128.12
239.091	134.12
239.325	133.12
239.559	162.12
239.793	133.12
240.027	136.12
240.26	169.12
240.494	179.12
240.728	179.12
240.961	165.12
241.195	164.12
241.429	161.12
241.662	139.12
241.896	145.12
242.13	146.12
242.363	142.12
242.597	137.12
242.83	155.12
243.064	157.12
243.298	152.12
243.531	147.12
243.765	145.12
243.998	154.12
244.232	172.12
244.465	163.12
244.699	159.12
244.932	156.12
245.166	166.12
245.399	166.12
245.633	162.12
245.866	163.12
246.099	156.12
246.333	154.12
246.566	159.12
246.8	175.12
247.033	176.12
247.266	176.12
247.5	176.12
247.733	181.12
247.966	183.12
248.2	200.12
248.433	190.12
248.666	183.12
248.899	197.12
249.133	228.12
249.366	240.12
249.599	218.12
249.832	216.12
250.066	216.12
250.299	203.12
250.532	203.12
250.765	223.12
250.998	271.12
251.231	256.12
251.465	252.12
251.698	239.12
251.931	228.12
252.164	227.12
252.397	218.12
252.63	244.12
252.863	228.12
253.096	255.12
253.329	278.12
253.562	267.12
253.795	268.12
254.028	245.12
254.261	247.12
254.494	267.12
254.727	309.12
254.96	333.12
255.193	331.12
255.426	293.12
255.659	268.12
255.892	249.12
256.124	269.12
256.357	283.12
256.59	228.12
256.823	240.12
257.056	237.12
257.289	239.12
257.521	250.12
257.754	249.12
257.987	234.12
258.22	214.12
258.452	234.12
258.685	216.12
258.918	233.12
259.151	233.12
259.383	244.12
259.616	255.12
259.849	264.12
260.081	267.12
260.314	291.12
260.547	299.12
260.779	282.12
261.012	268.12
261.244	248.12
261.477	243.12
261.71	231.12
261.942	250.12
262.175	279.12
262.407	259.12
262.64	225.12
262.872	235.12
263.105	241.12
263.337	234.12
263.57	238.12
263.802	236.12
264.035	236.12
264.267	220.12
264.499	232.12
264.732	234.12
264.964	242.12
265.197	220.12
265.429	218.12
265.661	231.12
265.894	244.12
266.126	243.12
266.358	227.12
266.591	244.12
266.823	258.12
267.055	254.12
267.287	244.12
267.52	241.12
267.752	248.12
267.984	257.12
268.216	251.12
268.448	254.12
268.681	237.12
268.913	256.12
269.145	268.12
269.377	319.12
269.609	310.12
269.841	309.12
270.073	311.12
270.306	349.12
270.538	384.12
270.77	366.12
271.002	347.12
271.234	343.12
271.466	329.12
271.698	377.12
271.93	383.12
272.162	369.12
272.394	366.12
272.626	339.12
272.858	332.12
273.09	311.12
273.322	300.12
273.553	303.12
273.785	295.12
274.017	286.12
274.249	293.12
274.481	279.12
274.713	289.12
274.945	285.12
275.176	278.12
275.408	294.12
275.64	296.12
275.872	288.12
276.104	285.12
276.335	301.12
276.567	287.12
276.799	310.12
277.031	339.12
277.262	361.12
277.494	344.12
277.726	346.12
277.957	320.12
278.189	311.12
278.421	285.12
278.652	289.12
278.884	297.12
279.115	291.12
279.347	289.12
279.579	288.12
279.81	270.12
280.042	279.12
280.273	284.12
280.505	296.12
280.736	282.12
280.968	283.12
281.199	273.12
281.431	288.12
281.662	276.12
281.894	248.12
282.125	284.12
282.356	309.12
282.588	334.12
282.819	338.12
283.051	287.12
283.282	277.12
283.513	296.12
283.745	306.12
283.976	299.12
284.207	307.12
284.439	291.12
284.67	288.12
284.901	288.12
285.132	297.12
285.364	297.12
285.595	282.12
285.826	283.12
286.057	287.12
286.288	295.12
286.52	272.12
286.751	296.12
286.982	297.12
287.213	294.12
287.444	279.12
287.675	313.12
287.906	287.12
288.138	319.12
288.369	293.12
288.6	312.12
288.831	315.12
289.062	313.12
289.293	301.12
289.524	306.12
289.755	301.12
289.986	275.12
290.217	297.12
290.448	285.12
290.679	293.12
290.91	292.12
291.141	279.12
291.371	291.12
291.602	313.12
291.833	314.12
292.064	301.12
292.295	274.12
292.526	303.12
292.757	300.12
292.987	303.12
293.218	294.12
293.449	307.12
293.68	297.12
293.91	296.12
294.141	299.12
294.372	295.12
294.603	311.12
294.833	304.12
295.064	315.12
295.295	302.12
295.525	292.12
295.756	292.12
295.987	309.12
296.217	352.12
296.448	365.12
296.679	318.12
296.909	308.12
297.14	297.12
297.37	295.12
297.601	309.12
297.831	299.12
298.062	293.12
298.292	306.12
298.523	307.12
298.753	310.12
298.984	295.12
299.214	320.12
299.445	323.12
299.675	304.12
299.905	329.12
300.136	323.12
300.366	314.12
300.597	321.12
300.827	316.12
301.057	338.12
301.288	345.12
301.518	337.12
301.748	340.12
301.979	339.12
302.209	337.12
302.439	343.12
302.669	345.12
302.9	330.12
303.13	325.12
303.36	349.12
303.59	345.12
303.82	359.12
304.051	331.12
304.281	354.12
304.511	328.12
304.741	316.12
304.971	311.12
305.201	349.12
305.431	332.12
305.661	324.12
305.891	343.12
306.121	340.12
306.352	348.12
306.582	331.12
306.812	340.12
307.042	336.12
307.272	354.12
307.502	344.12
307.731	349.12
307.961	341.12
308.191	340.12
308.421	331.12
308.651	334.12
308.881	359.12
309.111	356.12
309.341	363.12
309.571	382.12
309.8	369.12
310.03	395.12
310.26	399.12
310.49	406.12
310.72	406.12
310.949	440.12
311.179	429.12
311.409	425.12
311.639	396.12
311.868	410.12
312.098	408.12
312.328	421.12
312.557	425.12
312.787	452.12
313.017	424.12
313.246	436.12
313.476	401.12
313.706	405.12
313.935	399.12
314.165	437.12
314.394	432.12
314.624	442.12
314.853	424.12
315.083	411.12
315.312	378.12
315.542	421.12
315.771	386.12
316.001	398.12
316.23	391.12
316.46	373.12
316.689	396.12
316.919	394.12
317.148	430.12
317.377	391.12
317.607	421.12
317.836	399.12
318.065	410.12
318.295	412.12
318.524	396.12
318.753	397.12
318.983	377.12
319.212	410.12
319.441	423.12
319.67	425.12
319.9	400.12
320.129	387.12
320.358	405.12
320.587	404.12
320.816	409.12
321.046	424.12
321.275	433.12
321.504	411.12
321.733	413.12
321.962	444.12
322.191	477.12
322.42	473.12
322.649	516.12
322.878	519.12
323.108	529.12
323.337	541.12
323.566	562.12
323.795	628.12
324.024	713.12
324.253	872.12
324.482	1309.12
324.71	2031.12
324.939	2896.12
325.168	2499.12
325.397	1279.12
325.626	830.12
325.855	677.12
326.084	612.12
326.313	606.12
326.542	612.12
326.77	657.12
326.999	786.12
327.228	1116.12
327.457	1774.12
327.686	2186.12
327.914	1431.12
328.143	907.12
328.372	810.12
328.6	716.12
328.829	679.12
329.058	701.12
329.287	707.12
329.515	640.12
329.744	607.12
329.972	592.12
330.201	619.12
330.43	700.12
330.658	706.12
330.887	746.12
331.115	726.12
331.344	622.12
331.572	565.12
331.801	572.12
332.03	543.12
332.258	552.12
332.486	499.12
332.715	496.12
332.943	486.12
333.172	471.12
333.4	492.12
333.629	503.12
333.857	511.12
334.085	528.12
334.314	567.12
334.542	586.12
334.771	620.12
334.999	544.12
335.227	489.12
335.455	494.12
335.684	473.12
335.912	477.12
336.14	478.12
336.369	458.12
336.597	463.12
336.825	472.12
337.053	464.12
337.281	459.12
337.51	456.12
337.738	484.12
337.966	477.12
338.194	474.12
338.422	477.12
338.65	470.12
338.878	459.12
339.106	449.12
339.334	470.12
339.562	454.12
339.79	463.12
340.018	464.12
340.246	454.12
340.474	465.12
340.702	443.12
340.93	464.12
341.158	462.12
341.386	471.12
341.614	468.12
341.842	461.12
342.07	485.12
342.298	464.12
342.526	441.12
342.754	431.12
342.981	431.12
343.209	435.12
343.437	432.12
343.665	443.12
343.893	437.12
344.12	438.12
344.348	439.12
344.576	475.12
344.804	456.12
345.031	461.12
345.259	493.12
345.487	471.12
345.714	453.12
345.942	424.12
346.17	450.12
346.397	456.12
346.625	443.12
346.853	460.12
347.08	458.12
347.308	453.12
347.535	455.12
347.763	483.12
347.99	484.12
348.218	463.12
348.445	468.12
348.673	469.12
348.9	448.12
349.128	430.12
349.355	466.12
349.583	452.12
349.81	446.12
350.037	466.12
350.265	446.12
350.492	444.12
350.72	444.12
350.947	453.12
351.174	476.12
351.402	481.12
351.629	468.12
351.856	473.12
352.083	480.12
352.311	506.12
352.538	479.12
352.765	472.12
352.992	476.12
353.22	458.12
353.447	465.12
353.674	463.12
353.901	432.12
354.128	430.12
354.355	438.12
354.583	433.12
354.81	416.12
355.037	422.12
355.264	406.12
355.491	413.12
355.718	429.12
355.945	435.12
356.172	407.12
356.399	389.12
356.626	421.12
356.853	418.12
357.08	414.12
357.307	411.12
357.534	416.12
357.761	434.12
357.988	444.12
358.215	428.12
358.441	399.12
358.668	437.12
358.895	430.12
359.122	443.12
359.349	439.12
359.576	445.12
359.802	505.12
360.029	523.12
360.256	553.12
360.483	543.12
360.709	478.12
360.936	468.12
361.163	471.12
361.39	455.12
361.616	478.12
361.843	444.12
362.07	447.12
362.296	479.12
362.523	469.12
362.749	465.12
362.976	456.12
363.203	431.12
363.429	431.12
363.656	445.12
363.882	421.12
364.109	431.12
364.335	420.12
364.562	447.12
364.788	435.12
365.015	426.12
365.241	431.12
365.468	440.12
365.694	421.12
365.92	453.12
366.147	441.12
366.373	456.12
366.599	441.12
366.826	417.12
367.052	430.12
367.278	423.12
367.505	438.12
367.731	453.12
367.957	439.12
368.184	432.12
368.41	434.12
368.636	441.12
368.862	476.12
369.089	433.12
369.315	449.12
369.541	435.12
369.767	451.12
369.993	432.12
370.219	445.12
370.445	424.12
370.672	444.12
370.898	424.12
371.124	429.12
371.35	427.12
371.576	432.12
371.802	430.12
372.028	440.12
372.254	435.12
372.48	449.12
372.706	432.12
372.932	422.12
373.158	428.12
373.384	430.12
373.61	417.12
373.835	431.12
374.061	425.12
374.287	450.12
374.513	428.12
374.739	424.12
374.965	429.12
375.191	424.12
375.416	428.12
375.642	426.12
375.868	456.12
376.094	447.12
376.319	428.12
376.545	431.12
376.771	428.12
376.997	421.12
377.222	432.12
377.448	412.12
377.674	424.12
377.899	417.12
378.125	431.12
378.35	418.12
378.576	419.12
378.802	425.12
379.027	423.12
379.253	419.12
379.478	424.12
379.704	416.12
379.929	412.12
380.155	428.12
380.38	437.12
380.606	430.12
380.831	412.12
381.057	419.12
381.282	424.12
381.507	426.12
381.733	432.12
381.958	433.12
382.184	445.12
382.409	444.12
382.634	451.12
382.86	429.12
383.085	448.12
383.31	423.12
383.535	426.12
383.761	440.12
383.986	447.12
384.211	445.12
384.436	447.12
384.662	446.12
384.887	444.12
385.112	459.12
385.337	460.12
385.562	463.12
385.787	445.12
386.013	472.12
386.238	478.12
386.463	469.12
386.688	461.12
386.913	457.12
387.138	458.12
387.363	443.12
387.588	455.12
387.813	470.12
388.038	440.12
388.263	448.12
388.488	458.12
388.713	448.12
388.938	472.12
389.163	468.12
389.387	475.12
389.612	462.12
389.837	481.12
390.062	474.12
390.287	455.12
390.512	460.12
390.736	475.12
390.961	473.12
391.186	464.12
391.411	462.12
391.636	472.12
391.86	471.12
392.085	466.12
392.31	463.12
392.534	443.12
392.759	486.12
392.984	440.12
393.208	463.12
393.433	480.12
393.658	453.12
393.882	475.12
394.107	469.12
394.331	462.12
394.556	462.12
394.78	476.12
395.005	478.12
395.229	443.12
395.454	488.12
395.678	487.12
395.903	490.12
396.127	508.12
396.352	524.12
396.576	497.12
396.801	488.12
397.025	493.12
397.249	476.12
397.474	497.12
397.698	520.12
397.922	511.12
398.147	521.12
398.371	517.12
398.595	505.12
398.82	508.12
399.044	523.12
399.268	541.12
399.492	570.12
399.717	574.12
399.941	614.12
400.165	653.12
400.389	671.12
400.613	618.12
400.837	569.12
401.062	537.12
401.286	530.12
401.51	556.12
401.734	532.12
401.958	519.12
402.182	495.12
402.406	558.12
402.63	551.12
402.854	554.12
403.078	549.12
403.302	557.12
403.526	561.12
403.75	545.12
403.974	564.12
404.198	557.12
404.422	580.12
404.645	594.12
404.869	591.12
405.093	608.12
405.317	653.12
405.541	681.12
405.765	642.12
405.988	610.12
406.212	616.12
406.436	628.12
406.66	642.12
406.883	596.12
407.107	654.12
407.331	683.12
407.555	777.12
407.778	745.12
408.002	691.12
408.226	627.12
408.449	642.12
408.673	636.12
408.896	632.12
409.12	685.12
409.344	673.12
409.567	587.12
409.791	557.12
410.014	572.12
410.238	555.12
410.461	570.12
410.685	551.12
410.908	604.12
411.132	605.12
411.355	659.12
411.578	610.12
411.802	578.12
412.025	565.12
412.249	571.12
412.472	593.12
412.695	647.12
412.919	643.12
413.142	575.12
413.365	576.12
413.589	568.12
413.812	547.12
414.035	539.12
414.258	549.12
414.482	542.12
414.705	539.12
414.928	527.12
415.151	533.12
415.374	528.12
415.597	541.12
415.821	509.12
416.044	531.12
416.267	561.12
416.49	539.12
416.713	526.12
416.936	524.12
417.159	522.12
417.382	559.12
417.605	554.12
417.828	573.12
418.051	591.12
418.274	553.12
418.497	544.12
418.72	540.12
418.943	530.12
419.166	552.12
419.389	581.12
419.611	573.12
419.834	569.12
420.057	592.12
420.28	567.12
420.503	603.12
420.726	574.12
420.948	595.12
421.171	643.12
421.394	700.12
421.617	616.12
421.839	569.12
422.062	582.12
422.285	598.12
422.507	669.12
422.73	739.12
422.953	712.12
423.175	631.12
423.398	605.12
423.621	620.12
423.843	629.12
424.066	636.12
424.288	633.12
424.511	672.12
424.733	736.12
424.956	839.12
425.178	772.12
425.401	764.12
425.623	823.12
425.846	684.12
426.068	672.12
426.291	649.12
426.513	646.12
426.735	653.12
426.958	713.12
427.18	830.12
427.402	927.12
427.625	1034.12
427.847	949.12
428.069	815.12
428.292	756.12
428.514	659.12
428.736	629.12
428.958	629.12
429.181	625.12
429.403	579.12
429.625	592.12
429.847	656.12
430.069	718.12
430.292	728.12
430.514	642.12
430.736	603.12
430.958	601.12
431.18	604.12
431.402	587.12
431.624	538.12
431.846	539.12
432.068	541.12
432.29	532.12
432.512	560.12
432.734	570.12
432.956	568.12
433.178	597.12
433.4	587.12
433.622	553.12
433.844	534.12
434.066	539.12
434.287	553.12
434.509	560.12
434.731	549.12
434.953	599.12
435.175	605.12
435.397	630.12
435.618	659.12
435.84	719.12
436.062	804.12
436.284	901.12
436.505	748.12
436.727	661.12
436.949	641.12
437.17	607.12
437.392	605.12
437.614	627.12
437.835	671.12
438.057	798.12
438.278	913.12
438.5	911.12
438.721	992.12
438.943	941.12
439.165	775.12
439.386	718.12
439.608	678.12
439.829	685.12
440.05	737.12
440.272	793.12
440.493	727.12
440.715	669.12
440.936	639.12
441.158	629.12
441.379	597.12
441.6	609.12
441.822	640.12
442.043	705.12
442.264	806.12
442.486	853.12
442.707	724.12
442.928	664.12
443.149	680.12
443.371	703.12
443.592	760.12
443.813	863.12
444.034	917.12
444.255	774.12
444.476	708.12
444.698	647.12
444.919	637.12
445.14	696.12
445.361	699.12
445.582	701.12
445.803	831.12
446.024	953.12
446.245	934.12
446.466	863.12
446.687	727.12
446.908	680.12
447.129	625.12
447.35	607.12
447.571	593.12
447.792	611.12
448.013	612.12
448.234	638.12
448.455	695.12
448.675	823.12
448.896	952.12
449.117	811.12
449.338	786.12
449.559	900.12
449.779	994.12
450	800.12
450.221	695.12
450.442	631.12
450.662	621.12
450.883	620.12
451.104	625.12
451.324	621.12
451.545	634.12
451.766	567.12
451.986	551.12
452.207	541.12
452.428	537.12
452.648	537.12
452.869	535.12
453.089	561.12
453.31	586.12
453.53	549.12
453.751	556.12
453.971	572.12
454.192	585.12
454.412	547.12
454.633	546.12
454.853	535.12
455.073	552.12
455.294	588.12
455.514	665.12
455.734	668.12
455.955	541.12
456.175	516.12
456.395	502.12
456.616	502.12
456.836	491.12
457.056	504.12
457.276	498.12
457.497	517.12
457.717	513.12
457.937	536.12
458.157	519.12
458.377	541.12
458.598	565.12
458.818	628.12
459.038	721.12
459.258	750.12
459.478	639.12
459.698	591.12
459.918	573.12
460.138	524.12
460.358	549.12
460.578	556.12
460.798	521.12
461.018	578.12
461.238	540.12
461.458	519.12
461.678	536.12
461.898	551.12
462.118	535.12
462.338	536.12
462.558	534.12
462.777	552.12
462.997	572.12
463.217	566.12
463.437	564.12
463.657	579.12
463.876	576.12
464.096	573.12
464.316	573.12
464.536	586.12
464.755	603.12
464.975	601.12
465.195	684.12
465.414	766.12
465.634	671.12
465.854	647.12
466.073	587.12
466.293	543.12
466.512	537.12
466.732	519.12
466.951	564.12
467.171	542.12
467.391	526.12
467.61	584.12
467.829	581.12
468.049	546.12
468.268	560.12
468.488	544.12
468.707	548.12
468.927	543.12
469.146	522.12
469.365	542.12
469.585	528.12
469.804	579.12
470.023	549.12
470.243	559.12
470.462	565.12
470.681	591.12
470.901	577.12
471.12	556.12
471.339	548.12
471.558	565.12
471.777	560.12
471.997	540.12
472.216	552.12
472.435	587.12
472.654	588.12
472.873	556.12
473.092	565.12
473.311	570.12
473.53	573.12
473.749	554.12
473.968	633.12
474.187	771.12
474.406	786.12
474.625	652.12
474.844	601.12
475.063	567.12
475.282	554.12
475.501	542.12
475.72	553.12
475.939	565.12
476.158	581.12
476.377	577.12
476.596	571.12
476.814	583.12
477.033	580.12
477.252	594.12
477.471	590.12
477.69	599.12
477.908	573.12
478.127	609.12
478.346	578.12
478.564	592.12
478.783	583.12
479.002	631.12
479.22	625.12
479.439	635.12
479.658	665.12
479.876	665.12
480.095	696.12
480.313	708.12
480.532	696.12
480.751	673.12
480.969	709.12
481.188	796.12
481.406	867.12
481.624	773.12
481.843	681.12
482.061	673.12
482.28	677.12
482.498	677.12
482.717	659.12
482.935	665.12
483.153	643.12
483.372	680.12
483.59	649.12
483.808	658.12
484.027	658.12
484.245	673.12
484.463	679.12
484.681	675.12
484.9	675.12
485.118	657.12
485.336	684.12
485.554	697.12
485.772	712.12
485.99	671.12
486.209	707.12
486.427	714.12
486.645	715.12
486.863	764.12
487.081	717.12
487.299	715.12
487.517	730.12
487.735	720.12
487.953	728.12
488.171	732.12
488.389	736.12
488.607	704.12
488.825	748.12
489.043	732.12
489.261	755.12
489.479	744.12
489.696	732.12
489.914	741.12
490.132	751.12
490.35	763.12
490.568	781.12
490.786	763.12
491.003	809.12
491.221	829.12
491.439	800.12
491.657	823.12
491.874	845.12
492.092	875.12
492.31	864.12
492.527	843.12
492.745	870.12
492.963	867.12
493.18	837.12
493.398	872.12
493.615	876.12
493.833	870.12
494.05	879.12
494.268	892.12
494.485	857.12
494.703	867.12
494.92	892.12
495.138	847.12
495.355	901.12
495.573	885.12
495.79	880.12
496.008	874.12
496.225	862.12
496.442	885.12
496.66	873.12
496.877	849.12
497.094	869.12
497.312	898.12
497.529	889.12
497.746	902.12
497.963	912.12
498.181	923.12
498.398	903.12
498.615	947.12
498.832	939.12
499.049	958.12
499.267	961.12
499.484	976.12
499.701	984.12
499.918	1003.12
500.135	1048.12
500.352	1060.12
500.569	1054.12
500.786	1061.12
501.003	1060.12
501.22	1061.12
501.437	1009.12
