Data from 1971.PennyLincolnUp.Lamp.En5.5.200Scan.071719.P1.Scan 2. Changed Angle._HRD10591_15-22-45-842.txt Node
Date: Thu Jul 18 15:22:45 EDT 2019
User: cochatt
Spectrometer: HR+D1059
Trigger mode: 1
Integration Time (sec): 1.000000E-1
Scans to average: 1
Electric dark correction enabled: true
Nonlinearity correction enabled: false
Boxcar width: 0
XAxis mode: Wavelengths
Number of Pixels in Spectrum: 2048
>>>>>Begin Spectral Data<<<<<
223.165	-7.56
223.4	-7.56
223.635	-7.56
223.869	-27.56
224.104	-18.56
224.338	-17.56
224.573	-16.56
224.808	-10.56
225.042	-22.56
225.277	5.44
225.511	-0.56
225.746	6.44
225.98	15.44
226.215	15.44
226.449	11.44
226.683	13.44
226.918	31.44
227.152	22.44
227.387	33.44
227.621	49.44
227.856	46.44
228.09	55.44
228.324	55.44
228.559	57.44
228.793	86.44
229.027	107.44
229.262	106.44
229.496	114.44
229.73	128.44
229.964	151.44
230.199	128.44
230.433	104.44
230.667	117.44
230.901	132.44
231.136	111.44
231.37	111.44
231.604	122.44
231.838	105.44
232.072	95.44
232.306	117.44
232.541	119.44
232.775	112.44
233.009	130.44
233.243	115.44
233.477	109.44
233.711	107.44
233.945	125.44
234.179	114.44
234.413	115.44
234.647	120.44
234.881	130.44
235.115	90.44
235.349	125.44
235.583	103.44
235.817	120.44
236.051	128.44
236.285	117.44
236.519	130.44
236.753	130.44
236.987	148.44
237.221	187.44
237.455	231.44
237.689	172.44
237.922	133.44
238.156	135.44
238.39	133.44
238.624	125.44
238.858	132.44
239.091	124.44
239.325	109.44
239.559	126.44
239.793	111.44
240.027	140.44
240.26	138.44
240.494	168.44
240.728	143.44
240.961	154.44
241.195	135.44
241.429	132.44
241.662	139.44
241.896	138.44
242.13	139.44
242.363	121.44
242.597	127.44
242.83	135.44
243.064	137.44
243.298	134.44
243.531	131.44
243.765	126.44
243.998	122.44
244.232	136.44
244.465	146.44
244.699	143.44
244.932	148.44
245.166	127.44
245.399	140.44
245.633	138.44
245.866	130.44
246.099	151.44
246.333	142.44
246.566	149.44
246.8	150.44
247.033	158.44
247.266	166.44
247.5	174.44
247.733	173.44
247.966	183.44
248.2	170.44
248.433	166.44
248.666	184.44
248.899	189.44
249.133	205.44
249.366	210.44
249.599	187.44
249.832	181.44
250.066	180.44
250.299	167.44
250.532	205.44
250.765	179.44
250.998	213.44
251.231	205.44
251.465	221.44
251.698	200.44
251.931	194.44
252.164	208.44
252.397	201.44
252.63	202.44
252.863	202.44
253.096	220.44
253.329	226.44
253.562	205.44
253.795	235.44
254.028	217.44
254.261	222.44
254.494	225.44
254.727	251.44
254.96	292.44
255.193	275.44
255.426	253.44
255.659	227.44
255.892	225.44
256.124	215.44
256.357	225.44
256.59	217.44
256.823	214.44
257.056	211.44
257.289	200.44
257.521	204.44
257.754	199.44
257.987	191.44
258.22	210.44
258.452	203.44
258.685	199.44
258.918	190.44
259.151	207.44
259.383	209.44
259.616	204.44
259.849	211.44
260.081	219.44
260.314	235.44
260.547	234.44
260.779	235.44
261.012	213.44
261.244	236.44
261.477	217.44
261.71	206.44
261.942	220.44
262.175	215.44
262.407	210.44
262.64	212.44
262.872	202.44
263.105	202.44
263.337	211.44
263.57	206.44
263.802	218.44
264.035	182.44
264.267	186.44
264.499	211.44
264.732	195.44
264.964	202.44
265.197	216.44
265.429	192.44
265.661	187.44
265.894	211.44
266.126	207.44
266.358	205.44
266.591	198.44
266.823	205.44
267.055	220.44
267.287	202.44
267.52	206.44
267.752	204.44
267.984	220.44
268.216	215.44
268.448	222.44
268.681	231.44
268.913	215.44
269.145	224.44
269.377	245.44
269.609	232.44
269.841	246.44
270.073	250.44
270.306	267.44
270.538	281.44
270.77	295.44
271.002	264.44
271.234	273.44
271.466	281.44
271.698	277.44
271.93	301.44
272.162	287.44
272.394	289.44
272.626	285.44
272.858	259.44
273.09	240.44
273.322	248.44
273.553	245.44
273.785	226.44
274.017	232.44
274.249	237.44
274.481	231.44
274.713	232.44
274.945	234.44
275.176	234.44
275.408	251.44
275.64	231.44
275.872	250.44
276.104	227.44
276.335	243.44
276.567	233.44
276.799	256.44
277.031	260.44
277.262	276.44
277.494	281.44
277.726	294.44
277.957	269.44
278.189	238.44
278.421	244.44
278.652	247.44
278.884	227.44
279.115	227.44
279.347	232.44
279.579	239.44
279.81	241.44
280.042	238.44
280.273	244.44
280.505	231.44
280.736	236.44
280.968	243.44
281.199	238.44
281.431	228.44
281.662	247.44
281.894	218.44
282.125	246.44
282.356	246.44
282.588	264.44
282.819	270.44
283.051	257.44
283.282	244.44
283.513	242.44
283.745	235.44
283.976	234.44
284.207	258.44
284.439	232.44
284.67	247.44
284.901	244.44
285.132	235.44
285.364	234.44
285.595	230.44
285.826	232.44
286.057	250.44
286.288	237.44
286.52	235.44
286.751	229.44
286.982	252.44
287.213	234.44
287.444	255.44
287.675	247.44
287.906	246.44
288.138	262.44
288.369	278.44
288.6	246.44
288.831	257.44
289.062	251.44
289.293	248.44
289.524	240.44
289.755	267.44
289.986	232.44
290.217	247.44
290.448	244.44
290.679	238.44
290.91	243.44
291.141	249.44
291.371	255.44
291.602	254.44
291.833	252.44
292.064	238.44
292.295	242.44
292.526	259.44
292.757	245.44
292.987	252.44
293.218	244.44
293.449	245.44
293.68	256.44
293.91	259.44
294.141	252.44
294.372	252.44
294.603	243.44
294.833	239.44
295.064	247.44
295.295	261.44
295.525	254.44
295.756	238.44
295.987	265.44
296.217	263.44
296.448	291.44
296.679	245.44
296.909	254.44
297.14	251.44
297.37	244.44
297.601	252.44
297.831	263.44
298.062	253.44
298.292	250.44
298.523	248.44
298.753	252.44
298.984	244.44
299.214	254.44
299.445	254.44
299.675	267.44
299.905	253.44
300.136	263.44
300.366	258.44
300.597	262.44
300.827	251.44
301.057	263.44
301.288	269.44
301.518	273.44
301.748	244.44
301.979	261.44
302.209	264.44
302.439	260.44
302.669	286.44
302.9	287.44
303.13	276.44
303.36	267.44
303.59	285.44
303.82	282.44
304.051	297.44
304.281	283.44
304.511	263.44
304.741	271.44
304.971	265.44
305.201	285.44
305.431	277.44
305.661	275.44
305.891	279.44
306.121	285.44
306.352	290.44
306.582	285.44
306.812	281.44
307.042	279.44
307.272	276.44
307.502	280.44
307.731	279.44
307.961	255.44
308.191	264.44
308.421	279.44
308.651	270.44
308.881	294.44
309.111	301.44
309.341	289.44
309.571	310.44
309.8	316.44
310.03	323.44
310.26	326.44
310.49	306.44
310.72	304.44
310.949	350.44
311.179	343.44
311.409	321.44
311.639	334.44
311.868	318.44
312.098	331.44
312.328	333.44
312.557	367.44
312.787	356.44
313.017	340.44
313.246	340.44
313.476	330.44
313.706	351.44
313.935	341.44
314.165	355.44
314.394	334.44
314.624	345.44
314.853	348.44
315.083	342.44
315.312	316.44
315.542	328.44
315.771	325.44
316.001	315.44
316.23	311.44
316.46	330.44
316.689	332.44
316.919	339.44
317.148	330.44
317.377	326.44
317.607	340.44
317.836	328.44
318.065	317.44
318.295	337.44
318.524	342.44
318.753	314.44
318.983	329.44
319.212	346.44
319.441	335.44
319.67	356.44
319.9	333.44
320.129	332.44
320.358	330.44
320.587	324.44
320.816	354.44
321.046	355.44
321.275	344.44
321.504	366.44
321.733	376.44
321.962	382.44
322.191	359.44
322.42	378.44
322.649	380.44
322.878	389.44
323.108	422.44
323.337	434.44
323.566	452.44
323.795	476.44
324.024	519.44
324.253	631.44
324.482	883.44
324.71	1422.44
324.939	2038.44
325.168	1735.44
325.397	896.44
325.626	619.44
325.855	498.44
326.084	466.44
326.313	459.44
326.542	459.44
326.77	514.44
326.999	580.44
327.228	814.44
327.457	1232.44
327.686	1556.44
327.914	1038.44
328.143	666.44
328.372	576.44
328.6	560.44
328.829	526.44
329.058	536.44
329.287	535.44
329.515	511.44
329.744	461.44
329.972	464.44
330.201	461.44
330.43	477.44
330.658	486.44
330.887	551.44
331.115	553.44
331.344	475.44
331.572	427.44
331.801	443.44
332.03	453.44
332.258	414.44
332.486	398.44
332.715	382.44
332.943	377.44
333.172	390.44
333.4	386.44
333.629	409.44
333.857	420.44
334.085	410.44
334.314	414.44
334.542	443.44
334.771	461.44
334.999	422.44
335.227	406.44
335.455	386.44
335.684	395.44
335.912	386.44
336.14	392.44
336.369	387.44
336.597	392.44
336.825	359.44
337.053	390.44
337.281	374.44
337.51	365.44
337.738	380.44
337.966	380.44
338.194	379.44
338.422	384.44
338.65	361.44
338.878	390.44
339.106	363.44
339.334	347.44
339.562	371.44
339.79	352.44
340.018	367.44
340.246	385.44
340.474	392.44
340.702	372.44
340.93	370.44
341.158	385.44
341.386	379.44
341.614	379.44
341.842	369.44
342.07	372.44
342.298	363.44
342.526	342.44
342.754	357.44
342.981	367.44
343.209	372.44
343.437	349.44
343.665	372.44
343.893	363.44
344.12	364.44
344.348	378.44
344.576	380.44
344.804	396.44
345.031	376.44
345.259	408.44
345.487	377.44
345.714	378.44
345.942	364.44
346.17	379.44
346.397	372.44
346.625	350.44
346.853	367.44
347.08	368.44
347.308	386.44
347.535	380.44
347.763	382.44
347.99	381.44
348.218	375.44
348.445	390.44
348.673	387.44
348.9	380.44
349.128	364.44
349.355	354.44
349.583	356.44
349.81	371.44
350.037	357.44
350.265	346.44
350.492	340.44
350.72	370.44
350.947	360.44
351.174	384.44
351.402	385.44
351.629	384.44
351.856	387.44
352.083	390.44
352.311	404.44
352.538	404.44
352.765	393.44
352.992	385.44
353.22	386.44
353.447	375.44
353.674	380.44
353.901	354.44
354.128	376.44
354.355	366.44
354.583	362.44
354.81	359.44
355.037	331.44
355.264	324.44
355.491	330.44
355.718	340.44
355.945	326.44
356.172	351.44
356.399	355.44
356.626	339.44
356.853	336.44
357.08	334.44
357.307	342.44
357.534	326.44
357.761	323.44
357.988	344.44
358.215	345.44
358.441	328.44
358.668	363.44
358.895	370.44
359.122	367.44
359.349	377.44
359.576	370.44
359.802	405.44
360.029	440.44
360.256	436.44
360.483	454.44
360.709	387.44
360.936	370.44
361.163	391.44
361.39	386.44
361.616	406.44
361.843	379.44
362.07	382.44
362.296	380.44
362.523	380.44
362.749	379.44
362.976	383.44
363.203	373.44
363.429	364.44
363.656	367.44
363.882	368.44
364.109	372.44
364.335	363.44
364.562	360.44
364.788	371.44
365.015	359.44
365.241	344.44
365.468	380.44
365.694	360.44
365.92	374.44
366.147	373.44
366.373	355.44
366.599	366.44
366.826	378.44
367.052	353.44
367.278	350.44
367.505	360.44
367.731	348.44
367.957	354.44
368.184	361.44
368.41	364.44
368.636	378.44
368.862	390.44
369.089	374.44
369.315	360.44
369.541	374.44
369.767	367.44
369.993	354.44
370.219	355.44
370.445	351.44
370.672	354.44
370.898	349.44
371.124	347.44
371.35	361.44
371.576	366.44
371.802	368.44
372.028	366.44
372.254	359.44
372.48	388.44
372.706	359.44
372.932	387.44
373.158	365.44
373.384	378.44
373.61	356.44
373.835	350.44
374.061	367.44
374.287	332.44
374.513	341.44
374.739	374.44
374.965	393.44
375.191	358.44
375.416	363.44
375.642	370.44
375.868	382.44
376.094	373.44
376.319	397.44
376.545	383.44
376.771	358.44
376.997	350.44
377.222	378.44
377.448	357.44
377.674	330.44
377.899	358.44
378.125	378.44
378.35	359.44
378.576	358.44
378.802	367.44
379.027	361.44
379.253	358.44
379.478	378.44
379.704	372.44
379.929	354.44
380.155	367.44
380.38	378.44
380.606	362.44
380.831	350.44
381.057	372.44
381.282	364.44
381.507	380.44
381.733	358.44
381.958	353.44
382.184	356.44
382.409	375.44
382.634	377.44
382.86	382.44
383.085	401.44
383.31	389.44
383.535	374.44
383.761	353.44
383.986	380.44
384.211	398.44
384.436	382.44
384.662	376.44
384.887	373.44
385.112	384.44
385.337	394.44
385.562	379.44
385.787	410.44
386.013	404.44
386.238	395.44
386.463	389.44
386.688	371.44
386.913	374.44
387.138	418.44
387.363	400.44
387.588	398.44
387.813	398.44
388.038	383.44
388.263	393.44
388.488	431.44
388.713	383.44
388.938	384.44
389.163	415.44
389.387	431.44
389.612	395.44
389.837	386.44
390.062	389.44
390.287	397.44
390.512	408.44
390.736	404.44
390.961	391.44
391.186	401.44
391.411	399.44
391.636	410.44
391.86	401.44
392.085	418.44
392.31	412.44
392.534	392.44
392.759	400.44
392.984	413.44
393.208	416.44
393.433	423.44
393.658	434.44
393.882	407.44
394.107	422.44
394.331	410.44
394.556	409.44
394.78	416.44
395.005	395.44
395.229	406.44
395.454	410.44
395.678	411.44
395.903	392.44
396.127	453.44
396.352	451.44
396.576	425.44
396.801	454.44
397.025	438.44
397.249	427.44
397.474	420.44
397.698	426.44
397.922	438.44
398.147	434.44
398.371	449.44
398.595	454.44
398.82	456.44
399.044	447.44
399.268	463.44
399.492	471.44
399.717	492.44
399.941	510.44
400.165	556.44
400.389	528.44
400.613	524.44
400.837	472.44
401.062	475.44
401.286	470.44
401.51	451.44
401.734	436.44
401.958	460.44
402.182	454.44
402.406	471.44
402.63	471.44
402.854	480.44
403.078	447.44
403.302	485.44
403.526	458.44
403.75	473.44
403.974	473.44
404.198	465.44
404.422	458.44
404.645	476.44
404.869	507.44
405.093	498.44
405.317	528.44
405.541	578.44
405.765	549.44
405.988	499.44
406.212	506.44
406.436	526.44
406.66	543.44
406.883	517.44
407.107	542.44
407.331	585.44
407.555	638.44
407.778	622.44
408.002	568.44
408.226	542.44
408.449	537.44
408.673	516.44
408.896	537.44
409.12	586.44
409.344	569.44
409.567	502.44
409.791	491.44
410.014	478.44
410.238	470.44
410.461	487.44
410.685	503.44
410.908	486.44
411.132	559.44
411.355	590.44
411.578	540.44
411.802	491.44
412.025	467.44
412.249	505.44
412.472	503.44
412.695	538.44
412.919	518.44
413.142	482.44
413.365	498.44
413.589	479.44
413.812	485.44
414.035	455.44
414.258	469.44
414.482	470.44
414.705	454.44
414.928	447.44
415.151	475.44
415.374	448.44
415.597	457.44
415.821	468.44
416.044	432.44
416.267	427.44
416.49	440.44
416.713	442.44
416.936	456.44
417.159	442.44
417.382	478.44
417.605	485.44
417.828	474.44
418.051	503.44
418.274	478.44
418.497	469.44
418.72	466.44
418.943	444.44
419.166	469.44
419.389	490.44
419.611	507.44
419.834	494.44
420.057	481.44
420.28	469.44
420.503	477.44
420.726	481.44
420.948	492.44
421.171	553.44
421.394	571.44
421.617	523.44
421.839	488.44
422.062	478.44
422.285	495.44
422.507	543.44
422.73	653.44
422.953	628.44
423.175	554.44
423.398	522.44
423.621	510.44
423.843	537.44
424.066	532.44
424.288	543.44
424.511	536.44
424.733	587.44
424.956	670.44
425.178	644.44
425.401	638.44
425.623	687.44
425.846	588.44
426.068	558.44
426.291	543.44
426.513	531.44
426.735	553.44
426.958	608.44
427.18	651.44
427.402	772.44
427.625	866.44
427.847	774.44
428.069	666.44
428.292	570.44
428.514	544.44
428.736	480.44
428.958	539.44
429.181	528.44
429.403	505.44
429.625	495.44
429.847	533.44
430.069	604.44
430.292	616.44
430.514	538.44
430.736	491.44
430.958	501.44
431.18	480.44
431.402	464.44
431.624	466.44
431.846	454.44
432.068	475.44
432.29	466.44
432.512	469.44
432.734	485.44
432.956	500.44
433.178	513.44
433.4	484.44
433.622	474.44
433.844	469.44
434.066	466.44
434.287	481.44
434.509	459.44
434.731	508.44
434.953	484.44
435.175	500.44
435.397	527.44
435.618	516.44
435.84	596.44
436.062	652.44
436.284	759.44
436.505	634.44
436.727	562.44
436.949	527.44
437.17	510.44
437.392	521.44
437.614	539.44
437.835	557.44
438.057	648.44
438.278	741.44
438.5	734.44
438.721	791.44
438.943	754.44
439.165	617.44
439.386	577.44
439.608	553.44
439.829	563.44
440.05	579.44
440.272	630.44
440.493	593.44
440.715	529.44
440.936	520.44
441.158	511.44
441.379	523.44
441.6	512.44
441.822	543.44
442.043	580.44
442.264	644.44
442.486	718.44
442.707	594.44
442.928	560.44
443.149	563.44
443.371	584.44
443.592	634.44
443.813	711.44
444.034	763.44
444.255	648.44
444.476	567.44
444.698	544.44
444.919	520.44
445.14	657.44
445.361	583.44
445.582	582.44
445.803	665.44
446.024	734.44
446.245	754.44
446.466	686.44
446.687	586.44
446.908	590.44
447.129	540.44
447.35	524.44
447.571	525.44
447.792	512.44
448.013	533.44
448.234	529.44
448.455	587.44
448.675	668.44
448.896	796.44
449.117	656.44
449.338	646.44
449.559	742.44
449.779	815.44
450	679.44
450.221	565.44
450.442	527.44
450.662	511.44
450.883	496.44
451.104	521.44
451.324	510.44
451.545	474.44
451.766	472.44
451.986	472.44
452.207	474.44
452.428	473.44
452.648	450.44
452.869	452.44
453.089	462.44
453.31	470.44
453.53	466.44
453.751	460.44
453.971	447.44
454.192	500.44
454.412	471.44
454.633	465.44
454.853	475.44
455.073	451.44
455.294	448.44
455.514	540.44
455.734	529.44
455.955	454.44
456.175	436.44
456.395	408.44
456.616	412.44
456.836	436.44
457.056	432.44
457.276	404.44
457.497	440.44
457.717	432.44
457.937	425.44
458.157	431.44
458.377	450.44
458.598	469.44
458.818	522.44
459.038	607.44
459.258	615.44
459.478	488.44
459.698	479.44
459.918	471.44
460.138	452.44
460.358	445.44
460.578	457.44
460.798	455.44
461.018	483.44
461.238	448.44
461.458	468.44
461.678	470.44
461.898	454.44
462.118	463.44
462.338	473.44
462.558	484.44
462.777	473.44
462.997	487.44
463.217	492.44
463.437	517.44
463.657	483.44
463.876	489.44
464.096	484.44
464.316	491.44
464.536	494.44
464.755	507.44
464.975	494.44
465.195	539.44
465.414	644.44
465.634	568.44
465.854	525.44
466.073	501.44
466.293	509.44
466.512	478.44
466.732	468.44
466.951	462.44
467.171	446.44
467.391	456.44
467.61	468.44
467.829	492.44
468.049	488.44
468.268	463.44
468.488	462.44
468.707	439.44
468.927	450.44
469.146	438.44
469.365	453.44
469.585	448.44
469.804	470.44
470.023	468.44
470.243	468.44
470.462	481.44
470.681	503.44
470.901	488.44
471.12	455.44
471.339	475.44
471.558	476.44
471.777	488.44
471.997	478.44
472.216	480.44
472.435	500.44
472.654	486.44
472.873	470.44
473.092	467.44
473.311	470.44
473.53	442.44
473.749	462.44
473.968	525.44
474.187	626.44
474.406	662.44
474.625	517.44
474.844	474.44
475.063	492.44
475.282	467.44
475.501	479.44
475.72	485.44
475.939	484.44
476.158	476.44
476.377	494.44
476.596	492.44
476.814	486.44
477.033	506.44
477.252	494.44
477.471	493.44
477.69	506.44
477.908	525.44
478.127	503.44
478.346	516.44
478.564	528.44
478.783	540.44
479.002	538.44
479.22	509.44
479.439	544.44
479.658	550.44
479.876	576.44
480.095	538.44
480.313	570.44
480.532	583.44
480.751	564.44
480.969	582.44
481.188	618.44
481.406	638.44
481.624	592.44
481.843	566.44
482.061	550.44
482.28	565.44
482.498	550.44
482.717	552.44
482.935	559.44
483.153	579.44
483.372	570.44
483.59	548.44
483.808	570.44
484.027	575.44
484.245	575.44
484.463	569.44
484.681	575.44
484.9	586.44
485.118	567.44
485.336	563.44
485.554	541.44
485.772	591.44
485.99	571.44
486.209	581.44
486.427	597.44
486.645	599.44
486.863	617.44
487.081	610.44
487.299	604.44
487.517	586.44
487.735	610.44
487.953	600.44
488.171	594.44
488.389	649.44
488.607	622.44
488.825	613.44
489.043	615.44
489.261	620.44
489.479	618.44
489.696	626.44
489.914	636.44
490.132	620.44
490.35	640.44
490.568	649.44
490.786	660.44
491.003	655.44
491.221	671.44
491.439	680.44
491.657	699.44
491.874	683.44
492.092	706.44
492.31	709.44
492.527	718.44
492.745	700.44
492.963	711.44
493.18	728.44
493.398	722.44
493.615	731.44
493.833	748.44
494.05	728.44
494.268	735.44
494.485	725.44
494.703	715.44
494.92	709.44
495.138	733.44
495.355	718.44
495.573	739.44
495.79	754.44
496.008	738.44
496.225	728.44
496.442	746.44
496.66	727.44
496.877	709.44
497.094	714.44
497.312	747.44
497.529	739.44
497.746	783.44
497.963	747.44
498.181	775.44
498.398	761.44
498.615	768.44
498.832	796.44
499.049	795.44
499.267	820.44
499.484	833.44
499.701	836.44
499.918	872.44
500.135	879.44
500.352	908.44
500.569	890.44
500.786	905.44
501.003	906.44
501.22	924.44
501.437	894.44
501.654	868.44
