Data from 1971.PennyLincolnUp.Lamp.En5.5.200Scan.071719.P1.Scan 2. Changed Angle._HRD10591_15-24-54-843.txt Node
Date: Thu Jul 18 15:24:54 EDT 2019
User: cochatt
Spectrometer: HR+D1059
Trigger mode: 1
Integration Time (sec): 1.000000E-1
Scans to average: 1
Electric dark correction enabled: true
Nonlinearity correction enabled: false
Boxcar width: 0
XAxis mode: Wavelengths
Number of Pixels in Spectrum: 2048
>>>>>Begin Spectral Data<<<<<
223.165	-15.44
223.4	-15.44
223.635	-15.44
223.869	-15.44
224.104	-18.44
224.338	-27.44
224.573	-10.44
224.808	-13.44
225.042	-6.44
225.277	-5.44
225.511	11.56
225.746	-0.44
225.98	-13.44
226.215	17.56
226.449	10.56
226.683	28.56
226.918	36.56
227.152	21.56
227.387	31.56
227.621	48.56
227.856	34.56
228.09	45.56
228.324	44.56
228.559	69.56
228.793	72.56
229.027	118.56
229.262	124.56
229.496	114.56
229.73	156.56
229.964	182.56
230.199	138.56
230.433	118.56
230.667	134.56
230.901	132.56
231.136	119.56
231.37	124.56
231.604	138.56
231.838	122.56
232.072	120.56
232.306	114.56
232.541	137.56
232.775	106.56
233.009	125.56
233.243	110.56
233.477	107.56
233.711	142.56
233.945	114.56
234.179	124.56
234.413	116.56
234.647	126.56
234.881	112.56
235.115	107.56
235.349	113.56
235.583	132.56
235.817	126.56
236.051	133.56
236.285	139.56
236.519	135.56
236.753	140.56
236.987	158.56
237.221	206.56
237.455	282.56
237.689	243.56
237.922	156.56
238.156	136.56
238.39	148.56
238.624	130.56
238.858	141.56
239.091	132.56
239.325	134.56
239.559	145.56
239.793	138.56
240.027	136.56
240.26	161.56
240.494	178.56
240.728	164.56
240.961	176.56
241.195	156.56
241.429	149.56
241.662	145.56
241.896	132.56
242.13	148.56
242.363	139.56
242.597	143.56
242.83	151.56
243.064	147.56
243.298	159.56
243.531	155.56
243.765	150.56
243.998	156.56
244.232	147.56
244.465	149.56
244.699	161.56
244.932	141.56
245.166	143.56
245.399	162.56
245.633	160.56
245.866	180.56
246.099	156.56
246.333	149.56
246.566	165.56
246.8	165.56
247.033	165.56
247.266	181.56
247.5	160.56
247.733	192.56
247.966	196.56
248.2	179.56
248.433	189.56
248.666	203.56
248.899	209.56
249.133	210.56
249.366	233.56
249.599	240.56
249.832	205.56
250.066	201.56
250.299	209.56
250.532	193.56
250.765	229.56
250.998	257.56
251.231	250.56
251.465	244.56
251.698	225.56
251.931	220.56
252.164	229.56
252.397	207.56
252.63	224.56
252.863	235.56
253.096	256.56
253.329	262.56
253.562	261.56
253.795	235.56
254.028	237.56
254.261	256.56
254.494	266.56
254.727	281.56
254.96	325.56
255.193	311.56
255.426	286.56
255.659	267.56
255.892	282.56
256.124	274.56
256.357	269.56
256.59	265.56
256.823	232.56
257.056	236.56
257.289	230.56
257.521	238.56
257.754	222.56
257.987	233.56
258.22	217.56
258.452	227.56
258.685	230.56
258.918	227.56
259.151	223.56
259.383	240.56
259.616	240.56
259.849	249.56
260.081	251.56
260.314	266.56
260.547	284.56
260.779	273.56
261.012	254.56
261.244	256.56
261.477	238.56
261.71	243.56
261.942	242.56
262.175	263.56
262.407	254.56
262.64	229.56
262.872	226.56
263.105	215.56
263.337	229.56
263.57	217.56
263.802	229.56
264.035	232.56
264.267	209.56
264.499	217.56
264.732	204.56
264.964	228.56
265.197	215.56
265.429	214.56
265.661	238.56
265.894	231.56
266.126	212.56
266.358	217.56
266.591	242.56
266.823	235.56
267.055	224.56
267.287	238.56
267.52	215.56
267.752	250.56
267.984	228.56
268.216	228.56
268.448	261.56
268.681	246.56
268.913	246.56
269.145	260.56
269.377	293.56
269.609	299.56
269.841	288.56
270.073	286.56
270.306	325.56
270.538	325.56
270.77	363.56
271.002	328.56
271.234	310.56
271.466	318.56
271.698	352.56
271.93	339.56
272.162	360.56
272.394	346.56
272.626	329.56
272.858	314.56
273.09	307.56
273.322	291.56
273.553	290.56
273.785	280.56
274.017	278.56
274.249	262.56
274.481	288.56
274.713	276.56
274.945	281.56
275.176	283.56
275.408	299.56
275.64	277.56
275.872	278.56
276.104	284.56
276.335	279.56
276.567	283.56
276.799	292.56
277.031	353.56
277.262	344.56
277.494	339.56
277.726	336.56
277.957	308.56
278.189	301.56
278.421	276.56
278.652	293.56
278.884	270.56
279.115	272.56
279.347	282.56
279.579	266.56
279.81	267.56
280.042	261.56
280.273	269.56
280.505	288.56
280.736	259.56
280.968	272.56
281.199	274.56
281.431	253.56
281.662	264.56
281.894	255.56
282.125	278.56
282.356	297.56
282.588	313.56
282.819	340.56
283.051	270.56
283.282	277.56
283.513	276.56
283.745	268.56
283.976	280.56
284.207	285.56
284.439	287.56
284.67	260.56
284.901	273.56
285.132	288.56
285.364	279.56
285.595	276.56
285.826	276.56
286.057	264.56
286.288	265.56
286.52	293.56
286.751	272.56
286.982	293.56
287.213	257.56
287.444	262.56
287.675	289.56
287.906	283.56
288.138	283.56
288.369	304.56
288.6	311.56
288.831	317.56
289.062	296.56
289.293	290.56
289.524	278.56
289.755	293.56
289.986	280.56
290.217	295.56
290.448	267.56
290.679	282.56
290.91	288.56
291.141	276.56
291.371	284.56
291.602	269.56
291.833	288.56
292.064	277.56
292.295	270.56
292.526	289.56
292.757	280.56
292.987	286.56
293.218	265.56
293.449	270.56
293.68	290.56
293.91	284.56
294.141	276.56
294.372	286.56
294.603	289.56
294.833	273.56
295.064	316.56
295.295	282.56
295.525	297.56
295.756	294.56
295.987	313.56
296.217	344.56
296.448	344.56
296.679	309.56
296.909	284.56
297.14	288.56
297.37	294.56
297.601	286.56
297.831	295.56
298.062	301.56
298.292	289.56
298.523	314.56
298.753	310.56
298.984	302.56
299.214	314.56
299.445	295.56
299.675	311.56
299.905	325.56
300.136	306.56
300.366	305.56
300.597	301.56
300.827	316.56
301.057	321.56
301.288	330.56
301.518	337.56
301.748	320.56
301.979	324.56
302.209	326.56
302.439	321.56
302.669	331.56
302.9	311.56
303.13	322.56
303.36	338.56
303.59	327.56
303.82	341.56
304.051	363.56
304.281	330.56
304.511	320.56
304.741	331.56
304.971	316.56
305.201	309.56
305.431	317.56
305.661	325.56
305.891	321.56
306.121	334.56
306.352	339.56
306.582	346.56
306.812	352.56
307.042	328.56
307.272	317.56
307.502	348.56
307.731	345.56
307.961	346.56
308.191	329.56
308.421	347.56
308.651	350.56
308.881	320.56
309.111	330.56
309.341	360.56
309.571	363.56
309.8	373.56
310.03	368.56
310.26	401.56
310.49	399.56
310.72	418.56
310.949	419.56
311.179	411.56
311.409	417.56
311.639	395.56
311.868	404.56
312.098	371.56
312.328	416.56
312.557	424.56
312.787	465.56
313.017	435.56
313.246	413.56
313.476	410.56
313.706	393.56
313.935	405.56
314.165	401.56
314.394	436.56
314.624	420.56
314.853	423.56
315.083	398.56
315.312	390.56
315.542	370.56
315.771	392.56
316.001	381.56
316.23	377.56
316.46	378.56
316.689	365.56
316.919	398.56
317.148	385.56
317.377	425.56
317.607	401.56
317.836	400.56
318.065	385.56
318.295	399.56
318.524	386.56
318.753	376.56
318.983	382.56
319.212	389.56
319.441	403.56
319.67	410.56
319.9	398.56
320.129	386.56
320.358	383.56
320.587	405.56
320.816	393.56
321.046	405.56
321.275	422.56
321.504	427.56
321.733	428.56
321.962	435.56
322.191	426.56
322.42	462.56
322.649	475.56
322.878	468.56
323.108	473.56
323.337	539.56
323.566	560.56
323.795	610.56
324.024	662.56
324.253	832.56
324.482	1226.56
324.71	1977.56
324.939	2824.56
325.168	2424.56
325.397	1238.56
325.626	813.56
325.855	643.56
326.084	592.56
326.313	581.56
326.542	581.56
326.77	636.56
326.999	784.56
327.228	1132.56
327.457	1696.56
327.686	2132.56
327.914	1420.56
328.143	908.56
328.372	768.56
328.6	710.56
328.829	695.56
329.058	682.56
329.287	688.56
329.515	637.56
329.744	569.56
329.972	596.56
330.201	608.56
330.43	685.56
330.658	701.56
330.887	729.56
331.115	720.56
331.344	608.56
331.572	544.56
331.801	552.56
332.03	550.56
332.258	513.56
332.486	478.56
332.715	463.56
332.943	462.56
333.172	480.56
333.4	477.56
333.629	490.56
333.857	492.56
334.085	507.56
334.314	549.56
334.542	594.56
334.771	582.56
334.999	560.56
335.227	518.56
335.455	449.56
335.684	471.56
335.912	459.56
336.14	441.56
336.369	446.56
336.597	454.56
336.825	465.56
337.053	450.56
337.281	429.56
337.51	452.56
337.738	469.56
337.966	460.56
338.194	483.56
338.422	467.56
338.65	461.56
338.878	450.56
339.106	462.56
339.334	441.56
339.562	439.56
339.79	444.56
340.018	440.56
340.246	460.56
340.474	462.56
340.702	436.56
340.93	432.56
341.158	440.56
341.386	427.56
341.614	462.56
341.842	456.56
342.07	458.56
342.298	444.56
342.526	447.56
342.754	429.56
342.981	422.56
343.209	410.56
343.437	437.56
343.665	432.56
343.893	425.56
344.12	436.56
344.348	433.56
344.576	428.56
344.804	458.56
345.031	478.56
345.259	468.56
345.487	466.56
345.714	475.56
345.942	446.56
346.17	438.56
346.397	416.56
346.625	432.56
346.853	422.56
347.08	420.56
347.308	428.56
347.535	466.56
347.763	462.56
347.99	460.56
348.218	471.56
348.445	449.56
348.673	478.56
348.9	465.56
349.128	424.56
349.355	423.56
349.583	426.56
349.81	416.56
350.037	440.56
350.265	434.56
350.492	437.56
350.72	430.56
350.947	440.56
351.174	450.56
351.402	460.56
351.629	454.56
351.856	468.56
352.083	459.56
352.311	477.56
352.538	480.56
352.765	475.56
352.992	467.56
353.22	445.56
353.447	449.56
353.674	445.56
353.901	433.56
354.128	415.56
354.355	412.56
354.583	430.56
354.81	426.56
355.037	401.56
355.264	410.56
355.491	398.56
355.718	406.56
355.945	383.56
356.172	417.56
356.399	402.56
356.626	393.56
356.853	402.56
357.08	376.56
357.307	412.56
357.534	401.56
357.761	378.56
357.988	419.56
358.215	416.56
358.441	413.56
358.668	392.56
358.895	391.56
359.122	412.56
359.349	435.56
359.576	457.56
359.802	484.56
360.029	506.56
360.256	543.56
360.483	486.56
360.709	453.56
360.936	453.56
361.163	433.56
361.39	464.56
361.616	446.56
361.843	453.56
362.07	428.56
362.296	441.56
362.523	446.56
362.749	457.56
362.976	422.56
363.203	421.56
363.429	421.56
363.656	427.56
363.882	445.56
364.109	406.56
364.335	422.56
364.562	421.56
364.788	427.56
365.015	420.56
365.241	425.56
365.468	424.56
365.694	440.56
365.92	446.56
366.147	426.56
366.373	442.56
366.599	422.56
366.826	420.56
367.052	417.56
367.278	407.56
367.505	408.56
367.731	410.56
367.957	412.56
368.184	428.56
368.41	445.56
368.636	440.56
368.862	439.56
369.089	462.56
369.315	426.56
369.541	408.56
369.767	421.56
369.993	429.56
370.219	419.56
370.445	429.56
370.672	401.56
370.898	412.56
371.124	427.56
371.35	410.56
371.576	414.56
371.802	407.56
372.028	412.56
372.254	413.56
372.48	399.56
372.706	413.56
372.932	416.56
373.158	412.56
373.384	426.56
373.61	410.56
373.835	426.56
374.061	421.56
374.287	458.56
374.513	434.56
374.739	434.56
374.965	440.56
375.191	389.56
375.416	422.56
375.642	435.56
375.868	410.56
376.094	415.56
376.319	390.56
376.545	414.56
376.771	429.56
376.997	405.56
377.222	418.56
377.448	430.56
377.674	416.56
377.899	413.56
378.125	412.56
378.35	415.56
378.576	396.56
378.802	391.56
379.027	413.56
379.253	411.56
379.478	390.56
379.704	417.56
379.929	407.56
380.155	412.56
380.38	425.56
380.606	425.56
380.831	429.56
381.057	418.56
381.282	426.56
381.507	415.56
381.733	416.56
381.958	411.56
382.184	412.56
382.409	414.56
382.634	420.56
382.86	420.56
383.085	421.56
383.31	427.56
383.535	423.56
383.761	426.56
383.986	429.56
384.211	445.56
384.436	437.56
384.662	442.56
384.887	440.56
385.112	446.56
385.337	464.56
385.562	440.56
385.787	444.56
386.013	460.56
386.238	439.56
386.463	472.56
386.688	454.56
386.913	444.56
387.138	444.56
387.363	439.56
387.588	450.56
387.813	462.56
388.038	442.56
388.263	480.56
388.488	478.56
388.713	432.56
388.938	454.56
389.163	448.56
389.387	460.56
389.612	429.56
389.837	440.56
390.062	439.56
390.287	440.56
390.512	445.56
390.736	444.56
390.961	448.56
391.186	427.56
391.411	457.56
391.636	460.56
391.86	448.56
392.085	453.56
392.31	462.56
392.534	460.56
392.759	448.56
392.984	446.56
393.208	448.56
393.433	457.56
393.658	471.56
393.882	428.56
394.107	437.56
394.331	464.56
394.556	457.56
394.78	458.56
395.005	453.56
395.229	450.56
395.454	461.56
395.678	470.56
395.903	492.56
396.127	514.56
396.352	519.56
396.576	477.56
396.801	471.56
397.025	482.56
397.249	470.56
397.474	498.56
397.698	487.56
397.922	492.56
398.147	515.56
398.371	528.56
398.595	485.56
398.82	489.56
399.044	496.56
399.268	508.56
399.492	533.56
399.717	574.56
399.941	601.56
400.165	612.56
400.389	632.56
400.613	595.56
400.837	552.56
401.062	523.56
401.286	536.56
401.51	535.56
401.734	518.56
401.958	562.56
402.182	526.56
402.406	544.56
402.63	547.56
402.854	534.56
403.078	546.56
403.302	534.56
403.526	542.56
403.75	561.56
403.974	530.56
404.198	544.56
404.422	569.56
404.645	572.56
404.869	574.56
405.093	578.56
405.317	648.56
405.541	686.56
405.765	622.56
405.988	604.56
406.212	595.56
406.436	618.56
406.66	646.56
406.883	616.56
407.107	605.56
407.331	665.56
407.555	738.56
407.778	734.56
408.002	662.56
408.226	620.56
408.449	607.56
408.673	624.56
408.896	646.56
409.12	700.56
409.344	642.56
409.567	570.56
409.791	581.56
410.014	551.56
410.238	551.56
410.461	542.56
410.685	578.56
410.908	578.56
411.132	624.56
411.355	635.56
411.578	595.56
411.802	578.56
412.025	540.56
412.249	548.56
412.472	586.56
412.695	605.56
412.919	624.56
413.142	554.56
413.365	544.56
413.589	577.56
413.812	542.56
414.035	535.56
414.258	524.56
414.482	502.56
414.705	537.56
414.928	505.56
415.151	501.56
415.374	526.56
415.597	512.56
415.821	508.56
416.044	523.56
416.267	520.56
416.49	525.56
416.713	503.56
416.936	506.56
417.159	532.56
417.382	542.56
417.605	553.56
417.828	554.56
418.051	542.56
418.274	552.56
418.497	525.56
418.72	536.56
418.943	532.56
419.166	546.56
419.389	573.56
419.611	536.56
419.834	552.56
420.057	544.56
420.28	563.56
420.503	572.56
420.726	558.56
420.948	596.56
421.171	649.56
421.394	672.56
421.617	594.56
421.839	570.56
422.062	594.56
422.285	578.56
422.507	632.56
422.73	734.56
422.953	726.56
423.175	648.56
423.398	590.56
423.621	608.56
423.843	634.56
424.066	615.56
424.288	642.56
424.511	646.56
424.733	702.56
424.956	782.56
425.178	772.56
425.401	762.56
425.623	786.56
425.846	676.56
426.068	629.56
426.291	617.56
426.513	632.56
426.735	631.56
426.958	702.56
427.18	778.56
427.402	922.56
427.625	1026.56
427.847	918.56
428.069	837.56
428.292	694.56
428.514	635.56
428.736	617.56
428.958	596.56
429.181	580.56
429.403	598.56
429.625	588.56
429.847	638.56
430.069	724.56
430.292	701.56
430.514	603.56
430.736	594.56
430.958	580.56
431.18	536.56
431.402	572.56
431.624	532.56
431.846	509.56
432.068	544.56
432.29	530.56
432.512	544.56
432.734	566.56
432.956	544.56
433.178	571.56
433.4	562.56
433.622	530.56
433.844	563.56
434.066	523.56
434.287	526.56
434.509	524.56
434.731	547.56
434.953	570.56
435.175	562.56
435.397	603.56
435.618	612.56
435.84	661.56
436.062	785.56
436.284	849.56
436.505	735.56
436.727	673.56
436.949	603.56
437.17	577.56
437.392	602.56
437.614	578.56
437.835	666.56
438.057	778.56
438.278	896.56
438.5	882.56
438.721	960.56
438.943	919.56
439.165	759.56
439.386	670.56
439.608	648.56
439.829	646.56
440.05	689.56
440.272	732.56
440.493	714.56
440.715	638.56
440.936	609.56
441.158	628.56
441.379	589.56
441.6	608.56
441.822	618.56
442.043	664.56
442.264	789.56
442.486	842.56
442.707	704.56
442.928	653.56
443.149	682.56
443.371	680.56
443.592	718.56
443.813	816.56
444.034	901.56
444.255	756.56
444.476	664.56
444.698	644.56
444.919	626.56
445.14	753.56
445.361	724.56
445.582	708.56
445.803	760.56
446.024	902.56
446.245	897.56
446.466	844.56
446.687	712.56
446.908	672.56
447.129	633.56
447.35	613.56
447.571	586.56
447.792	568.56
448.013	587.56
448.234	648.56
448.455	683.56
448.675	829.56
448.896	928.56
449.117	802.56
449.338	748.56
449.559	853.56
449.779	954.56
450	819.56
450.221	658.56
450.442	587.56
450.662	615.56
450.883	621.56
451.104	632.56
451.324	611.56
451.545	568.56
451.766	569.56
451.986	520.56
452.207	520.56
452.428	525.56
452.648	524.56
452.869	526.56
453.089	537.56
453.31	544.56
453.53	546.56
453.751	549.56
453.971	549.56
454.192	570.56
454.412	566.56
454.633	552.56
454.853	552.56
455.073	534.56
455.294	574.56
455.514	652.56
455.734	652.56
455.955	540.56
456.175	527.56
456.395	492.56
456.616	474.56
456.836	489.56
457.056	479.56
457.276	492.56
457.497	498.56
457.717	491.56
457.937	496.56
458.157	512.56
458.377	497.56
458.598	529.56
458.818	590.56
459.038	713.56
459.258	739.56
459.478	633.56
459.698	566.56
459.918	553.56
460.138	558.56
460.358	525.56
460.578	513.56
460.798	528.56
461.018	549.56
461.238	553.56
461.458	521.56
461.678	534.56
461.898	530.56
462.118	520.56
462.338	557.56
462.558	545.56
462.777	560.56
462.997	550.56
463.217	555.56
463.437	548.56
463.657	544.56
463.876	542.56
464.096	547.56
464.316	557.56
464.536	564.56
464.755	584.56
464.975	596.56
465.195	658.56
465.414	762.56
465.634	688.56
465.854	605.56
466.073	568.56
466.293	516.56
466.512	546.56
466.732	539.56
466.951	549.56
467.171	530.56
467.391	532.56
467.61	549.56
467.829	551.56
468.049	543.56
468.268	540.56
468.488	539.56
468.707	537.56
468.927	512.56
469.146	504.56
469.365	514.56
469.585	482.56
469.804	530.56
470.023	557.56
470.243	548.56
470.462	557.56
470.681	605.56
470.901	560.56
471.12	550.56
471.339	555.56
471.558	554.56
471.777	565.56
471.997	536.56
472.216	534.56
472.435	590.56
472.654	587.56
472.873	539.56
473.092	539.56
473.311	540.56
473.53	550.56
473.749	562.56
473.968	616.56
474.187	743.56
474.406	756.56
474.625	607.56
474.844	606.56
475.063	548.56
475.282	549.56
475.501	555.56
475.72	557.56
475.939	572.56
476.158	569.56
476.377	544.56
476.596	549.56
476.814	576.56
477.033	580.56
477.252	573.56
477.471	580.56
477.69	577.56
477.908	605.56
478.127	579.56
478.346	582.56
478.564	602.56
478.783	614.56
479.002	600.56
479.22	616.56
479.439	634.56
479.658	660.56
479.876	667.56
480.095	654.56
480.313	692.56
480.532	665.56
480.751	664.56
480.969	672.56
481.188	746.56
481.406	806.56
481.624	707.56
481.843	690.56
482.061	636.56
482.28	666.56
482.498	645.56
482.717	649.56
482.935	651.56
483.153	636.56
483.372	634.56
483.59	640.56
483.808	662.56
484.027	644.56
484.245	656.56
484.463	650.56
484.681	654.56
484.9	647.56
485.118	689.56
485.336	666.56
485.554	683.56
485.772	663.56
485.99	696.56
486.209	684.56
486.427	651.56
486.645	686.56
486.863	725.56
487.081	730.56
487.299	702.56
487.517	725.56
487.735	707.56
487.953	692.56
488.171	680.56
488.389	702.56
488.607	699.56
488.825	715.56
489.043	685.56
489.261	713.56
489.479	728.56
489.696	712.56
489.914	716.56
490.132	739.56
490.35	746.56
490.568	777.56
490.786	768.56
491.003	758.56
491.221	821.56
491.439	808.56
491.657	826.56
491.874	820.56
492.092	855.56
492.31	853.56
492.527	853.56
492.745	821.56
492.963	844.56
493.18	885.56
493.398	848.56
493.615	841.56
493.833	849.56
494.05	849.56
494.268	850.56
494.485	850.56
494.703	840.56
494.92	843.56
495.138	834.56
495.355	846.56
495.573	865.56
495.79	864.56
496.008	857.56
496.225	851.56
496.442	851.56
496.66	864.56
496.877	858.56
497.094	854.56
497.312	864.56
497.529	892.56
497.746	869.56
497.963	859.56
498.181	899.56
498.398	930.56
498.615	915.56
498.832	943.56
499.049	912.56
499.267	922.56
499.484	959.56
499.701	925.56
499.918	979.56
500.135	1003.56
500.352	1034.56
500.569	1060.56
500.786	1064.56
501.003	1050.56
501.22	1052.56
501.437	1035.56
