Data from 1971.PennyLincolnUp.Lamp.En5.5.200Scan.071719.P1.Scan 2. Changed Angle._HRD10591_15-23-56-842.txt Node
Date: Thu Jul 18 15:23:56 EDT 2019
User: cochatt
Spectrometer: HR+D1059
Trigger mode: 1
Integration Time (sec): 1.000000E-1
Scans to average: 1
Electric dark correction enabled: true
Nonlinearity correction enabled: false
Boxcar width: 0
XAxis mode: Wavelengths
Number of Pixels in Spectrum: 2048
>>>>>Begin Spectral Data<<<<<
223.165	-10.31
223.4	-10.31
223.635	-10.31
223.869	-13.31
224.104	-18.31
224.338	-10.31
224.573	-24.31
224.808	-18.31
225.042	-6.31
225.277	-8.31
225.511	3.69
225.746	2.69
225.98	4.69
226.215	10.69
226.449	6.69
226.683	25.69
226.918	26.69
227.152	28.69
227.387	29.69
227.621	35.69
227.856	35.69
228.09	33.69
228.324	55.69
228.559	40.69
228.793	69.69
229.027	105.69
229.262	115.69
229.496	118.69
229.73	165.69
229.964	169.69
230.199	163.69
230.433	129.69
230.667	114.69
230.901	131.69
231.136	125.69
231.37	118.69
231.604	119.69
231.838	114.69
232.072	107.69
232.306	104.69
232.541	119.69
232.775	115.69
233.009	126.69
233.243	126.69
233.477	115.69
233.711	122.69
233.945	117.69
234.179	129.69
234.413	139.69
234.647	124.69
234.881	120.69
235.115	124.69
235.349	120.69
235.583	122.69
235.817	130.69
236.051	133.69
236.285	146.69
236.519	142.69
236.753	129.69
236.987	155.69
237.221	210.69
237.455	268.69
237.689	212.69
237.922	161.69
238.156	124.69
238.39	139.69
238.624	137.69
238.858	127.69
239.091	134.69
239.325	131.69
239.559	133.69
239.793	146.69
240.027	144.69
240.26	145.69
240.494	185.69
240.728	173.69
240.961	159.69
241.195	138.69
241.429	138.69
241.662	150.69
241.896	137.69
242.13	135.69
242.363	124.69
242.597	135.69
242.83	132.69
243.064	155.69
243.298	135.69
243.531	154.69
243.765	132.69
243.998	151.69
244.232	149.69
244.465	163.69
244.699	148.69
244.932	142.69
245.166	149.69
245.399	159.69
245.633	149.69
245.866	178.69
246.099	146.69
246.333	142.69
246.566	155.69
246.8	152.69
247.033	164.69
247.266	162.69
247.5	172.69
247.733	181.69
247.966	172.69
248.2	185.69
248.433	174.69
248.666	175.69
248.899	196.69
249.133	204.69
249.366	228.69
249.599	211.69
249.832	195.69
250.066	156.69
250.299	195.69
250.532	217.69
250.765	226.69
250.998	233.69
251.231	256.69
251.465	238.69
251.698	217.69
251.931	209.69
252.164	228.69
252.397	213.69
252.63	225.69
252.863	212.69
253.096	232.69
253.329	253.69
253.562	254.69
253.795	240.69
254.028	212.69
254.261	259.69
254.494	251.69
254.727	266.69
254.96	303.69
255.193	295.69
255.426	282.69
255.659	260.69
255.892	270.69
256.124	233.69
256.357	266.69
256.59	238.69
256.823	227.69
257.056	239.69
257.289	216.69
257.521	221.69
257.754	226.69
257.987	207.69
258.22	231.69
258.452	204.69
258.685	231.69
258.918	223.69
259.151	206.69
259.383	230.69
259.616	242.69
259.849	255.69
260.081	242.69
260.314	283.69
260.547	271.69
260.779	251.69
261.012	239.69
261.244	241.69
261.477	227.69
261.71	220.69
261.942	240.69
262.175	255.69
262.407	238.69
262.64	233.69
262.872	221.69
263.105	227.69
263.337	211.69
263.57	214.69
263.802	195.69
264.035	213.69
264.267	201.69
264.499	207.69
264.732	204.69
264.964	209.69
265.197	206.69
265.429	192.69
265.661	217.69
265.894	220.69
266.126	239.69
266.358	203.69
266.591	196.69
266.823	221.69
267.055	241.69
267.287	237.69
267.52	231.69
267.752	210.69
267.984	210.69
268.216	237.69
268.448	232.69
268.681	242.69
268.913	235.69
269.145	252.69
269.377	281.69
269.609	270.69
269.841	285.69
270.073	270.69
270.306	305.69
270.538	326.69
270.77	319.69
271.002	310.69
271.234	319.69
271.466	313.69
271.698	310.69
271.93	314.69
272.162	330.69
272.394	328.69
272.626	330.69
272.858	275.69
273.09	275.69
273.322	279.69
273.553	279.69
273.785	262.69
274.017	258.69
274.249	271.69
274.481	277.69
274.713	263.69
274.945	279.69
275.176	266.69
275.408	267.69
275.64	262.69
275.872	270.69
276.104	272.69
276.335	268.69
276.567	260.69
276.799	289.69
277.031	304.69
277.262	313.69
277.494	317.69
277.726	318.69
277.957	279.69
278.189	283.69
278.421	282.69
278.652	274.69
278.884	262.69
279.115	258.69
279.347	263.69
279.579	253.69
279.81	251.69
280.042	267.69
280.273	257.69
280.505	253.69
280.736	256.69
280.968	265.69
281.199	243.69
281.431	247.69
281.662	262.69
281.894	241.69
282.125	249.69
282.356	274.69
282.588	288.69
282.819	316.69
283.051	287.69
283.282	255.69
283.513	276.69
283.745	254.69
283.976	266.69
284.207	265.69
284.439	259.69
284.67	267.69
284.901	253.69
285.132	272.69
285.364	253.69
285.595	267.69
285.826	246.69
286.057	277.69
286.288	263.69
286.52	263.69
286.751	263.69
286.982	259.69
287.213	260.69
287.444	273.69
287.675	263.69
287.906	278.69
288.138	284.69
288.369	285.69
288.6	286.69
288.831	258.69
289.062	289.69
289.293	280.69
289.524	259.69
289.755	270.69
289.986	268.69
290.217	280.69
290.448	260.69
290.679	262.69
290.91	263.69
291.141	262.69
291.371	258.69
291.602	252.69
291.833	269.69
292.064	270.69
292.295	281.69
292.526	279.69
292.757	264.69
292.987	269.69
293.218	266.69
293.449	269.69
293.68	268.69
293.91	275.69
294.141	250.69
294.372	251.69
294.603	265.69
294.833	276.69
295.064	265.69
295.295	265.69
295.525	259.69
295.756	284.69
295.987	287.69
296.217	300.69
296.448	335.69
296.679	310.69
296.909	275.69
297.14	279.69
297.37	263.69
297.601	278.69
297.831	278.69
298.062	256.69
298.292	281.69
298.523	285.69
298.753	283.69
298.984	282.69
299.214	296.69
299.445	293.69
299.675	273.69
299.905	292.69
300.136	256.69
300.366	301.69
300.597	294.69
300.827	295.69
301.057	308.69
301.288	301.69
301.518	303.69
301.748	307.69
301.979	300.69
302.209	313.69
302.439	313.69
302.669	286.69
302.9	309.69
303.13	298.69
303.36	307.69
303.59	310.69
303.82	329.69
304.051	326.69
304.281	311.69
304.511	309.69
304.741	300.69
304.971	290.69
305.201	312.69
305.431	291.69
305.661	294.69
305.891	290.69
306.121	286.69
306.352	323.69
306.582	326.69
306.812	313.69
307.042	313.69
307.272	302.69
307.502	313.69
307.731	328.69
307.961	323.69
308.191	308.69
308.421	328.69
308.651	325.69
308.881	315.69
309.111	319.69
309.341	319.69
309.571	331.69
309.8	345.69
310.03	360.69
310.26	377.69
310.49	366.69
310.72	379.69
310.949	409.69
311.179	413.69
311.409	381.69
311.639	377.69
311.868	359.69
312.098	361.69
312.328	375.69
312.557	390.69
312.787	412.69
313.017	406.69
313.246	399.69
313.476	382.69
313.706	363.69
313.935	381.69
314.165	398.69
314.394	409.69
314.624	393.69
314.853	384.69
315.083	362.69
315.312	359.69
315.542	346.69
315.771	341.69
316.001	360.69
316.23	362.69
316.46	356.69
316.689	355.69
316.919	359.69
317.148	376.69
317.377	386.69
317.607	396.69
317.836	369.69
318.065	369.69
318.295	334.69
318.524	357.69
318.753	359.69
318.983	356.69
319.212	371.69
319.441	375.69
319.67	381.69
319.9	391.69
320.129	364.69
320.358	354.69
320.587	369.69
320.816	397.69
321.046	383.69
321.275	408.69
321.504	381.69
321.733	402.69
321.962	400.69
322.191	411.69
322.42	435.69
322.649	472.69
322.878	473.69
323.108	472.69
323.337	511.69
323.566	541.69
323.795	571.69
324.024	658.69
324.253	790.69
324.482	1150.69
324.71	1822.69
324.939	2637.69
325.168	2195.69
325.397	1144.69
325.626	740.69
325.855	625.69
326.084	563.69
326.313	541.69
326.542	523.69
326.77	611.69
326.999	731.69
327.228	1003.69
327.457	1570.69
327.686	1921.69
327.914	1300.69
328.143	823.69
328.372	707.69
328.6	666.69
328.829	632.69
329.058	638.69
329.287	656.69
329.515	622.69
329.744	545.69
329.972	552.69
330.201	575.69
330.43	610.69
330.658	654.69
330.887	682.69
331.115	636.69
331.344	578.69
331.572	522.69
331.801	513.69
332.03	524.69
332.258	478.69
332.486	469.69
332.715	428.69
332.943	419.69
333.172	457.69
333.4	446.69
333.629	452.69
333.857	462.69
334.085	470.69
334.314	504.69
334.542	523.69
334.771	555.69
334.999	499.69
335.227	465.69
335.455	462.69
335.684	447.69
335.912	437.69
336.14	431.69
336.369	435.69
336.597	439.69
336.825	436.69
337.053	417.69
337.281	420.69
337.51	415.69
337.738	425.69
337.966	435.69
338.194	419.69
338.422	423.69
338.65	415.69
338.878	420.69
339.106	404.69
339.334	409.69
339.562	428.69
339.79	409.69
340.018	413.69
340.246	409.69
340.474	434.69
340.702	411.69
340.93	407.69
341.158	421.69
341.386	411.69
341.614	419.69
341.842	427.69
342.07	390.69
342.298	423.69
342.526	393.69
342.754	385.69
342.981	398.69
343.209	399.69
343.437	408.69
343.665	401.69
343.893	410.69
344.12	415.69
344.348	426.69
344.576	416.69
344.804	436.69
345.031	443.69
345.259	449.69
345.487	438.69
345.714	428.69
345.942	398.69
346.17	433.69
346.397	405.69
346.625	408.69
346.853	427.69
347.08	417.69
347.308	407.69
347.535	437.69
347.763	429.69
347.99	408.69
348.218	466.69
348.445	447.69
348.673	430.69
348.9	418.69
349.128	408.69
349.355	391.69
349.583	389.69
349.81	385.69
350.037	389.69
350.265	398.69
350.492	378.69
350.72	404.69
350.947	411.69
351.174	441.69
351.402	429.69
351.629	433.69
351.856	418.69
352.083	433.69
352.311	431.69
352.538	444.69
352.765	467.69
352.992	437.69
353.22	410.69
353.447	420.69
353.674	389.69
353.901	388.69
354.128	378.69
354.355	398.69
354.583	383.69
354.81	408.69
355.037	389.69
355.264	396.69
355.491	357.69
355.718	379.69
355.945	382.69
356.172	381.69
356.399	373.69
356.626	379.69
356.853	388.69
357.08	373.69
357.307	381.69
357.534	373.69
357.761	371.69
357.988	378.69
358.215	372.69
358.441	382.69
358.668	381.69
358.895	408.69
359.122	373.69
359.349	411.69
359.576	417.69
359.802	454.69
360.029	501.69
360.256	506.69
360.483	491.69
360.709	449.69
360.936	418.69
361.163	415.69
361.39	423.69
361.616	415.69
361.843	419.69
362.07	432.69
362.296	430.69
362.523	414.69
362.749	402.69
362.976	401.69
363.203	406.69
363.429	411.69
363.656	403.69
363.882	423.69
364.109	399.69
364.335	403.69
364.562	385.69
364.788	391.69
365.015	388.69
365.241	394.69
365.468	403.69
365.694	413.69
365.92	398.69
366.147	391.69
366.373	387.69
366.599	411.69
366.826	408.69
367.052	375.69
367.278	393.69
367.505	395.69
367.731	396.69
367.957	405.69
368.184	393.69
368.41	385.69
368.636	428.69
368.862	425.69
369.089	406.69
369.315	385.69
369.541	363.69
369.767	405.69
369.993	395.69
370.219	382.69
370.445	395.69
370.672	377.69
370.898	388.69
371.124	373.69
371.35	392.69
371.576	393.69
371.802	379.69
372.028	367.69
372.254	369.69
372.48	371.69
372.706	379.69
372.932	382.69
373.158	377.69
373.384	393.69
373.61	391.69
373.835	385.69
374.061	386.69
374.287	403.69
374.513	402.69
374.739	394.69
374.965	400.69
375.191	366.69
375.416	391.69
375.642	393.69
375.868	378.69
376.094	384.69
376.319	381.69
376.545	369.69
376.771	403.69
376.997	405.69
377.222	393.69
377.448	364.69
377.674	397.69
377.899	389.69
378.125	389.69
378.35	379.69
378.576	389.69
378.802	385.69
379.027	369.69
379.253	394.69
379.478	393.69
379.704	376.69
379.929	391.69
380.155	390.69
380.38	389.69
380.606	398.69
380.831	403.69
381.057	401.69
381.282	390.69
381.507	397.69
381.733	381.69
381.958	388.69
382.184	399.69
382.409	407.69
382.634	389.69
382.86	412.69
383.085	383.69
383.31	411.69
383.535	408.69
383.761	409.69
383.986	392.69
384.211	421.69
384.436	409.69
384.662	412.69
384.887	386.69
385.112	403.69
385.337	405.69
385.562	405.69
385.787	418.69
386.013	431.69
386.238	417.69
386.463	401.69
386.688	426.69
386.913	420.69
387.138	412.69
387.363	427.69
387.588	423.69
387.813	431.69
388.038	414.69
388.263	429.69
388.488	444.69
388.713	415.69
388.938	436.69
389.163	423.69
389.387	426.69
389.612	407.69
389.837	417.69
390.062	395.69
390.287	409.69
390.512	417.69
390.736	409.69
390.961	438.69
391.186	435.69
391.411	406.69
391.636	422.69
391.86	424.69
392.085	441.69
392.31	436.69
392.534	423.69
392.759	415.69
392.984	428.69
393.208	444.69
393.433	429.69
393.658	429.69
393.882	426.69
394.107	433.69
394.331	419.69
394.556	423.69
394.78	414.69
395.005	413.69
395.229	434.69
395.454	408.69
395.678	435.69
395.903	429.69
396.127	462.69
396.352	470.69
396.576	449.69
396.801	441.69
397.025	445.69
397.249	435.69
397.474	453.69
397.698	453.69
397.922	459.69
398.147	493.69
398.371	480.69
398.595	484.69
398.82	468.69
399.044	474.69
399.268	481.69
399.492	499.69
399.717	531.69
399.941	548.69
400.165	569.69
400.389	606.69
400.613	569.69
400.837	494.69
401.062	484.69
401.286	457.69
401.51	493.69
401.734	501.69
401.958	493.69
402.182	479.69
402.406	518.69
402.63	501.69
402.854	500.69
403.078	498.69
403.302	499.69
403.526	501.69
403.75	486.69
403.974	515.69
404.198	514.69
404.422	501.69
404.645	513.69
404.869	534.69
405.093	529.69
405.317	590.69
405.541	631.69
405.765	558.69
405.988	545.69
406.212	558.69
406.436	586.69
406.66	595.69
406.883	569.69
407.107	602.69
407.331	621.69
407.555	693.69
407.778	685.69
408.002	597.69
408.226	569.69
408.449	545.69
408.673	555.69
408.896	580.69
409.12	647.69
409.344	617.69
409.567	539.69
409.791	534.69
410.014	526.69
410.238	505.69
410.461	507.69
410.685	498.69
410.908	526.69
411.132	550.69
411.355	613.69
411.578	603.69
411.802	539.69
412.025	530.69
412.249	553.69
412.472	536.69
412.695	582.69
412.919	571.69
413.142	541.69
413.365	523.69
413.589	495.69
413.812	495.69
414.035	497.69
414.258	499.69
414.482	478.69
414.705	459.69
414.928	468.69
415.151	490.69
415.374	491.69
415.597	486.69
415.821	469.69
416.044	476.69
416.267	501.69
416.49	486.69
416.713	474.69
416.936	477.69
417.159	490.69
417.382	499.69
417.605	519.69
417.828	520.69
418.051	515.69
418.274	504.69
418.497	478.69
418.72	475.69
418.943	498.69
419.166	491.69
419.389	533.69
419.611	527.69
419.834	506.69
420.057	521.69
420.28	500.69
420.503	516.69
420.726	511.69
420.948	562.69
421.171	589.69
421.394	614.69
421.617	540.69
421.839	522.69
422.062	533.69
422.285	562.69
422.507	601.69
422.73	702.69
422.953	664.69
423.175	592.69
423.398	546.69
423.621	559.69
423.843	557.69
424.066	567.69
424.288	560.69
424.511	605.69
424.733	653.69
424.956	744.69
425.178	699.69
425.401	695.69
425.623	735.69
425.846	619.69
426.068	602.69
426.291	564.69
426.513	571.69
426.735	571.69
426.958	643.69
427.18	728.69
427.402	870.69
427.625	945.69
427.847	859.69
428.069	751.69
428.292	686.69
428.514	613.69
428.736	581.69
428.958	551.69
429.181	542.69
429.403	564.69
429.625	538.69
429.847	593.69
430.069	675.69
430.292	653.69
430.514	549.69
430.736	546.69
430.958	522.69
431.18	520.69
431.402	506.69
431.624	502.69
431.846	497.69
432.068	484.69
432.29	510.69
432.512	517.69
432.734	509.69
432.956	538.69
433.178	524.69
433.4	547.69
433.622	517.69
433.844	521.69
434.066	511.69
434.287	500.69
434.509	521.69
434.731	507.69
434.953	513.69
435.175	556.69
435.397	573.69
435.618	602.69
435.84	628.69
436.062	730.69
436.284	791.69
436.505	675.69
436.727	595.69
436.949	542.69
437.17	541.69
437.392	554.69
437.614	568.69
437.835	619.69
438.057	710.69
438.278	824.69
438.5	825.69
438.721	887.69
438.943	831.69
439.165	653.69
439.386	622.69
439.608	627.69
439.829	631.69
440.05	660.69
440.272	691.69
440.493	675.69
440.715	611.69
440.936	571.69
441.158	570.69
441.379	533.69
441.6	570.69
441.822	595.69
442.043	628.69
442.264	747.69
442.486	785.69
442.707	645.69
442.928	627.69
443.149	611.69
443.371	647.69
443.592	677.69
443.813	779.69
444.034	845.69
444.255	706.69
444.476	615.69
444.698	585.69
444.919	591.69
445.14	678.69
445.361	640.69
445.582	637.69
445.803	699.69
446.024	827.69
446.245	845.69
446.466	779.69
446.687	677.69
446.908	610.69
447.129	589.69
447.35	553.69
447.571	559.69
447.792	552.69
448.013	530.69
448.234	595.69
448.455	618.69
448.675	756.69
448.896	873.69
449.117	738.69
449.338	695.69
449.559	829.69
449.779	905.69
450	725.69
450.221	625.69
450.442	590.69
450.662	544.69
450.883	557.69
451.104	571.69
451.324	579.69
451.545	539.69
451.766	527.69
451.986	500.69
452.207	489.69
452.428	495.69
452.648	509.69
452.869	502.69
453.089	530.69
453.31	525.69
453.53	517.69
453.751	494.69
453.971	517.69
454.192	518.69
454.412	519.69
454.633	492.69
454.853	504.69
455.073	488.69
455.294	522.69
455.514	610.69
455.734	602.69
455.955	493.69
456.175	461.69
456.395	456.69
456.616	442.69
456.836	443.69
457.056	445.69
457.276	467.69
457.497	471.69
457.717	458.69
457.937	467.69
458.157	464.69
458.377	482.69
458.598	503.69
458.818	591.69
459.038	668.69
459.258	707.69
459.478	589.69
459.698	534.69
459.918	501.69
460.138	487.69
460.358	495.69
460.578	491.69
460.798	515.69
461.018	497.69
461.238	488.69
461.458	485.69
461.678	513.69
461.898	510.69
462.118	505.69
462.338	492.69
462.558	503.69
462.777	521.69
462.997	529.69
463.217	527.69
463.437	527.69
463.657	514.69
463.876	489.69
464.096	504.69
464.316	499.69
464.536	531.69
464.755	529.69
464.975	548.69
465.195	612.69
465.414	745.69
465.634	607.69
465.854	563.69
466.073	553.69
466.293	534.69
466.512	494.69
466.732	483.69
466.951	502.69
467.171	497.69
467.391	517.69
467.61	520.69
467.829	526.69
468.049	521.69
468.268	506.69
468.488	486.69
468.707	481.69
468.927	480.69
469.146	463.69
469.365	492.69
469.585	473.69
469.804	497.69
470.023	513.69
470.243	527.69
470.462	481.69
470.681	523.69
470.901	548.69
471.12	513.69
471.339	529.69
471.558	535.69
471.777	507.69
471.997	505.69
472.216	524.69
472.435	569.69
472.654	541.69
472.873	485.69
473.092	524.69
473.311	497.69
473.53	511.69
473.749	542.69
473.968	571.69
474.187	665.69
474.406	695.69
474.625	571.69
474.844	547.69
475.063	524.69
475.282	517.69
475.501	523.69
475.72	511.69
475.939	520.69
476.158	510.69
476.377	538.69
476.596	493.69
476.814	526.69
477.033	553.69
477.252	525.69
477.471	541.69
477.69	556.69
477.908	553.69
478.127	554.69
478.346	546.69
478.564	536.69
478.783	581.69
479.002	541.69
479.22	599.69
479.439	618.69
479.658	618.69
479.876	621.69
480.095	607.69
480.313	640.69
480.532	642.69
480.751	598.69
480.969	614.69
481.188	698.69
481.406	765.69
481.624	665.69
481.843	636.69
482.061	637.69
482.28	617.69
482.498	617.69
482.717	598.69
482.935	590.69
483.153	604.69
483.372	593.69
483.59	609.69
483.808	619.69
484.027	619.69
484.245	613.69
484.463	629.69
484.681	601.69
484.9	610.69
485.118	602.69
485.336	618.69
485.554	627.69
485.772	629.69
485.99	608.69
486.209	614.69
486.427	652.69
486.645	653.69
486.863	654.69
487.081	646.69
487.299	676.69
487.517	659.69
487.735	676.69
487.953	661.69
488.171	659.69
488.389	679.69
488.607	669.69
488.825	681.69
489.043	665.69
489.261	655.69
489.479	661.69
489.696	697.69
489.914	669.69
490.132	681.69
490.35	701.69
490.568	679.69
490.786	711.69
491.003	721.69
491.221	731.69
491.439	761.69
491.657	758.69
491.874	770.69
492.092	779.69
492.31	810.69
492.527	789.69
492.745	806.69
492.963	768.69
493.18	806.69
493.398	801.69
493.615	785.69
493.833	824.69
494.05	788.69
494.268	773.69
494.485	780.69
494.703	789.69
494.92	789.69
495.138	794.69
495.355	791.69
495.573	809.69
495.79	804.69
496.008	820.69
496.225	817.69
496.442	789.69
496.66	807.69
496.877	791.69
497.094	803.69
497.312	797.69
497.529	812.69
497.746	812.69
497.963	811.69
498.181	823.69
498.398	830.69
498.615	846.69
498.832	857.69
499.049	863.69
499.267	851.69
499.484	888.69
499.701	892.69
499.918	895.69
500.135	948.69
500.352	967.69
500.569	961.69
500.786	984.69
501.003	918.69
501.22	969.69
501.437	919.69
501.654	951.69
