Data from 1971.PennyLincolnUp.Lamp.En5.5.200Scan.071719.P1.Scan 2. Changed Angle._HRD10591_15-25-08-842.txt Node
Date: Thu Jul 18 15:25:08 EDT 2019
User: cochatt
Spectrometer: HR+D1059
Trigger mode: 1
Integration Time (sec): 1.000000E-1
Scans to average: 1
Electric dark correction enabled: true
Nonlinearity correction enabled: false
Boxcar width: 0
XAxis mode: Wavelengths
Number of Pixels in Spectrum: 2048
>>>>>Begin Spectral Data<<<<<
223.165	-27.69
223.4	-27.69
223.635	-27.69
223.869	-14.69
224.104	-13.69
224.338	-22.69
224.573	1.31
224.808	-12.69
225.042	-11.69
225.277	-8.69
225.511	2.31
225.746	9.31
225.98	-6.69
226.215	8.31
226.449	14.31
226.683	12.31
226.918	34.31
227.152	36.31
227.387	31.31
227.621	27.31
227.856	35.31
228.09	43.31
228.324	41.31
228.559	47.31
228.793	65.31
229.027	109.31
229.262	116.31
229.496	134.31
229.73	158.31
229.964	179.31
230.199	159.31
230.433	129.31
230.667	129.31
230.901	147.31
231.136	123.31
231.37	122.31
231.604	116.31
231.838	113.31
232.072	116.31
232.306	107.31
232.541	101.31
232.775	117.31
233.009	117.31
233.243	121.31
233.477	127.31
233.711	124.31
233.945	127.31
234.179	128.31
234.413	135.31
234.647	120.31
234.881	113.31
235.115	117.31
235.349	118.31
235.583	135.31
235.817	126.31
236.051	128.31
236.285	140.31
236.519	129.31
236.753	138.31
236.987	149.31
237.221	199.31
237.455	268.31
237.689	211.31
237.922	172.31
238.156	147.31
238.39	142.31
238.624	141.31
238.858	136.31
239.091	130.31
239.325	139.31
239.559	127.31
239.793	128.31
240.027	149.31
240.26	158.31
240.494	193.31
240.728	151.31
240.961	165.31
241.195	157.31
241.429	160.31
241.662	146.31
241.896	134.31
242.13	138.31
242.363	141.31
242.597	145.31
242.83	158.31
243.064	155.31
243.298	151.31
243.531	157.31
243.765	163.31
243.998	147.31
244.232	148.31
244.465	158.31
244.699	166.31
244.932	164.31
245.166	158.31
245.399	167.31
245.633	165.31
245.866	159.31
246.099	134.31
246.333	157.31
246.566	143.31
246.8	162.31
247.033	162.31
247.266	157.31
247.5	169.31
247.733	178.31
247.966	194.31
248.2	176.31
248.433	187.31
248.666	182.31
248.899	195.31
249.133	234.31
249.366	225.31
249.599	230.31
249.832	213.31
250.066	187.31
250.299	210.31
250.532	226.31
250.765	221.31
250.998	260.31
251.231	268.31
251.465	254.31
251.698	262.31
251.931	216.31
252.164	221.31
252.397	223.31
252.63	202.31
252.863	226.31
253.096	244.31
253.329	271.31
253.562	263.31
253.795	235.31
254.028	227.31
254.261	255.31
254.494	270.31
254.727	292.31
254.96	335.31
255.193	310.31
255.426	279.31
255.659	274.31
255.892	254.31
256.124	275.31
256.357	258.31
256.59	264.31
256.823	232.31
257.056	247.31
257.289	235.31
257.521	225.31
257.754	223.31
257.987	215.31
258.22	225.31
258.452	238.31
258.685	231.31
258.918	245.31
259.151	223.31
259.383	259.31
259.616	233.31
259.849	256.31
260.081	265.31
260.314	287.31
260.547	298.31
260.779	277.31
261.012	271.31
261.244	250.31
261.477	260.31
261.71	250.31
261.942	250.31
262.175	261.31
262.407	246.31
262.64	238.31
262.872	244.31
263.105	230.31
263.337	219.31
263.57	202.31
263.802	220.31
264.035	229.31
264.267	210.31
264.499	225.31
264.732	212.31
264.964	224.31
265.197	221.31
265.429	219.31
265.661	242.31
265.894	227.31
266.126	224.31
266.358	232.31
266.591	221.31
266.823	227.31
267.055	238.31
267.287	244.31
267.52	233.31
267.752	253.31
267.984	238.31
268.216	230.31
268.448	250.31
268.681	252.31
268.913	264.31
269.145	285.31
269.377	289.31
269.609	296.31
269.841	279.31
270.073	303.31
270.306	312.31
270.538	347.31
270.77	344.31
271.002	326.31
271.234	327.31
271.466	343.31
271.698	342.31
271.93	343.31
272.162	363.31
272.394	333.31
272.626	333.31
272.858	325.31
273.09	300.31
273.322	314.31
273.553	291.31
273.785	263.31
274.017	272.31
274.249	283.31
274.481	284.31
274.713	283.31
274.945	281.31
275.176	276.31
275.408	290.31
275.64	284.31
275.872	278.31
276.104	284.31
276.335	282.31
276.567	303.31
276.799	293.31
277.031	331.31
277.262	360.31
277.494	342.31
277.726	337.31
277.957	333.31
278.189	290.31
278.421	302.31
278.652	277.31
278.884	280.31
279.115	276.31
279.347	285.31
279.579	253.31
279.81	280.31
280.042	266.31
280.273	262.31
280.505	277.31
280.736	259.31
280.968	259.31
281.199	272.31
281.431	270.31
281.662	276.31
281.894	278.31
282.125	291.31
282.356	279.31
282.588	329.31
282.819	323.31
283.051	284.31
283.282	269.31
283.513	272.31
283.745	268.31
283.976	289.31
284.207	298.31
284.439	300.31
284.67	290.31
284.901	288.31
285.132	273.31
285.364	280.31
285.595	275.31
285.826	285.31
286.057	281.31
286.288	265.31
286.52	278.31
286.751	288.31
286.982	298.31
287.213	276.31
287.444	291.31
287.675	292.31
287.906	285.31
288.138	315.31
288.369	307.31
288.6	298.31
288.831	289.31
289.062	321.31
289.293	307.31
289.524	298.31
289.755	289.31
289.986	289.31
290.217	285.31
290.448	275.31
290.679	300.31
290.91	300.31
291.141	303.31
291.371	296.31
291.602	294.31
291.833	295.31
292.064	263.31
292.295	295.31
292.526	267.31
292.757	301.31
292.987	273.31
293.218	283.31
293.449	291.31
293.68	288.31
293.91	280.31
294.141	297.31
294.372	289.31
294.603	281.31
294.833	300.31
295.064	306.31
295.295	305.31
295.525	302.31
295.756	315.31
295.987	313.31
296.217	329.31
296.448	349.31
296.679	311.31
296.909	285.31
297.14	287.31
297.37	302.31
297.601	291.31
297.831	295.31
298.062	291.31
298.292	298.31
298.523	318.31
298.753	310.31
298.984	294.31
299.214	284.31
299.445	307.31
299.675	308.31
299.905	312.31
300.136	308.31
300.366	308.31
300.597	305.31
300.827	319.31
301.057	319.31
301.288	339.31
301.518	329.31
301.748	315.31
301.979	329.31
302.209	322.31
302.439	330.31
302.669	318.31
302.9	311.31
303.13	325.31
303.36	318.31
303.59	347.31
303.82	346.31
304.051	351.31
304.281	320.31
304.511	326.31
304.741	305.31
304.971	318.31
305.201	301.31
305.431	326.31
305.661	328.31
305.891	334.31
306.121	321.31
306.352	348.31
306.582	350.31
306.812	333.31
307.042	313.31
307.272	332.31
307.502	329.31
307.731	331.31
307.961	315.31
308.191	339.31
308.421	326.31
308.651	315.31
308.881	347.31
309.111	341.31
309.341	354.31
309.571	358.31
309.8	369.31
310.03	391.31
310.26	381.31
310.49	394.31
310.72	419.31
310.949	419.31
311.179	427.31
311.409	407.31
311.639	374.31
311.868	408.31
312.098	412.31
312.328	410.31
312.557	427.31
312.787	430.31
313.017	426.31
313.246	409.31
313.476	380.31
313.706	397.31
313.935	397.31
314.165	405.31
314.394	440.31
314.624	440.31
314.853	409.31
315.083	398.31
315.312	397.31
315.542	389.31
315.771	367.31
316.001	407.31
316.23	379.31
316.46	383.31
316.689	397.31
316.919	385.31
317.148	415.31
317.377	412.31
317.607	418.31
317.836	405.31
318.065	371.31
318.295	386.31
318.524	391.31
318.753	386.31
318.983	404.31
319.212	404.31
319.441	402.31
319.67	417.31
319.9	412.31
320.129	396.31
320.358	399.31
320.587	410.31
320.816	431.31
321.046	410.31
321.275	419.31
321.504	423.31
321.733	433.31
321.962	429.31
322.191	437.31
322.42	482.31
322.649	470.31
322.878	524.31
323.108	507.31
323.337	547.31
323.566	578.31
323.795	597.31
324.024	672.31
324.253	842.31
324.482	1266.31
324.71	1995.31
324.939	2884.31
325.168	2471.31
325.397	1264.31
325.626	821.31
325.855	668.31
326.084	580.31
326.313	580.31
326.542	568.31
326.77	648.31
326.999	775.31
327.228	1122.31
327.457	1798.31
327.686	2147.31
327.914	1415.31
328.143	896.31
328.372	782.31
328.6	717.31
328.829	660.31
329.058	689.31
329.287	707.31
329.515	660.31
329.744	572.31
329.972	575.31
330.201	612.31
330.43	677.31
330.658	715.31
330.887	731.31
331.115	724.31
331.344	601.31
331.572	555.31
331.801	558.31
332.03	547.31
332.258	505.31
332.486	483.31
332.715	498.31
332.943	493.31
333.172	463.31
333.4	467.31
333.629	470.31
333.857	526.31
334.085	519.31
334.314	527.31
334.542	577.31
334.771	591.31
334.999	551.31
335.227	493.31
335.455	492.31
335.684	461.31
335.912	461.31
336.14	472.31
336.369	461.31
336.597	466.31
336.825	495.31
337.053	486.31
337.281	461.31
337.51	436.31
337.738	457.31
337.966	457.31
338.194	462.31
338.422	465.31
338.65	446.31
338.878	439.31
339.106	439.31
339.334	460.31
339.562	445.31
339.79	438.31
340.018	461.31
340.246	457.31
340.474	459.31
340.702	446.31
340.93	421.31
341.158	438.31
341.386	462.31
341.614	454.31
341.842	460.31
342.07	447.31
342.298	447.31
342.526	416.31
342.754	425.31
342.981	425.31
343.209	435.31
343.437	434.31
343.665	426.31
343.893	419.31
344.12	437.31
344.348	427.31
344.576	466.31
344.804	451.31
345.031	478.31
345.259	475.31
345.487	477.31
345.714	460.31
345.942	458.31
346.17	449.31
346.397	434.31
346.625	435.31
346.853	458.31
347.08	420.31
347.308	450.31
347.535	472.31
347.763	473.31
347.99	450.31
348.218	457.31
348.445	475.31
348.673	477.31
348.9	453.31
349.128	454.31
349.355	414.31
349.583	435.31
349.81	423.31
350.037	421.31
350.265	433.31
350.492	427.31
350.72	443.31
350.947	431.31
351.174	468.31
351.402	481.31
351.629	472.31
351.856	459.31
352.083	458.31
352.311	471.31
352.538	482.31
352.765	481.31
352.992	461.31
353.22	455.31
353.447	450.31
353.674	461.31
353.901	441.31
354.128	426.31
354.355	420.31
354.583	435.31
354.81	401.31
355.037	414.31
355.264	395.31
355.491	398.31
355.718	398.31
355.945	386.31
356.172	395.31
356.399	395.31
356.626	402.31
356.853	402.31
357.08	403.31
357.307	389.31
357.534	411.31
357.761	405.31
357.988	405.31
358.215	398.31
358.441	399.31
358.668	415.31
358.895	397.31
359.122	425.31
359.349	441.31
359.576	442.31
359.802	503.31
360.029	543.31
360.256	542.31
360.483	523.31
360.709	490.31
360.936	469.31
361.163	460.31
361.39	471.31
361.616	462.31
361.843	439.31
362.07	457.31
362.296	458.31
362.523	474.31
362.749	455.31
362.976	449.31
363.203	424.31
363.429	438.31
363.656	435.31
363.882	420.31
364.109	449.31
364.335	450.31
364.562	427.31
364.788	421.31
365.015	425.31
365.241	430.31
365.468	421.31
365.694	424.31
365.92	429.31
366.147	430.31
366.373	426.31
366.599	430.31
366.826	407.31
367.052	401.31
367.278	411.31
367.505	418.31
367.731	408.31
367.957	435.31
368.184	426.31
368.41	421.31
368.636	450.31
368.862	460.31
369.089	436.31
369.315	437.31
369.541	429.31
369.767	428.31
369.993	429.31
370.219	419.31
370.445	433.31
370.672	426.31
370.898	426.31
371.124	422.31
371.35	412.31
371.576	383.31
371.802	406.31
372.028	413.31
372.254	417.31
372.48	421.31
372.706	413.31
372.932	438.31
373.158	423.31
373.384	409.31
373.61	423.31
373.835	388.31
374.061	411.31
374.287	441.31
374.513	435.31
374.739	455.31
374.965	424.31
375.191	410.31
375.416	442.31
375.642	419.31
375.868	439.31
376.094	434.31
376.319	438.31
376.545	428.31
376.771	413.31
376.997	415.31
377.222	421.31
377.448	423.31
377.674	408.31
377.899	414.31
378.125	406.31
378.35	414.31
378.576	412.31
378.802	403.31
379.027	416.31
379.253	431.31
379.478	413.31
379.704	421.31
379.929	423.31
380.155	431.31
380.38	413.31
380.606	387.31
380.831	413.31
381.057	422.31
381.282	408.31
381.507	406.31
381.733	446.31
381.958	409.31
382.184	425.31
382.409	422.31
382.634	452.31
382.86	429.31
383.085	431.31
383.31	454.31
383.535	437.31
383.761	438.31
383.986	414.31
384.211	422.31
384.436	442.31
384.662	449.31
384.887	442.31
385.112	449.31
385.337	441.31
385.562	466.31
385.787	452.31
386.013	470.31
386.238	467.31
386.463	485.31
386.688	470.31
386.913	441.31
387.138	453.31
387.363	435.31
387.588	461.31
387.813	446.31
388.038	471.31
388.263	451.31
388.488	448.31
388.713	463.31
388.938	468.31
389.163	449.31
389.387	450.31
389.612	457.31
389.837	442.31
390.062	449.31
390.287	458.31
390.512	443.31
390.736	445.31
390.961	462.31
391.186	446.31
391.411	430.31
391.636	466.31
391.86	448.31
392.085	467.31
392.31	461.31
392.534	449.31
392.759	472.31
392.984	457.31
393.208	461.31
393.433	462.31
393.658	452.31
393.882	454.31
394.107	457.31
394.331	469.31
394.556	463.31
394.78	481.31
395.005	459.31
395.229	445.31
395.454	468.31
395.678	472.31
395.903	483.31
396.127	495.31
396.352	498.31
396.576	486.31
396.801	465.31
397.025	449.31
397.249	487.31
397.474	484.31
397.698	467.31
397.922	479.31
398.147	520.31
398.371	521.31
398.595	505.31
398.82	501.31
399.044	499.31
399.268	517.31
399.492	535.31
399.717	556.31
399.941	597.31
400.165	615.31
400.389	631.31
400.613	588.31
400.837	565.31
401.062	518.31
401.286	529.31
401.51	539.31
401.734	514.31
401.958	527.31
402.182	533.31
402.406	557.31
402.63	553.31
402.854	541.31
403.078	528.31
403.302	549.31
403.526	555.31
403.75	552.31
403.974	548.31
404.198	526.31
404.422	559.31
404.645	552.31
404.869	561.31
405.093	563.31
405.317	640.31
405.541	669.31
405.765	635.31
405.988	585.31
406.212	596.31
406.436	627.31
406.66	639.31
406.883	614.31
407.107	614.31
407.331	662.31
407.555	714.31
407.778	746.31
408.002	683.31
408.226	638.31
408.449	624.31
408.673	617.31
408.896	625.31
409.12	700.31
409.344	649.31
409.567	596.31
409.791	569.31
410.014	554.31
410.238	566.31
410.461	559.31
410.685	566.31
410.908	589.31
411.132	614.31
411.355	660.31
411.578	641.31
411.802	581.31
412.025	588.31
412.249	562.31
412.472	585.31
412.695	637.31
412.919	633.31
413.142	582.31
413.365	539.31
413.589	523.31
413.812	525.31
414.035	525.31
414.258	519.31
414.482	516.31
414.705	527.31
414.928	531.31
415.151	527.31
415.374	523.31
415.597	521.31
415.821	521.31
416.044	523.31
416.267	525.31
416.49	513.31
416.713	498.31
416.936	534.31
417.159	532.31
417.382	540.31
417.605	553.31
417.828	538.31
418.051	555.31
418.274	560.31
418.497	551.31
418.72	545.31
418.943	545.31
419.166	541.31
419.389	564.31
419.611	559.31
419.834	567.31
420.057	564.31
420.28	576.31
420.503	559.31
420.726	581.31
420.948	583.31
421.171	623.31
421.394	663.31
421.617	596.31
421.839	588.31
422.062	569.31
422.285	599.31
422.507	660.31
422.73	735.31
422.953	744.31
423.175	617.31
423.398	614.31
423.621	597.31
423.843	617.31
424.066	614.31
424.288	604.31
424.511	641.31
424.733	675.31
424.956	784.31
425.178	773.31
425.401	766.31
425.623	787.31
425.846	684.31
426.068	641.31
426.291	629.31
426.513	636.31
426.735	643.31
426.958	713.31
427.18	794.31
427.402	941.31
427.625	1031.31
427.847	912.31
428.069	821.31
428.292	712.31
428.514	647.31
428.736	619.31
428.958	602.31
429.181	565.31
429.403	577.31
429.625	613.31
429.847	631.31
430.069	711.31
430.292	704.31
430.514	625.31
430.736	595.31
430.958	592.31
431.18	559.31
431.402	537.31
431.624	536.31
431.846	536.31
432.068	524.31
432.29	546.31
432.512	550.31
432.734	566.31
432.956	552.31
433.178	563.31
433.4	563.31
433.622	555.31
433.844	554.31
434.066	557.31
434.287	545.31
434.509	557.31
434.731	534.31
434.953	573.31
435.175	577.31
435.397	621.31
435.618	638.31
435.84	706.31
436.062	811.31
436.284	881.31
436.505	719.31
436.727	677.31
436.949	610.31
437.17	582.31
437.392	572.31
437.614	602.31
437.835	667.31
438.057	754.31
438.278	921.31
438.5	884.31
438.721	952.31
438.943	897.31
439.165	757.31
439.386	681.31
439.608	663.31
439.829	668.31
440.05	697.31
440.272	756.31
440.493	697.31
440.715	644.31
440.936	616.31
441.158	602.31
441.379	619.31
441.6	609.31
441.822	633.31
442.043	697.31
442.264	795.31
442.486	822.31
442.707	732.31
442.928	651.31
443.149	677.31
443.371	683.31
443.592	739.31
443.813	847.31
444.034	911.31
444.255	758.31
444.476	673.31
444.698	641.31
444.919	623.31
445.14	732.31
445.361	673.31
445.582	701.31
445.803	776.31
446.024	918.31
446.245	927.31
446.466	837.31
446.687	721.31
446.908	653.31
447.129	605.31
447.35	585.31
447.571	605.31
447.792	595.31
448.013	619.31
448.234	625.31
448.455	679.31
448.675	822.31
448.896	935.31
449.117	804.31
449.338	756.31
449.559	840.31
449.779	994.31
450	795.31
450.221	653.31
450.442	626.31
450.662	595.31
450.883	605.31
451.104	627.31
451.324	614.31
451.545	566.31
451.766	548.31
451.986	552.31
452.207	551.31
452.428	549.31
452.648	525.31
452.869	533.31
453.089	554.31
453.31	557.31
453.53	547.31
453.751	523.31
453.971	532.31
454.192	585.31
454.412	559.31
454.633	534.31
454.853	548.31
455.073	527.31
455.294	561.31
455.514	653.31
455.734	625.31
455.955	531.31
456.175	521.31
456.395	504.31
456.616	507.31
456.836	520.31
457.056	478.31
457.276	502.31
457.497	490.31
457.717	482.31
457.937	490.31
458.157	504.31
458.377	499.31
458.598	551.31
458.818	630.31
459.038	733.31
459.258	757.31
459.478	631.31
459.698	543.31
459.918	547.31
460.138	546.31
460.358	525.31
460.578	539.31
460.798	554.31
461.018	548.31
461.238	550.31
461.458	528.31
461.678	532.31
461.898	537.31
462.118	531.31
462.338	539.31
462.558	532.31
462.777	528.31
462.997	554.31
463.217	550.31
463.437	553.31
463.657	571.31
463.876	579.31
464.096	569.31
464.316	574.31
464.536	562.31
464.755	583.31
464.975	601.31
465.195	637.31
465.414	813.31
465.634	667.31
465.854	618.31
466.073	558.31
466.293	554.31
466.512	551.31
466.732	526.31
466.951	537.31
467.171	519.31
467.391	547.31
467.61	574.31
467.829	570.31
468.049	552.31
468.268	557.31
468.488	554.31
468.707	501.31
468.927	515.31
469.146	524.31
469.365	523.31
469.585	500.31
469.804	525.31
470.023	555.31
470.243	543.31
470.462	557.31
470.681	591.31
470.901	594.31
471.12	546.31
471.339	545.31
471.558	549.31
471.777	549.31
471.997	531.31
472.216	558.31
472.435	604.31
472.654	591.31
472.873	553.31
473.092	537.31
473.311	537.31
473.53	554.31
473.749	561.31
473.968	649.31
474.187	747.31
474.406	794.31
474.625	628.31
474.844	572.31
475.063	566.31
475.282	561.31
475.501	574.31
475.72	575.31
475.939	555.31
476.158	555.31
476.377	563.31
476.596	558.31
476.814	591.31
477.033	595.31
477.252	574.31
477.471	589.31
477.69	595.31
477.908	577.31
478.127	599.31
478.346	580.31
478.564	596.31
478.783	595.31
479.002	617.31
479.22	619.31
479.439	639.31
479.658	646.31
479.876	665.31
480.095	671.31
480.313	735.31
480.532	687.31
480.751	668.31
480.969	681.31
481.188	760.31
481.406	822.31
481.624	709.31
481.843	676.31
482.061	665.31
482.28	653.31
482.498	665.31
482.717	636.31
482.935	652.31
483.153	644.31
483.372	650.31
483.59	655.31
483.808	644.31
484.027	629.31
484.245	639.31
484.463	689.31
484.681	650.31
484.9	655.31
485.118	662.31
485.336	698.31
485.554	681.31
485.772	674.31
485.99	685.31
486.209	670.31
486.427	682.31
486.645	696.31
486.863	712.31
487.081	728.31
487.299	714.31
487.517	696.31
487.735	714.31
487.953	695.31
488.171	687.31
488.389	734.31
488.607	720.31
488.825	702.31
489.043	693.31
489.261	718.31
489.479	745.31
489.696	738.31
489.914	705.31
490.132	748.31
490.35	739.31
490.568	769.31
490.786	756.31
491.003	762.31
491.221	793.31
491.439	803.31
491.657	800.31
491.874	819.31
492.092	837.31
492.31	837.31
492.527	856.31
492.745	852.31
492.963	845.31
493.18	836.31
493.398	872.31
493.615	895.31
493.833	864.31
494.05	883.31
494.268	867.31
494.485	864.31
494.703	858.31
494.92	865.31
495.138	886.31
495.355	857.31
495.573	868.31
495.79	874.31
496.008	861.31
496.225	847.31
496.442	869.31
496.66	828.31
496.877	867.31
497.094	849.31
497.312	876.31
497.529	869.31
497.746	882.31
497.963	879.31
498.181	899.31
498.398	881.31
498.615	914.31
498.832	928.31
499.049	908.31
499.267	946.31
499.484	955.31
499.701	977.31
499.918	941.31
500.135	1000.31
500.352	1003.31
500.569	1012.31
500.786	1055.31
501.003	1033.31
501.22	1012.31
501.437	1039.31
