Data from 1971.PennyLincolnUp.Lamp.En5.5.200Scan.071719.P1._HRD10591_15-18-11-842.txt Node
Date: Thu Jul 18 15:18:11 EDT 2019
User: cochatt
Spectrometer: HR+D1059
Trigger mode: 1
Integration Time (sec): 1.000000E-1
Scans to average: 1
Electric dark correction enabled: true
Nonlinearity correction enabled: false
Boxcar width: 0
XAxis mode: Wavelengths
Number of Pixels in Spectrum: 2048
>>>>>Begin Spectral Data<<<<<
223.165	-3.25
223.4	-3.25
223.635	-3.25
223.869	-13.25
224.104	-19.25
224.338	-8.25
224.573	-10.25
224.808	-9.25
225.042	-14.25
225.277	-20.25
225.511	-9.25
225.746	-2.25
225.98	-4.25
226.215	10.75
226.449	20.75
226.683	29.75
226.918	18.75
227.152	33.75
227.387	25.75
227.621	44.75
227.856	50.75
228.09	51.75
228.324	54.75
228.559	53.75
228.793	63.75
229.027	91.75
229.262	83.75
229.496	82.75
229.73	106.75
229.964	137.75
230.199	113.75
230.433	115.75
230.667	107.75
230.901	104.75
231.136	99.75
231.37	86.75
231.604	104.75
231.838	110.75
232.072	112.75
232.306	96.75
232.541	108.75
232.775	94.75
233.009	101.75
233.243	112.75
233.477	100.75
233.711	100.75
233.945	92.75
234.179	101.75
234.413	113.75
234.647	97.75
234.881	96.75
235.115	112.75
235.349	116.75
235.583	103.75
235.817	108.75
236.051	106.75
236.285	106.75
236.519	115.75
236.753	121.75
236.987	132.75
237.221	150.75
237.455	180.75
237.689	161.75
237.922	131.75
238.156	122.75
238.39	121.75
238.624	114.75
238.858	101.75
239.091	126.75
239.325	113.75
239.559	118.75
239.793	108.75
240.027	122.75
240.26	125.75
240.494	137.75
240.728	120.75
240.961	131.75
241.195	149.75
241.429	130.75
241.662	139.75
241.896	125.75
242.13	129.75
242.363	130.75
242.597	125.75
242.83	122.75
243.064	125.75
243.298	119.75
243.531	118.75
243.765	123.75
243.998	135.75
244.232	135.75
244.465	132.75
244.699	130.75
244.932	149.75
245.166	151.75
245.399	136.75
245.633	121.75
245.866	124.75
246.099	135.75
246.333	138.75
246.566	153.75
246.8	147.75
247.033	132.75
247.266	151.75
247.5	157.75
247.733	159.75
247.966	166.75
248.2	171.75
248.433	173.75
248.666	169.75
248.899	178.75
249.133	182.75
249.366	198.75
249.599	194.75
249.832	183.75
250.066	155.75
250.299	183.75
250.532	179.75
250.765	177.75
250.998	205.75
251.231	210.75
251.465	200.75
251.698	186.75
251.931	183.75
252.164	198.75
252.397	187.75
252.63	200.75
252.863	193.75
253.096	190.75
253.329	218.75
253.562	198.75
253.795	195.75
254.028	212.75
254.261	208.75
254.494	226.75
254.727	229.75
254.96	232.75
255.193	261.75
255.426	230.75
255.659	216.75
255.892	205.75
256.124	206.75
256.357	200.75
256.59	208.75
256.823	202.75
257.056	210.75
257.289	214.75
257.521	214.75
257.754	201.75
257.987	167.75
258.22	196.75
258.452	194.75
258.685	211.75
258.918	189.75
259.151	194.75
259.383	205.75
259.616	207.75
259.849	209.75
260.081	211.75
260.314	228.75
260.547	231.75
260.779	222.75
261.012	221.75
261.244	226.75
261.477	217.75
261.71	206.75
261.942	201.75
262.175	203.75
262.407	213.75
262.64	197.75
262.872	198.75
263.105	178.75
263.337	201.75
263.57	197.75
263.802	206.75
264.035	193.75
264.267	200.75
264.499	201.75
264.732	194.75
264.964	202.75
265.197	202.75
265.429	202.75
265.661	200.75
265.894	204.75
266.126	203.75
266.358	212.75
266.591	207.75
266.823	198.75
267.055	214.75
267.287	216.75
267.52	211.75
267.752	213.75
267.984	231.75
268.216	228.75
268.448	220.75
268.681	228.75
268.913	224.75
269.145	234.75
269.377	249.75
269.609	248.75
269.841	251.75
270.073	254.75
270.306	266.75
270.538	270.75
270.77	261.75
271.002	266.75
271.234	278.75
271.466	286.75
271.698	287.75
271.93	290.75
272.162	290.75
272.394	278.75
272.626	285.75
272.858	252.75
273.09	260.75
273.322	259.75
273.553	245.75
273.785	244.75
274.017	229.75
274.249	242.75
274.481	257.75
274.713	274.75
274.945	249.75
275.176	252.75
275.408	257.75
275.64	245.75
275.872	252.75
276.104	244.75
276.335	251.75
276.567	253.75
276.799	267.75
277.031	267.75
277.262	283.75
277.494	294.75
277.726	269.75
277.957	270.75
278.189	283.75
278.421	281.75
278.652	272.75
278.884	245.75
279.115	248.75
279.347	235.75
279.579	257.75
279.81	258.75
280.042	264.75
280.273	249.75
280.505	256.75
280.736	257.75
280.968	245.75
281.199	257.75
281.431	268.75
281.662	256.75
281.894	254.75
282.125	270.75
282.356	265.75
282.588	274.75
282.819	270.75
283.051	250.75
283.282	257.75
283.513	266.75
283.745	249.75
283.976	269.75
284.207	265.75
284.439	264.75
284.67	268.75
284.901	251.75
285.132	257.75
285.364	251.75
285.595	267.75
285.826	255.75
286.057	265.75
286.288	270.75
286.52	263.75
286.751	270.75
286.982	244.75
287.213	257.75
287.444	262.75
287.675	274.75
287.906	281.75
288.138	285.75
288.369	282.75
288.6	285.75
288.831	265.75
289.062	282.75
289.293	274.75
289.524	290.75
289.755	292.75
289.986	277.75
290.217	275.75
290.448	272.75
290.679	294.75
290.91	269.75
291.141	283.75
291.371	280.75
291.602	284.75
291.833	284.75
292.064	282.75
292.295	271.75
292.526	287.75
292.757	273.75
292.987	254.75
293.218	282.75
293.449	298.75
293.68	276.75
293.91	277.75
294.141	266.75
294.372	267.75
294.603	276.75
294.833	268.75
295.064	282.75
295.295	290.75
295.525	303.75
295.756	264.75
295.987	273.75
296.217	295.75
296.448	298.75
296.679	294.75
296.909	287.75
297.14	282.75
297.37	290.75
297.601	288.75
297.831	284.75
298.062	292.75
298.292	295.75
298.523	290.75
298.753	275.75
298.984	285.75
299.214	302.75
299.445	271.75
299.675	278.75
299.905	315.75
300.136	267.75
300.366	298.75
300.597	319.75
300.827	299.75
301.057	313.75
301.288	309.75
301.518	299.75
301.748	298.75
301.979	312.75
302.209	307.75
302.439	320.75
302.669	297.75
302.9	283.75
303.13	290.75
303.36	298.75
303.59	322.75
303.82	314.75
304.051	330.75
304.281	309.75
304.511	297.75
304.741	309.75
304.971	304.75
305.201	293.75
305.431	301.75
305.661	298.75
305.891	309.75
306.121	297.75
306.352	314.75
306.582	299.75
306.812	309.75
307.042	285.75
307.272	300.75
307.502	315.75
307.731	299.75
307.961	322.75
308.191	312.75
308.421	311.75
308.651	318.75
308.881	322.75
309.111	318.75
309.341	317.75
309.571	328.75
309.8	337.75
310.03	334.75
310.26	344.75
310.49	361.75
310.72	349.75
310.949	346.75
311.179	340.75
311.409	324.75
311.639	351.75
311.868	357.75
312.098	333.75
312.328	327.75
312.557	361.75
312.787	364.75
313.017	367.75
313.246	354.75
313.476	344.75
313.706	351.75
313.935	349.75
314.165	329.75
314.394	380.75
314.624	374.75
314.853	359.75
315.083	363.75
315.312	338.75
315.542	344.75
315.771	341.75
316.001	324.75
316.23	331.75
316.46	335.75
316.689	335.75
316.919	349.75
317.148	354.75
317.377	347.75
317.607	341.75
317.836	349.75
318.065	340.75
318.295	349.75
318.524	325.75
318.753	347.75
318.983	332.75
319.212	363.75
319.441	364.75
319.67	361.75
319.9	347.75
320.129	352.75
320.358	361.75
320.587	343.75
320.816	345.75
321.046	385.75
321.275	371.75
321.504	356.75
321.733	363.75
321.962	379.75
322.191	392.75
322.42	372.75
322.649	397.75
322.878	403.75
323.108	413.75
323.337	402.75
323.566	438.75
323.795	454.75
324.024	472.75
324.253	569.75
324.482	793.75
324.71	1134.75
324.939	1543.75
325.168	1309.75
325.397	716.75
325.626	533.75
325.855	439.75
326.084	432.75
326.313	445.75
326.542	453.75
326.77	467.75
326.999	566.75
327.228	732.75
327.457	1020.75
327.686	1133.75
327.914	787.75
328.143	547.75
328.372	502.75
328.6	480.75
328.829	473.75
329.058	457.75
329.287	459.75
329.515	436.75
329.744	441.75
329.972	433.75
330.201	441.75
330.43	446.75
330.658	484.75
330.887	488.75
331.115	484.75
331.344	438.75
331.572	421.75
331.801	413.75
332.03	420.75
332.258	414.75
332.486	419.75
332.715	382.75
332.943	408.75
333.172	405.75
333.4	423.75
333.629	408.75
333.857	398.75
334.085	434.75
334.314	430.75
334.542	422.75
334.771	433.75
334.999	426.75
335.227	404.75
335.455	420.75
335.684	401.75
335.912	402.75
336.14	396.75
336.369	401.75
336.597	405.75
336.825	405.75
337.053	386.75
337.281	398.75
337.51	402.75
337.738	396.75
337.966	385.75
338.194	374.75
338.422	387.75
338.65	381.75
338.878	387.75
339.106	365.75
339.334	401.75
339.562	365.75
339.79	378.75
340.018	375.75
340.246	402.75
340.474	379.75
340.702	408.75
340.93	366.75
341.158	373.75
341.386	373.75
341.614	383.75
341.842	379.75
342.07	392.75
342.298	369.75
342.526	385.75
342.754	393.75
342.981	370.75
343.209	375.75
343.437	375.75
343.665	388.75
343.893	378.75
344.12	377.75
344.348	378.75
344.576	385.75
344.804	379.75
345.031	398.75
345.259	406.75
345.487	393.75
345.714	401.75
345.942	374.75
346.17	377.75
346.397	381.75
346.625	365.75
346.853	376.75
347.08	373.75
347.308	379.75
347.535	394.75
347.763	389.75
347.99	371.75
348.218	363.75
348.445	373.75
348.673	381.75
348.9	348.75
349.128	373.75
349.355	372.75
349.583	358.75
349.81	371.75
350.037	342.75
350.265	345.75
350.492	345.75
350.72	345.75
350.947	354.75
351.174	354.75
351.402	362.75
351.629	362.75
351.856	367.75
352.083	372.75
352.311	353.75
352.538	373.75
352.765	357.75
352.992	353.75
353.22	354.75
353.447	345.75
353.674	355.75
353.901	343.75
354.128	354.75
354.355	332.75
354.583	338.75
354.81	329.75
355.037	329.75
355.264	323.75
355.491	342.75
355.718	347.75
355.945	354.75
356.172	330.75
356.399	333.75
356.626	318.75
356.853	349.75
357.08	340.75
357.307	337.75
357.534	318.75
357.761	321.75
357.988	343.75
358.215	325.75
358.441	335.75
358.668	345.75
358.895	343.75
359.122	355.75
359.349	361.75
359.576	348.75
359.802	375.75
360.029	363.75
360.256	376.75
360.483	365.75
360.709	339.75
360.936	355.75
361.163	365.75
361.39	349.75
361.616	361.75
361.843	350.75
362.07	356.75
362.296	335.75
362.523	349.75
362.749	358.75
362.976	344.75
363.203	353.75
363.429	359.75
363.656	340.75
363.882	340.75
364.109	329.75
364.335	330.75
364.562	327.75
364.788	325.75
365.015	334.75
365.241	343.75
365.468	341.75
365.694	347.75
365.92	351.75
366.147	347.75
366.373	337.75
366.599	356.75
366.826	337.75
367.052	320.75
367.278	339.75
367.505	355.75
367.731	343.75
367.957	341.75
368.184	337.75
368.41	330.75
368.636	321.75
368.862	355.75
369.089	333.75
369.315	335.75
369.541	337.75
369.767	332.75
369.993	341.75
370.219	343.75
370.445	332.75
370.672	345.75
370.898	340.75
371.124	319.75
371.35	326.75
371.576	325.75
371.802	327.75
372.028	352.75
372.254	332.75
372.48	342.75
372.706	337.75
372.932	343.75
373.158	346.75
373.384	322.75
373.61	332.75
373.835	339.75
374.061	341.75
374.287	330.75
374.513	350.75
374.739	331.75
374.965	337.75
375.191	352.75
375.416	333.75
375.642	342.75
375.868	335.75
376.094	337.75
376.319	337.75
376.545	307.75
376.771	327.75
376.997	326.75
377.222	320.75
377.448	315.75
377.674	327.75
377.899	342.75
378.125	326.75
378.35	324.75
378.576	326.75
378.802	340.75
379.027	342.75
379.253	341.75
379.478	334.75
379.704	336.75
379.929	335.75
380.155	329.75
380.38	331.75
380.606	325.75
380.831	343.75
381.057	346.75
381.282	344.75
381.507	341.75
381.733	341.75
381.958	346.75
382.184	329.75
382.409	350.75
382.634	347.75
382.86	335.75
383.085	353.75
383.31	350.75
383.535	349.75
383.761	351.75
383.986	336.75
384.211	342.75
384.436	338.75
384.662	339.75
384.887	345.75
385.112	362.75
385.337	365.75
385.562	359.75
385.787	366.75
386.013	351.75
386.238	355.75
386.463	342.75
386.688	358.75
386.913	357.75
387.138	353.75
387.363	348.75
387.588	378.75
387.813	347.75
388.038	379.75
388.263	360.75
388.488	349.75
388.713	354.75
388.938	348.75
389.163	343.75
389.387	355.75
389.612	366.75
389.837	344.75
390.062	354.75
390.287	351.75
390.512	348.75
390.736	355.75
390.961	339.75
391.186	360.75
391.411	345.75
391.636	352.75
391.86	380.75
392.085	354.75
392.31	353.75
392.534	342.75
392.759	357.75
392.984	359.75
393.208	356.75
393.433	371.75
393.658	369.75
393.882	363.75
394.107	355.75
394.331	365.75
394.556	360.75
394.78	345.75
395.005	350.75
395.229	361.75
395.454	373.75
395.678	365.75
395.903	355.75
396.127	389.75
396.352	383.75
396.576	357.75
396.801	396.75
397.025	365.75
397.249	364.75
397.474	350.75
397.698	358.75
397.922	394.75
398.147	381.75
398.371	381.75
398.595	376.75
398.82	389.75
399.044	390.75
399.268	406.75
399.492	416.75
399.717	436.75
399.941	463.75
400.165	471.75
400.389	469.75
400.613	442.75
400.837	421.75
401.062	419.75
401.286	382.75
401.51	404.75
401.734	373.75
401.958	383.75
402.182	402.75
402.406	401.75
402.63	398.75
402.854	389.75
403.078	380.75
403.302	393.75
403.526	392.75
403.75	399.75
403.974	387.75
404.198	386.75
404.422	393.75
404.645	411.75
404.869	410.75
405.093	427.75
405.317	457.75
405.541	459.75
405.765	428.75
405.988	398.75
406.212	422.75
406.436	411.75
406.66	443.75
406.883	439.75
407.107	466.75
407.331	487.75
407.555	507.75
407.778	510.75
408.002	458.75
408.226	437.75
408.449	444.75
408.673	443.75
408.896	479.75
409.12	486.75
409.344	448.75
409.567	433.75
409.791	411.75
410.014	406.75
410.238	399.75
410.461	417.75
410.685	407.75
410.908	417.75
411.132	428.75
411.355	453.75
411.578	437.75
411.802	418.75
412.025	379.75
412.249	403.75
412.472	417.75
412.695	441.75
412.919	444.75
413.142	404.75
413.365	380.75
413.589	388.75
413.812	393.75
414.035	378.75
414.258	379.75
414.482	359.75
414.705	358.75
414.928	370.75
415.151	371.75
415.374	377.75
415.597	369.75
415.821	375.75
416.044	382.75
416.267	395.75
416.49	371.75
416.713	394.75
416.936	366.75
417.159	362.75
417.382	354.75
417.605	384.75
417.828	377.75
418.051	389.75
418.274	404.75
418.497	380.75
418.72	374.75
418.943	386.75
419.166	399.75
419.389	394.75
419.611	398.75
419.834	410.75
420.057	411.75
420.28	388.75
420.503	399.75
420.726	388.75
420.948	406.75
421.171	461.75
421.394	446.75
421.617	400.75
421.839	407.75
422.062	387.75
422.285	406.75
422.507	432.75
422.73	484.75
422.953	474.75
423.175	437.75
423.398	412.75
423.621	403.75
423.843	421.75
424.066	436.75
424.288	427.75
424.511	448.75
424.733	461.75
424.956	525.75
425.178	505.75
425.401	491.75
425.623	523.75
425.846	445.75
426.068	426.75
426.291	404.75
426.513	392.75
426.735	405.75
426.958	443.75
427.18	520.75
427.402	598.75
427.625	661.75
427.847	535.75
428.069	476.75
428.292	453.75
428.514	413.75
428.736	387.75
428.958	414.75
429.181	377.75
429.403	366.75
429.625	391.75
429.847	405.75
430.069	457.75
430.292	444.75
430.514	392.75
430.736	389.75
430.958	371.75
431.18	370.75
431.402	372.75
431.624	373.75
431.846	370.75
432.068	365.75
432.29	366.75
432.512	358.75
432.734	369.75
432.956	374.75
433.178	390.75
433.4	379.75
433.622	381.75
433.844	359.75
434.066	373.75
434.287	380.75
434.509	369.75
434.731	369.75
434.953	380.75
435.175	375.75
435.397	390.75
435.618	419.75
435.84	442.75
436.062	517.75
436.284	554.75
436.505	457.75
436.727	413.75
436.949	400.75
437.17	374.75
437.392	381.75
437.614	398.75
437.835	421.75
438.057	475.75
438.278	535.75
438.5	571.75
438.721	621.75
438.943	584.75
439.165	467.75
439.386	442.75
439.608	412.75
439.829	409.75
440.05	449.75
440.272	437.75
440.493	428.75
440.715	419.75
440.936	394.75
441.158	372.75
441.379	386.75
441.6	402.75
441.822	418.75
442.043	436.75
442.264	500.75
442.486	530.75
442.707	478.75
442.928	449.75
443.149	441.75
443.371	433.75
443.592	469.75
443.813	530.75
444.034	580.75
444.255	489.75
444.476	439.75
444.698	426.75
444.919	428.75
445.14	555.75
445.361	474.75
445.582	439.75
445.803	490.75
446.024	562.75
446.245	552.75
446.466	484.75
446.687	456.75
446.908	427.75
447.129	406.75
447.35	412.75
447.571	359.75
447.792	383.75
448.013	393.75
448.234	421.75
448.455	426.75
448.675	524.75
448.896	597.75
449.117	511.75
449.338	492.75
449.559	541.75
449.779	623.75
450	510.75
450.221	434.75
450.442	406.75
450.662	369.75
450.883	370.75
451.104	396.75
451.324	371.75
451.545	372.75
451.766	339.75
451.986	359.75
452.207	355.75
452.428	338.75
452.648	347.75
452.869	331.75
453.089	337.75
453.31	345.75
453.53	357.75
453.751	363.75
453.971	345.75
454.192	357.75
454.412	349.75
454.633	325.75
454.853	338.75
455.073	321.75
455.294	364.75
455.514	390.75
455.734	394.75
455.955	357.75
456.175	332.75
456.395	314.75
456.616	326.75
456.836	328.75
457.056	298.75
457.276	284.75
457.497	335.75
457.717	325.75
457.937	343.75
458.157	323.75
458.377	348.75
458.598	335.75
458.818	381.75
459.038	428.75
459.258	455.75
459.478	382.75
459.698	380.75
459.918	349.75
460.138	366.75
460.358	362.75
460.578	347.75
460.798	361.75
461.018	363.75
461.238	356.75
461.458	361.75
461.678	329.75
461.898	379.75
462.118	374.75
462.338	371.75
462.558	385.75
462.777	367.75
462.997	389.75
463.217	403.75
463.437	397.75
463.657	379.75
463.876	382.75
464.096	383.75
464.316	387.75
464.536	408.75
464.755	389.75
464.975	404.75
465.195	417.75
465.414	450.75
465.634	397.75
465.854	388.75
466.073	387.75
466.293	364.75
466.512	344.75
466.732	341.75
466.951	380.75
467.171	349.75
467.391	341.75
467.61	363.75
467.829	380.75
468.049	371.75
468.268	347.75
468.488	333.75
468.707	329.75
468.927	361.75
469.146	348.75
469.365	351.75
469.585	325.75
469.804	353.75
470.023	373.75
470.243	361.75
470.462	363.75
470.681	336.75
470.901	360.75
471.12	349.75
471.339	373.75
471.558	363.75
471.777	364.75
471.997	361.75
472.216	362.75
472.435	352.75
472.654	377.75
472.873	355.75
473.092	370.75
473.311	362.75
473.53	371.75
473.749	351.75
473.968	405.75
474.187	461.75
474.406	450.75
474.625	386.75
474.844	374.75
475.063	359.75
475.282	368.75
475.501	343.75
475.72	369.75
475.939	367.75
476.158	377.75
476.377	363.75
476.596	359.75
476.814	362.75
477.033	383.75
477.252	370.75
477.471	374.75
477.69	372.75
477.908	384.75
478.127	382.75
478.346	389.75
478.564	405.75
478.783	379.75
479.002	390.75
479.22	398.75
479.439	406.75
479.658	394.75
479.876	423.75
480.095	412.75
480.313	447.75
480.532	437.75
480.751	423.75
480.969	419.75
481.188	450.75
481.406	466.75
481.624	423.75
481.843	433.75
482.061	410.75
482.28	425.75
482.498	415.75
482.717	412.75
482.935	391.75
483.153	428.75
483.372	414.75
483.59	406.75
483.808	411.75
484.027	402.75
484.245	411.75
484.463	416.75
484.681	415.75
484.9	400.75
485.118	414.75
485.336	434.75
485.554	414.75
485.772	416.75
485.99	405.75
486.209	419.75
486.427	425.75
486.645	427.75
486.863	421.75
487.081	441.75
487.299	453.75
487.517	434.75
487.735	421.75
487.953	438.75
488.171	433.75
488.389	433.75
488.607	430.75
488.825	421.75
489.043	446.75
489.261	432.75
489.479	462.75
489.696	453.75
489.914	464.75
490.132	446.75
490.35	436.75
490.568	454.75
490.786	491.75
491.003	461.75
491.221	482.75
491.439	491.75
491.657	479.75
491.874	498.75
492.092	495.75
492.31	508.75
492.527	510.75
492.745	508.75
492.963	508.75
493.18	494.75
493.398	503.75
493.615	515.75
493.833	508.75
494.05	507.75
494.268	522.75
494.485	486.75
494.703	508.75
494.92	507.75
495.138	525.75
495.355	517.75
495.573	512.75
495.79	524.75
496.008	502.75
496.225	536.75
496.442	510.75
496.66	522.75
496.877	533.75
497.094	533.75
497.312	517.75
497.529	534.75
497.746	539.75
497.963	544.75
498.181	555.75
498.398	555.75
498.615	571.75
498.832	560.75
499.049	582.75
499.267	583.75
499.484	606.75
499.701	621.75
499.918	637.75
500.135	651.75
500.352	707.75
500.569	689.75
500.786	713.75
501.003	682.75
501.22	677.75
501.437	663.75
501.654	644.75
501.871	634.75
502.088	607.75
