Data from 1971.PennyLincolnUp.Lamp.En5.5.200Scan.071719.P1.Scan 2. Changed Angle._HRD10591_15-25-03-844.txt Node
Date: Thu Jul 18 15:25:03 EDT 2019
User: cochatt
Spectrometer: HR+D1059
Trigger mode: 1
Integration Time (sec): 1.000000E-1
Scans to average: 1
Electric dark correction enabled: true
Nonlinearity correction enabled: false
Boxcar width: 0
XAxis mode: Wavelengths
Number of Pixels in Spectrum: 2048
>>>>>Begin Spectral Data<<<<<
223.165	-22.38
223.4	-22.38
223.635	-22.38
223.869	-14.38
224.104	-31.38
224.338	-6.38
224.573	-9.38
224.808	-5.38
225.042	-26.38
225.277	-7.38
225.511	-0.38
225.746	4.62
225.98	6.62
226.215	3.62
226.449	19.62
226.683	18.62
226.918	19.62
227.152	50.62
227.387	34.62
227.621	32.62
227.856	49.62
228.09	47.62
228.324	54.62
228.559	56.62
228.793	79.62
229.027	104.62
229.262	115.62
229.496	135.62
229.73	152.62
229.964	189.62
230.199	161.62
230.433	145.62
230.667	127.62
230.901	118.62
231.136	125.62
231.37	116.62
231.604	122.62
231.838	124.62
232.072	120.62
232.306	117.62
232.541	100.62
232.775	116.62
233.009	125.62
233.243	124.62
233.477	119.62
233.711	111.62
233.945	125.62
234.179	119.62
234.413	124.62
234.647	118.62
234.881	103.62
235.115	130.62
235.349	125.62
235.583	112.62
235.817	127.62
236.051	122.62
236.285	130.62
236.519	120.62
236.753	137.62
236.987	160.62
237.221	208.62
237.455	255.62
237.689	203.62
237.922	144.62
238.156	129.62
238.39	137.62
238.624	139.62
238.858	142.62
239.091	123.62
239.325	145.62
239.559	131.62
239.793	139.62
240.027	148.62
240.26	157.62
240.494	186.62
240.728	172.62
240.961	171.62
241.195	172.62
241.429	142.62
241.662	137.62
241.896	147.62
242.13	147.62
242.363	145.62
242.597	149.62
242.83	130.62
243.064	150.62
243.298	155.62
243.531	139.62
243.765	145.62
243.998	150.62
244.232	156.62
244.465	154.62
244.699	140.62
244.932	164.62
245.166	173.62
245.399	147.62
245.633	132.62
245.866	154.62
246.099	150.62
246.333	144.62
246.566	156.62
246.8	188.62
247.033	168.62
247.266	156.62
247.5	170.62
247.733	178.62
247.966	199.62
248.2	179.62
248.433	183.62
248.666	191.62
248.899	207.62
249.133	224.62
249.366	250.62
249.599	215.62
249.832	199.62
250.066	193.62
250.299	212.62
250.532	205.62
250.765	218.62
250.998	246.62
251.231	247.62
251.465	249.62
251.698	215.62
251.931	223.62
252.164	213.62
252.397	215.62
252.63	211.62
252.863	227.62
253.096	243.62
253.329	257.62
253.562	243.62
253.795	235.62
254.028	242.62
254.261	242.62
254.494	244.62
254.727	282.62
254.96	335.62
255.193	315.62
255.426	281.62
255.659	279.62
255.892	251.62
256.124	247.62
256.357	243.62
256.59	232.62
256.823	232.62
257.056	250.62
257.289	225.62
257.521	245.62
257.754	247.62
257.987	222.62
258.22	235.62
258.452	220.62
258.685	234.62
258.918	240.62
259.151	218.62
259.383	249.62
259.616	235.62
259.849	234.62
260.081	261.62
260.314	265.62
260.547	292.62
260.779	272.62
261.012	252.62
261.244	231.62
261.477	231.62
261.71	242.62
261.942	259.62
262.175	250.62
262.407	257.62
262.64	228.62
262.872	233.62
263.105	219.62
263.337	248.62
263.57	218.62
263.802	225.62
264.035	228.62
264.267	210.62
264.499	204.62
264.732	216.62
264.964	229.62
265.197	221.62
265.429	231.62
265.661	221.62
265.894	212.62
266.126	217.62
266.358	226.62
266.591	231.62
266.823	231.62
267.055	227.62
267.287	234.62
267.52	237.62
267.752	221.62
267.984	208.62
268.216	232.62
268.448	232.62
268.681	245.62
268.913	255.62
269.145	270.62
269.377	300.62
269.609	277.62
269.841	297.62
270.073	283.62
270.306	311.62
270.538	339.62
270.77	325.62
271.002	328.62
271.234	319.62
271.466	333.62
271.698	351.62
271.93	351.62
272.162	353.62
272.394	327.62
272.626	325.62
272.858	321.62
273.09	307.62
273.322	289.62
273.553	281.62
273.785	250.62
274.017	288.62
274.249	261.62
274.481	283.62
274.713	276.62
274.945	292.62
275.176	279.62
275.408	289.62
275.64	263.62
275.872	303.62
276.104	263.62
276.335	275.62
276.567	279.62
276.799	315.62
277.031	318.62
277.262	345.62
277.494	319.62
277.726	324.62
277.957	306.62
278.189	314.62
278.421	308.62
278.652	292.62
278.884	259.62
279.115	291.62
279.347	271.62
279.579	266.62
279.81	270.62
280.042	256.62
280.273	273.62
280.505	247.62
280.736	270.62
280.968	277.62
281.199	267.62
281.431	276.62
281.662	264.62
281.894	263.62
282.125	285.62
282.356	300.62
282.588	318.62
282.819	336.62
283.051	285.62
283.282	269.62
283.513	266.62
283.745	262.62
283.976	273.62
284.207	279.62
284.439	283.62
284.67	288.62
284.901	281.62
285.132	292.62
285.364	265.62
285.595	283.62
285.826	270.62
286.057	267.62
286.288	266.62
286.52	283.62
286.751	268.62
286.982	284.62
287.213	282.62
287.444	277.62
287.675	272.62
287.906	300.62
288.138	283.62
288.369	289.62
288.6	308.62
288.831	299.62
289.062	302.62
289.293	305.62
289.524	305.62
289.755	282.62
289.986	288.62
290.217	298.62
290.448	279.62
290.679	275.62
290.91	255.62
291.141	272.62
291.371	280.62
291.602	278.62
291.833	278.62
292.064	281.62
292.295	263.62
292.526	292.62
292.757	281.62
292.987	265.62
293.218	268.62
293.449	293.62
293.68	300.62
293.91	285.62
294.141	285.62
294.372	276.62
294.603	291.62
294.833	297.62
295.064	300.62
295.295	298.62
295.525	307.62
295.756	300.62
295.987	306.62
296.217	316.62
296.448	317.62
296.679	311.62
296.909	283.62
297.14	283.62
297.37	301.62
297.601	292.62
297.831	295.62
298.062	297.62
298.292	298.62
298.523	295.62
298.753	307.62
298.984	283.62
299.214	283.62
299.445	300.62
299.675	283.62
299.905	316.62
300.136	313.62
300.366	295.62
300.597	307.62
300.827	307.62
301.057	332.62
301.288	333.62
301.518	320.62
301.748	310.62
301.979	308.62
302.209	324.62
302.439	323.62
302.669	329.62
302.9	310.62
303.13	309.62
303.36	337.62
303.59	331.62
303.82	332.62
304.051	329.62
304.281	323.62
304.511	315.62
304.741	332.62
304.971	307.62
305.201	329.62
305.431	317.62
305.661	329.62
305.891	311.62
306.121	326.62
306.352	338.62
306.582	344.62
306.812	345.62
307.042	324.62
307.272	333.62
307.502	326.62
307.731	333.62
307.961	328.62
308.191	327.62
308.421	317.62
308.651	338.62
308.881	336.62
309.111	356.62
309.341	347.62
309.571	346.62
309.8	370.62
310.03	381.62
310.26	381.62
310.49	396.62
310.72	404.62
310.949	421.62
311.179	442.62
311.409	385.62
311.639	398.62
311.868	420.62
312.098	413.62
312.328	401.62
312.557	427.62
312.787	423.62
313.017	444.62
313.246	413.62
313.476	374.62
313.706	403.62
313.935	411.62
314.165	405.62
314.394	420.62
314.624	411.62
314.853	396.62
315.083	415.62
315.312	401.62
315.542	390.62
315.771	370.62
316.001	376.62
316.23	369.62
316.46	374.62
316.689	374.62
316.919	407.62
317.148	389.62
317.377	411.62
317.607	397.62
317.836	373.62
318.065	397.62
318.295	368.62
318.524	381.62
318.753	386.62
318.983	391.62
319.212	375.62
319.441	405.62
319.67	402.62
319.9	387.62
320.129	387.62
320.358	379.62
320.587	381.62
320.816	419.62
321.046	420.62
321.275	426.62
321.504	397.62
321.733	415.62
321.962	441.62
322.191	473.62
322.42	470.62
322.649	473.62
322.878	487.62
323.108	512.62
323.337	522.62
323.566	580.62
323.795	600.62
324.024	696.62
324.253	871.62
324.482	1293.62
324.71	1988.62
324.939	2813.62
325.168	2441.62
325.397	1257.62
325.626	813.62
325.855	634.62
326.084	583.62
326.313	565.62
326.542	581.62
326.77	635.62
326.999	801.62
327.228	1097.62
327.457	1745.62
327.686	2163.62
327.914	1410.62
328.143	897.62
328.372	781.62
328.6	715.62
328.829	667.62
329.058	700.62
329.287	683.62
329.515	643.62
329.744	584.62
329.972	586.62
330.201	626.62
330.43	684.62
330.658	691.62
330.887	755.62
331.115	727.62
331.344	590.62
331.572	566.62
331.801	534.62
332.03	535.62
332.258	495.62
332.486	497.62
332.715	482.62
332.943	468.62
333.172	461.62
333.4	466.62
333.629	487.62
333.857	520.62
334.085	501.62
334.314	524.62
334.542	581.62
334.771	603.62
334.999	550.62
335.227	515.62
335.455	467.62
335.684	464.62
335.912	459.62
336.14	465.62
336.369	434.62
336.597	473.62
336.825	481.62
337.053	449.62
337.281	435.62
337.51	454.62
337.738	455.62
337.966	446.62
338.194	430.62
338.422	443.62
338.65	452.62
338.878	452.62
339.106	420.62
339.334	449.62
339.562	440.62
339.79	428.62
340.018	426.62
340.246	441.62
340.474	418.62
340.702	435.62
340.93	431.62
341.158	423.62
341.386	459.62
341.614	446.62
341.842	443.62
342.07	427.62
342.298	447.62
342.526	424.62
342.754	444.62
342.981	419.62
343.209	441.62
343.437	403.62
343.665	439.62
343.893	428.62
344.12	444.62
344.348	447.62
344.576	459.62
344.804	467.62
345.031	471.62
345.259	492.62
345.487	471.62
345.714	462.62
345.942	431.62
346.17	446.62
346.397	444.62
346.625	456.62
346.853	451.62
347.08	416.62
347.308	452.62
347.535	454.62
347.763	457.62
347.99	446.62
348.218	455.62
348.445	465.62
348.673	462.62
348.9	435.62
349.128	436.62
349.355	420.62
349.583	419.62
349.81	423.62
350.037	439.62
350.265	424.62
350.492	432.62
350.72	439.62
350.947	436.62
351.174	449.62
351.402	469.62
351.629	455.62
351.856	458.62
352.083	472.62
352.311	486.62
352.538	470.62
352.765	465.62
352.992	474.62
353.22	449.62
353.447	444.62
353.674	440.62
353.901	411.62
354.128	411.62
354.355	395.62
354.583	423.62
354.81	418.62
355.037	409.62
355.264	381.62
355.491	402.62
355.718	400.62
355.945	393.62
356.172	397.62
356.399	393.62
356.626	411.62
356.853	389.62
357.08	401.62
357.307	392.62
357.534	401.62
357.761	397.62
357.988	379.62
358.215	397.62
358.441	385.62
358.668	407.62
358.895	429.62
359.122	421.62
359.349	424.62
359.576	447.62
359.802	483.62
360.029	509.62
360.256	542.62
360.483	509.62
360.709	467.62
360.936	447.62
361.163	440.62
361.39	457.62
361.616	473.62
361.843	458.62
362.07	456.62
362.296	462.62
362.523	468.62
362.749	451.62
362.976	444.62
363.203	437.62
363.429	423.62
363.656	409.62
363.882	428.62
364.109	404.62
364.335	422.62
364.562	417.62
364.788	431.62
365.015	446.62
365.241	405.62
365.468	419.62
365.694	444.62
365.92	435.62
366.147	408.62
366.373	427.62
366.599	403.62
366.826	413.62
367.052	415.62
367.278	439.62
367.505	433.62
367.731	433.62
367.957	406.62
368.184	407.62
368.41	420.62
368.636	443.62
368.862	449.62
369.089	450.62
369.315	419.62
369.541	421.62
369.767	434.62
369.993	425.62
370.219	418.62
370.445	424.62
370.672	413.62
370.898	398.62
371.124	385.62
371.35	415.62
371.576	418.62
371.802	415.62
372.028	388.62
372.254	392.62
372.48	405.62
372.706	409.62
372.932	417.62
373.158	398.62
373.384	425.62
373.61	439.62
373.835	409.62
374.061	429.62
374.287	407.62
374.513	434.62
374.739	439.62
374.965	417.62
375.191	413.62
375.416	421.62
375.642	400.62
375.868	434.62
376.094	398.62
376.319	411.62
376.545	422.62
376.771	405.62
376.997	416.62
377.222	414.62
377.448	407.62
377.674	410.62
377.899	407.62
378.125	406.62
378.35	413.62
378.576	405.62
378.802	404.62
379.027	403.62
379.253	402.62
379.478	402.62
379.704	414.62
379.929	401.62
380.155	432.62
380.38	405.62
380.606	431.62
380.831	419.62
381.057	406.62
381.282	403.62
381.507	423.62
381.733	422.62
381.958	419.62
382.184	403.62
382.409	403.62
382.634	431.62
382.86	405.62
383.085	409.62
383.31	409.62
383.535	444.62
383.761	423.62
383.986	431.62
384.211	437.62
384.436	423.62
384.662	428.62
384.887	439.62
385.112	436.62
385.337	437.62
385.562	426.62
385.787	435.62
386.013	459.62
386.238	447.62
386.463	456.62
386.688	459.62
386.913	422.62
387.138	458.62
387.363	434.62
387.588	456.62
387.813	442.62
388.038	431.62
388.263	449.62
388.488	453.62
388.713	443.62
388.938	450.62
389.163	468.62
389.387	461.62
389.612	468.62
389.837	453.62
390.062	440.62
390.287	447.62
390.512	449.62
390.736	436.62
390.961	446.62
391.186	470.62
391.411	457.62
391.636	461.62
391.86	434.62
392.085	460.62
392.31	460.62
392.534	449.62
392.759	461.62
392.984	469.62
393.208	459.62
393.433	454.62
393.658	447.62
393.882	447.62
394.107	454.62
394.331	435.62
394.556	438.62
394.78	454.62
395.005	467.62
395.229	445.62
395.454	454.62
395.678	461.62
395.903	455.62
396.127	493.62
396.352	517.62
396.576	477.62
396.801	465.62
397.025	469.62
397.249	459.62
397.474	472.62
397.698	452.62
397.922	479.62
398.147	501.62
398.371	517.62
398.595	476.62
398.82	488.62
399.044	511.62
399.268	510.62
399.492	529.62
399.717	572.62
399.941	575.62
400.165	623.62
400.389	623.62
400.613	578.62
400.837	560.62
401.062	508.62
401.286	515.62
401.51	501.62
401.734	506.62
401.958	516.62
402.182	521.62
402.406	528.62
402.63	549.62
402.854	530.62
403.078	507.62
403.302	516.62
403.526	523.62
403.75	536.62
403.974	535.62
404.198	518.62
404.422	553.62
404.645	572.62
404.869	580.62
405.093	608.62
405.317	636.62
405.541	685.62
405.765	612.62
405.988	588.62
406.212	578.62
406.436	606.62
406.66	645.62
406.883	603.62
407.107	627.62
407.331	676.62
407.555	744.62
407.778	732.62
408.002	671.62
408.226	601.62
408.449	620.62
408.673	590.62
408.896	611.62
409.12	680.62
409.344	646.62
409.567	592.62
409.791	565.62
410.014	561.62
410.238	542.62
410.461	555.62
410.685	570.62
410.908	568.62
411.132	616.62
411.355	615.62
411.578	626.62
411.802	579.62
412.025	536.62
412.249	545.62
412.472	588.62
412.695	635.62
412.919	603.62
413.142	579.62
413.365	555.62
413.589	536.62
413.812	521.62
414.035	531.62
414.258	519.62
414.482	533.62
414.705	517.62
414.928	522.62
415.151	513.62
415.374	510.62
415.597	511.62
415.821	493.62
416.044	515.62
416.267	525.62
416.49	528.62
416.713	514.62
416.936	509.62
417.159	503.62
417.382	523.62
417.605	532.62
417.828	547.62
418.051	548.62
418.274	583.62
418.497	521.62
418.72	535.62
418.943	517.62
419.166	536.62
419.389	549.62
419.611	565.62
419.834	572.62
420.057	562.62
420.28	537.62
420.503	547.62
420.726	544.62
420.948	573.62
421.171	629.62
421.394	653.62
421.617	600.62
421.839	551.62
422.062	578.62
422.285	594.62
422.507	640.62
422.73	730.62
422.953	695.62
423.175	635.62
423.398	582.62
423.621	593.62
423.843	616.62
424.066	602.62
424.288	595.62
424.511	657.62
424.733	692.62
424.956	800.62
425.178	769.62
425.401	778.62
425.623	764.62
425.846	667.62
426.068	638.62
426.291	623.62
426.513	626.62
426.735	651.62
426.958	683.62
427.18	803.62
427.402	937.62
427.625	1007.62
427.847	963.62
428.069	801.62
428.292	692.62
428.514	649.62
428.736	608.62
428.958	599.62
429.181	597.62
429.403	591.62
429.625	582.62
429.847	635.62
430.069	692.62
430.292	716.62
430.514	595.62
430.736	580.62
430.958	577.62
431.18	542.62
431.402	553.62
431.624	517.62
431.846	543.62
432.068	524.62
432.29	543.62
432.512	534.62
432.734	545.62
432.956	557.62
433.178	575.62
433.4	575.62
433.622	556.62
433.844	539.62
434.066	531.62
434.287	495.62
434.509	537.62
434.731	523.62
434.953	556.62
435.175	567.62
435.397	604.62
435.618	653.62
435.84	668.62
436.062	804.62
436.284	852.62
436.505	739.62
436.727	649.62
436.949	600.62
437.17	587.62
437.392	610.62
437.614	611.62
437.835	652.62
438.057	773.62
438.278	889.62
438.5	890.62
438.721	929.62
438.943	873.62
439.165	723.62
439.386	685.62
439.608	653.62
439.829	681.62
440.05	690.62
440.272	759.62
440.493	695.62
440.715	632.62
440.936	603.62
441.158	601.62
441.379	580.62
441.6	626.62
441.822	651.62
442.043	671.62
442.264	770.62
442.486	824.62
442.707	697.62
442.928	650.62
443.149	644.62
443.371	705.62
443.592	759.62
443.813	865.62
444.034	911.62
444.255	746.62
444.476	666.62
444.698	637.62
444.919	617.62
445.14	775.62
445.361	699.62
445.582	680.62
445.803	755.62
446.024	875.62
446.245	883.62
446.466	833.62
446.687	709.62
446.908	652.62
447.129	614.62
447.35	597.62
447.571	579.62
447.792	565.62
448.013	579.62
448.234	596.62
448.455	660.62
448.675	800.62
448.896	921.62
449.117	786.62
449.338	776.62
449.559	858.62
449.779	948.62
450	791.62
450.221	693.62
450.442	600.62
450.662	596.62
450.883	616.62
451.104	637.62
451.324	630.62
451.545	575.62
451.766	573.62
451.986	536.62
452.207	531.62
452.428	540.62
452.648	531.62
452.869	515.62
453.089	535.62
453.31	554.62
453.53	563.62
453.751	548.62
453.971	527.62
454.192	575.62
454.412	544.62
454.633	528.62
454.853	532.62
455.073	517.62
455.294	553.62
455.514	641.62
455.734	619.62
455.955	553.62
456.175	509.62
456.395	488.62
456.616	472.62
456.836	489.62
457.056	480.62
457.276	485.62
457.497	486.62
457.717	483.62
457.937	460.62
458.157	513.62
458.377	519.62
458.598	532.62
458.818	619.62
459.038	728.62
459.258	697.62
459.478	607.62
459.698	570.62
459.918	531.62
460.138	539.62
460.358	521.62
460.578	519.62
460.798	543.62
461.018	525.62
461.238	532.62
461.458	523.62
461.678	523.62
461.898	529.62
462.118	517.62
462.338	530.62
462.558	541.62
462.777	547.62
462.997	530.62
463.217	539.62
463.437	544.62
463.657	546.62
463.876	548.62
464.096	576.62
464.316	540.62
464.536	553.62
464.755	590.62
464.975	581.62
465.195	662.62
465.414	798.62
465.634	705.62
465.854	610.62
466.073	561.62
466.293	572.62
466.512	533.62
466.732	545.62
466.951	523.62
467.171	522.62
467.391	516.62
467.61	545.62
467.829	566.62
468.049	541.62
468.268	536.62
468.488	517.62
468.707	499.62
468.927	499.62
469.146	513.62
469.365	502.62
469.585	514.62
469.804	525.62
470.023	559.62
470.243	525.62
470.462	553.62
470.681	559.62
470.901	580.62
471.12	530.62
471.339	527.62
471.558	537.62
471.777	540.62
471.997	540.62
472.216	555.62
472.435	599.62
472.654	584.62
472.873	531.62
473.092	533.62
473.311	544.62
473.53	536.62
473.749	539.62
473.968	597.62
474.187	727.62
474.406	775.62
474.625	632.62
474.844	579.62
475.063	557.62
475.282	547.62
475.501	541.62
475.72	542.62
475.939	539.62
476.158	553.62
476.377	570.62
476.596	552.62
476.814	582.62
477.033	571.62
477.252	551.62
477.471	555.62
477.69	587.62
477.908	573.62
478.127	599.62
478.346	580.62
478.564	593.62
478.783	604.62
479.002	611.62
479.22	612.62
479.439	628.62
479.658	654.62
479.876	664.62
480.095	672.62
480.313	678.62
480.532	679.62
480.751	657.62
480.969	701.62
481.188	755.62
481.406	824.62
481.624	726.62
481.843	682.62
482.061	659.62
482.28	643.62
482.498	628.62
482.717	661.62
482.935	640.62
483.153	638.62
483.372	627.62
483.59	669.62
483.808	640.62
484.027	641.62
484.245	643.62
484.463	632.62
484.681	658.62
484.9	661.62
485.118	657.62
485.336	652.62
485.554	643.62
485.772	651.62
485.99	683.62
486.209	682.62
486.427	684.62
486.645	677.62
486.863	711.62
487.081	714.62
487.299	714.62
487.517	728.62
487.735	697.62
487.953	697.62
488.171	704.62
488.389	683.62
488.607	679.62
488.825	691.62
489.043	698.62
489.261	710.62
489.479	713.62
489.696	730.62
489.914	737.62
490.132	723.62
490.35	729.62
490.568	741.62
490.786	748.62
491.003	793.62
491.221	781.62
491.439	828.62
491.657	817.62
491.874	831.62
492.092	823.62
492.31	836.62
492.527	860.62
492.745	813.62
492.963	829.62
493.18	821.62
493.398	835.62
493.615	836.62
493.833	827.62
494.05	841.62
494.268	870.62
494.485	856.62
494.703	841.62
494.92	856.62
495.138	851.62
495.355	858.62
495.573	845.62
495.79	864.62
496.008	835.62
496.225	860.62
496.442	859.62
496.66	859.62
496.877	845.62
497.094	861.62
497.312	828.62
497.529	853.62
497.746	882.62
497.963	899.62
498.181	915.62
498.398	915.62
498.615	898.62
498.832	907.62
499.049	921.62
499.267	935.62
499.484	933.62
499.701	955.62
499.918	958.62
500.135	988.62
500.352	1015.62
500.569	1023.62
500.786	1042.62
501.003	1035.62
501.22	1023.62
501.437	1004.62
