Data from 1971.PennyLincolnUp.Lamp.En5.5.200Scan.071719.P1.Scan 2. Changed Angle._HRD10591_15-24-03-842.txt Node
Date: Thu Jul 18 15:24:03 EDT 2019
User: cochatt
Spectrometer: HR+D1059
Trigger mode: 1
Integration Time (sec): 1.000000E-1
Scans to average: 1
Electric dark correction enabled: true
Nonlinearity correction enabled: false
Boxcar width: 0
XAxis mode: Wavelengths
Number of Pixels in Spectrum: 2048
>>>>>Begin Spectral Data<<<<<
223.165	-21.88
223.4	-21.88
223.635	-21.88
223.869	-21.88
224.104	-9.88
224.338	-13.88
224.573	-25.88
224.808	-7.88
225.042	-8.88
225.277	8.12
225.511	-5.88
225.746	4.12
225.98	8.12
226.215	12.12
226.449	15.12
226.683	11.12
226.918	27.12
227.152	30.12
227.387	36.12
227.621	42.12
227.856	45.12
228.09	40.12
228.324	48.12
228.559	53.12
228.793	55.12
229.027	118.12
229.262	126.12
229.496	137.12
229.73	153.12
229.964	175.12
230.199	146.12
230.433	109.12
230.667	113.12
230.901	117.12
231.136	117.12
231.37	127.12
231.604	125.12
231.838	121.12
232.072	126.12
232.306	122.12
232.541	100.12
232.775	113.12
233.009	123.12
233.243	111.12
233.477	129.12
233.711	108.12
233.945	110.12
234.179	130.12
234.413	130.12
234.647	108.12
234.881	125.12
235.115	129.12
235.349	111.12
235.583	125.12
235.817	121.12
236.051	129.12
236.285	134.12
236.519	137.12
236.753	149.12
236.987	156.12
237.221	210.12
237.455	258.12
237.689	209.12
237.922	163.12
238.156	165.12
238.39	150.12
238.624	132.12
238.858	134.12
239.091	136.12
239.325	134.12
239.559	120.12
239.793	140.12
240.027	126.12
240.26	150.12
240.494	164.12
240.728	155.12
240.961	169.12
241.195	159.12
241.429	150.12
241.662	146.12
241.896	147.12
242.13	137.12
242.363	136.12
242.597	133.12
242.83	146.12
243.064	138.12
243.298	153.12
243.531	149.12
243.765	147.12
243.998	143.12
244.232	145.12
244.465	157.12
244.699	163.12
244.932	157.12
245.166	141.12
245.399	164.12
245.633	151.12
245.866	154.12
246.099	143.12
246.333	154.12
246.566	153.12
246.8	160.12
247.033	152.12
247.266	151.12
247.5	167.12
247.733	172.12
247.966	191.12
248.2	182.12
248.433	163.12
248.666	177.12
248.899	190.12
249.133	216.12
249.366	236.12
249.599	214.12
249.832	197.12
250.066	168.12
250.299	205.12
250.532	206.12
250.765	218.12
250.998	243.12
251.231	241.12
251.465	237.12
251.698	213.12
251.931	214.12
252.164	206.12
252.397	213.12
252.63	211.12
252.863	211.12
253.096	252.12
253.329	261.12
253.562	243.12
253.795	227.12
254.028	233.12
254.261	239.12
254.494	245.12
254.727	269.12
254.96	295.12
255.193	303.12
255.426	274.12
255.659	253.12
255.892	251.12
256.124	260.12
256.357	243.12
256.59	245.12
256.823	242.12
257.056	237.12
257.289	216.12
257.521	218.12
257.754	216.12
257.987	236.12
258.22	213.12
258.452	212.12
258.685	209.12
258.918	209.12
259.151	218.12
259.383	222.12
259.616	226.12
259.849	247.12
260.081	238.12
260.314	286.12
260.547	280.12
260.779	264.12
261.012	238.12
261.244	241.12
261.477	223.12
261.71	245.12
261.942	231.12
262.175	249.12
262.407	246.12
262.64	228.12
262.872	214.12
263.105	222.12
263.337	213.12
263.57	224.12
263.802	221.12
264.035	206.12
264.267	217.12
264.499	206.12
264.732	204.12
264.964	211.12
265.197	219.12
265.429	202.12
265.661	218.12
265.894	220.12
266.126	211.12
266.358	227.12
266.591	216.12
266.823	219.12
267.055	227.12
267.287	244.12
267.52	243.12
267.752	231.12
267.984	237.12
268.216	237.12
268.448	241.12
268.681	222.12
268.913	253.12
269.145	287.12
269.377	293.12
269.609	288.12
269.841	307.12
270.073	272.12
270.306	313.12
270.538	332.12
270.77	340.12
271.002	317.12
271.234	302.12
271.466	318.12
271.698	330.12
271.93	314.12
272.162	341.12
272.394	343.12
272.626	339.12
272.858	297.12
273.09	286.12
273.322	282.12
273.553	272.12
273.785	275.12
274.017	279.12
274.249	268.12
274.481	259.12
274.713	278.12
274.945	270.12
275.176	266.12
275.408	258.12
275.64	263.12
275.872	264.12
276.104	262.12
276.335	280.12
276.567	284.12
276.799	306.12
277.031	309.12
277.262	313.12
277.494	304.12
277.726	314.12
277.957	289.12
278.189	265.12
278.421	269.12
278.652	253.12
278.884	264.12
279.115	254.12
279.347	254.12
279.579	259.12
279.81	266.12
280.042	259.12
280.273	255.12
280.505	262.12
280.736	265.12
280.968	257.12
281.199	268.12
281.431	233.12
281.662	255.12
281.894	264.12
282.125	248.12
282.356	300.12
282.588	311.12
282.819	310.12
283.051	265.12
283.282	268.12
283.513	276.12
283.745	271.12
283.976	275.12
284.207	266.12
284.439	257.12
284.67	261.12
284.901	265.12
285.132	266.12
285.364	257.12
285.595	264.12
285.826	251.12
286.057	268.12
286.288	272.12
286.52	259.12
286.751	260.12
286.982	274.12
287.213	263.12
287.444	271.12
287.675	271.12
287.906	297.12
288.138	278.12
288.369	289.12
288.6	302.12
288.831	299.12
289.062	289.12
289.293	285.12
289.524	267.12
289.755	251.12
289.986	277.12
290.217	271.12
290.448	261.12
290.679	270.12
290.91	262.12
291.141	258.12
291.371	266.12
291.602	276.12
291.833	259.12
292.064	263.12
292.295	249.12
292.526	253.12
292.757	256.12
292.987	264.12
293.218	252.12
293.449	283.12
293.68	273.12
293.91	263.12
294.141	267.12
294.372	279.12
294.603	282.12
294.833	285.12
295.064	284.12
295.295	296.12
295.525	279.12
295.756	301.12
295.987	296.12
296.217	319.12
296.448	329.12
296.679	301.12
296.909	269.12
297.14	264.12
297.37	285.12
297.601	272.12
297.831	279.12
298.062	285.12
298.292	261.12
298.523	278.12
298.753	276.12
298.984	284.12
299.214	286.12
299.445	298.12
299.675	295.12
299.905	287.12
300.136	294.12
300.366	282.12
300.597	283.12
300.827	283.12
301.057	298.12
301.288	314.12
301.518	313.12
301.748	305.12
301.979	299.12
302.209	304.12
302.439	310.12
302.669	317.12
302.9	307.12
303.13	287.12
303.36	301.12
303.59	319.12
303.82	336.12
304.051	321.12
304.281	311.12
304.511	317.12
304.741	311.12
304.971	297.12
305.201	300.12
305.431	307.12
305.661	328.12
305.891	307.12
306.121	308.12
306.352	314.12
306.582	327.12
306.812	311.12
307.042	320.12
307.272	318.12
307.502	321.12
307.731	316.12
307.961	291.12
308.191	307.12
308.421	319.12
308.651	333.12
308.881	323.12
309.111	319.12
309.341	333.12
309.571	329.12
309.8	343.12
310.03	359.12
310.26	371.12
310.49	358.12
310.72	362.12
310.949	418.12
311.179	410.12
311.409	367.12
311.639	372.12
311.868	373.12
312.098	370.12
312.328	356.12
312.557	405.12
312.787	406.12
313.017	423.12
313.246	382.12
313.476	362.12
313.706	359.12
313.935	381.12
314.165	381.12
314.394	405.12
314.624	373.12
314.853	395.12
315.083	376.12
315.312	375.12
315.542	338.12
315.771	369.12
316.001	351.12
316.23	367.12
316.46	351.12
316.689	370.12
316.919	369.12
317.148	382.12
317.377	379.12
317.607	384.12
317.836	377.12
318.065	376.12
318.295	374.12
318.524	369.12
318.753	356.12
318.983	373.12
319.212	383.12
319.441	375.12
319.67	375.12
319.9	375.12
320.129	375.12
320.358	380.12
320.587	362.12
320.816	372.12
321.046	379.12
321.275	402.12
321.504	398.12
321.733	417.12
321.962	389.12
322.191	439.12
322.42	450.12
322.649	468.12
322.878	464.12
323.108	472.12
323.337	522.12
323.566	540.12
323.795	602.12
324.024	647.12
324.253	812.12
324.482	1185.12
324.71	1844.12
324.939	2674.12
325.168	2262.12
325.397	1168.12
325.626	758.12
325.855	628.12
326.084	584.12
326.313	530.12
326.542	560.12
326.77	620.12
326.999	723.12
327.228	1044.12
327.457	1637.12
327.686	1956.12
327.914	1333.12
328.143	835.12
328.372	723.12
328.6	657.12
328.829	632.12
329.058	663.12
329.287	677.12
329.515	608.12
329.744	545.12
329.972	538.12
330.201	576.12
330.43	613.12
330.658	647.12
330.887	678.12
331.115	674.12
331.344	566.12
331.572	507.12
331.801	511.12
332.03	518.12
332.258	502.12
332.486	462.12
332.715	428.12
332.943	441.12
333.172	449.12
333.4	459.12
333.629	467.12
333.857	454.12
334.085	477.12
334.314	523.12
334.542	545.12
334.771	558.12
334.999	509.12
335.227	473.12
335.455	438.12
335.684	452.12
335.912	438.12
336.14	413.12
336.369	428.12
336.597	439.12
336.825	439.12
337.053	431.12
337.281	427.12
337.51	409.12
337.738	430.12
337.966	435.12
338.194	443.12
338.422	443.12
338.65	427.12
338.878	427.12
339.106	421.12
339.334	430.12
339.562	408.12
339.79	418.12
340.018	417.12
340.246	420.12
340.474	443.12
340.702	419.12
340.93	433.12
341.158	436.12
341.386	414.12
341.614	413.12
341.842	429.12
342.07	406.12
342.298	421.12
342.526	415.12
342.754	398.12
342.981	412.12
343.209	386.12
343.437	410.12
343.665	410.12
343.893	386.12
344.12	423.12
344.348	433.12
344.576	431.12
344.804	413.12
345.031	428.12
345.259	439.12
345.487	462.12
345.714	416.12
345.942	405.12
346.17	422.12
346.397	415.12
346.625	410.12
346.853	423.12
347.08	390.12
347.308	423.12
347.535	414.12
347.763	442.12
347.99	450.12
348.218	458.12
348.445	436.12
348.673	440.12
348.9	417.12
349.128	417.12
349.355	393.12
349.583	387.12
349.81	418.12
350.037	394.12
350.265	393.12
350.492	395.12
350.72	408.12
350.947	439.12
351.174	435.12
351.402	442.12
351.629	419.12
351.856	452.12
352.083	441.12
352.311	454.12
352.538	449.12
352.765	454.12
352.992	436.12
353.22	434.12
353.447	439.12
353.674	409.12
353.901	417.12
354.128	391.12
354.355	393.12
354.583	397.12
354.81	395.12
355.037	383.12
355.264	385.12
355.491	376.12
355.718	376.12
355.945	391.12
356.172	378.12
356.399	361.12
356.626	373.12
356.853	374.12
357.08	362.12
357.307	389.12
357.534	364.12
357.761	364.12
357.988	398.12
358.215	377.12
358.441	379.12
358.668	388.12
358.895	383.12
359.122	394.12
359.349	412.12
359.576	417.12
359.802	486.12
360.029	487.12
360.256	512.12
360.483	477.12
360.709	436.12
360.936	472.12
361.163	429.12
361.39	440.12
361.616	450.12
361.843	436.12
362.07	443.12
362.296	441.12
362.523	433.12
362.749	442.12
362.976	404.12
363.203	410.12
363.429	385.12
363.656	401.12
363.882	405.12
364.109	408.12
364.335	393.12
364.562	393.12
364.788	398.12
365.015	405.12
365.241	409.12
365.468	389.12
365.694	406.12
365.92	409.12
366.147	415.12
366.373	416.12
366.599	415.12
366.826	391.12
367.052	393.12
367.278	389.12
367.505	398.12
367.731	383.12
367.957	401.12
368.184	415.12
368.41	413.12
368.636	422.12
368.862	417.12
369.089	415.12
369.315	386.12
369.541	403.12
369.767	407.12
369.993	385.12
370.219	410.12
370.445	393.12
370.672	385.12
370.898	404.12
371.124	402.12
371.35	394.12
371.576	395.12
371.802	387.12
372.028	400.12
372.254	398.12
372.48	385.12
372.706	390.12
372.932	382.12
373.158	381.12
373.384	393.12
373.61	381.12
373.835	389.12
374.061	379.12
374.287	397.12
374.513	381.12
374.739	402.12
374.965	397.12
375.191	378.12
375.416	399.12
375.642	373.12
375.868	388.12
376.094	392.12
376.319	396.12
376.545	379.12
376.771	389.12
376.997	385.12
377.222	385.12
377.448	390.12
377.674	389.12
377.899	388.12
378.125	395.12
378.35	405.12
378.576	378.12
378.802	382.12
379.027	398.12
379.253	394.12
379.478	396.12
379.704	393.12
379.929	406.12
380.155	423.12
380.38	394.12
380.606	405.12
380.831	407.12
381.057	411.12
381.282	400.12
381.507	399.12
381.733	403.12
381.958	403.12
382.184	396.12
382.409	411.12
382.634	423.12
382.86	404.12
383.085	397.12
383.31	405.12
383.535	398.12
383.761	407.12
383.986	412.12
384.211	414.12
384.436	411.12
384.662	395.12
384.887	396.12
385.112	412.12
385.337	422.12
385.562	419.12
385.787	426.12
386.013	442.12
386.238	437.12
386.463	421.12
386.688	426.12
386.913	422.12
387.138	435.12
387.363	411.12
387.588	425.12
387.813	431.12
388.038	403.12
388.263	430.12
388.488	420.12
388.713	428.12
388.938	435.12
389.163	431.12
389.387	436.12
389.612	409.12
389.837	448.12
390.062	429.12
390.287	421.12
390.512	405.12
390.736	424.12
390.961	422.12
391.186	407.12
391.411	417.12
391.636	413.12
391.86	430.12
392.085	433.12
392.31	407.12
392.534	407.12
392.759	429.12
392.984	431.12
393.208	445.12
393.433	433.12
393.658	433.12
393.882	431.12
394.107	425.12
394.331	440.12
394.556	412.12
394.78	426.12
395.005	457.12
395.229	436.12
395.454	429.12
395.678	447.12
395.903	467.12
396.127	460.12
396.352	476.12
396.576	454.12
396.801	433.12
397.025	460.12
397.249	450.12
397.474	454.12
397.698	436.12
397.922	457.12
398.147	483.12
398.371	481.12
398.595	487.12
398.82	476.12
399.044	478.12
399.268	484.12
399.492	502.12
399.717	532.12
399.941	573.12
400.165	596.12
400.389	590.12
400.613	555.12
400.837	491.12
401.062	503.12
401.286	488.12
401.51	494.12
401.734	491.12
401.958	503.12
402.182	509.12
402.406	498.12
402.63	520.12
402.854	505.12
403.078	514.12
403.302	493.12
403.526	512.12
403.75	509.12
403.974	511.12
404.198	488.12
404.422	529.12
404.645	536.12
404.869	504.12
405.093	538.12
405.317	595.12
405.541	624.12
405.765	567.12
405.988	546.12
406.212	565.12
406.436	595.12
406.66	612.12
406.883	567.12
407.107	582.12
407.331	659.12
407.555	690.12
407.778	698.12
408.002	623.12
408.226	581.12
408.449	564.12
408.673	573.12
408.896	605.12
409.12	645.12
409.344	615.12
409.567	561.12
409.791	522.12
410.014	518.12
410.238	526.12
410.461	513.12
410.685	533.12
410.908	554.12
411.132	582.12
411.355	614.12
411.578	582.12
411.802	531.12
412.025	535.12
412.249	532.12
412.472	570.12
412.695	577.12
412.919	581.12
413.142	542.12
413.365	534.12
413.589	491.12
413.812	494.12
414.035	518.12
414.258	515.12
414.482	486.12
414.705	470.12
414.928	490.12
415.151	479.12
415.374	478.12
415.597	482.12
415.821	490.12
416.044	494.12
416.267	502.12
416.49	491.12
416.713	489.12
416.936	505.12
417.159	499.12
417.382	498.12
417.605	517.12
417.828	527.12
418.051	550.12
418.274	527.12
418.497	521.12
418.72	504.12
418.943	501.12
419.166	513.12
419.389	526.12
419.611	528.12
419.834	499.12
420.057	527.12
420.28	516.12
420.503	523.12
420.726	524.12
420.948	553.12
421.171	606.12
421.394	621.12
421.617	550.12
421.839	539.12
422.062	532.12
422.285	567.12
422.507	629.12
422.73	687.12
422.953	663.12
423.175	588.12
423.398	562.12
423.621	571.12
423.843	582.12
424.066	585.12
424.288	595.12
424.511	595.12
424.733	672.12
424.956	743.12
425.178	711.12
425.401	741.12
425.623	746.12
425.846	643.12
426.068	596.12
426.291	597.12
426.513	595.12
426.735	596.12
426.958	663.12
427.18	743.12
427.402	866.12
427.625	967.12
427.847	900.12
428.069	759.12
428.292	667.12
428.514	606.12
428.736	585.12
428.958	553.12
429.181	559.12
429.403	554.12
429.625	560.12
429.847	600.12
430.069	694.12
430.292	665.12
430.514	561.12
430.736	546.12
430.958	533.12
431.18	533.12
431.402	511.12
431.624	515.12
431.846	517.12
432.068	503.12
432.29	513.12
432.512	501.12
432.734	516.12
432.956	506.12
433.178	545.12
433.4	530.12
433.622	526.12
433.844	525.12
434.066	495.12
434.287	523.12
434.509	513.12
434.731	515.12
434.953	526.12
435.175	555.12
435.397	596.12
435.618	603.12
435.84	641.12
436.062	757.12
436.284	819.12
436.505	697.12
436.727	629.12
436.949	590.12
437.17	561.12
437.392	547.12
437.614	579.12
437.835	630.12
438.057	746.12
438.278	838.12
438.5	825.12
438.721	886.12
438.943	850.12
439.165	708.12
439.386	646.12
439.608	628.12
439.829	618.12
440.05	653.12
440.272	715.12
440.493	668.12
440.715	602.12
440.936	579.12
441.158	577.12
441.379	572.12
441.6	586.12
441.822	588.12
442.043	635.12
442.264	727.12
442.486	762.12
442.707	649.12
442.928	613.12
443.149	640.12
443.371	655.12
443.592	676.12
443.813	783.12
444.034	850.12
444.255	703.12
444.476	620.12
444.698	611.12
444.919	572.12
445.14	689.12
445.361	655.12
445.582	659.12
445.803	731.12
446.024	850.12
446.245	841.12
446.466	814.12
446.687	657.12
446.908	631.12
447.129	601.12
447.35	567.12
447.571	553.12
447.792	547.12
448.013	585.12
448.234	591.12
448.455	652.12
448.675	767.12
448.896	877.12
449.117	753.12
449.338	721.12
449.559	802.12
449.779	909.12
450	753.12
450.221	637.12
450.442	585.12
450.662	569.12
450.883	572.12
451.104	598.12
451.324	592.12
451.545	546.12
451.766	538.12
451.986	517.12
452.207	493.12
452.428	500.12
452.648	493.12
452.869	499.12
453.089	504.12
453.31	540.12
453.53	534.12
453.751	503.12
453.971	497.12
454.192	535.12
454.412	507.12
454.633	485.12
454.853	503.12
455.073	487.12
455.294	545.12
455.514	617.12
455.734	584.12
455.955	481.12
456.175	495.12
456.395	483.12
456.616	463.12
456.836	461.12
457.056	436.12
457.276	443.12
457.497	447.12
457.717	462.12
457.937	454.12
458.157	476.12
458.377	482.12
458.598	509.12
458.818	577.12
459.038	691.12
459.258	710.12
459.478	577.12
459.698	524.12
459.918	525.12
460.138	502.12
460.358	500.12
460.578	507.12
460.798	490.12
461.018	500.12
461.238	492.12
461.458	485.12
461.678	491.12
461.898	498.12
462.118	493.12
462.338	480.12
462.558	497.12
462.777	515.12
462.997	526.12
463.217	499.12
463.437	530.12
463.657	513.12
463.876	525.12
464.096	540.12
464.316	545.12
464.536	541.12
464.755	533.12
464.975	570.12
465.195	627.12
465.414	724.12
465.634	632.12
465.854	577.12
466.073	542.12
466.293	510.12
466.512	510.12
466.732	513.12
466.951	506.12
467.171	511.12
467.391	518.12
467.61	518.12
467.829	534.12
468.049	531.12
468.268	539.12
468.488	528.12
468.707	526.12
468.927	511.12
469.146	485.12
469.365	492.12
469.585	482.12
469.804	494.12
470.023	504.12
470.243	531.12
470.462	518.12
470.681	543.12
470.901	539.12
471.12	505.12
471.339	516.12
471.558	506.12
471.777	537.12
471.997	515.12
472.216	529.12
472.435	553.12
472.654	564.12
472.873	505.12
473.092	513.12
473.311	506.12
473.53	518.12
473.749	537.12
473.968	565.12
474.187	676.12
474.406	711.12
474.625	598.12
474.844	550.12
475.063	559.12
475.282	514.12
475.501	513.12
475.72	528.12
475.939	505.12
476.158	530.12
476.377	547.12
476.596	531.12
476.814	531.12
477.033	527.12
477.252	549.12
477.471	558.12
477.69	574.12
477.908	549.12
478.127	545.12
478.346	548.12
478.564	575.12
478.783	542.12
479.002	566.12
479.22	603.12
479.439	607.12
479.658	633.12
479.876	622.12
480.095	631.12
480.313	644.12
480.532	638.12
480.751	625.12
480.969	628.12
481.188	718.12
481.406	775.12
481.624	677.12
481.843	642.12
482.061	622.12
482.28	605.12
482.498	614.12
482.717	602.12
482.935	630.12
483.153	623.12
483.372	603.12
483.59	606.12
483.808	602.12
484.027	633.12
484.245	625.12
484.463	614.12
484.681	622.12
484.9	617.12
485.118	619.12
485.336	649.12
485.554	633.12
485.772	635.12
485.99	639.12
486.209	651.12
486.427	617.12
486.645	665.12
486.863	689.12
487.081	673.12
487.299	661.12
487.517	668.12
487.735	676.12
487.953	663.12
488.171	667.12
488.389	653.12
488.607	677.12
488.825	674.12
489.043	682.12
489.261	653.12
489.479	682.12
489.696	661.12
489.914	668.12
490.132	678.12
490.35	687.12
490.568	695.12
490.786	719.12
491.003	742.12
491.221	764.12
491.439	734.12
491.657	771.12
491.874	773.12
492.092	778.12
492.31	808.12
492.527	797.12
492.745	754.12
492.963	787.12
493.18	787.12
493.398	794.12
493.615	807.12
493.833	818.12
494.05	820.12
494.268	824.12
494.485	819.12
494.703	774.12
494.92	826.12
495.138	810.12
495.355	812.12
495.573	784.12
495.79	801.12
496.008	819.12
496.225	805.12
496.442	805.12
496.66	795.12
496.877	791.12
497.094	801.12
497.312	794.12
497.529	819.12
497.746	825.12
497.963	843.12
498.181	873.12
498.398	869.12
498.615	875.12
498.832	848.12
499.049	853.12
499.267	894.12
499.484	884.12
499.701	891.12
499.918	910.12
500.135	959.12
500.352	918.12
500.569	974.12
500.786	958.12
501.003	956.12
501.22	964.12
501.437	953.12
501.654	962.12
