Data from 1971.PennyLincolnUp.Lamp.En5.5.200Scan.071719.P1._HRD10591_15-19-20-841.txt Node
Date: Thu Jul 18 15:19:20 EDT 2019
User: cochatt
Spectrometer: HR+D1059
Trigger mode: 1
Integration Time (sec): 1.000000E-1
Scans to average: 1
Electric dark correction enabled: true
Nonlinearity correction enabled: false
Boxcar width: 0
XAxis mode: Wavelengths
Number of Pixels in Spectrum: 2048
>>>>>Begin Spectral Data<<<<<
223.165	-22.25
223.4	-22.25
223.635	-22.25
223.869	-21.25
224.104	-15.25
224.338	-22.25
224.573	-18.25
224.808	-9.25
225.042	-3.25
225.277	5.75
225.511	0.75
225.746	8.75
225.98	9.75
226.215	4.75
226.449	3.75
226.683	11.75
226.918	29.75
227.152	36.75
227.387	42.75
227.621	42.75
227.856	55.75
228.09	56.75
228.324	57.75
228.559	51.75
228.793	69.75
229.027	82.75
229.262	97.75
229.496	106.75
229.73	124.75
229.964	122.75
230.199	108.75
230.433	115.75
230.667	111.75
230.901	110.75
231.136	110.75
231.37	110.75
231.604	105.75
231.838	100.75
232.072	119.75
232.306	123.75
232.541	110.75
232.775	111.75
233.009	114.75
233.243	113.75
233.477	125.75
233.711	118.75
233.945	124.75
234.179	106.75
234.413	114.75
234.647	108.75
234.881	108.75
235.115	120.75
235.349	132.75
235.583	101.75
235.817	120.75
236.051	118.75
236.285	128.75
236.519	129.75
236.753	130.75
236.987	170.75
237.221	172.75
237.455	201.75
237.689	164.75
237.922	142.75
238.156	140.75
238.39	142.75
238.624	128.75
238.858	136.75
239.091	127.75
239.325	124.75
239.559	138.75
239.793	113.75
240.027	113.75
240.26	152.75
240.494	148.75
240.728	146.75
240.961	150.75
241.195	121.75
241.429	154.75
241.662	130.75
241.896	118.75
242.13	120.75
242.363	131.75
242.597	141.75
242.83	145.75
243.064	140.75
243.298	134.75
243.531	146.75
243.765	143.75
243.998	145.75
244.232	144.75
244.465	156.75
244.699	156.75
244.932	156.75
245.166	143.75
245.399	154.75
245.633	151.75
245.866	139.75
246.099	147.75
246.333	144.75
246.566	144.75
246.8	164.75
247.033	154.75
247.266	150.75
247.5	168.75
247.733	171.75
247.966	170.75
248.2	186.75
248.433	172.75
248.666	185.75
248.899	192.75
249.133	194.75
249.366	209.75
249.599	202.75
249.832	189.75
250.066	198.75
250.299	188.75
250.532	192.75
250.765	176.75
250.998	218.75
251.231	240.75
251.465	218.75
251.698	208.75
251.931	190.75
252.164	198.75
252.397	200.75
252.63	209.75
252.863	216.75
253.096	225.75
253.329	229.75
253.562	217.75
253.795	208.75
254.028	208.75
254.261	208.75
254.494	242.75
254.727	253.75
254.96	274.75
255.193	249.75
255.426	258.75
255.659	240.75
255.892	227.75
256.124	232.75
256.357	233.75
256.59	234.75
256.823	207.75
257.056	229.75
257.289	199.75
257.521	215.75
257.754	223.75
257.987	221.75
258.22	224.75
258.452	220.75
258.685	224.75
258.918	206.75
259.151	198.75
259.383	225.75
259.616	230.75
259.849	234.75
260.081	238.75
260.314	279.75
260.547	267.75
260.779	251.75
261.012	249.75
261.244	233.75
261.477	234.75
261.71	224.75
261.942	238.75
262.175	233.75
262.407	237.75
262.64	231.75
262.872	221.75
263.105	207.75
263.337	234.75
263.57	212.75
263.802	219.75
264.035	198.75
264.267	216.75
264.499	224.75
264.732	239.75
264.964	229.75
265.197	218.75
265.429	210.75
265.661	214.75
265.894	228.75
266.126	224.75
266.358	236.75
266.591	207.75
266.823	239.75
267.055	229.75
267.287	237.75
267.52	245.75
267.752	220.75
267.984	241.75
268.216	229.75
268.448	233.75
268.681	242.75
268.913	263.75
269.145	265.75
269.377	271.75
269.609	276.75
269.841	282.75
270.073	283.75
270.306	308.75
270.538	314.75
270.77	299.75
271.002	336.75
271.234	297.75
271.466	303.75
271.698	315.75
271.93	314.75
272.162	332.75
272.394	325.75
272.626	321.75
272.858	294.75
273.09	287.75
273.322	278.75
273.553	290.75
273.785	274.75
274.017	280.75
274.249	271.75
274.481	260.75
274.713	277.75
274.945	274.75
275.176	269.75
275.408	261.75
275.64	263.75
275.872	264.75
276.104	283.75
276.335	269.75
276.567	292.75
276.799	278.75
277.031	305.75
277.262	320.75
277.494	331.75
277.726	321.75
277.957	294.75
278.189	295.75
278.421	270.75
278.652	278.75
278.884	292.75
279.115	269.75
279.347	284.75
279.579	269.75
279.81	280.75
280.042	284.75
280.273	277.75
280.505	278.75
280.736	261.75
280.968	291.75
281.199	266.75
281.431	280.75
281.662	268.75
281.894	282.75
282.125	283.75
282.356	279.75
282.588	286.75
282.819	289.75
283.051	281.75
283.282	277.75
283.513	311.75
283.745	300.75
283.976	273.75
284.207	301.75
284.439	304.75
284.67	304.75
284.901	299.75
285.132	287.75
285.364	286.75
285.595	279.75
285.826	286.75
286.057	297.75
286.288	287.75
286.52	279.75
286.751	275.75
286.982	286.75
287.213	289.75
287.444	292.75
287.675	302.75
287.906	306.75
288.138	297.75
288.369	322.75
288.6	295.75
288.831	308.75
289.062	292.75
289.293	305.75
289.524	304.75
289.755	294.75
289.986	299.75
290.217	288.75
290.448	282.75
290.679	301.75
290.91	299.75
291.141	293.75
291.371	290.75
291.602	289.75
291.833	271.75
292.064	293.75
292.295	292.75
292.526	297.75
292.757	295.75
292.987	293.75
293.218	306.75
293.449	296.75
293.68	288.75
293.91	304.75
294.141	294.75
294.372	308.75
294.603	301.75
294.833	311.75
295.064	298.75
295.295	303.75
295.525	300.75
295.756	294.75
295.987	296.75
296.217	336.75
296.448	322.75
296.679	304.75
296.909	294.75
297.14	304.75
297.37	294.75
297.601	303.75
297.831	315.75
298.062	310.75
298.292	311.75
298.523	309.75
298.753	325.75
298.984	299.75
299.214	292.75
299.445	312.75
299.675	319.75
299.905	316.75
300.136	316.75
300.366	333.75
300.597	318.75
300.827	317.75
301.057	315.75
301.288	357.75
301.518	316.75
301.748	330.75
301.979	344.75
302.209	318.75
302.439	328.75
302.669	327.75
302.9	315.75
303.13	328.75
303.36	322.75
303.59	326.75
303.82	331.75
304.051	335.75
304.281	336.75
304.511	342.75
304.741	321.75
304.971	317.75
305.201	338.75
305.431	325.75
305.661	333.75
305.891	337.75
306.121	340.75
306.352	333.75
306.582	324.75
306.812	336.75
307.042	339.75
307.272	329.75
307.502	344.75
307.731	333.75
307.961	340.75
308.191	342.75
308.421	334.75
308.651	328.75
308.881	339.75
309.111	353.75
309.341	350.75
309.571	360.75
309.8	360.75
310.03	357.75
310.26	365.75
310.49	386.75
310.72	378.75
310.949	383.75
311.179	415.75
311.409	360.75
311.639	373.75
311.868	374.75
312.098	373.75
312.328	397.75
312.557	396.75
312.787	373.75
313.017	402.75
313.246	381.75
313.476	384.75
313.706	380.75
313.935	385.75
314.165	398.75
314.394	396.75
314.624	398.75
314.853	380.75
315.083	378.75
315.312	379.75
315.542	378.75
315.771	370.75
316.001	380.75
316.23	366.75
316.46	374.75
316.689	354.75
316.919	390.75
317.148	396.75
317.377	389.75
317.607	390.75
317.836	365.75
318.065	380.75
318.295	374.75
318.524	392.75
318.753	374.75
318.983	374.75
319.212	384.75
319.441	406.75
319.67	390.75
319.9	380.75
320.129	374.75
320.358	376.75
320.587	389.75
320.816	387.75
321.046	364.75
321.275	394.75
321.504	392.75
321.733	391.75
321.962	395.75
322.191	423.75
322.42	425.75
322.649	435.75
322.878	432.75
323.108	456.75
323.337	467.75
323.566	508.75
323.795	539.75
324.024	559.75
324.253	679.75
324.482	961.75
324.71	1429.75
324.939	1926.75
325.168	1573.75
325.397	856.75
325.626	604.75
325.855	522.75
326.084	508.75
326.313	513.75
326.542	503.75
326.77	544.75
326.999	621.75
327.228	849.75
327.457	1204.75
327.686	1398.75
327.914	973.75
328.143	668.75
328.372	605.75
328.6	531.75
328.829	543.75
329.058	537.75
329.287	553.75
329.515	512.75
329.744	506.75
329.972	500.75
330.201	521.75
330.43	549.75
330.658	546.75
330.887	587.75
331.115	551.75
331.344	475.75
331.572	470.75
331.801	471.75
332.03	462.75
332.258	448.75
332.486	437.75
332.715	429.75
332.943	441.75
333.172	434.75
333.4	449.75
333.629	474.75
333.857	457.75
334.085	472.75
334.314	467.75
334.542	476.75
334.771	505.75
334.999	467.75
335.227	448.75
335.455	429.75
335.684	446.75
335.912	447.75
336.14	424.75
336.369	420.75
336.597	409.75
336.825	419.75
337.053	442.75
337.281	418.75
337.51	418.75
337.738	441.75
337.966	419.75
338.194	408.75
338.422	425.75
338.65	421.75
338.878	424.75
339.106	414.75
339.334	390.75
339.562	390.75
339.79	417.75
340.018	409.75
340.246	405.75
340.474	407.75
340.702	397.75
340.93	413.75
341.158	414.75
341.386	415.75
341.614	425.75
341.842	423.75
342.07	397.75
342.298	394.75
342.526	384.75
342.754	416.75
342.981	402.75
343.209	395.75
343.437	417.75
343.665	418.75
343.893	410.75
344.12	408.75
344.348	406.75
344.576	399.75
344.804	410.75
345.031	408.75
345.259	443.75
345.487	408.75
345.714	421.75
345.942	408.75
346.17	396.75
346.397	385.75
346.625	407.75
346.853	400.75
347.08	410.75
347.308	399.75
347.535	391.75
347.763	417.75
347.99	389.75
348.218	426.75
348.445	407.75
348.673	399.75
348.9	396.75
349.128	382.75
349.355	384.75
349.583	385.75
349.81	374.75
350.037	395.75
350.265	396.75
350.492	401.75
350.72	393.75
350.947	364.75
351.174	381.75
351.402	376.75
351.629	396.75
351.856	381.75
352.083	406.75
352.311	394.75
352.538	434.75
352.765	407.75
352.992	413.75
353.22	369.75
353.447	383.75
353.674	388.75
353.901	365.75
354.128	364.75
354.355	362.75
354.583	372.75
354.81	374.75
355.037	377.75
355.264	375.75
355.491	354.75
355.718	370.75
355.945	373.75
356.172	344.75
356.399	368.75
356.626	364.75
356.853	377.75
357.08	371.75
357.307	362.75
357.534	364.75
357.761	352.75
357.988	358.75
358.215	370.75
358.441	364.75
358.668	356.75
358.895	368.75
359.122	368.75
359.349	362.75
359.576	390.75
359.802	390.75
360.029	408.75
360.256	436.75
360.483	414.75
360.709	381.75
360.936	396.75
361.163	377.75
361.39	390.75
361.616	384.75
361.843	374.75
362.07	364.75
362.296	410.75
362.523	376.75
362.749	357.75
362.976	384.75
363.203	378.75
363.429	369.75
363.656	382.75
363.882	350.75
364.109	357.75
364.335	367.75
364.562	373.75
364.788	370.75
365.015	383.75
365.241	364.75
365.468	380.75
365.694	366.75
365.92	376.75
366.147	357.75
366.373	352.75
366.599	351.75
366.826	356.75
367.052	337.75
367.278	366.75
367.505	347.75
367.731	380.75
367.957	367.75
368.184	360.75
368.41	368.75
368.636	366.75
368.862	385.75
369.089	357.75
369.315	377.75
369.541	374.75
369.767	356.75
369.993	365.75
370.219	336.75
370.445	350.75
370.672	348.75
370.898	356.75
371.124	373.75
371.35	366.75
371.576	363.75
371.802	333.75
372.028	367.75
372.254	348.75
372.48	355.75
372.706	361.75
372.932	370.75
373.158	348.75
373.384	375.75
373.61	362.75
373.835	359.75
374.061	363.75
374.287	372.75
374.513	368.75
374.739	361.75
374.965	370.75
375.191	369.75
375.416	367.75
375.642	351.75
375.868	372.75
376.094	356.75
376.319	350.75
376.545	348.75
376.771	344.75
376.997	347.75
377.222	342.75
377.448	345.75
377.674	345.75
377.899	364.75
378.125	359.75
378.35	343.75
378.576	349.75
378.802	356.75
379.027	351.75
379.253	343.75
379.478	351.75
379.704	351.75
379.929	355.75
380.155	339.75
380.38	322.75
380.606	367.75
380.831	341.75
381.057	348.75
381.282	357.75
381.507	337.75
381.733	338.75
381.958	356.75
382.184	356.75
382.409	374.75
382.634	359.75
382.86	356.75
383.085	359.75
383.31	370.75
383.535	362.75
383.761	360.75
383.986	358.75
384.211	373.75
384.436	345.75
384.662	354.75
384.887	356.75
385.112	361.75
385.337	367.75
385.562	354.75
385.787	380.75
386.013	369.75
386.238	369.75
386.463	389.75
386.688	385.75
386.913	368.75
387.138	355.75
387.363	371.75
387.588	364.75
387.813	376.75
388.038	360.75
388.263	384.75
388.488	378.75
388.713	341.75
388.938	357.75
389.163	369.75
389.387	384.75
389.612	354.75
389.837	349.75
390.062	369.75
390.287	371.75
390.512	343.75
390.736	374.75
390.961	354.75
391.186	364.75
391.411	378.75
391.636	365.75
391.86	369.75
392.085	396.75
392.31	390.75
392.534	384.75
392.759	382.75
392.984	377.75
393.208	363.75
393.433	380.75
393.658	376.75
393.882	361.75
394.107	354.75
394.331	374.75
394.556	366.75
394.78	355.75
395.005	377.75
395.229	394.75
395.454	395.75
395.678	370.75
395.903	386.75
396.127	403.75
396.352	402.75
396.576	387.75
396.801	378.75
397.025	394.75
397.249	401.75
397.474	385.75
397.698	366.75
397.922	400.75
398.147	440.75
398.371	421.75
398.595	399.75
398.82	408.75
399.044	401.75
399.268	440.75
399.492	442.75
399.717	441.75
399.941	485.75
400.165	484.75
400.389	486.75
400.613	471.75
400.837	425.75
401.062	414.75
401.286	426.75
401.51	407.75
401.734	417.75
401.958	408.75
402.182	408.75
402.406	419.75
402.63	434.75
402.854	419.75
403.078	417.75
403.302	419.75
403.526	428.75
403.75	436.75
403.974	427.75
404.198	393.75
404.422	404.75
404.645	433.75
404.869	412.75
405.093	457.75
405.317	488.75
405.541	503.75
405.765	464.75
405.988	429.75
406.212	430.75
406.436	460.75
406.66	461.75
406.883	438.75
407.107	462.75
407.331	517.75
407.555	556.75
407.778	555.75
408.002	520.75
408.226	471.75
408.449	444.75
408.673	459.75
408.896	490.75
409.12	511.75
409.344	486.75
409.567	446.75
409.791	452.75
410.014	444.75
410.238	414.75
410.461	425.75
410.685	423.75
410.908	433.75
411.132	464.75
411.355	476.75
411.578	454.75
411.802	415.75
412.025	416.75
412.249	416.75
412.472	449.75
412.695	476.75
412.919	466.75
413.142	423.75
413.365	412.75
413.589	401.75
413.812	392.75
414.035	392.75
414.258	385.75
414.482	416.75
414.705	384.75
414.928	393.75
415.151	398.75
415.374	399.75
415.597	398.75
415.821	386.75
416.044	389.75
416.267	388.75
416.49	392.75
416.713	379.75
416.936	396.75
417.159	408.75
417.382	411.75
417.605	398.75
417.828	427.75
418.051	407.75
418.274	413.75
418.497	405.75
418.72	380.75
418.943	423.75
419.166	410.75
419.389	414.75
419.611	406.75
419.834	403.75
420.057	409.75
420.28	424.75
420.503	407.75
420.726	409.75
420.948	420.75
421.171	472.75
421.394	471.75
421.617	431.75
421.839	424.75
422.062	410.75
422.285	428.75
422.507	466.75
422.73	520.75
422.953	522.75
423.175	463.75
423.398	428.75
423.621	432.75
423.843	451.75
424.066	462.75
424.288	461.75
424.511	455.75
424.733	526.75
424.956	566.75
425.178	548.75
425.401	554.75
425.623	558.75
425.846	485.75
426.068	458.75
426.291	449.75
426.513	446.75
426.735	452.75
426.958	503.75
427.18	550.75
427.402	659.75
427.625	700.75
427.847	614.75
428.069	541.75
428.292	484.75
428.514	457.75
428.736	421.75
428.958	412.75
429.181	409.75
429.403	415.75
429.625	420.75
429.847	441.75
430.069	482.75
430.292	488.75
430.514	421.75
430.736	411.75
430.958	400.75
431.18	389.75
431.402	400.75
431.624	401.75
431.846	401.75
432.068	364.75
432.29	390.75
432.512	390.75
432.734	418.75
432.956	398.75
433.178	392.75
433.4	416.75
433.622	392.75
433.844	406.75
434.066	372.75
434.287	378.75
434.509	383.75
434.731	384.75
434.953	401.75
435.175	409.75
435.397	428.75
435.618	460.75
435.84	493.75
436.062	545.75
436.284	604.75
436.505	526.75
436.727	456.75
436.949	433.75
437.17	426.75
437.392	408.75
437.614	406.75
437.835	450.75
438.057	494.75
438.278	610.75
438.5	615.75
438.721	644.75
438.943	622.75
439.165	499.75
439.386	457.75
439.608	464.75
439.829	464.75
440.05	477.75
440.272	508.75
440.493	469.75
440.715	455.75
440.936	431.75
441.158	409.75
441.379	409.75
441.6	435.75
441.822	471.75
442.043	478.75
442.264	544.75
442.486	559.75
442.707	477.75
442.928	440.75
443.149	450.75
443.371	493.75
443.592	501.75
443.813	592.75
444.034	622.75
444.255	529.75
444.476	470.75
444.698	448.75
444.919	440.75
445.14	563.75
445.361	518.75
445.582	491.75
445.803	529.75
446.024	610.75
446.245	604.75
446.466	542.75
446.687	484.75
446.908	447.75
447.129	418.75
447.35	403.75
447.571	436.75
447.792	415.75
448.013	410.75
448.234	425.75
448.455	486.75
448.675	547.75
448.896	638.75
449.117	569.75
449.338	530.75
449.559	595.75
449.779	690.75
450	543.75
450.221	458.75
450.442	427.75
450.662	429.75
450.883	425.75
451.104	422.75
451.324	407.75
451.545	419.75
451.766	384.75
451.986	391.75
452.207	351.75
452.428	352.75
452.648	377.75
452.869	356.75
453.089	360.75
453.31	368.75
453.53	363.75
453.751	381.75
453.971	358.75
454.192	380.75
454.412	374.75
454.633	356.75
454.853	380.75
455.073	359.75
455.294	376.75
455.514	441.75
455.734	420.75
455.955	368.75
456.175	357.75
456.395	363.75
456.616	348.75
456.836	354.75
457.056	341.75
457.276	338.75
457.497	346.75
457.717	329.75
457.937	361.75
458.157	350.75
458.377	349.75
458.598	382.75
458.818	418.75
459.038	475.75
459.258	487.75
459.478	430.75
459.698	379.75
459.918	382.75
460.138	363.75
460.358	398.75
460.578	372.75
460.798	389.75
461.018	372.75
461.238	380.75
461.458	385.75
461.678	390.75
461.898	378.75
462.118	368.75
462.338	400.75
462.558	401.75
462.777	386.75
462.997	404.75
463.217	399.75
463.437	431.75
463.657	393.75
463.876	402.75
464.096	405.75
464.316	400.75
464.536	422.75
464.755	415.75
464.975	407.75
465.195	448.75
465.414	485.75
465.634	424.75
465.854	401.75
466.073	391.75
466.293	393.75
466.512	367.75
466.732	364.75
466.951	384.75
467.171	364.75
467.391	367.75
467.61	370.75
467.829	359.75
468.049	382.75
468.268	376.75
468.488	368.75
468.707	377.75
468.927	372.75
469.146	368.75
469.365	380.75
469.585	350.75
469.804	362.75
470.023	391.75
470.243	384.75
470.462	399.75
470.681	424.75
470.901	394.75
471.12	396.75
471.339	383.75
471.558	383.75
471.777	382.75
471.997	373.75
472.216	397.75
472.435	385.75
472.654	359.75
472.873	372.75
473.092	366.75
473.311	390.75
473.53	369.75
473.749	384.75
473.968	420.75
474.187	508.75
474.406	497.75
474.625	432.75
474.844	396.75
475.063	379.75
475.282	364.75
475.501	382.75
475.72	382.75
475.939	384.75
476.158	388.75
476.377	406.75
476.596	380.75
476.814	404.75
477.033	409.75
477.252	394.75
477.471	395.75
477.69	407.75
477.908	416.75
478.127	406.75
478.346	400.75
478.564	427.75
478.783	411.75
479.002	439.75
479.22	425.75
479.439	420.75
479.658	446.75
479.876	452.75
480.095	440.75
480.313	458.75
480.532	480.75
480.751	461.75
480.969	462.75
481.188	495.75
481.406	516.75
481.624	476.75
481.843	460.75
482.061	435.75
482.28	434.75
482.498	424.75
482.717	425.75
482.935	433.75
483.153	444.75
483.372	429.75
483.59	459.75
483.808	433.75
484.027	433.75
484.245	430.75
484.463	436.75
484.681	434.75
484.9	441.75
485.118	438.75
485.336	430.75
485.554	443.75
485.772	436.75
485.99	428.75
486.209	447.75
486.427	451.75
486.645	476.75
486.863	477.75
487.081	494.75
487.299	470.75
487.517	462.75
487.735	461.75
487.953	469.75
488.171	476.75
488.389	485.75
488.607	460.75
488.825	464.75
489.043	461.75
489.261	467.75
489.479	475.75
489.696	469.75
489.914	495.75
490.132	484.75
490.35	494.75
490.568	501.75
490.786	502.75
491.003	511.75
491.221	513.75
491.439	524.75
491.657	530.75
491.874	535.75
492.092	558.75
492.31	540.75
492.527	540.75
492.745	553.75
492.963	543.75
493.18	564.75
493.398	543.75
493.615	550.75
493.833	550.75
494.05	582.75
494.268	542.75
494.485	551.75
494.703	565.75
494.92	545.75
495.138	564.75
495.355	566.75
495.573	580.75
495.79	566.75
496.008	550.75
496.225	540.75
496.442	577.75
496.66	560.75
496.877	518.75
497.094	551.75
497.312	557.75
497.529	578.75
497.746	566.75
497.963	589.75
498.181	606.75
498.398	587.75
498.615	588.75
498.832	623.75
499.049	598.75
499.267	614.75
499.484	642.75
499.701	662.75
499.918	670.75
500.135	706.75
500.352	709.75
500.569	719.75
500.786	735.75
501.003	734.75
501.22	736.75
501.437	732.75
501.654	693.75
501.871	677.75
502.088	653.75
