Data from 1971.PennyLincolnUp.Lamp.En5.5.200Scan.071719.P1.Scan 2. Changed Angle._HRD10591_15-22-51-842.txt Node
Date: Thu Jul 18 15:22:51 EDT 2019
User: cochatt
Spectrometer: HR+D1059
Trigger mode: 1
Integration Time (sec): 1.000000E-1
Scans to average: 1
Electric dark correction enabled: true
Nonlinearity correction enabled: false
Boxcar width: 0
XAxis mode: Wavelengths
Number of Pixels in Spectrum: 2048
>>>>>Begin Spectral Data<<<<<
223.165	-16.56
223.4	-16.56
223.635	-16.56
223.869	-7.56
224.104	-17.56
224.338	-18.56
224.573	-12.56
224.808	-13.56
225.042	-10.56
225.277	-10.56
225.511	-10.56
225.746	4.44
225.98	-1.56
226.215	15.44
226.449	29.44
226.683	26.44
226.918	19.44
227.152	24.44
227.387	26.44
227.621	26.44
227.856	46.44
228.09	38.44
228.324	46.44
228.559	47.44
228.793	62.44
229.027	87.44
229.262	116.44
229.496	116.44
229.73	119.44
229.964	149.44
230.199	124.44
230.433	137.44
230.667	115.44
230.901	100.44
231.136	113.44
231.37	123.44
231.604	101.44
231.838	126.44
232.072	108.44
232.306	107.44
232.541	124.44
232.775	102.44
233.009	111.44
233.243	119.44
233.477	116.44
233.711	109.44
233.945	101.44
234.179	114.44
234.413	100.44
234.647	111.44
234.881	117.44
235.115	122.44
235.349	127.44
235.583	132.44
235.817	119.44
236.051	129.44
236.285	121.44
236.519	130.44
236.753	120.44
236.987	129.44
237.221	177.44
237.455	243.44
237.689	188.44
237.922	143.44
238.156	126.44
238.39	118.44
238.624	116.44
238.858	117.44
239.091	117.44
239.325	120.44
239.559	129.44
239.793	134.44
240.027	123.44
240.26	137.44
240.494	151.44
240.728	153.44
240.961	148.44
241.195	150.44
241.429	140.44
241.662	125.44
241.896	110.44
242.13	129.44
242.363	135.44
242.597	122.44
242.83	128.44
243.064	130.44
243.298	123.44
243.531	141.44
243.765	135.44
243.998	139.44
244.232	136.44
244.465	135.44
244.699	132.44
244.932	146.44
245.166	135.44
245.399	142.44
245.633	152.44
245.866	130.44
246.099	161.44
246.333	153.44
246.566	153.44
246.8	130.44
247.033	147.44
247.266	141.44
247.5	163.44
247.733	143.44
247.966	168.44
248.2	163.44
248.433	164.44
248.666	161.44
248.899	172.44
249.133	193.44
249.366	197.44
249.599	196.44
249.832	172.44
250.066	175.44
250.299	161.44
250.532	177.44
250.765	200.44
250.998	205.44
251.231	202.44
251.465	213.44
251.698	196.44
251.931	188.44
252.164	200.44
252.397	183.44
252.63	194.44
252.863	188.44
253.096	223.44
253.329	226.44
253.562	211.44
253.795	209.44
254.028	211.44
254.261	215.44
254.494	207.44
254.727	252.44
254.96	275.44
255.193	241.44
255.426	242.44
255.659	234.44
255.892	197.44
256.124	194.44
256.357	206.44
256.59	197.44
256.823	203.44
257.056	182.44
257.289	195.44
257.521	181.44
257.754	190.44
257.987	192.44
258.22	185.44
258.452	195.44
258.685	190.44
258.918	186.44
259.151	187.44
259.383	221.44
259.616	201.44
259.849	213.44
260.081	222.44
260.314	248.44
260.547	222.44
260.779	232.44
261.012	231.44
261.244	211.44
261.477	226.44
261.71	203.44
261.942	206.44
262.175	222.44
262.407	203.44
262.64	189.44
262.872	193.44
263.105	186.44
263.337	185.44
263.57	211.44
263.802	189.44
264.035	185.44
264.267	198.44
264.499	206.44
264.732	205.44
264.964	187.44
265.197	191.44
265.429	190.44
265.661	188.44
265.894	167.44
266.126	207.44
266.358	196.44
266.591	200.44
266.823	189.44
267.055	199.44
267.287	199.44
267.52	196.44
267.752	188.44
267.984	189.44
268.216	213.44
268.448	210.44
268.681	209.44
268.913	212.44
269.145	223.44
269.377	237.44
269.609	234.44
269.841	247.44
270.073	254.44
270.306	269.44
270.538	272.44
270.77	276.44
271.002	262.44
271.234	252.44
271.466	268.44
271.698	283.44
271.93	279.44
272.162	312.44
272.394	289.44
272.626	271.44
272.858	250.44
273.09	257.44
273.322	236.44
273.553	231.44
273.785	230.44
274.017	226.44
274.249	236.44
274.481	221.44
274.713	226.44
274.945	245.44
275.176	226.44
275.408	221.44
275.64	229.44
275.872	213.44
276.104	220.44
276.335	239.44
276.567	220.44
276.799	238.44
277.031	257.44
277.262	266.44
277.494	273.44
277.726	253.44
277.957	242.44
278.189	236.44
278.421	252.44
278.652	248.44
278.884	249.44
279.115	236.44
279.347	220.44
279.579	225.44
279.81	236.44
280.042	238.44
280.273	235.44
280.505	232.44
280.736	222.44
280.968	220.44
281.199	231.44
281.431	237.44
281.662	210.44
281.894	236.44
282.125	249.44
282.356	249.44
282.588	266.44
282.819	263.44
283.051	250.44
283.282	233.44
283.513	225.44
283.745	234.44
283.976	235.44
284.207	243.44
284.439	227.44
284.67	212.44
284.901	245.44
285.132	237.44
285.364	226.44
285.595	236.44
285.826	232.44
286.057	227.44
286.288	233.44
286.52	239.44
286.751	233.44
286.982	236.44
287.213	226.44
287.444	249.44
287.675	240.44
287.906	246.44
288.138	253.44
288.369	259.44
288.6	266.44
288.831	261.44
289.062	247.44
289.293	251.44
289.524	252.44
289.755	234.44
289.986	245.44
290.217	221.44
290.448	222.44
290.679	226.44
290.91	215.44
291.141	238.44
291.371	230.44
291.602	224.44
291.833	247.44
292.064	228.44
292.295	231.44
292.526	228.44
292.757	224.44
292.987	231.44
293.218	249.44
293.449	257.44
293.68	234.44
293.91	247.44
294.141	248.44
294.372	248.44
294.603	254.44
294.833	243.44
295.064	234.44
295.295	259.44
295.525	253.44
295.756	235.44
295.987	265.44
296.217	282.44
296.448	275.44
296.679	279.44
296.909	255.44
297.14	244.44
297.37	260.44
297.601	249.44
297.831	260.44
298.062	245.44
298.292	256.44
298.523	257.44
298.753	257.44
298.984	244.44
299.214	255.44
299.445	248.44
299.675	245.44
299.905	270.44
300.136	263.44
300.366	240.44
300.597	257.44
300.827	263.44
301.057	253.44
301.288	274.44
301.518	265.44
301.748	251.44
301.979	265.44
302.209	280.44
302.439	290.44
302.669	270.44
302.9	277.44
303.13	273.44
303.36	260.44
303.59	260.44
303.82	287.44
304.051	295.44
304.281	261.44
304.511	254.44
304.741	262.44
304.971	261.44
305.201	269.44
305.431	273.44
305.661	262.44
305.891	261.44
306.121	265.44
306.352	269.44
306.582	289.44
306.812	281.44
307.042	276.44
307.272	294.44
307.502	262.44
307.731	272.44
307.961	291.44
308.191	294.44
308.421	279.44
308.651	268.44
308.881	279.44
309.111	295.44
309.341	307.44
309.571	283.44
309.8	298.44
310.03	325.44
310.26	322.44
310.49	309.44
310.72	328.44
310.949	333.44
311.179	339.44
311.409	316.44
311.639	310.44
311.868	345.44
312.098	332.44
312.328	296.44
312.557	333.44
312.787	354.44
313.017	337.44
313.246	333.44
313.476	302.44
313.706	322.44
313.935	316.44
314.165	307.44
314.394	343.44
314.624	347.44
314.853	325.44
315.083	329.44
315.312	315.44
315.542	312.44
315.771	313.44
316.001	315.44
316.23	321.44
316.46	298.44
316.689	314.44
316.919	326.44
317.148	351.44
317.377	337.44
317.607	326.44
317.836	323.44
318.065	325.44
318.295	314.44
318.524	302.44
318.753	336.44
318.983	318.44
319.212	324.44
319.441	324.44
319.67	336.44
319.9	342.44
320.129	321.44
320.358	302.44
320.587	332.44
320.816	337.44
321.046	337.44
321.275	343.44
321.504	326.44
321.733	347.44
321.962	348.44
322.191	351.44
322.42	354.44
322.649	383.44
322.878	389.44
323.108	393.44
323.337	431.44
323.566	427.44
323.795	461.44
324.024	492.44
324.253	619.44
324.482	881.44
324.71	1401.44
324.939	1949.44
325.168	1710.44
325.397	890.44
325.626	591.44
325.855	507.44
326.084	449.44
326.313	456.44
326.542	433.44
326.77	507.44
326.999	586.44
327.228	801.44
327.457	1195.44
327.686	1461.44
327.914	999.44
328.143	657.44
328.372	547.44
328.6	506.44
328.829	488.44
329.058	497.44
329.287	512.44
329.515	482.44
329.744	457.44
329.972	438.44
330.201	451.44
330.43	498.44
330.658	525.44
330.887	554.44
331.115	522.44
331.344	462.44
331.572	435.44
331.801	446.44
332.03	422.44
332.258	400.44
332.486	368.44
332.715	374.44
332.943	387.44
333.172	379.44
333.4	385.44
333.629	399.44
333.857	393.44
334.085	402.44
334.314	413.44
334.542	417.44
334.771	444.44
334.999	407.44
335.227	393.44
335.455	375.44
335.684	381.44
335.912	379.44
336.14	352.44
336.369	377.44
336.597	380.44
336.825	373.44
337.053	378.44
337.281	360.44
337.51	361.44
337.738	380.44
337.966	359.44
338.194	371.44
338.422	367.44
338.65	357.44
338.878	371.44
339.106	364.44
339.334	352.44
339.562	359.44
339.79	362.44
340.018	347.44
340.246	358.44
340.474	370.44
340.702	379.44
340.93	355.44
341.158	364.44
341.386	351.44
341.614	361.44
341.842	363.44
342.07	375.44
342.298	365.44
342.526	340.44
342.754	354.44
342.981	345.44
343.209	356.44
343.437	372.44
343.665	349.44
343.893	353.44
344.12	349.44
344.348	370.44
344.576	379.44
344.804	382.44
345.031	378.44
345.259	381.44
345.487	378.44
345.714	365.44
345.942	357.44
346.17	353.44
346.397	340.44
346.625	361.44
346.853	373.44
347.08	337.44
347.308	373.44
347.535	362.44
347.763	373.44
347.99	377.44
348.218	358.44
348.445	384.44
348.673	382.44
348.9	370.44
349.128	371.44
349.355	349.44
349.583	333.44
349.81	352.44
350.037	363.44
350.265	339.44
350.492	355.44
350.72	359.44
350.947	359.44
351.174	375.44
351.402	369.44
351.629	376.44
351.856	379.44
352.083	371.44
352.311	381.44
352.538	383.44
352.765	392.44
352.992	365.44
353.22	373.44
353.447	375.44
353.674	362.44
353.901	346.44
354.128	351.44
354.355	333.44
354.583	333.44
354.81	358.44
355.037	327.44
355.264	349.44
355.491	336.44
355.718	318.44
355.945	333.44
356.172	325.44
356.399	331.44
356.626	333.44
356.853	323.44
357.08	325.44
357.307	328.44
357.534	338.44
357.761	330.44
357.988	345.44
358.215	341.44
358.441	335.44
358.668	348.44
358.895	337.44
359.122	354.44
359.349	339.44
359.576	358.44
359.802	402.44
360.029	414.44
360.256	421.44
360.483	412.44
360.709	391.44
360.936	374.44
361.163	357.44
361.39	381.44
361.616	398.44
361.843	373.44
362.07	381.44
362.296	374.44
362.523	370.44
362.749	373.44
362.976	380.44
363.203	377.44
363.429	346.44
363.656	342.44
363.882	354.44
364.109	353.44
364.335	341.44
364.562	367.44
364.788	356.44
365.015	362.44
365.241	337.44
365.468	362.44
365.694	361.44
365.92	350.44
366.147	352.44
366.373	351.44
366.599	339.44
366.826	369.44
367.052	340.44
367.278	360.44
367.505	350.44
367.731	377.44
367.957	360.44
368.184	362.44
368.41	373.44
368.636	374.44
368.862	364.44
369.089	362.44
369.315	343.44
369.541	335.44
369.767	346.44
369.993	347.44
370.219	341.44
370.445	344.44
370.672	327.44
370.898	362.44
371.124	327.44
371.35	374.44
371.576	347.44
371.802	350.44
372.028	362.44
372.254	339.44
372.48	354.44
372.706	356.44
372.932	354.44
373.158	342.44
373.384	366.44
373.61	356.44
373.835	353.44
374.061	358.44
374.287	379.44
374.513	356.44
374.739	360.44
374.965	338.44
375.191	353.44
375.416	374.44
375.642	342.44
375.868	343.44
376.094	357.44
376.319	348.44
376.545	344.44
376.771	349.44
376.997	348.44
377.222	338.44
377.448	355.44
377.674	353.44
377.899	333.44
378.125	340.44
378.35	345.44
378.576	367.44
378.802	359.44
379.027	379.44
379.253	355.44
379.478	356.44
379.704	371.44
379.929	347.44
380.155	375.44
380.38	354.44
380.606	364.44
380.831	370.44
381.057	347.44
381.282	344.44
381.507	361.44
381.733	365.44
381.958	372.44
382.184	356.44
382.409	373.44
382.634	359.44
382.86	370.44
383.085	367.44
383.31	363.44
383.535	387.44
383.761	377.44
383.986	362.44
384.211	373.44
384.436	364.44
384.662	374.44
384.887	369.44
385.112	373.44
385.337	371.44
385.562	374.44
385.787	388.44
386.013	377.44
386.238	395.44
386.463	382.44
386.688	386.44
386.913	377.44
387.138	371.44
387.363	377.44
387.588	370.44
387.813	382.44
388.038	394.44
388.263	374.44
388.488	379.44
388.713	375.44
388.938	415.44
389.163	393.44
389.387	390.44
389.612	389.44
389.837	409.44
390.062	382.44
390.287	405.44
390.512	365.44
390.736	396.44
390.961	399.44
391.186	379.44
391.411	385.44
391.636	394.44
391.86	395.44
392.085	424.44
392.31	407.44
392.534	387.44
392.759	398.44
392.984	387.44
393.208	408.44
393.433	393.44
393.658	404.44
393.882	383.44
394.107	391.44
394.331	400.44
394.556	385.44
394.78	389.44
395.005	396.44
395.229	389.44
395.454	384.44
395.678	398.44
395.903	403.44
396.127	418.44
396.352	448.44
396.576	429.44
396.801	425.44
397.025	407.44
397.249	413.44
397.474	409.44
397.698	420.44
397.922	435.44
398.147	442.44
398.371	447.44
398.595	431.44
398.82	445.44
399.044	443.44
399.268	442.44
399.492	456.44
399.717	464.44
399.941	504.44
400.165	517.44
400.389	527.44
400.613	484.44
400.837	446.44
401.062	439.44
401.286	442.44
401.51	432.44
401.734	451.44
401.958	438.44
402.182	458.44
402.406	441.44
402.63	469.44
402.854	456.44
403.078	459.44
403.302	452.44
403.526	481.44
403.75	469.44
403.974	447.44
404.198	458.44
404.422	465.44
404.645	458.44
404.869	461.44
405.093	493.44
405.317	548.44
405.541	556.44
405.765	491.44
405.988	489.44
406.212	503.44
406.436	535.44
406.66	534.44
406.883	510.44
407.107	528.44
407.331	573.44
407.555	628.44
407.778	607.44
408.002	572.44
408.226	529.44
408.449	497.44
408.673	533.44
408.896	549.44
409.12	584.44
409.344	537.44
409.567	499.44
409.791	502.44
410.014	489.44
410.238	477.44
410.461	470.44
410.685	477.44
410.908	493.44
411.132	540.44
411.355	521.44
411.578	509.44
411.802	510.44
412.025	467.44
412.249	467.44
412.472	489.44
412.695	532.44
412.919	505.44
413.142	468.44
413.365	458.44
413.589	458.44
413.812	423.44
414.035	445.44
414.258	421.44
414.482	436.44
414.705	441.44
414.928	451.44
415.151	442.44
415.374	446.44
415.597	446.44
415.821	441.44
416.044	447.44
416.267	452.44
416.49	453.44
416.713	442.44
416.936	435.44
417.159	447.44
417.382	471.44
417.605	457.44
417.828	441.44
418.051	468.44
418.274	478.44
418.497	453.44
418.72	427.44
418.943	437.44
419.166	477.44
419.389	494.44
419.611	497.44
419.834	493.44
420.057	479.44
420.28	484.44
420.503	467.44
420.726	455.44
420.948	466.44
421.171	524.44
421.394	548.44
421.617	495.44
421.839	491.44
422.062	486.44
422.285	484.44
422.507	551.44
422.73	606.44
422.953	575.44
423.175	521.44
423.398	514.44
423.621	483.44
423.843	477.44
424.066	509.44
424.288	505.44
424.511	531.44
424.733	579.44
424.956	647.44
425.178	630.44
425.401	603.44
425.623	639.44
425.846	567.44
426.068	525.44
426.291	515.44
426.513	535.44
426.735	536.44
426.958	567.44
427.18	653.44
427.402	774.44
427.625	817.44
427.847	755.44
428.069	641.44
428.292	581.44
428.514	521.44
428.736	521.44
428.958	507.44
429.181	504.44
429.403	467.44
429.625	516.44
429.847	521.44
430.069	593.44
430.292	584.44
430.514	519.44
430.736	485.44
430.958	488.44
431.18	473.44
431.402	459.44
431.624	444.44
431.846	453.44
432.068	465.44
432.29	478.44
432.512	441.44
432.734	441.44
432.956	485.44
433.178	465.44
433.4	473.44
433.622	456.44
433.844	465.44
434.066	450.44
434.287	429.44
434.509	431.44
434.731	453.44
434.953	484.44
435.175	495.44
435.397	522.44
435.618	537.44
435.84	584.44
436.062	636.44
436.284	704.44
436.505	581.44
436.727	562.44
436.949	520.44
437.17	511.44
437.392	500.44
437.614	491.44
437.835	535.44
438.057	636.44
438.278	715.44
438.5	719.44
438.721	780.44
438.943	758.44
439.165	620.44
439.386	557.44
439.608	551.44
439.829	564.44
440.05	561.44
440.272	587.44
440.493	570.44
440.715	523.44
440.936	516.44
441.158	525.44
441.379	495.44
441.6	506.44
441.822	531.44
442.043	587.44
442.264	636.44
442.486	659.44
442.707	589.44
442.928	561.44
443.149	555.44
443.371	570.44
443.592	599.44
443.813	686.44
444.034	723.44
444.255	628.44
444.476	553.44
444.698	540.44
444.919	526.44
445.14	661.44
445.361	599.44
445.582	566.44
445.803	639.44
446.024	742.44
446.245	723.44
446.466	650.44
446.687	587.44
446.908	547.44
447.129	517.44
447.35	514.44
447.571	484.44
447.792	497.44
448.013	509.44
448.234	514.44
448.455	560.44
448.675	652.44
448.896	773.44
449.117	665.44
449.338	628.44
449.559	723.44
449.779	795.44
450	652.44
450.221	565.44
450.442	503.44
450.662	504.44
450.883	497.44
451.104	526.44
451.324	513.44
451.545	490.44
451.766	451.44
451.986	444.44
452.207	450.44
452.428	418.44
452.648	422.44
452.869	457.44
453.089	452.44
453.31	457.44
453.53	449.44
453.751	427.44
453.971	441.44
454.192	465.44
454.412	453.44
454.633	431.44
454.853	423.44
455.073	447.44
455.294	454.44
455.514	535.44
455.734	505.44
455.955	444.44
456.175	425.44
456.395	394.44
456.616	421.44
456.836	413.44
457.056	417.44
457.276	389.44
457.497	414.44
457.717	426.44
457.937	414.44
458.157	424.44
458.377	425.44
458.598	459.44
458.818	510.44
459.038	582.44
459.258	591.44
459.478	519.44
459.698	465.44
459.918	450.44
460.138	433.44
460.358	449.44
460.578	441.44
460.798	449.44
461.018	454.44
461.238	449.44
461.458	474.44
461.678	440.44
461.898	458.44
462.118	461.44
462.338	453.44
462.558	466.44
462.777	476.44
462.997	464.44
463.217	475.44
463.437	468.44
463.657	471.44
463.876	474.44
464.096	491.44
464.316	466.44
464.536	489.44
464.755	491.44
464.975	497.44
465.195	547.44
465.414	621.44
465.634	538.44
465.854	513.44
466.073	485.44
466.293	469.44
466.512	437.44
466.732	466.44
466.951	453.44
467.171	443.44
467.391	445.44
467.61	444.44
467.829	470.44
468.049	463.44
468.268	458.44
468.488	470.44
468.707	435.44
468.927	438.44
469.146	439.44
469.365	464.44
469.585	427.44
469.804	454.44
470.023	455.44
470.243	448.44
470.462	466.44
470.681	471.44
470.901	462.44
471.12	450.44
471.339	440.44
471.558	448.44
471.777	452.44
471.997	452.44
472.216	471.44
472.435	459.44
472.654	481.44
472.873	466.44
473.092	457.44
473.311	455.44
473.53	450.44
473.749	484.44
473.968	532.44
474.187	592.44
474.406	622.44
474.625	507.44
474.844	478.44
475.063	471.44
475.282	473.44
475.501	473.44
475.72	473.44
475.939	498.44
476.158	476.44
476.377	482.44
476.596	471.44
476.814	473.44
477.033	497.44
477.252	472.44
477.471	482.44
477.69	503.44
477.908	486.44
478.127	481.44
478.346	501.44
478.564	501.44
478.783	491.44
479.002	507.44
479.22	534.44
479.439	519.44
479.658	540.44
479.876	555.44
480.095	554.44
480.313	583.44
480.532	567.44
480.751	545.44
480.969	561.44
481.188	613.44
481.406	637.44
481.624	593.44
481.843	556.44
482.061	538.44
482.28	552.44
482.498	535.44
482.717	541.44
482.935	543.44
483.153	542.44
483.372	541.44
483.59	544.44
483.808	546.44
484.027	538.44
484.245	546.44
484.463	535.44
484.681	552.44
484.9	553.44
485.118	554.44
485.336	551.44
485.554	555.44
485.772	557.44
485.99	564.44
486.209	535.44
486.427	563.44
486.645	590.44
486.863	581.44
487.081	583.44
487.299	595.44
487.517	576.44
487.735	584.44
487.953	604.44
488.171	608.44
488.389	569.44
488.607	597.44
488.825	599.44
489.043	589.44
489.261	605.44
489.479	601.44
489.696	612.44
489.914	605.44
490.132	632.44
490.35	617.44
490.568	621.44
490.786	629.44
491.003	638.44
491.221	652.44
491.439	674.44
491.657	687.44
491.874	666.44
492.092	671.44
492.31	700.44
492.527	699.44
492.745	681.44
492.963	702.44
493.18	713.44
493.398	718.44
493.615	700.44
493.833	677.44
494.05	705.44
494.268	683.44
494.485	720.44
494.703	682.44
494.92	702.44
495.138	697.44
495.355	725.44
495.573	715.44
495.79	706.44
496.008	713.44
496.225	708.44
496.442	698.44
496.66	709.44
496.877	697.44
497.094	717.44
497.312	723.44
497.529	733.44
497.746	709.44
497.963	740.44
498.181	767.44
498.398	737.44
498.615	753.44
498.832	790.44
499.049	767.44
499.267	782.44
499.484	791.44
499.701	805.44
499.918	820.44
500.135	833.44
500.352	868.44
500.569	874.44
500.786	885.44
501.003	889.44
501.22	889.44
501.437	847.44
501.654	837.44
