Data from 1971.PennyLincolnUp.Lamp.En5.5.200Scan.071719.P1._HRD10591_15-18-18-841.txt Node
Date: Thu Jul 18 15:18:18 EDT 2019
User: cochatt
Spectrometer: HR+D1059
Trigger mode: 1
Integration Time (sec): 1.000000E-1
Scans to average: 1
Electric dark correction enabled: true
Nonlinearity correction enabled: false
Boxcar width: 0
XAxis mode: Wavelengths
Number of Pixels in Spectrum: 2048
>>>>>Begin Spectral Data<<<<<
223.165	-14.44
223.4	-14.44
223.635	-14.44
223.869	-17.44
224.104	-2.44
224.338	-4.44
224.573	-28.44
224.808	3.56
225.042	-17.44
225.277	-11.44
225.511	-4.44
225.746	-1.44
225.98	13.56
226.215	-2.44
226.449	13.56
226.683	13.56
226.918	31.56
227.152	28.56
227.387	43.56
227.621	37.56
227.856	44.56
228.09	30.56
228.324	32.56
228.559	53.56
228.793	70.56
229.027	86.56
229.262	85.56
229.496	107.56
229.73	111.56
229.964	127.56
230.199	108.56
230.433	110.56
230.667	108.56
230.901	98.56
231.136	90.56
231.37	95.56
231.604	92.56
231.838	121.56
232.072	110.56
232.306	111.56
232.541	106.56
232.775	103.56
233.009	102.56
233.243	112.56
233.477	103.56
233.711	93.56
233.945	84.56
234.179	112.56
234.413	112.56
234.647	125.56
234.881	120.56
235.115	105.56
235.349	115.56
235.583	113.56
235.817	110.56
236.051	117.56
236.285	125.56
236.519	122.56
236.753	135.56
236.987	135.56
237.221	176.56
237.455	199.56
237.689	156.56
237.922	130.56
238.156	125.56
238.39	141.56
238.624	117.56
238.858	117.56
239.091	104.56
239.325	105.56
239.559	120.56
239.793	117.56
240.027	126.56
240.26	134.56
240.494	142.56
240.728	137.56
240.961	133.56
241.195	148.56
241.429	137.56
241.662	124.56
241.896	141.56
242.13	121.56
242.363	138.56
242.597	132.56
242.83	119.56
243.064	131.56
243.298	136.56
243.531	114.56
243.765	142.56
243.998	137.56
244.232	118.56
244.465	130.56
244.699	142.56
244.932	128.56
245.166	144.56
245.399	166.56
245.633	135.56
245.866	136.56
246.099	134.56
246.333	158.56
246.566	149.56
246.8	152.56
247.033	132.56
247.266	153.56
247.5	137.56
247.733	150.56
247.966	164.56
248.2	171.56
248.433	162.56
248.666	182.56
248.899	187.56
249.133	180.56
249.366	187.56
249.599	190.56
249.832	167.56
250.066	175.56
250.299	191.56
250.532	182.56
250.765	190.56
250.998	192.56
251.231	214.56
251.465	203.56
251.698	206.56
251.931	197.56
252.164	192.56
252.397	191.56
252.63	181.56
252.863	187.56
253.096	195.56
253.329	209.56
253.562	212.56
253.795	210.56
254.028	203.56
254.261	205.56
254.494	201.56
254.727	230.56
254.96	259.56
255.193	240.56
255.426	230.56
255.659	217.56
255.892	218.56
256.124	200.56
256.357	197.56
256.59	199.56
256.823	204.56
257.056	210.56
257.289	210.56
257.521	202.56
257.754	213.56
257.987	205.56
258.22	197.56
258.452	176.56
258.685	202.56
258.918	206.56
259.151	206.56
259.383	209.56
259.616	205.56
259.849	229.56
260.081	243.56
260.314	249.56
260.547	232.56
260.779	227.56
261.012	229.56
261.244	218.56
261.477	229.56
261.71	208.56
261.942	206.56
262.175	210.56
262.407	221.56
262.64	205.56
262.872	203.56
263.105	204.56
263.337	224.56
263.57	205.56
263.802	202.56
264.035	183.56
264.267	193.56
264.499	212.56
264.732	218.56
264.964	193.56
265.197	194.56
265.429	219.56
265.661	199.56
265.894	213.56
266.126	209.56
266.358	200.56
266.591	236.56
266.823	220.56
267.055	223.56
267.287	205.56
267.52	206.56
267.752	210.56
267.984	223.56
268.216	221.56
268.448	209.56
268.681	231.56
268.913	224.56
269.145	247.56
269.377	250.56
269.609	245.56
269.841	238.56
270.073	243.56
270.306	261.56
270.538	288.56
270.77	289.56
271.002	288.56
271.234	288.56
271.466	272.56
271.698	295.56
271.93	284.56
272.162	298.56
272.394	282.56
272.626	287.56
272.858	273.56
273.09	261.56
273.322	259.56
273.553	253.56
273.785	245.56
274.017	235.56
274.249	259.56
274.481	242.56
274.713	260.56
274.945	253.56
275.176	254.56
275.408	243.56
275.64	243.56
275.872	255.56
276.104	254.56
276.335	242.56
276.567	245.56
276.799	266.56
277.031	276.56
277.262	281.56
277.494	292.56
277.726	261.56
277.957	267.56
278.189	257.56
278.421	251.56
278.652	274.56
278.884	265.56
279.115	244.56
279.347	252.56
279.579	252.56
279.81	250.56
280.042	261.56
280.273	258.56
280.505	259.56
280.736	260.56
280.968	248.56
281.199	236.56
281.431	259.56
281.662	233.56
281.894	257.56
282.125	251.56
282.356	291.56
282.588	304.56
282.819	287.56
283.051	255.56
283.282	265.56
283.513	270.56
283.745	265.56
283.976	270.56
284.207	272.56
284.439	277.56
284.67	283.56
284.901	266.56
285.132	273.56
285.364	261.56
285.595	266.56
285.826	251.56
286.057	262.56
286.288	260.56
286.52	270.56
286.751	269.56
286.982	261.56
287.213	253.56
287.444	273.56
287.675	269.56
287.906	269.56
288.138	284.56
288.369	275.56
288.6	283.56
288.831	281.56
289.062	278.56
289.293	271.56
289.524	280.56
289.755	269.56
289.986	263.56
290.217	277.56
290.448	279.56
290.679	278.56
290.91	272.56
291.141	276.56
291.371	297.56
291.602	253.56
291.833	272.56
292.064	285.56
292.295	279.56
292.526	265.56
292.757	273.56
292.987	281.56
293.218	265.56
293.449	292.56
293.68	288.56
293.91	281.56
294.141	255.56
294.372	279.56
294.603	295.56
294.833	269.56
295.064	277.56
295.295	295.56
295.525	290.56
295.756	272.56
295.987	297.56
296.217	290.56
296.448	304.56
296.679	288.56
296.909	271.56
297.14	279.56
297.37	287.56
297.601	280.56
297.831	300.56
298.062	273.56
298.292	279.56
298.523	299.56
298.753	266.56
298.984	291.56
299.214	276.56
299.445	272.56
299.675	271.56
299.905	289.56
300.136	284.56
300.366	278.56
300.597	287.56
300.827	286.56
301.057	300.56
301.288	311.56
301.518	323.56
301.748	320.56
301.979	301.56
302.209	313.56
302.439	307.56
302.669	319.56
302.9	303.56
303.13	300.56
303.36	296.56
303.59	315.56
303.82	325.56
304.051	314.56
304.281	300.56
304.511	318.56
304.741	305.56
304.971	306.56
305.201	299.56
305.431	310.56
305.661	314.56
305.891	290.56
306.121	304.56
306.352	294.56
306.582	316.56
306.812	280.56
307.042	317.56
307.272	293.56
307.502	297.56
307.731	322.56
307.961	305.56
308.191	308.56
308.421	327.56
308.651	337.56
308.881	314.56
309.111	315.56
309.341	327.56
309.571	326.56
309.8	350.56
310.03	320.56
310.26	343.56
310.49	341.56
310.72	344.56
310.949	351.56
311.179	366.56
311.409	333.56
311.639	336.56
311.868	360.56
312.098	346.56
312.328	352.56
312.557	345.56
312.787	359.56
313.017	373.56
313.246	352.56
313.476	325.56
313.706	364.56
313.935	357.56
314.165	355.56
314.394	350.56
314.624	356.56
314.853	368.56
315.083	342.56
315.312	342.56
315.542	377.56
315.771	359.56
316.001	340.56
316.23	338.56
316.46	320.56
316.689	352.56
316.919	348.56
317.148	373.56
317.377	338.56
317.607	364.56
317.836	354.56
318.065	343.56
318.295	341.56
318.524	354.56
318.753	340.56
318.983	332.56
319.212	335.56
319.441	352.56
319.67	342.56
319.9	360.56
320.129	351.56
320.358	361.56
320.587	361.56
320.816	345.56
321.046	353.56
321.275	366.56
321.504	342.56
321.733	355.56
321.962	380.56
322.191	389.56
322.42	374.56
322.649	400.56
322.878	412.56
323.108	396.56
323.337	423.56
323.566	441.56
323.795	454.56
324.024	490.56
324.253	591.56
324.482	804.56
324.71	1179.56
324.939	1591.56
325.168	1352.56
325.397	745.56
325.626	539.56
325.855	474.56
326.084	410.56
326.313	429.56
326.542	452.56
326.77	464.56
326.999	557.56
327.228	737.56
327.457	1010.56
327.686	1170.56
327.914	810.56
328.143	585.56
328.372	527.56
328.6	478.56
328.829	473.56
329.058	473.56
329.287	484.56
329.515	439.56
329.744	440.56
329.972	440.56
330.201	445.56
330.43	453.56
330.658	500.56
330.887	505.56
331.115	478.56
331.344	445.56
331.572	426.56
331.801	424.56
332.03	417.56
332.258	416.56
332.486	396.56
332.715	413.56
332.943	379.56
333.172	403.56
333.4	406.56
333.629	414.56
333.857	409.56
334.085	424.56
334.314	428.56
334.542	437.56
334.771	436.56
334.999	425.56
335.227	424.56
335.455	424.56
335.684	402.56
335.912	395.56
336.14	376.56
336.369	376.56
336.597	406.56
336.825	404.56
337.053	398.56
337.281	376.56
337.51	399.56
337.738	405.56
337.966	392.56
338.194	395.56
338.422	399.56
338.65	397.56
338.878	368.56
339.106	378.56
339.334	391.56
339.562	379.56
339.79	385.56
340.018	384.56
340.246	378.56
340.474	381.56
340.702	380.56
340.93	364.56
341.158	378.56
341.386	381.56
341.614	376.56
341.842	395.56
342.07	384.56
342.298	384.56
342.526	361.56
342.754	354.56
342.981	380.56
343.209	379.56
343.437	373.56
343.665	397.56
343.893	395.56
344.12	373.56
344.348	380.56
344.576	387.56
344.804	393.56
345.031	393.56
345.259	395.56
345.487	383.56
345.714	367.56
345.942	353.56
346.17	359.56
346.397	360.56
346.625	384.56
346.853	389.56
347.08	373.56
347.308	364.56
347.535	369.56
347.763	376.56
347.99	368.56
348.218	367.56
348.445	378.56
348.673	389.56
348.9	352.56
349.128	361.56
349.355	371.56
349.583	347.56
349.81	340.56
350.037	334.56
350.265	351.56
350.492	349.56
350.72	362.56
350.947	361.56
351.174	376.56
351.402	368.56
351.629	367.56
351.856	372.56
352.083	357.56
352.311	352.56
352.538	371.56
352.765	376.56
352.992	365.56
353.22	364.56
353.447	353.56
353.674	347.56
353.901	344.56
354.128	342.56
354.355	348.56
354.583	337.56
354.81	349.56
355.037	328.56
355.264	368.56
355.491	347.56
355.718	333.56
355.945	342.56
356.172	332.56
356.399	337.56
356.626	323.56
356.853	353.56
357.08	333.56
357.307	331.56
357.534	320.56
357.761	315.56
357.988	350.56
358.215	339.56
358.441	328.56
358.668	333.56
358.895	332.56
359.122	344.56
359.349	349.56
359.576	364.56
359.802	364.56
360.029	382.56
360.256	395.56
360.483	355.56
360.709	356.56
360.936	356.56
361.163	356.56
361.39	339.56
361.616	353.56
361.843	359.56
362.07	348.56
362.296	365.56
362.523	351.56
362.749	348.56
362.976	350.56
363.203	323.56
363.429	333.56
363.656	340.56
363.882	320.56
364.109	317.56
364.335	339.56
364.562	335.56
364.788	362.56
365.015	338.56
365.241	346.56
365.468	337.56
365.694	351.56
365.92	332.56
366.147	348.56
366.373	332.56
366.599	333.56
366.826	332.56
367.052	349.56
367.278	335.56
367.505	330.56
367.731	328.56
367.957	350.56
368.184	332.56
368.41	331.56
368.636	359.56
368.862	363.56
369.089	340.56
369.315	335.56
369.541	319.56
369.767	334.56
369.993	331.56
370.219	351.56
370.445	339.56
370.672	319.56
370.898	342.56
371.124	344.56
371.35	331.56
371.576	349.56
371.802	323.56
372.028	347.56
372.254	301.56
372.48	333.56
372.706	356.56
372.932	325.56
373.158	372.56
373.384	342.56
373.61	340.56
373.835	335.56
374.061	332.56
374.287	336.56
374.513	351.56
374.739	340.56
374.965	331.56
375.191	347.56
375.416	336.56
375.642	344.56
375.868	347.56
376.094	341.56
376.319	320.56
376.545	333.56
376.771	333.56
376.997	323.56
377.222	333.56
377.448	331.56
377.674	332.56
377.899	323.56
378.125	330.56
378.35	325.56
378.576	323.56
378.802	323.56
379.027	347.56
379.253	320.56
379.478	316.56
379.704	323.56
379.929	331.56
380.155	345.56
380.38	324.56
380.606	341.56
380.831	324.56
381.057	342.56
381.282	331.56
381.507	333.56
381.733	334.56
381.958	338.56
382.184	346.56
382.409	332.56
382.634	327.56
382.86	332.56
383.085	348.56
383.31	333.56
383.535	351.56
383.761	329.56
383.986	346.56
384.211	320.56
384.436	321.56
384.662	354.56
384.887	348.56
385.112	347.56
385.337	335.56
385.562	347.56
385.787	345.56
386.013	361.56
386.238	361.56
386.463	351.56
386.688	332.56
386.913	357.56
387.138	353.56
387.363	353.56
387.588	363.56
387.813	358.56
388.038	335.56
388.263	337.56
388.488	321.56
388.713	366.56
388.938	358.56
389.163	359.56
389.387	351.56
389.612	346.56
389.837	348.56
390.062	340.56
390.287	353.56
390.512	357.56
390.736	329.56
390.961	345.56
391.186	355.56
391.411	352.56
391.636	341.56
391.86	360.56
392.085	340.56
392.31	351.56
392.534	356.56
392.759	352.56
392.984	349.56
393.208	365.56
393.433	367.56
393.658	373.56
393.882	348.56
394.107	341.56
394.331	356.56
394.556	352.56
394.78	337.56
395.005	356.56
395.229	363.56
395.454	356.56
395.678	343.56
395.903	368.56
396.127	382.56
396.352	387.56
396.576	362.56
396.801	359.56
397.025	361.56
397.249	384.56
397.474	339.56
397.698	373.56
397.922	393.56
398.147	369.56
398.371	389.56
398.595	366.56
398.82	363.56
399.044	399.56
399.268	383.56
399.492	407.56
399.717	426.56
399.941	454.56
400.165	453.56
400.389	460.56
400.613	428.56
400.837	410.56
401.062	393.56
401.286	390.56
401.51	396.56
401.734	391.56
401.958	362.56
402.182	391.56
402.406	387.56
402.63	403.56
402.854	399.56
403.078	386.56
403.302	378.56
403.526	400.56
403.75	394.56
403.974	402.56
404.198	379.56
404.422	400.56
404.645	393.56
404.869	398.56
405.093	417.56
405.317	444.56
405.541	457.56
405.765	421.56
405.988	420.56
406.212	410.56
406.436	432.56
406.66	443.56
406.883	439.56
407.107	419.56
407.331	484.56
407.555	522.56
407.778	507.56
408.002	471.56
408.226	439.56
408.449	430.56
408.673	417.56
408.896	465.56
409.12	479.56
409.344	445.56
409.567	393.56
409.791	424.56
410.014	407.56
410.238	401.56
410.461	401.56
410.685	399.56
410.908	409.56
411.132	438.56
411.355	465.56
411.578	433.56
411.802	417.56
412.025	401.56
412.249	390.56
412.472	413.56
412.695	434.56
412.919	408.56
413.142	389.56
413.365	407.56
413.589	389.56
413.812	387.56
414.035	378.56
414.258	365.56
414.482	368.56
414.705	366.56
414.928	364.56
415.151	378.56
415.374	354.56
415.597	379.56
415.821	348.56
416.044	379.56
416.267	345.56
416.49	357.56
416.713	354.56
416.936	371.56
417.159	377.56
417.382	368.56
417.605	359.56
417.828	387.56
418.051	380.56
418.274	385.56
418.497	381.56
418.72	373.56
418.943	371.56
419.166	407.56
419.389	401.56
419.611	415.56
419.834	394.56
420.057	393.56
420.28	395.56
420.503	380.56
420.726	380.56
420.948	401.56
421.171	417.56
421.394	446.56
421.617	416.56
421.839	412.56
422.062	399.56
422.285	387.56
422.507	429.56
422.73	503.56
422.953	477.56
423.175	413.56
423.398	382.56
423.621	410.56
423.843	407.56
424.066	424.56
424.288	407.56
424.511	436.56
424.733	482.56
424.956	517.56
425.178	507.56
425.401	495.56
425.623	505.56
425.846	447.56
426.068	401.56
426.291	397.56
426.513	420.56
426.735	403.56
426.958	447.56
427.18	512.56
427.402	596.56
427.625	655.56
427.847	552.56
428.069	511.56
428.292	444.56
428.514	406.56
428.736	381.56
428.958	389.56
429.181	406.56
429.403	412.56
429.625	393.56
429.847	401.56
430.069	442.56
430.292	457.56
430.514	408.56
430.736	365.56
430.958	360.56
431.18	376.56
431.402	363.56
431.624	375.56
431.846	354.56
432.068	369.56
432.29	361.56
432.512	380.56
432.734	373.56
432.956	343.56
433.178	395.56
433.4	371.56
433.622	342.56
433.844	360.56
434.066	361.56
434.287	352.56
434.509	351.56
434.731	388.56
434.953	385.56
435.175	374.56
435.397	411.56
435.618	412.56
435.84	465.56
436.062	518.56
436.284	550.56
436.505	461.56
436.727	421.56
436.949	382.56
437.17	386.56
437.392	374.56
437.614	382.56
437.835	408.56
438.057	475.56
438.278	571.56
438.5	565.56
438.721	627.56
438.943	564.56
439.165	457.56
439.386	433.56
439.608	426.56
439.829	407.56
440.05	432.56
440.272	480.56
440.493	445.56
440.715	420.56
440.936	387.56
441.158	388.56
441.379	374.56
441.6	396.56
441.822	405.56
442.043	433.56
442.264	498.56
442.486	551.56
442.707	446.56
442.928	433.56
443.149	426.56
443.371	451.56
443.592	482.56
443.813	537.56
444.034	569.56
444.255	480.56
444.476	437.56
444.698	423.56
444.919	409.56
445.14	545.56
445.361	476.56
445.582	441.56
445.803	482.56
446.024	549.56
446.245	545.56
446.466	482.56
446.687	427.56
446.908	401.56
447.129	394.56
447.35	391.56
447.571	379.56
447.792	373.56
448.013	380.56
448.234	392.56
448.455	428.56
448.675	512.56
448.896	590.56
449.117	504.56
449.338	476.56
449.559	560.56
449.779	615.56
450	501.56
450.221	443.56
450.442	400.56
450.662	391.56
450.883	375.56
451.104	374.56
451.324	377.56
451.545	360.56
451.766	369.56
451.986	336.56
452.207	342.56
452.428	319.56
452.648	334.56
452.869	329.56
453.089	324.56
453.31	336.56
453.53	326.56
453.751	353.56
453.971	335.56
454.192	345.56
454.412	335.56
454.633	333.56
454.853	344.56
455.073	344.56
455.294	347.56
455.514	387.56
455.734	391.56
455.955	352.56
456.175	328.56
456.395	326.56
456.616	315.56
456.836	335.56
457.056	326.56
457.276	308.56
457.497	326.56
457.717	322.56
457.937	336.56
458.157	330.56
458.377	334.56
458.598	356.56
458.818	367.56
459.038	423.56
459.258	445.56
459.478	384.56
459.698	361.56
459.918	350.56
460.138	351.56
460.358	359.56
460.578	368.56
460.798	377.56
461.018	365.56
461.238	363.56
461.458	361.56
461.678	362.56
461.898	358.56
462.118	381.56
462.338	377.56
462.558	368.56
462.777	361.56
462.997	368.56
463.217	379.56
463.437	397.56
463.657	399.56
463.876	384.56
464.096	370.56
464.316	390.56
464.536	383.56
464.755	387.56
464.975	375.56
465.195	425.56
465.414	446.56
465.634	399.56
465.854	377.56
466.073	373.56
466.293	353.56
466.512	362.56
466.732	352.56
466.951	347.56
467.171	345.56
467.391	355.56
467.61	355.56
467.829	352.56
468.049	355.56
468.268	336.56
468.488	335.56
468.707	353.56
468.927	340.56
469.146	340.56
469.365	339.56
469.585	341.56
469.804	332.56
470.023	358.56
470.243	367.56
470.462	364.56
470.681	379.56
470.901	361.56
471.12	353.56
471.339	353.56
471.558	358.56
471.777	345.56
471.997	338.56
472.216	354.56
472.435	374.56
472.654	375.56
472.873	338.56
473.092	357.56
473.311	354.56
473.53	355.56
473.749	362.56
473.968	416.56
474.187	467.56
474.406	481.56
474.625	396.56
474.844	367.56
475.063	357.56
475.282	362.56
475.501	381.56
475.72	364.56
475.939	364.56
476.158	367.56
476.377	361.56
476.596	378.56
476.814	371.56
477.033	357.56
477.252	363.56
477.471	371.56
477.69	383.56
477.908	375.56
478.127	366.56
478.346	371.56
478.564	385.56
478.783	407.56
479.002	401.56
479.22	394.56
479.439	393.56
479.658	420.56
479.876	422.56
480.095	429.56
480.313	442.56
480.532	426.56
480.751	431.56
480.969	413.56
481.188	471.56
481.406	462.56
481.624	449.56
481.843	408.56
482.061	424.56
482.28	407.56
482.498	391.56
482.717	443.56
482.935	389.56
483.153	399.56
483.372	413.56
483.59	411.56
483.808	405.56
484.027	391.56
484.245	391.56
484.463	399.56
484.681	409.56
484.9	405.56
485.118	419.56
485.336	419.56
485.554	396.56
485.772	431.56
485.99	423.56
486.209	414.56
486.427	422.56
486.645	437.56
486.863	431.56
487.081	420.56
487.299	425.56
487.517	434.56
487.735	445.56
487.953	426.56
488.171	451.56
488.389	440.56
488.607	444.56
488.825	448.56
489.043	443.56
489.261	427.56
489.479	447.56
489.696	423.56
489.914	440.56
490.132	447.56
490.35	463.56
490.568	445.56
490.786	468.56
491.003	476.56
491.221	479.56
491.439	491.56
491.657	506.56
491.874	491.56
492.092	497.56
492.31	513.56
492.527	489.56
492.745	500.56
492.963	504.56
493.18	487.56
493.398	525.56
493.615	493.56
493.833	521.56
494.05	503.56
494.268	502.56
494.485	522.56
494.703	536.56
494.92	507.56
495.138	480.56
495.355	512.56
495.573	513.56
495.79	543.56
496.008	510.56
496.225	529.56
496.442	521.56
496.66	517.56
496.877	492.56
497.094	531.56
497.312	525.56
497.529	524.56
497.746	528.56
497.963	525.56
498.181	542.56
498.398	554.56
498.615	564.56
498.832	563.56
499.049	585.56
499.267	600.56
499.484	575.56
499.701	630.56
499.918	619.56
500.135	661.56
500.352	699.56
500.569	688.56
500.786	690.56
501.003	683.56
501.22	658.56
501.437	645.56
501.654	639.56
501.871	602.56
502.088	603.56
