Data from 1971.PennyLincolnUp.Lamp.En5.5.200Scan.071719.P1._HRD10591_15-18-16-841.txt Node
Date: Thu Jul 18 15:18:16 EDT 2019
User: cochatt
Spectrometer: HR+D1059
Trigger mode: 1
Integration Time (sec): 1.000000E-1
Scans to average: 1
Electric dark correction enabled: true
Nonlinearity correction enabled: false
Boxcar width: 0
XAxis mode: Wavelengths
Number of Pixels in Spectrum: 2048
>>>>>Begin Spectral Data<<<<<
223.165	-17.38
223.4	-17.38
223.635	-17.38
223.869	-27.38
224.104	-17.38
224.338	-8.38
224.573	-18.38
224.808	-9.38
225.042	-8.38
225.277	-3.38
225.511	-1.38
225.746	-2.38
225.98	8.62
226.215	4.62
226.449	6.62
226.683	19.62
226.918	39.62
227.152	34.62
227.387	43.62
227.621	30.62
227.856	32.62
228.09	43.62
228.324	39.62
228.559	38.62
228.793	68.62
229.027	81.62
229.262	91.62
229.496	94.62
229.73	98.62
229.964	121.62
230.199	108.62
230.433	103.62
230.667	87.62
230.901	84.62
231.136	83.62
231.37	99.62
231.604	98.62
231.838	111.62
232.072	114.62
232.306	100.62
232.541	113.62
232.775	98.62
233.009	99.62
233.243	107.62
233.477	119.62
233.711	105.62
233.945	103.62
234.179	112.62
234.413	103.62
234.647	110.62
234.881	118.62
235.115	110.62
235.349	99.62
235.583	116.62
235.817	123.62
236.051	124.62
236.285	116.62
236.519	100.62
236.753	115.62
236.987	123.62
237.221	149.62
237.455	184.62
237.689	184.62
237.922	124.62
238.156	119.62
238.39	128.62
238.624	111.62
238.858	112.62
239.091	118.62
239.325	119.62
239.559	120.62
239.793	102.62
240.027	117.62
240.26	113.62
240.494	138.62
240.728	129.62
240.961	132.62
241.195	132.62
241.429	118.62
241.662	116.62
241.896	124.62
242.13	132.62
242.363	127.62
242.597	124.62
242.83	119.62
243.064	126.62
243.298	134.62
243.531	127.62
243.765	128.62
243.998	121.62
244.232	116.62
244.465	127.62
244.699	130.62
244.932	126.62
245.166	132.62
245.399	128.62
245.633	144.62
245.866	130.62
246.099	134.62
246.333	129.62
246.566	128.62
246.8	142.62
247.033	122.62
247.266	137.62
247.5	148.62
247.733	162.62
247.966	144.62
248.2	164.62
248.433	152.62
248.666	150.62
248.899	170.62
249.133	184.62
249.366	180.62
249.599	175.62
249.832	171.62
250.066	159.62
250.299	170.62
250.532	180.62
250.765	190.62
250.998	208.62
251.231	190.62
251.465	187.62
251.698	179.62
251.931	206.62
252.164	202.62
252.397	186.62
252.63	200.62
252.863	183.62
253.096	202.62
253.329	204.62
253.562	215.62
253.795	215.62
254.028	198.62
254.261	200.62
254.494	218.62
254.727	228.62
254.96	235.62
255.193	239.62
255.426	208.62
255.659	204.62
255.892	222.62
256.124	218.62
256.357	214.62
256.59	202.62
256.823	195.62
257.056	190.62
257.289	200.62
257.521	214.62
257.754	202.62
257.987	211.62
258.22	192.62
258.452	202.62
258.685	192.62
258.918	209.62
259.151	197.62
259.383	201.62
259.616	191.62
259.849	184.62
260.081	214.62
260.314	238.62
260.547	229.62
260.779	221.62
261.012	217.62
261.244	221.62
261.477	213.62
261.71	211.62
261.942	199.62
262.175	215.62
262.407	204.62
262.64	197.62
262.872	188.62
263.105	197.62
263.337	210.62
263.57	195.62
263.802	201.62
264.035	196.62
264.267	211.62
264.499	200.62
264.732	194.62
264.964	199.62
265.197	212.62
265.429	198.62
265.661	201.62
265.894	214.62
266.126	187.62
266.358	199.62
266.591	200.62
266.823	216.62
267.055	223.62
267.287	205.62
267.52	205.62
267.752	197.62
267.984	205.62
268.216	207.62
268.448	223.62
268.681	219.62
268.913	224.62
269.145	251.62
269.377	238.62
269.609	260.62
269.841	248.62
270.073	266.62
270.306	281.62
270.538	275.62
270.77	276.62
271.002	251.62
271.234	248.62
271.466	272.62
271.698	279.62
271.93	286.62
272.162	290.62
272.394	286.62
272.626	276.62
272.858	272.62
273.09	258.62
273.322	264.62
273.553	247.62
273.785	243.62
274.017	238.62
274.249	239.62
274.481	238.62
274.713	250.62
274.945	255.62
275.176	242.62
275.408	245.62
275.64	242.62
275.872	254.62
276.104	267.62
276.335	241.62
276.567	254.62
276.799	257.62
277.031	272.62
277.262	280.62
277.494	287.62
277.726	281.62
277.957	274.62
278.189	260.62
278.421	252.62
278.652	242.62
278.884	255.62
279.115	246.62
279.347	240.62
279.579	260.62
279.81	251.62
280.042	232.62
280.273	248.62
280.505	257.62
280.736	266.62
280.968	259.62
281.199	257.62
281.431	262.62
281.662	268.62
281.894	234.62
282.125	250.62
282.356	245.62
282.588	289.62
282.819	261.62
283.051	267.62
283.282	264.62
283.513	256.62
283.745	265.62
283.976	249.62
284.207	258.62
284.439	270.62
284.67	253.62
284.901	250.62
285.132	252.62
285.364	245.62
285.595	262.62
285.826	254.62
286.057	259.62
286.288	263.62
286.52	267.62
286.751	268.62
286.982	272.62
287.213	274.62
287.444	262.62
287.675	262.62
287.906	295.62
288.138	279.62
288.369	267.62
288.6	279.62
288.831	274.62
289.062	292.62
289.293	278.62
289.524	282.62
289.755	263.62
289.986	264.62
290.217	254.62
290.448	257.62
290.679	261.62
290.91	267.62
291.141	269.62
291.371	262.62
291.602	268.62
291.833	256.62
292.064	281.62
292.295	285.62
292.526	272.62
292.757	273.62
292.987	254.62
293.218	274.62
293.449	283.62
293.68	277.62
293.91	274.62
294.141	268.62
294.372	247.62
294.603	260.62
294.833	264.62
295.064	265.62
295.295	281.62
295.525	289.62
295.756	267.62
295.987	304.62
296.217	306.62
296.448	315.62
296.679	293.62
296.909	262.62
297.14	286.62
297.37	300.62
297.601	278.62
297.831	283.62
298.062	287.62
298.292	293.62
298.523	286.62
298.753	292.62
298.984	282.62
299.214	283.62
299.445	284.62
299.675	285.62
299.905	290.62
300.136	292.62
300.366	277.62
300.597	298.62
300.827	297.62
301.057	299.62
301.288	302.62
301.518	300.62
301.748	300.62
301.979	294.62
302.209	312.62
302.439	313.62
302.669	304.62
302.9	311.62
303.13	296.62
303.36	308.62
303.59	310.62
303.82	305.62
304.051	328.62
304.281	308.62
304.511	302.62
304.741	311.62
304.971	304.62
305.201	294.62
305.431	295.62
305.661	290.62
305.891	288.62
306.121	308.62
306.352	315.62
306.582	315.62
306.812	294.62
307.042	297.62
307.272	310.62
307.502	302.62
307.731	305.62
307.961	298.62
308.191	309.62
308.421	310.62
308.651	316.62
308.881	312.62
309.111	314.62
309.341	294.62
309.571	306.62
309.8	326.62
310.03	332.62
310.26	338.62
310.49	342.62
310.72	336.62
310.949	353.62
311.179	370.62
311.409	334.62
311.639	342.62
311.868	350.62
312.098	351.62
312.328	374.62
312.557	369.62
312.787	360.62
313.017	346.62
313.246	358.62
313.476	334.62
313.706	339.62
313.935	354.62
314.165	363.62
314.394	378.62
314.624	351.62
314.853	366.62
315.083	345.62
315.312	346.62
315.542	336.62
315.771	323.62
316.001	334.62
316.23	323.62
316.46	363.62
316.689	350.62
316.919	345.62
317.148	362.62
317.377	342.62
317.607	335.62
317.836	338.62
318.065	341.62
318.295	357.62
318.524	347.62
318.753	358.62
318.983	341.62
319.212	336.62
319.441	362.62
319.67	376.62
319.9	348.62
320.129	351.62
320.358	328.62
320.587	347.62
320.816	352.62
321.046	351.62
321.275	366.62
321.504	370.62
321.733	369.62
321.962	368.62
322.191	372.62
322.42	375.62
322.649	389.62
322.878	399.62
323.108	411.62
323.337	414.62
323.566	420.62
323.795	453.62
324.024	483.62
324.253	588.62
324.482	792.62
324.71	1155.62
324.939	1599.62
325.168	1321.62
325.397	723.62
325.626	521.62
325.855	450.62
326.084	438.62
326.313	445.62
326.542	439.62
326.77	443.62
326.999	532.62
327.228	710.62
327.457	1018.62
327.686	1200.62
327.914	827.62
328.143	585.62
328.372	511.62
328.6	480.62
328.829	478.62
329.058	480.62
329.287	477.62
329.515	448.62
329.744	433.62
329.972	450.62
330.201	439.62
330.43	439.62
330.658	485.62
330.887	486.62
331.115	482.62
331.344	441.62
331.572	413.62
331.801	436.62
332.03	408.62
332.258	404.62
332.486	399.62
332.715	399.62
332.943	415.62
333.172	401.62
333.4	412.62
333.629	414.62
333.857	411.62
334.085	415.62
334.314	433.62
334.542	410.62
334.771	448.62
334.999	444.62
335.227	412.62
335.455	405.62
335.684	405.62
335.912	399.62
336.14	393.62
336.369	394.62
336.597	383.62
336.825	408.62
337.053	393.62
337.281	363.62
337.51	402.62
337.738	406.62
337.966	391.62
338.194	394.62
338.422	397.62
338.65	388.62
338.878	377.62
339.106	356.62
339.334	373.62
339.562	376.62
339.79	372.62
340.018	382.62
340.246	384.62
340.474	370.62
340.702	382.62
340.93	368.62
341.158	370.62
341.386	366.62
341.614	372.62
341.842	369.62
342.07	385.62
342.298	366.62
342.526	357.62
342.754	368.62
342.981	362.62
343.209	372.62
343.437	372.62
343.665	382.62
343.893	375.62
344.12	402.62
344.348	402.62
344.576	384.62
344.804	376.62
345.031	370.62
345.259	394.62
345.487	374.62
345.714	388.62
345.942	361.62
346.17	390.62
346.397	359.62
346.625	376.62
346.853	367.62
347.08	360.62
347.308	346.62
347.535	366.62
347.763	371.62
347.99	367.62
348.218	374.62
348.445	375.62
348.673	353.62
348.9	382.62
349.128	359.62
349.355	346.62
349.583	350.62
349.81	344.62
350.037	351.62
350.265	361.62
350.492	359.62
350.72	368.62
350.947	360.62
351.174	355.62
351.402	387.62
351.629	350.62
351.856	366.62
352.083	359.62
352.311	367.62
352.538	354.62
352.765	355.62
352.992	357.62
353.22	341.62
353.447	357.62
353.674	364.62
353.901	352.62
354.128	347.62
354.355	351.62
354.583	344.62
354.81	339.62
355.037	356.62
355.264	355.62
355.491	319.62
355.718	328.62
355.945	336.62
356.172	325.62
356.399	335.62
356.626	339.62
356.853	345.62
357.08	332.62
357.307	332.62
357.534	335.62
357.761	326.62
357.988	335.62
358.215	345.62
358.441	352.62
358.668	328.62
358.895	358.62
359.122	361.62
359.349	344.62
359.576	358.62
359.802	354.62
360.029	374.62
360.256	392.62
360.483	364.62
360.709	348.62
360.936	343.62
361.163	356.62
361.39	348.62
361.616	352.62
361.843	348.62
362.07	360.62
362.296	375.62
362.523	342.62
362.749	354.62
362.976	340.62
363.203	340.62
363.429	318.62
363.656	333.62
363.882	359.62
364.109	354.62
364.335	330.62
364.562	315.62
364.788	313.62
365.015	338.62
365.241	347.62
365.468	325.62
365.694	334.62
365.92	325.62
366.147	324.62
366.373	323.62
366.599	331.62
366.826	326.62
367.052	329.62
367.278	316.62
367.505	334.62
367.731	326.62
367.957	352.62
368.184	351.62
368.41	338.62
368.636	326.62
368.862	352.62
369.089	325.62
369.315	335.62
369.541	333.62
369.767	327.62
369.993	332.62
370.219	344.62
370.445	343.62
370.672	317.62
370.898	313.62
371.124	314.62
371.35	330.62
371.576	332.62
371.802	321.62
372.028	293.62
372.254	324.62
372.48	344.62
372.706	325.62
372.932	337.62
373.158	327.62
373.384	339.62
373.61	330.62
373.835	335.62
374.061	343.62
374.287	318.62
374.513	332.62
374.739	328.62
374.965	339.62
375.191	344.62
375.416	330.62
375.642	338.62
375.868	329.62
376.094	343.62
376.319	326.62
376.545	344.62
376.771	327.62
376.997	331.62
377.222	321.62
377.448	329.62
377.674	330.62
377.899	319.62
378.125	329.62
378.35	324.62
378.576	324.62
378.802	330.62
379.027	316.62
379.253	342.62
379.478	322.62
379.704	316.62
379.929	343.62
380.155	325.62
380.38	332.62
380.606	325.62
380.831	313.62
381.057	336.62
381.282	338.62
381.507	314.62
381.733	325.62
381.958	330.62
382.184	324.62
382.409	328.62
382.634	326.62
382.86	333.62
383.085	325.62
383.31	335.62
383.535	331.62
383.761	354.62
383.986	335.62
384.211	343.62
384.436	324.62
384.662	362.62
384.887	350.62
385.112	342.62
385.337	327.62
385.562	352.62
385.787	356.62
386.013	337.62
386.238	342.62
386.463	346.62
386.688	346.62
386.913	332.62
387.138	340.62
387.363	337.62
387.588	351.62
387.813	322.62
388.038	336.62
388.263	327.62
388.488	355.62
388.713	340.62
388.938	344.62
389.163	327.62
389.387	357.62
389.612	344.62
389.837	342.62
390.062	354.62
390.287	338.62
390.512	350.62
390.736	355.62
390.961	341.62
391.186	349.62
391.411	368.62
391.636	358.62
391.86	333.62
392.085	354.62
392.31	353.62
392.534	354.62
392.759	352.62
392.984	359.62
393.208	360.62
393.433	346.62
393.658	367.62
393.882	330.62
394.107	354.62
394.331	348.62
394.556	343.62
394.78	353.62
395.005	359.62
395.229	361.62
395.454	344.62
395.678	359.62
395.903	370.62
396.127	376.62
396.352	380.62
396.576	367.62
396.801	364.62
397.025	353.62
397.249	354.62
397.474	355.62
397.698	361.62
397.922	371.62
398.147	378.62
398.371	393.62
398.595	361.62
398.82	383.62
399.044	383.62
399.268	386.62
399.492	426.62
399.717	427.62
399.941	450.62
400.165	464.62
400.389	467.62
400.613	442.62
400.837	382.62
401.062	394.62
401.286	374.62
401.51	390.62
401.734	381.62
401.958	384.62
402.182	410.62
402.406	407.62
402.63	400.62
402.854	381.62
403.078	406.62
403.302	397.62
403.526	398.62
403.75	407.62
403.974	377.62
404.198	399.62
404.422	406.62
404.645	396.62
404.869	391.62
405.093	421.62
405.317	436.62
405.541	468.62
405.765	412.62
405.988	411.62
406.212	407.62
406.436	417.62
406.66	443.62
406.883	425.62
407.107	440.62
407.331	470.62
407.555	521.62
407.778	515.62
408.002	460.62
408.226	450.62
408.449	432.62
408.673	422.62
408.896	441.62
409.12	478.62
409.344	452.62
409.567	420.62
409.791	408.62
410.014	392.62
410.238	399.62
410.461	412.62
410.685	396.62
410.908	395.62
411.132	433.62
411.355	447.62
411.578	425.62
411.802	402.62
412.025	392.62
412.249	400.62
412.472	418.62
412.695	427.62
412.919	431.62
413.142	383.62
413.365	384.62
413.589	367.62
413.812	354.62
414.035	382.62
414.258	355.62
414.482	382.62
414.705	374.62
414.928	366.62
415.151	380.62
415.374	381.62
415.597	353.62
415.821	364.62
416.044	370.62
416.267	360.62
416.49	368.62
416.713	361.62
416.936	363.62
417.159	386.62
417.382	360.62
417.605	368.62
417.828	374.62
418.051	396.62
418.274	372.62
418.497	377.62
418.72	380.62
418.943	372.62
419.166	375.62
419.389	404.62
419.611	401.62
419.834	403.62
420.057	401.62
420.28	390.62
420.503	397.62
420.726	369.62
420.948	400.62
421.171	416.62
421.394	418.62
421.617	391.62
421.839	390.62
422.062	397.62
422.285	393.62
422.507	423.62
422.73	478.62
422.953	481.62
423.175	433.62
423.398	406.62
423.621	407.62
423.843	413.62
424.066	424.62
424.288	419.62
424.511	448.62
424.733	450.62
424.956	520.62
425.178	496.62
425.401	499.62
425.623	494.62
425.846	458.62
426.068	422.62
426.291	402.62
426.513	391.62
426.735	427.62
426.958	450.62
427.18	488.62
427.402	596.62
427.625	632.62
427.847	564.62
428.069	469.62
428.292	455.62
428.514	417.62
428.736	418.62
428.958	380.62
429.181	390.62
429.403	379.62
429.625	374.62
429.847	414.62
430.069	464.62
430.292	454.62
430.514	395.62
430.736	406.62
430.958	376.62
431.18	375.62
431.402	363.62
431.624	347.62
431.846	339.62
432.068	374.62
432.29	366.62
432.512	363.62
432.734	360.62
432.956	363.62
433.178	378.62
433.4	368.62
433.622	361.62
433.844	360.62
434.066	344.62
434.287	348.62
434.509	358.62
434.731	370.62
434.953	390.62
435.175	400.62
435.397	410.62
435.618	410.62
435.84	436.62
436.062	497.62
436.284	548.62
436.505	464.62
436.727	406.62
436.949	402.62
437.17	367.62
437.392	387.62
437.614	398.62
437.835	414.62
438.057	481.62
438.278	552.62
438.5	545.62
438.721	573.62
438.943	595.62
439.165	458.62
439.386	412.62
439.608	434.62
439.829	411.62
440.05	421.62
440.272	465.62
440.493	426.62
440.715	400.62
440.936	401.62
441.158	399.62
441.379	388.62
441.6	405.62
441.822	399.62
442.043	437.62
442.264	489.62
442.486	529.62
442.707	450.62
442.928	422.62
443.149	406.62
443.371	436.62
443.592	460.62
443.813	546.62
444.034	578.62
444.255	484.62
444.476	444.62
444.698	416.62
444.919	417.62
445.14	554.62
445.361	480.62
445.582	440.62
445.803	489.62
446.024	547.62
446.245	554.62
446.466	519.62
446.687	426.62
446.908	430.62
447.129	402.62
447.35	389.62
447.571	392.62
447.792	353.62
448.013	390.62
448.234	412.62
448.455	426.62
448.675	535.62
448.896	595.62
449.117	505.62
449.338	477.62
449.559	545.62
449.779	613.62
450	513.62
450.221	422.62
450.442	402.62
450.662	378.62
450.883	376.62
451.104	376.62
451.324	377.62
451.545	373.62
451.766	360.62
451.986	344.62
452.207	336.62
452.428	355.62
452.648	330.62
452.869	336.62
453.089	332.62
453.31	347.62
453.53	335.62
453.751	320.62
453.971	345.62
454.192	351.62
454.412	321.62
454.633	337.62
454.853	323.62
455.073	343.62
455.294	363.62
455.514	398.62
455.734	384.62
455.955	326.62
456.175	334.62
456.395	304.62
456.616	326.62
456.836	312.62
457.056	313.62
457.276	318.62
457.497	299.62
457.717	294.62
457.937	330.62
458.157	306.62
458.377	330.62
458.598	330.62
458.818	369.62
459.038	424.62
459.258	436.62
459.478	374.62
459.698	358.62
459.918	362.62
460.138	343.62
460.358	340.62
460.578	358.62
460.798	359.62
461.018	368.62
461.238	358.62
461.458	339.62
461.678	346.62
461.898	345.62
462.118	355.62
462.338	356.62
462.558	363.62
462.777	366.62
462.997	374.62
463.217	375.62
463.437	376.62
463.657	403.62
463.876	376.62
464.096	397.62
464.316	374.62
464.536	374.62
464.755	386.62
464.975	393.62
465.195	381.62
465.414	435.62
465.634	398.62
465.854	370.62
466.073	337.62
466.293	353.62
466.512	349.62
466.732	353.62
466.951	350.62
467.171	340.62
467.391	346.62
467.61	368.62
467.829	352.62
468.049	344.62
468.268	346.62
468.488	325.62
468.707	352.62
468.927	341.62
469.146	345.62
469.365	323.62
469.585	343.62
469.804	348.62
470.023	364.62
470.243	345.62
470.462	360.62
470.681	371.62
470.901	346.62
471.12	359.62
471.339	356.62
471.558	368.62
471.777	363.62
471.997	362.62
472.216	333.62
472.435	340.62
472.654	334.62
472.873	343.62
473.092	332.62
473.311	338.62
473.53	362.62
473.749	337.62
473.968	373.62
474.187	449.62
474.406	487.62
474.625	392.62
474.844	364.62
475.063	352.62
475.282	340.62
475.501	337.62
475.72	338.62
475.939	345.62
476.158	372.62
476.377	354.62
476.596	356.62
476.814	354.62
477.033	376.62
477.252	350.62
477.471	366.62
477.69	367.62
477.908	359.62
478.127	369.62
478.346	382.62
478.564	358.62
478.783	397.62
479.002	388.62
479.22	392.62
479.439	429.62
479.658	404.62
479.876	415.62
480.095	422.62
480.313	423.62
480.532	436.62
480.751	435.62
480.969	424.62
481.188	453.62
481.406	450.62
481.624	428.62
481.843	414.62
482.061	394.62
482.28	392.62
482.498	421.62
482.717	389.62
482.935	411.62
483.153	416.62
483.372	378.62
483.59	387.62
483.808	404.62
484.027	396.62
484.245	410.62
484.463	412.62
484.681	410.62
484.9	410.62
485.118	393.62
485.336	396.62
485.554	409.62
485.772	397.62
485.99	411.62
486.209	406.62
486.427	418.62
486.645	426.62
486.863	431.62
487.081	426.62
487.299	420.62
487.517	416.62
487.735	423.62
487.953	410.62
488.171	452.62
488.389	430.62
488.607	434.62
488.825	434.62
489.043	424.62
489.261	443.62
489.479	448.62
489.696	443.62
489.914	469.62
490.132	440.62
490.35	452.62
490.568	465.62
490.786	468.62
491.003	450.62
491.221	467.62
491.439	490.62
491.657	488.62
491.874	481.62
492.092	489.62
492.31	518.62
492.527	520.62
492.745	509.62
492.963	499.62
493.18	501.62
493.398	496.62
493.615	533.62
493.833	495.62
494.05	505.62
494.268	515.62
494.485	489.62
494.703	492.62
494.92	518.62
495.138	516.62
495.355	502.62
495.573	496.62
495.79	518.62
496.008	517.62
496.225	513.62
496.442	515.62
496.66	519.62
496.877	494.62
497.094	529.62
497.312	526.62
497.529	551.62
497.746	533.62
497.963	519.62
498.181	565.62
498.398	559.62
498.615	563.62
498.832	585.62
499.049	574.62
499.267	591.62
499.484	596.62
499.701	619.62
499.918	638.62
500.135	660.62
500.352	675.62
500.569	674.62
500.786	706.62
501.003	702.62
501.22	674.62
501.437	651.62
501.654	640.62
501.871	619.62
502.088	583.62
