Data from 1971.PennyLincolnUp.Lamp.En5.5.200Scan.071719.P1._HRD10591_15-18-59-842.txt Node
Date: Thu Jul 18 15:18:59 EDT 2019
User: cochatt
Spectrometer: HR+D1059
Trigger mode: 1
Integration Time (sec): 1.000000E-1
Scans to average: 1
Electric dark correction enabled: true
Nonlinearity correction enabled: false
Boxcar width: 0
XAxis mode: Wavelengths
Number of Pixels in Spectrum: 2048
>>>>>Begin Spectral Data<<<<<
223.165	-20.5
223.4	-20.5
223.635	-20.5
223.869	-23.5
224.104	-24.5
224.338	-4.5
224.573	-16.5
224.808	-8.5
225.042	-5.5
225.277	-5.5
225.511	-8.5
225.746	11.5
225.98	5.5
226.215	11.5
226.449	11.5
226.683	19.5
226.918	33.5
227.152	24.5
227.387	31.5
227.621	28.5
227.856	38.5
228.09	45.5
228.324	30.5
228.559	61.5
228.793	63.5
229.027	106.5
229.262	101.5
229.496	99.5
229.73	123.5
229.964	119.5
230.199	134.5
230.433	98.5
230.667	113.5
230.901	116.5
231.136	108.5
231.37	106.5
231.604	102.5
231.838	113.5
232.072	113.5
232.306	82.5
232.541	105.5
232.775	105.5
233.009	112.5
233.243	97.5
233.477	111.5
233.711	101.5
233.945	115.5
234.179	123.5
234.413	123.5
234.647	115.5
234.881	109.5
235.115	108.5
235.349	121.5
235.583	109.5
235.817	101.5
236.051	120.5
236.285	120.5
236.519	127.5
236.753	123.5
236.987	123.5
237.221	158.5
237.455	209.5
237.689	177.5
237.922	141.5
238.156	151.5
238.39	130.5
238.624	129.5
238.858	121.5
239.091	105.5
239.325	126.5
239.559	119.5
239.793	122.5
240.027	125.5
240.26	149.5
240.494	133.5
240.728	144.5
240.961	128.5
241.195	133.5
241.429	127.5
241.662	130.5
241.896	125.5
242.13	127.5
242.363	134.5
242.597	129.5
242.83	135.5
243.064	115.5
243.298	131.5
243.531	127.5
243.765	126.5
243.998	119.5
244.232	138.5
244.465	145.5
244.699	134.5
244.932	143.5
245.166	142.5
245.399	146.5
245.633	137.5
245.866	153.5
246.099	151.5
246.333	135.5
246.566	130.5
246.8	151.5
247.033	154.5
247.266	141.5
247.5	141.5
247.733	165.5
247.966	181.5
248.2	153.5
248.433	160.5
248.666	170.5
248.899	162.5
249.133	187.5
249.366	211.5
249.599	210.5
249.832	173.5
250.066	183.5
250.299	177.5
250.532	171.5
250.765	197.5
250.998	211.5
251.231	230.5
251.465	207.5
251.698	217.5
251.931	196.5
252.164	199.5
252.397	172.5
252.63	207.5
252.863	211.5
253.096	209.5
253.329	212.5
253.562	211.5
253.795	217.5
254.028	217.5
254.261	212.5
254.494	227.5
254.727	266.5
254.96	277.5
255.193	267.5
255.426	249.5
255.659	244.5
255.892	213.5
256.124	216.5
256.357	228.5
256.59	239.5
256.823	211.5
257.056	213.5
257.289	206.5
257.521	195.5
257.754	208.5
257.987	206.5
258.22	227.5
258.452	227.5
258.685	216.5
258.918	207.5
259.151	204.5
259.383	206.5
259.616	209.5
259.849	231.5
260.081	229.5
260.314	260.5
260.547	236.5
260.779	257.5
261.012	236.5
261.244	223.5
261.477	233.5
261.71	220.5
261.942	230.5
262.175	231.5
262.407	225.5
262.64	215.5
262.872	218.5
263.105	211.5
263.337	216.5
263.57	211.5
263.802	207.5
264.035	198.5
264.267	218.5
264.499	212.5
264.732	223.5
264.964	227.5
265.197	229.5
265.429	211.5
265.661	213.5
265.894	211.5
266.126	225.5
266.358	209.5
266.591	214.5
266.823	225.5
267.055	232.5
267.287	223.5
267.52	257.5
267.752	239.5
267.984	243.5
268.216	226.5
268.448	229.5
268.681	233.5
268.913	239.5
269.145	256.5
269.377	265.5
269.609	275.5
269.841	277.5
270.073	278.5
270.306	295.5
270.538	313.5
270.77	285.5
271.002	285.5
271.234	298.5
271.466	315.5
271.698	300.5
271.93	300.5
272.162	317.5
272.394	315.5
272.626	298.5
272.858	293.5
273.09	285.5
273.322	286.5
273.553	268.5
273.785	267.5
274.017	265.5
274.249	254.5
274.481	270.5
274.713	261.5
274.945	271.5
275.176	261.5
275.408	270.5
275.64	260.5
275.872	265.5
276.104	271.5
276.335	268.5
276.567	263.5
276.799	282.5
277.031	293.5
277.262	326.5
277.494	334.5
277.726	325.5
277.957	277.5
278.189	285.5
278.421	287.5
278.652	271.5
278.884	266.5
279.115	261.5
279.347	264.5
279.579	280.5
279.81	269.5
280.042	254.5
280.273	263.5
280.505	267.5
280.736	258.5
280.968	260.5
281.199	262.5
281.431	278.5
281.662	270.5
281.894	279.5
282.125	287.5
282.356	284.5
282.588	291.5
282.819	291.5
283.051	281.5
283.282	263.5
283.513	261.5
283.745	301.5
283.976	277.5
284.207	290.5
284.439	285.5
284.67	286.5
284.901	272.5
285.132	266.5
285.364	273.5
285.595	288.5
285.826	262.5
286.057	286.5
286.288	296.5
286.52	277.5
286.751	281.5
286.982	284.5
287.213	296.5
287.444	289.5
287.675	288.5
287.906	294.5
288.138	297.5
288.369	300.5
288.6	303.5
288.831	294.5
289.062	282.5
289.293	299.5
289.524	285.5
289.755	286.5
289.986	287.5
290.217	297.5
290.448	294.5
290.679	300.5
290.91	281.5
291.141	296.5
291.371	295.5
291.602	297.5
291.833	299.5
292.064	288.5
292.295	292.5
292.526	309.5
292.757	300.5
292.987	298.5
293.218	308.5
293.449	295.5
293.68	302.5
293.91	316.5
294.141	302.5
294.372	300.5
294.603	283.5
294.833	287.5
295.064	285.5
295.295	276.5
295.525	305.5
295.756	308.5
295.987	313.5
296.217	298.5
296.448	307.5
296.679	313.5
296.909	305.5
297.14	301.5
297.37	300.5
297.601	312.5
297.831	308.5
298.062	297.5
298.292	309.5
298.523	301.5
298.753	321.5
298.984	313.5
299.214	294.5
299.445	311.5
299.675	318.5
299.905	309.5
300.136	297.5
300.366	321.5
300.597	328.5
300.827	315.5
301.057	321.5
301.288	311.5
301.518	302.5
301.748	316.5
301.979	318.5
302.209	329.5
302.439	323.5
302.669	325.5
302.9	333.5
303.13	317.5
303.36	342.5
303.59	329.5
303.82	336.5
304.051	357.5
304.281	347.5
304.511	344.5
304.741	336.5
304.971	331.5
305.201	331.5
305.431	345.5
305.661	325.5
305.891	321.5
306.121	322.5
306.352	325.5
306.582	341.5
306.812	327.5
307.042	351.5
307.272	324.5
307.502	331.5
307.731	337.5
307.961	338.5
308.191	327.5
308.421	317.5
308.651	313.5
308.881	345.5
309.111	335.5
309.341	347.5
309.571	342.5
309.8	361.5
310.03	350.5
310.26	348.5
310.49	359.5
310.72	374.5
310.949	395.5
311.179	415.5
311.409	403.5
311.639	358.5
311.868	373.5
312.098	376.5
312.328	377.5
312.557	378.5
312.787	402.5
313.017	385.5
313.246	388.5
313.476	367.5
313.706	364.5
313.935	375.5
314.165	381.5
314.394	376.5
314.624	385.5
314.853	378.5
315.083	365.5
315.312	374.5
315.542	383.5
315.771	382.5
316.001	380.5
316.23	355.5
316.46	365.5
316.689	373.5
316.919	378.5
317.148	381.5
317.377	377.5
317.607	380.5
317.836	363.5
318.065	373.5
318.295	364.5
318.524	364.5
318.753	382.5
318.983	375.5
319.212	366.5
319.441	381.5
319.67	405.5
319.9	376.5
320.129	377.5
320.358	375.5
320.587	389.5
320.816	402.5
321.046	401.5
321.275	398.5
321.504	375.5
321.733	401.5
321.962	418.5
322.191	426.5
322.42	419.5
322.649	438.5
322.878	419.5
323.108	436.5
323.337	475.5
323.566	483.5
323.795	494.5
324.024	563.5
324.253	662.5
324.482	935.5
324.71	1386.5
324.939	1893.5
325.168	1579.5
325.397	862.5
325.626	602.5
325.855	499.5
326.084	485.5
326.313	485.5
326.542	475.5
326.77	540.5
326.999	626.5
327.228	835.5
327.457	1216.5
327.686	1382.5
327.914	929.5
328.143	642.5
328.372	578.5
328.6	537.5
328.829	515.5
329.058	540.5
329.287	538.5
329.515	518.5
329.744	474.5
329.972	478.5
330.201	502.5
330.43	526.5
330.658	551.5
330.887	564.5
331.115	553.5
331.344	498.5
331.572	461.5
331.801	479.5
332.03	471.5
332.258	438.5
332.486	443.5
332.715	435.5
332.943	463.5
333.172	443.5
333.4	438.5
333.629	467.5
333.857	443.5
334.085	475.5
334.314	462.5
334.542	466.5
334.771	492.5
334.999	481.5
335.227	443.5
335.455	434.5
335.684	446.5
335.912	407.5
336.14	423.5
336.369	438.5
336.597	418.5
336.825	429.5
337.053	421.5
337.281	419.5
337.51	421.5
337.738	429.5
337.966	424.5
338.194	408.5
338.422	418.5
338.65	442.5
338.878	429.5
339.106	421.5
339.334	422.5
339.562	406.5
339.79	403.5
340.018	409.5
340.246	392.5
340.474	423.5
340.702	383.5
340.93	406.5
341.158	413.5
341.386	427.5
341.614	400.5
341.842	407.5
342.07	407.5
342.298	408.5
342.526	396.5
342.754	383.5
342.981	391.5
343.209	396.5
343.437	388.5
343.665	422.5
343.893	422.5
344.12	418.5
344.348	420.5
344.576	420.5
344.804	434.5
345.031	423.5
345.259	421.5
345.487	422.5
345.714	429.5
345.942	398.5
346.17	389.5
346.397	397.5
346.625	380.5
346.853	376.5
347.08	403.5
347.308	401.5
347.535	411.5
347.763	405.5
347.99	415.5
348.218	401.5
348.445	380.5
348.673	389.5
348.9	385.5
349.128	368.5
349.355	385.5
349.583	401.5
349.81	382.5
350.037	373.5
350.265	391.5
350.492	385.5
350.72	380.5
350.947	382.5
351.174	409.5
351.402	406.5
351.629	419.5
351.856	414.5
352.083	404.5
352.311	388.5
352.538	409.5
352.765	397.5
352.992	389.5
353.22	405.5
353.447	385.5
353.674	379.5
353.901	373.5
354.128	374.5
354.355	382.5
354.583	377.5
354.81	366.5
355.037	351.5
355.264	359.5
355.491	359.5
355.718	352.5
355.945	349.5
356.172	369.5
356.399	381.5
356.626	360.5
356.853	364.5
357.08	377.5
357.307	345.5
357.534	364.5
357.761	366.5
357.988	363.5
358.215	367.5
358.441	345.5
358.668	362.5
358.895	365.5
359.122	374.5
359.349	380.5
359.576	384.5
359.802	412.5
360.029	409.5
360.256	433.5
360.483	397.5
360.709	373.5
360.936	391.5
361.163	390.5
361.39	378.5
361.616	402.5
361.843	371.5
362.07	383.5
362.296	385.5
362.523	380.5
362.749	375.5
362.976	374.5
363.203	376.5
363.429	386.5
363.656	381.5
363.882	383.5
364.109	347.5
364.335	364.5
364.562	355.5
364.788	364.5
365.015	355.5
365.241	373.5
365.468	374.5
365.694	385.5
365.92	373.5
366.147	350.5
366.373	351.5
366.599	345.5
366.826	356.5
367.052	347.5
367.278	361.5
367.505	362.5
367.731	343.5
367.957	362.5
368.184	349.5
368.41	371.5
368.636	376.5
368.862	374.5
369.089	368.5
369.315	354.5
369.541	367.5
369.767	347.5
369.993	346.5
370.219	353.5
370.445	374.5
370.672	349.5
370.898	358.5
371.124	352.5
371.35	379.5
371.576	373.5
371.802	353.5
372.028	364.5
372.254	355.5
372.48	327.5
372.706	366.5
372.932	363.5
373.158	356.5
373.384	357.5
373.61	372.5
373.835	355.5
374.061	357.5
374.287	357.5
374.513	371.5
374.739	366.5
374.965	357.5
375.191	364.5
375.416	358.5
375.642	367.5
375.868	357.5
376.094	353.5
376.319	351.5
376.545	352.5
376.771	339.5
376.997	355.5
377.222	354.5
377.448	361.5
377.674	347.5
377.899	356.5
378.125	355.5
378.35	345.5
378.576	350.5
378.802	354.5
379.027	336.5
379.253	325.5
379.478	341.5
379.704	338.5
379.929	349.5
380.155	343.5
380.38	353.5
380.606	361.5
380.831	347.5
381.057	382.5
381.282	356.5
381.507	344.5
381.733	362.5
381.958	337.5
382.184	342.5
382.409	356.5
382.634	344.5
382.86	357.5
383.085	368.5
383.31	348.5
383.535	355.5
383.761	372.5
383.986	361.5
384.211	368.5
384.436	381.5
384.662	355.5
384.887	364.5
385.112	381.5
385.337	365.5
385.562	367.5
385.787	366.5
386.013	376.5
386.238	381.5
386.463	381.5
386.688	362.5
386.913	373.5
387.138	363.5
387.363	373.5
387.588	355.5
387.813	381.5
388.038	372.5
388.263	373.5
388.488	374.5
388.713	369.5
388.938	363.5
389.163	367.5
389.387	373.5
389.612	353.5
389.837	358.5
390.062	358.5
390.287	358.5
390.512	378.5
390.736	373.5
390.961	369.5
391.186	354.5
391.411	352.5
391.636	385.5
391.86	377.5
392.085	381.5
392.31	377.5
392.534	385.5
392.759	379.5
392.984	358.5
393.208	351.5
393.433	347.5
393.658	359.5
393.882	376.5
394.107	362.5
394.331	369.5
394.556	369.5
394.78	381.5
395.005	376.5
395.229	379.5
395.454	397.5
395.678	398.5
395.903	391.5
396.127	390.5
396.352	408.5
396.576	379.5
396.801	387.5
397.025	380.5
397.249	395.5
397.474	384.5
397.698	403.5
397.922	391.5
398.147	408.5
398.371	418.5
398.595	405.5
398.82	408.5
399.044	415.5
399.268	447.5
399.492	451.5
399.717	459.5
399.941	471.5
400.165	489.5
400.389	490.5
400.613	458.5
400.837	438.5
401.062	424.5
401.286	426.5
401.51	411.5
401.734	405.5
401.958	411.5
402.182	425.5
402.406	415.5
402.63	421.5
402.854	422.5
403.078	418.5
403.302	441.5
403.526	423.5
403.75	430.5
403.974	426.5
404.198	412.5
404.422	395.5
404.645	419.5
404.869	439.5
405.093	437.5
405.317	470.5
405.541	513.5
405.765	462.5
405.988	432.5
406.212	460.5
406.436	451.5
406.66	476.5
406.883	490.5
407.107	479.5
407.331	510.5
407.555	567.5
407.778	542.5
408.002	521.5
408.226	485.5
408.449	473.5
408.673	483.5
408.896	495.5
409.12	509.5
409.344	465.5
409.567	438.5
409.791	412.5
410.014	420.5
410.238	426.5
410.461	442.5
410.685	440.5
410.908	433.5
411.132	435.5
411.355	486.5
411.578	470.5
411.802	428.5
412.025	410.5
412.249	411.5
412.472	455.5
412.695	483.5
412.919	459.5
413.142	413.5
413.365	409.5
413.589	407.5
413.812	402.5
414.035	409.5
414.258	404.5
414.482	391.5
414.705	390.5
414.928	409.5
415.151	405.5
415.374	381.5
415.597	396.5
415.821	399.5
416.044	393.5
416.267	393.5
416.49	388.5
416.713	384.5
416.936	389.5
417.159	391.5
417.382	391.5
417.605	384.5
417.828	412.5
418.051	417.5
418.274	413.5
418.497	379.5
418.72	410.5
418.943	380.5
419.166	413.5
419.389	439.5
419.611	423.5
419.834	419.5
420.057	416.5
420.28	421.5
420.503	414.5
420.726	434.5
420.948	437.5
421.171	460.5
421.394	479.5
421.617	414.5
421.839	404.5
422.062	434.5
422.285	438.5
422.507	463.5
422.73	526.5
422.953	502.5
423.175	439.5
423.398	442.5
423.621	438.5
423.843	437.5
424.066	438.5
424.288	452.5
424.511	458.5
424.733	504.5
424.956	567.5
425.178	560.5
425.401	558.5
425.623	549.5
425.846	470.5
426.068	439.5
426.291	453.5
426.513	423.5
426.735	442.5
426.958	497.5
427.18	537.5
427.402	665.5
427.625	702.5
427.847	623.5
428.069	541.5
428.292	495.5
428.514	457.5
428.736	404.5
428.958	413.5
429.181	410.5
429.403	405.5
429.625	401.5
429.847	461.5
430.069	489.5
430.292	493.5
430.514	427.5
430.736	419.5
430.958	407.5
431.18	399.5
431.402	395.5
431.624	387.5
431.846	381.5
432.068	369.5
432.29	394.5
432.512	391.5
432.734	402.5
432.956	396.5
433.178	404.5
433.4	418.5
433.622	395.5
433.844	409.5
434.066	384.5
434.287	398.5
434.509	391.5
434.731	410.5
434.953	406.5
435.175	417.5
435.397	431.5
435.618	457.5
435.84	475.5
436.062	575.5
436.284	612.5
436.505	494.5
436.727	451.5
436.949	430.5
437.17	410.5
437.392	405.5
437.614	414.5
437.835	435.5
438.057	545.5
438.278	607.5
438.5	604.5
438.721	636.5
438.943	621.5
439.165	501.5
439.386	477.5
439.608	450.5
439.829	444.5
440.05	475.5
440.272	512.5
440.493	479.5
440.715	456.5
440.936	421.5
441.158	420.5
441.379	407.5
441.6	435.5
441.822	461.5
442.043	477.5
442.264	548.5
442.486	557.5
442.707	497.5
442.928	444.5
443.149	456.5
443.371	487.5
443.592	504.5
443.813	581.5
444.034	611.5
444.255	498.5
444.476	445.5
444.698	458.5
444.919	444.5
445.14	567.5
445.361	508.5
445.582	489.5
445.803	515.5
446.024	590.5
446.245	597.5
446.466	557.5
446.687	483.5
446.908	442.5
447.129	422.5
447.35	425.5
447.571	423.5
447.792	403.5
448.013	425.5
448.234	421.5
448.455	470.5
448.675	573.5
448.896	641.5
449.117	552.5
449.338	523.5
449.559	609.5
449.779	649.5
450	537.5
450.221	470.5
450.442	416.5
450.662	403.5
450.883	425.5
451.104	404.5
451.324	406.5
451.545	387.5
451.766	362.5
451.986	356.5
452.207	357.5
452.428	371.5
452.648	373.5
452.869	367.5
453.089	365.5
453.31	372.5
453.53	363.5
453.751	375.5
453.971	385.5
454.192	363.5
454.412	358.5
454.633	347.5
454.853	340.5
455.073	363.5
455.294	385.5
455.514	425.5
455.734	422.5
455.955	365.5
456.175	335.5
456.395	325.5
456.616	329.5
456.836	333.5
457.056	343.5
457.276	321.5
457.497	345.5
457.717	349.5
457.937	346.5
458.157	340.5
458.377	359.5
458.598	377.5
458.818	433.5
459.038	465.5
459.258	492.5
459.478	393.5
459.698	405.5
459.918	384.5
460.138	360.5
460.358	389.5
460.578	377.5
460.798	385.5
461.018	372.5
461.238	396.5
461.458	414.5
461.678	386.5
461.898	391.5
462.118	382.5
462.338	388.5
462.558	388.5
462.777	399.5
462.997	398.5
463.217	411.5
463.437	417.5
463.657	398.5
463.876	392.5
464.096	400.5
464.316	417.5
464.536	407.5
464.755	405.5
464.975	413.5
465.195	433.5
465.414	505.5
465.634	429.5
465.854	414.5
466.073	405.5
466.293	374.5
466.512	376.5
466.732	385.5
466.951	375.5
467.171	370.5
467.391	375.5
467.61	389.5
467.829	376.5
468.049	378.5
468.268	353.5
468.488	352.5
468.707	378.5
468.927	359.5
469.146	377.5
469.365	371.5
469.585	357.5
469.804	373.5
470.023	394.5
470.243	368.5
470.462	377.5
470.681	403.5
470.901	391.5
471.12	361.5
471.339	391.5
471.558	371.5
471.777	391.5
471.997	374.5
472.216	365.5
472.435	412.5
472.654	379.5
472.873	366.5
473.092	352.5
473.311	365.5
473.53	380.5
473.749	397.5
473.968	434.5
474.187	509.5
474.406	523.5
474.625	421.5
474.844	381.5
475.063	378.5
475.282	366.5
475.501	389.5
475.72	390.5
475.939	376.5
476.158	393.5
476.377	378.5
476.596	380.5
476.814	380.5
477.033	389.5
477.252	403.5
477.471	390.5
477.69	416.5
477.908	397.5
478.127	411.5
478.346	415.5
478.564	416.5
478.783	411.5
479.002	409.5
479.22	416.5
479.439	405.5
479.658	435.5
479.876	434.5
480.095	448.5
480.313	455.5
480.532	451.5
480.751	463.5
480.969	458.5
481.188	512.5
481.406	499.5
481.624	472.5
481.843	457.5
482.061	448.5
482.28	434.5
482.498	438.5
482.717	430.5
482.935	411.5
483.153	419.5
483.372	427.5
483.59	445.5
483.808	420.5
484.027	439.5
484.245	435.5
484.463	436.5
484.681	437.5
484.9	443.5
485.118	440.5
485.336	432.5
485.554	435.5
485.772	440.5
485.99	443.5
486.209	450.5
486.427	449.5
486.645	456.5
486.863	462.5
487.081	446.5
487.299	478.5
487.517	480.5
487.735	452.5
487.953	468.5
488.171	482.5
488.389	492.5
488.607	469.5
488.825	477.5
489.043	462.5
489.261	470.5
489.479	482.5
489.696	476.5
489.914	473.5
490.132	468.5
490.35	493.5
490.568	485.5
490.786	485.5
491.003	518.5
491.221	510.5
491.439	535.5
491.657	515.5
491.874	526.5
492.092	534.5
492.31	537.5
492.527	537.5
492.745	553.5
492.963	553.5
493.18	547.5
493.398	543.5
493.615	563.5
493.833	566.5
494.05	548.5
494.268	544.5
494.485	548.5
494.703	542.5
494.92	517.5
495.138	562.5
495.355	554.5
495.573	555.5
495.79	551.5
496.008	550.5
496.225	545.5
496.442	544.5
496.66	561.5
496.877	543.5
497.094	565.5
497.312	555.5
497.529	561.5
497.746	557.5
497.963	600.5
498.181	607.5
498.398	593.5
498.615	602.5
498.832	611.5
499.049	633.5
499.267	609.5
499.484	641.5
499.701	648.5
499.918	676.5
500.135	705.5
500.352	738.5
500.569	751.5
500.786	710.5
501.003	739.5
501.22	725.5
501.437	684.5
501.654	695.5
501.871	705.5
502.088	653.5
502.305	611.5
502.522	584.5
502.739	603.5
502.956	606.5
503.172	553.5
503.389	541.5
503.606	571.5
503.823	553.5
504.04	541.5
504.256	566.5
504.473	558.5
504.69	541.5
504.907	555.5
505.123	518.5
505.34	534.5
505.557	538.5
505.773	517.5
505.99	531.5
506.207	523.5
506.423	526.5
506.64	521.5
506.856	502.5
507.073	501.5
507.289	492.5
507.506	509.5
507.722	501.5
507.939	534.5
508.155	518.5
508.372	515.5
508.588	511.5
508.805	501.5
509.021	512.5
509.238	487.5
509.454	507.5
509.67	503.5
509.887	515.5
510.103	490.5
510.319	497.5
510.536	571.5
510.752	897.5
510.968	708.5
511.184	517.5
511.401	467.5
511.617	473.5
511.833	471.5
512.049	462.5
512.265	472.5
512.481	475.5
512.698	457.5
512.914	462.5
513.13	467.5
513.346	460.5
513.562	449.5
513.778	460.5
513.994	461.5
514.21	502.5
514.426	488.5
514.642	496.5
514.858	541.5
515.074	586.5
515.29	657.5
515.506	921.5
515.721	741.5
515.937	528.5
516.153	515.5
516.369	483.5
516.585	477.5
516.801	477.5
517.016	483.5
517.232	466.5
517.448	476.5
517.664	489.5
517.879	480.5
518.095	474.5
518.311	482.5
518.527	477.5
518.742	467.5
518.958	425.5
519.173	462.5
519.389	457.5
519.605	456.5
519.82	481.5
