Data from 1971.PennyLincolnUp.Lamp.En5.5.200Scan.071719.P1.Scan 2. Changed Angle._HRD10591_15-23-05-842.txt Node
Date: Thu Jul 18 15:23:05 EDT 2019
User: cochatt
Spectrometer: HR+D1059
Trigger mode: 1
Integration Time (sec): 1.000000E-1
Scans to average: 1
Electric dark correction enabled: true
Nonlinearity correction enabled: false
Boxcar width: 0
XAxis mode: Wavelengths
Number of Pixels in Spectrum: 2048
>>>>>Begin Spectral Data<<<<<
223.165	-10.25
223.4	-10.25
223.635	-10.25
223.869	-30.25
224.104	-28.25
224.338	-16.25
224.573	-17.25
224.808	-14.25
225.042	-3.25
225.277	-5.25
225.511	-11.25
225.746	4.75
225.98	2.75
226.215	6.75
226.449	26.75
226.683	27.75
226.918	31.75
227.152	35.75
227.387	24.75
227.621	41.75
227.856	33.75
228.09	46.75
228.324	55.75
228.559	55.75
228.793	64.75
229.027	93.75
229.262	119.75
229.496	123.75
229.73	144.75
229.964	173.75
230.199	145.75
230.433	135.75
230.667	117.75
230.901	125.75
231.136	121.75
231.37	119.75
231.604	121.75
231.838	123.75
232.072	119.75
232.306	108.75
232.541	121.75
232.775	99.75
233.009	125.75
233.243	113.75
233.477	110.75
233.711	139.75
233.945	112.75
234.179	118.75
234.413	125.75
234.647	127.75
234.881	122.75
235.115	117.75
235.349	123.75
235.583	125.75
235.817	122.75
236.051	143.75
236.285	127.75
236.519	138.75
236.753	136.75
236.987	142.75
237.221	180.75
237.455	238.75
237.689	199.75
237.922	162.75
238.156	158.75
238.39	141.75
238.624	127.75
238.858	137.75
239.091	129.75
239.325	135.75
239.559	140.75
239.793	132.75
240.027	140.75
240.26	151.75
240.494	167.75
240.728	163.75
240.961	160.75
241.195	143.75
241.429	168.75
241.662	160.75
241.896	141.75
242.13	127.75
242.363	127.75
242.597	144.75
242.83	140.75
243.064	146.75
243.298	139.75
243.531	141.75
243.765	147.75
243.998	141.75
244.232	151.75
244.465	155.75
244.699	141.75
244.932	159.75
245.166	142.75
245.399	137.75
245.633	156.75
245.866	158.75
246.099	157.75
246.333	161.75
246.566	151.75
246.8	153.75
247.033	155.75
247.266	161.75
247.5	174.75
247.733	186.75
247.966	189.75
248.2	181.75
248.433	175.75
248.666	181.75
248.899	188.75
249.133	197.75
249.366	221.75
249.599	211.75
249.832	200.75
250.066	189.75
250.299	192.75
250.532	213.75
250.765	212.75
250.998	213.75
251.231	236.75
251.465	237.75
251.698	221.75
251.931	217.75
252.164	230.75
252.397	209.75
252.63	211.75
252.863	212.75
253.096	236.75
253.329	246.75
253.562	225.75
253.795	227.75
254.028	225.75
254.261	214.75
254.494	235.75
254.727	267.75
254.96	311.75
255.193	283.75
255.426	285.75
255.659	239.75
255.892	235.75
256.124	248.75
256.357	236.75
256.59	222.75
256.823	221.75
257.056	223.75
257.289	225.75
257.521	218.75
257.754	229.75
257.987	230.75
258.22	213.75
258.452	207.75
258.685	208.75
258.918	214.75
259.151	214.75
259.383	238.75
259.616	216.75
259.849	235.75
260.081	239.75
260.314	227.75
260.547	284.75
260.779	252.75
261.012	247.75
261.244	245.75
261.477	229.75
261.71	223.75
261.942	220.75
262.175	260.75
262.407	240.75
262.64	215.75
262.872	202.75
263.105	206.75
263.337	230.75
263.57	221.75
263.802	205.75
264.035	221.75
264.267	216.75
264.499	204.75
264.732	210.75
264.964	214.75
265.197	224.75
265.429	204.75
265.661	203.75
265.894	212.75
266.126	209.75
266.358	224.75
266.591	205.75
266.823	219.75
267.055	215.75
267.287	205.75
267.52	226.75
267.752	221.75
267.984	212.75
268.216	212.75
268.448	238.75
268.681	242.75
268.913	240.75
269.145	250.75
269.377	281.75
269.609	264.75
269.841	271.75
270.073	284.75
270.306	283.75
270.538	304.75
270.77	300.75
271.002	300.75
271.234	300.75
271.466	298.75
271.698	306.75
271.93	315.75
272.162	321.75
272.394	326.75
272.626	303.75
272.858	297.75
273.09	285.75
273.322	274.75
273.553	279.75
273.785	263.75
274.017	261.75
274.249	245.75
274.481	268.75
274.713	257.75
274.945	260.75
275.176	264.75
275.408	250.75
275.64	268.75
275.872	260.75
276.104	240.75
276.335	251.75
276.567	244.75
276.799	283.75
277.031	303.75
277.262	307.75
277.494	315.75
277.726	277.75
277.957	285.75
278.189	283.75
278.421	278.75
278.652	261.75
278.884	267.75
279.115	243.75
279.347	258.75
279.579	240.75
279.81	257.75
280.042	257.75
280.273	261.75
280.505	263.75
280.736	249.75
280.968	269.75
281.199	267.75
281.431	256.75
281.662	244.75
281.894	255.75
282.125	247.75
282.356	281.75
282.588	288.75
282.819	297.75
283.051	263.75
283.282	252.75
283.513	266.75
283.745	279.75
283.976	255.75
284.207	274.75
284.439	272.75
284.67	269.75
284.901	272.75
285.132	264.75
285.364	268.75
285.595	252.75
285.826	256.75
286.057	260.75
286.288	272.75
286.52	257.75
286.751	266.75
286.982	257.75
287.213	268.75
287.444	275.75
287.675	280.75
287.906	278.75
288.138	286.75
288.369	278.75
288.6	299.75
288.831	291.75
289.062	278.75
289.293	285.75
289.524	268.75
289.755	279.75
289.986	277.75
290.217	237.75
290.448	264.75
290.679	269.75
290.91	271.75
291.141	244.75
291.371	284.75
291.602	263.75
291.833	272.75
292.064	264.75
292.295	280.75
292.526	277.75
292.757	264.75
292.987	271.75
293.218	282.75
293.449	266.75
293.68	259.75
293.91	280.75
294.141	267.75
294.372	258.75
294.603	282.75
294.833	270.75
295.064	276.75
295.295	280.75
295.525	279.75
295.756	286.75
295.987	280.75
296.217	315.75
296.448	326.75
296.679	302.75
296.909	296.75
297.14	278.75
297.37	273.75
297.601	287.75
297.831	261.75
298.062	252.75
298.292	283.75
298.523	294.75
298.753	298.75
298.984	291.75
299.214	276.75
299.445	282.75
299.675	300.75
299.905	311.75
300.136	282.75
300.366	291.75
300.597	285.75
300.827	275.75
301.057	302.75
301.288	303.75
301.518	305.75
301.748	295.75
301.979	304.75
302.209	308.75
302.439	297.75
302.669	312.75
302.9	304.75
303.13	287.75
303.36	314.75
303.59	317.75
303.82	317.75
304.051	302.75
304.281	302.75
304.511	296.75
304.741	308.75
304.971	303.75
305.201	279.75
305.431	324.75
305.661	304.75
305.891	303.75
306.121	302.75
306.352	313.75
306.582	311.75
306.812	319.75
307.042	308.75
307.272	324.75
307.502	307.75
307.731	319.75
307.961	327.75
308.191	308.75
308.421	310.75
308.651	309.75
308.881	320.75
309.111	331.75
309.341	315.75
309.571	352.75
309.8	350.75
310.03	343.75
310.26	374.75
310.49	355.75
310.72	359.75
310.949	397.75
311.179	405.75
311.409	352.75
311.639	358.75
311.868	382.75
312.098	367.75
312.328	369.75
312.557	395.75
312.787	405.75
313.017	409.75
313.246	368.75
313.476	361.75
313.706	360.75
313.935	367.75
314.165	381.75
314.394	383.75
314.624	376.75
314.853	369.75
315.083	361.75
315.312	360.75
315.542	331.75
315.771	351.75
316.001	364.75
316.23	349.75
316.46	349.75
316.689	337.75
316.919	358.75
317.148	381.75
317.377	383.75
317.607	380.75
317.836	361.75
318.065	349.75
318.295	354.75
318.524	362.75
318.753	358.75
318.983	367.75
319.212	346.75
319.441	376.75
319.67	374.75
319.9	365.75
320.129	364.75
320.358	379.75
320.587	385.75
320.816	385.75
321.046	388.75
321.275	396.75
321.504	421.75
321.733	389.75
321.962	389.75
322.191	423.75
322.42	423.75
322.649	440.75
322.878	433.75
323.108	460.75
323.337	451.75
323.566	499.75
323.795	564.75
324.024	618.75
324.253	739.75
324.482	1080.75
324.71	1670.75
324.939	2459.75
325.168	2103.75
325.397	1073.75
325.626	709.75
325.855	587.75
326.084	549.75
326.313	531.75
326.542	541.75
326.77	573.75
326.999	700.75
327.228	948.75
327.457	1482.75
327.686	1828.75
327.914	1214.75
328.143	777.75
328.372	691.75
328.6	623.75
328.829	586.75
329.058	609.75
329.287	629.75
329.515	571.75
329.744	516.75
329.972	504.75
330.201	541.75
330.43	584.75
330.658	647.75
330.887	667.75
331.115	629.75
331.344	521.75
331.572	496.75
331.801	511.75
332.03	473.75
332.258	461.75
332.486	455.75
332.715	438.75
332.943	429.75
333.172	424.75
333.4	441.75
333.629	436.75
333.857	464.75
334.085	463.75
334.314	474.75
334.542	503.75
334.771	545.75
334.999	472.75
335.227	452.75
335.455	429.75
335.684	443.75
335.912	427.75
336.14	420.75
336.369	409.75
336.597	423.75
336.825	437.75
337.053	427.75
337.281	433.75
337.51	431.75
337.738	405.75
337.966	407.75
338.194	417.75
338.422	424.75
338.65	431.75
338.878	401.75
339.106	409.75
339.334	417.75
339.562	422.75
339.79	424.75
340.018	419.75
340.246	418.75
340.474	441.75
340.702	423.75
340.93	415.75
341.158	402.75
341.386	423.75
341.614	421.75
341.842	409.75
342.07	419.75
342.298	426.75
342.526	387.75
342.754	376.75
342.981	400.75
343.209	400.75
343.437	406.75
343.665	388.75
343.893	403.75
344.12	419.75
344.348	409.75
344.576	422.75
344.804	415.75
345.031	437.75
345.259	436.75
345.487	448.75
345.714	425.75
345.942	409.75
346.17	385.75
346.397	406.75
346.625	396.75
346.853	426.75
347.08	403.75
347.308	418.75
347.535	439.75
347.763	438.75
347.99	429.75
348.218	426.75
348.445	424.75
348.673	432.75
348.9	411.75
349.128	419.75
349.355	399.75
349.583	396.75
349.81	396.75
350.037	401.75
350.265	413.75
350.492	412.75
350.72	398.75
350.947	397.75
351.174	413.75
351.402	429.75
351.629	440.75
351.856	395.75
352.083	428.75
352.311	440.75
352.538	444.75
352.765	446.75
352.992	436.75
353.22	419.75
353.447	427.75
353.674	407.75
353.901	392.75
354.128	393.75
354.355	382.75
354.583	367.75
354.81	368.75
355.037	389.75
355.264	373.75
355.491	395.75
355.718	374.75
355.945	387.75
356.172	377.75
356.399	392.75
356.626	364.75
356.853	395.75
357.08	386.75
357.307	385.75
357.534	371.75
357.761	405.75
357.988	367.75
358.215	393.75
358.441	371.75
358.668	386.75
358.895	371.75
359.122	398.75
359.349	413.75
359.576	435.75
359.802	451.75
360.029	476.75
360.256	492.75
360.483	484.75
360.709	432.75
360.936	427.75
361.163	440.75
361.39	447.75
361.616	424.75
361.843	406.75
362.07	424.75
362.296	408.75
362.523	408.75
362.749	423.75
362.976	399.75
363.203	423.75
363.429	409.75
363.656	407.75
363.882	407.75
364.109	381.75
364.335	395.75
364.562	405.75
364.788	388.75
365.015	398.75
365.241	373.75
365.468	407.75
365.694	396.75
365.92	413.75
366.147	410.75
366.373	405.75
366.599	392.75
366.826	378.75
367.052	390.75
367.278	386.75
367.505	394.75
367.731	393.75
367.957	392.75
368.184	394.75
368.41	394.75
368.636	424.75
368.862	434.75
369.089	410.75
369.315	414.75
369.541	400.75
369.767	411.75
369.993	387.75
370.219	389.75
370.445	400.75
370.672	406.75
370.898	395.75
371.124	402.75
371.35	395.75
371.576	384.75
371.802	401.75
372.028	401.75
372.254	383.75
372.48	385.75
372.706	387.75
372.932	391.75
373.158	396.75
373.384	396.75
373.61	396.75
373.835	406.75
374.061	393.75
374.287	395.75
374.513	403.75
374.739	395.75
374.965	387.75
375.191	417.75
375.416	400.75
375.642	397.75
375.868	393.75
376.094	389.75
376.319	397.75
376.545	384.75
376.771	392.75
376.997	388.75
377.222	403.75
377.448	416.75
377.674	413.75
377.899	387.75
378.125	393.75
378.35	395.75
378.576	401.75
378.802	397.75
379.027	386.75
379.253	376.75
379.478	404.75
379.704	398.75
379.929	405.75
380.155	401.75
380.38	398.75
380.606	409.75
380.831	398.75
381.057	389.75
381.282	389.75
381.507	396.75
381.733	412.75
381.958	404.75
382.184	406.75
382.409	418.75
382.634	404.75
382.86	402.75
383.085	416.75
383.31	405.75
383.535	419.75
383.761	419.75
383.986	416.75
384.211	423.75
384.436	424.75
384.662	423.75
384.887	412.75
385.112	417.75
385.337	415.75
385.562	442.75
385.787	417.75
386.013	436.75
386.238	447.75
386.463	451.75
386.688	431.75
386.913	421.75
387.138	452.75
387.363	434.75
387.588	423.75
387.813	432.75
388.038	432.75
388.263	413.75
388.488	434.75
388.713	444.75
388.938	425.75
389.163	433.75
389.387	421.75
389.612	408.75
389.837	430.75
390.062	440.75
390.287	437.75
390.512	437.75
390.736	422.75
390.961	440.75
391.186	444.75
391.411	432.75
391.636	432.75
391.86	445.75
392.085	425.75
392.31	441.75
392.534	444.75
392.759	463.75
392.984	443.75
393.208	440.75
393.433	457.75
393.658	453.75
393.882	424.75
394.107	417.75
394.331	439.75
394.556	423.75
394.78	440.75
395.005	440.75
395.229	431.75
395.454	432.75
395.678	457.75
395.903	453.75
396.127	501.75
396.352	498.75
396.576	464.75
396.801	461.75
397.025	473.75
397.249	457.75
397.474	455.75
397.698	463.75
397.922	488.75
398.147	500.75
398.371	499.75
398.595	496.75
398.82	487.75
399.044	501.75
399.268	493.75
399.492	533.75
399.717	556.75
399.941	547.75
400.165	598.75
400.389	601.75
400.613	550.75
400.837	538.75
401.062	506.75
401.286	496.75
401.51	505.75
401.734	483.75
401.958	515.75
402.182	520.75
402.406	541.75
402.63	519.75
402.854	494.75
403.078	522.75
403.302	520.75
403.526	524.75
403.75	510.75
403.974	513.75
404.198	535.75
404.422	501.75
404.645	545.75
404.869	519.75
405.093	555.75
405.317	613.75
405.541	642.75
405.765	572.75
405.988	554.75
406.212	564.75
406.436	595.75
406.66	603.75
406.883	555.75
407.107	602.75
407.331	622.75
407.555	675.75
407.778	689.75
408.002	649.75
408.226	571.75
408.449	574.75
408.673	579.75
408.896	620.75
409.12	644.75
409.344	614.75
409.567	563.75
409.791	545.75
410.014	540.75
410.238	536.75
410.461	541.75
410.685	549.75
410.908	561.75
411.132	586.75
411.355	617.75
411.578	607.75
411.802	561.75
412.025	507.75
412.249	532.75
412.472	549.75
412.695	582.75
412.919	581.75
413.142	551.75
413.365	509.75
413.589	505.75
413.812	513.75
414.035	480.75
414.258	483.75
414.482	507.75
414.705	504.75
414.928	511.75
415.151	492.75
415.374	490.75
415.597	480.75
415.821	479.75
416.044	483.75
416.267	491.75
416.49	486.75
416.713	497.75
416.936	520.75
417.159	506.75
417.382	508.75
417.605	522.75
417.828	523.75
418.051	532.75
418.274	527.75
418.497	500.75
418.72	499.75
418.943	473.75
419.166	485.75
419.389	537.75
419.611	537.75
419.834	526.75
420.057	519.75
420.28	530.75
420.503	568.75
420.726	515.75
420.948	529.75
421.171	621.75
421.394	644.75
421.617	571.75
421.839	557.75
422.062	544.75
422.285	559.75
422.507	637.75
422.73	695.75
422.953	685.75
423.175	585.75
423.398	576.75
423.621	563.75
423.843	574.75
424.066	588.75
424.288	588.75
424.511	630.75
424.733	662.75
424.956	744.75
425.178	724.75
425.401	731.75
425.623	750.75
425.846	650.75
426.068	574.75
426.291	573.75
426.513	589.75
426.735	616.75
426.958	657.75
427.18	716.75
427.402	859.75
427.625	936.75
427.847	879.75
428.069	733.75
428.292	658.75
428.514	598.75
428.736	562.75
428.958	574.75
429.181	544.75
429.403	539.75
429.625	558.75
429.847	583.75
430.069	689.75
430.292	644.75
430.514	565.75
430.736	547.75
430.958	523.75
431.18	529.75
431.402	519.75
431.624	511.75
431.846	505.75
432.068	499.75
432.29	516.75
432.512	505.75
432.734	512.75
432.956	528.75
433.178	534.75
433.4	540.75
433.622	528.75
433.844	511.75
434.066	498.75
434.287	496.75
434.509	513.75
434.731	526.75
434.953	523.75
435.175	536.75
435.397	563.75
435.618	608.75
435.84	644.75
436.062	741.75
436.284	779.75
436.505	696.75
436.727	634.75
436.949	551.75
437.17	543.75
437.392	568.75
437.614	581.75
437.835	612.75
438.057	725.75
438.278	840.75
438.5	821.75
438.721	865.75
438.943	857.75
439.165	693.75
439.386	629.75
439.608	619.75
439.829	641.75
440.05	641.75
440.272	692.75
440.493	644.75
440.715	602.75
440.936	564.75
441.158	563.75
441.379	581.75
441.6	572.75
441.822	587.75
442.043	645.75
442.264	751.75
442.486	786.75
442.707	675.75
442.928	628.75
443.149	612.75
443.371	628.75
443.592	704.75
443.813	805.75
444.034	859.75
444.255	703.75
444.476	637.75
444.698	585.75
444.919	597.75
445.14	662.75
445.361	647.75
445.582	658.75
445.803	701.75
446.024	803.75
446.245	837.75
446.466	761.75
446.687	664.75
446.908	620.75
447.129	545.75
447.35	576.75
447.571	545.75
447.792	543.75
448.013	575.75
448.234	592.75
448.455	653.75
448.675	775.75
448.896	876.75
449.117	752.75
449.338	711.75
449.559	819.75
449.779	911.75
450	734.75
450.221	633.75
450.442	577.75
450.662	567.75
450.883	584.75
451.104	582.75
451.324	571.75
451.545	567.75
451.766	533.75
451.986	503.75
452.207	500.75
452.428	500.75
452.648	487.75
452.869	478.75
453.089	501.75
453.31	521.75
453.53	511.75
453.751	508.75
453.971	491.75
454.192	535.75
454.412	521.75
454.633	510.75
454.853	502.75
455.073	506.75
455.294	535.75
455.514	606.75
455.734	572.75
455.955	487.75
456.175	455.75
456.395	455.75
456.616	446.75
456.836	445.75
457.056	431.75
457.276	445.75
457.497	452.75
457.717	454.75
457.937	449.75
458.157	476.75
458.377	490.75
458.598	499.75
458.818	599.75
459.038	670.75
459.258	699.75
459.478	575.75
459.698	539.75
459.918	524.75
460.138	512.75
460.358	492.75
460.578	520.75
460.798	519.75
461.018	503.75
461.238	537.75
461.458	486.75
461.678	490.75
461.898	511.75
462.118	518.75
462.338	507.75
462.558	521.75
462.777	507.75
462.997	533.75
463.217	560.75
463.437	535.75
463.657	529.75
463.876	541.75
464.096	533.75
464.316	546.75
464.536	546.75
464.755	534.75
464.975	587.75
465.195	630.75
465.414	729.75
465.634	621.75
465.854	556.75
466.073	537.75
466.293	514.75
466.512	523.75
466.732	509.75
466.951	506.75
467.171	487.75
467.391	510.75
467.61	517.75
467.829	517.75
468.049	534.75
468.268	510.75
468.488	493.75
468.707	502.75
468.927	497.75
469.146	475.75
469.365	498.75
469.585	502.75
469.804	484.75
470.023	539.75
470.243	517.75
470.462	525.75
470.681	551.75
470.901	555.75
471.12	535.75
471.339	517.75
471.558	501.75
471.777	532.75
471.997	478.75
472.216	524.75
472.435	550.75
472.654	527.75
472.873	525.75
473.092	510.75
473.311	505.75
473.53	516.75
473.749	514.75
473.968	573.75
474.187	671.75
474.406	711.75
474.625	581.75
474.844	517.75
475.063	515.75
475.282	523.75
475.501	518.75
475.72	537.75
475.939	525.75
476.158	536.75
476.377	523.75
476.596	539.75
476.814	550.75
477.033	528.75
477.252	557.75
477.471	531.75
477.69	540.75
477.908	569.75
478.127	565.75
478.346	540.75
478.564	556.75
478.783	593.75
479.002	571.75
479.22	611.75
479.439	618.75
479.658	619.75
479.876	607.75
480.095	605.75
480.313	657.75
480.532	640.75
480.751	623.75
480.969	620.75
481.188	712.75
481.406	732.75
481.624	646.75
481.843	617.75
482.061	619.75
482.28	638.75
482.498	635.75
482.717	600.75
482.935	596.75
483.153	612.75
483.372	599.75
483.59	628.75
483.808	605.75
484.027	603.75
484.245	616.75
484.463	636.75
484.681	627.75
484.9	603.75
485.118	623.75
485.336	621.75
485.554	611.75
485.772	613.75
485.99	624.75
486.209	652.75
486.427	656.75
486.645	639.75
486.863	696.75
487.081	683.75
487.299	677.75
487.517	641.75
487.735	661.75
487.953	650.75
488.171	683.75
488.389	687.75
488.607	682.75
488.825	659.75
489.043	673.75
489.261	708.75
489.479	683.75
489.696	655.75
489.914	671.75
490.132	695.75
490.35	701.75
490.568	703.75
490.786	704.75
491.003	728.75
491.221	735.75
491.439	744.75
491.657	771.75
491.874	772.75
492.092	798.75
492.31	778.75
492.527	783.75
492.745	788.75
492.963	793.75
493.18	773.75
493.398	796.75
493.615	777.75
493.833	797.75
494.05	782.75
494.268	804.75
494.485	776.75
494.703	766.75
494.92	814.75
495.138	812.75
495.355	805.75
495.573	814.75
495.79	786.75
496.008	815.75
496.225	795.75
496.442	804.75
496.66	830.75
496.877	783.75
497.094	815.75
497.312	792.75
497.529	791.75
497.746	847.75
497.963	839.75
498.181	863.75
498.398	875.75
498.615	844.75
498.832	884.75
499.049	889.75
499.267	855.75
499.484	891.75
499.701	905.75
499.918	921.75
500.135	950.75
500.352	994.75
500.569	996.75
500.786	1006.75
501.003	992.75
501.22	963.75
501.437	971.75
501.654	948.75
