Data from 1971.PennyLincolnUp.Lamp.En5.5.200Scan.071719.P1._HRD10591_15-19-02-841.txt Node
Date: Thu Jul 18 15:19:02 EDT 2019
User: cochatt
Spectrometer: HR+D1059
Trigger mode: 1
Integration Time (sec): 1.000000E-1
Scans to average: 1
Electric dark correction enabled: true
Nonlinearity correction enabled: false
Boxcar width: 0
XAxis mode: Wavelengths
Number of Pixels in Spectrum: 2048
>>>>>Begin Spectral Data<<<<<
223.165	-18.12
223.4	-18.12
223.635	-18.12
223.869	-24.12
224.104	-15.12
224.338	-14.12
224.573	7.88
224.808	-12.12
225.042	0.88
225.277	-20.12
225.511	-21.12
225.746	19.88
225.98	7.88
226.215	5.88
226.449	7.88
226.683	25.88
226.918	24.88
227.152	23.88
227.387	39.88
227.621	35.88
227.856	48.88
228.09	47.88
228.324	45.88
228.559	67.88
228.793	56.88
229.027	97.88
229.262	118.88
229.496	107.88
229.73	127.88
229.964	133.88
230.199	117.88
230.433	109.88
230.667	120.88
230.901	123.88
231.136	115.88
231.37	122.88
231.604	92.88
231.838	105.88
232.072	117.88
232.306	121.88
232.541	105.88
232.775	125.88
233.009	113.88
233.243	110.88
233.477	131.88
233.711	119.88
233.945	105.88
234.179	124.88
234.413	115.88
234.647	115.88
234.881	120.88
235.115	121.88
235.349	111.88
235.583	106.88
235.817	107.88
236.051	113.88
236.285	121.88
236.519	125.88
236.753	146.88
236.987	134.88
237.221	162.88
237.455	217.88
237.689	185.88
237.922	134.88
238.156	138.88
238.39	134.88
238.624	124.88
238.858	128.88
239.091	140.88
239.325	135.88
239.559	135.88
239.793	136.88
240.027	149.88
240.26	141.88
240.494	150.88
240.728	149.88
240.961	133.88
241.195	135.88
241.429	132.88
241.662	153.88
241.896	132.88
242.13	131.88
242.363	137.88
242.597	141.88
242.83	139.88
243.064	143.88
243.298	141.88
243.531	130.88
243.765	157.88
243.998	147.88
244.232	145.88
244.465	131.88
244.699	160.88
244.932	170.88
245.166	152.88
245.399	155.88
245.633	125.88
245.866	163.88
246.099	147.88
246.333	133.88
246.566	148.88
246.8	154.88
247.033	145.88
247.266	161.88
247.5	154.88
247.733	154.88
247.966	173.88
248.2	164.88
248.433	172.88
248.666	173.88
248.899	175.88
249.133	196.88
249.366	220.88
249.599	206.88
249.832	183.88
250.066	201.88
250.299	186.88
250.532	195.88
250.765	191.88
250.998	237.88
251.231	246.88
251.465	219.88
251.698	214.88
251.931	203.88
252.164	219.88
252.397	202.88
252.63	200.88
252.863	206.88
253.096	215.88
253.329	210.88
253.562	230.88
253.795	215.88
254.028	221.88
254.261	219.88
254.494	216.88
254.727	259.88
254.96	282.88
255.193	291.88
255.426	265.88
255.659	234.88
255.892	235.88
256.124	248.88
256.357	231.88
256.59	239.88
256.823	222.88
257.056	219.88
257.289	227.88
257.521	190.88
257.754	222.88
257.987	218.88
258.22	218.88
258.452	207.88
258.685	227.88
258.918	209.88
259.151	217.88
259.383	234.88
259.616	220.88
259.849	224.88
260.081	255.88
260.314	249.88
260.547	249.88
260.779	272.88
261.012	248.88
261.244	241.88
261.477	229.88
261.71	244.88
261.942	243.88
262.175	253.88
262.407	229.88
262.64	231.88
262.872	196.88
263.105	212.88
263.337	223.88
263.57	201.88
263.802	207.88
264.035	231.88
264.267	223.88
264.499	218.88
264.732	208.88
264.964	238.88
265.197	212.88
265.429	228.88
265.661	222.88
265.894	217.88
266.126	215.88
266.358	217.88
266.591	229.88
266.823	223.88
267.055	236.88
267.287	224.88
267.52	224.88
267.752	220.88
267.984	227.88
268.216	230.88
268.448	240.88
268.681	251.88
268.913	251.88
269.145	252.88
269.377	291.88
269.609	307.88
269.841	287.88
270.073	276.88
270.306	318.88
270.538	321.88
270.77	316.88
271.002	328.88
271.234	293.88
271.466	312.88
271.698	313.88
271.93	330.88
272.162	317.88
272.394	329.88
272.626	317.88
272.858	298.88
273.09	284.88
273.322	278.88
273.553	268.88
273.785	271.88
274.017	264.88
274.249	268.88
274.481	287.88
274.713	265.88
274.945	278.88
275.176	270.88
275.408	274.88
275.64	263.88
275.872	268.88
276.104	273.88
276.335	277.88
276.567	285.88
276.799	293.88
277.031	303.88
277.262	308.88
277.494	321.88
277.726	304.88
277.957	309.88
278.189	283.88
278.421	280.88
278.652	278.88
278.884	281.88
279.115	272.88
279.347	282.88
279.579	291.88
279.81	282.88
280.042	273.88
280.273	247.88
280.505	285.88
280.736	286.88
280.968	283.88
281.199	272.88
281.431	267.88
281.662	295.88
281.894	288.88
282.125	285.88
282.356	296.88
282.588	304.88
282.819	305.88
283.051	286.88
283.282	279.88
283.513	280.88
283.745	277.88
283.976	284.88
284.207	300.88
284.439	284.88
284.67	286.88
284.901	299.88
285.132	283.88
285.364	296.88
285.595	273.88
285.826	286.88
286.057	277.88
286.288	288.88
286.52	289.88
286.751	289.88
286.982	294.88
287.213	283.88
287.444	295.88
287.675	300.88
287.906	304.88
288.138	308.88
288.369	318.88
288.6	318.88
288.831	300.88
289.062	299.88
289.293	291.88
289.524	284.88
289.755	300.88
289.986	303.88
290.217	323.88
290.448	288.88
290.679	295.88
290.91	295.88
291.141	282.88
291.371	309.88
291.602	304.88
291.833	286.88
292.064	296.88
292.295	307.88
292.526	299.88
292.757	301.88
292.987	290.88
293.218	279.88
293.449	303.88
293.68	293.88
293.91	307.88
294.141	291.88
294.372	287.88
294.603	303.88
294.833	314.88
295.064	310.88
295.295	295.88
295.525	293.88
295.756	315.88
295.987	299.88
296.217	325.88
296.448	330.88
296.679	319.88
296.909	305.88
297.14	313.88
297.37	324.88
297.601	304.88
297.831	313.88
298.062	307.88
298.292	301.88
298.523	314.88
298.753	316.88
298.984	303.88
299.214	316.88
299.445	315.88
299.675	320.88
299.905	310.88
300.136	321.88
300.366	321.88
300.597	332.88
300.827	315.88
301.057	307.88
301.288	331.88
301.518	330.88
301.748	333.88
301.979	313.88
302.209	328.88
302.439	329.88
302.669	339.88
302.9	334.88
303.13	326.88
303.36	339.88
303.59	323.88
303.82	353.88
304.051	328.88
304.281	320.88
304.511	338.88
304.741	345.88
304.971	336.88
305.201	337.88
305.431	349.88
305.661	332.88
305.891	316.88
306.121	329.88
306.352	353.88
306.582	340.88
306.812	323.88
307.042	317.88
307.272	323.88
307.502	358.88
307.731	363.88
307.961	347.88
308.191	327.88
308.421	347.88
308.651	345.88
308.881	329.88
309.111	345.88
309.341	357.88
309.571	344.88
309.8	339.88
310.03	388.88
310.26	395.88
310.49	379.88
310.72	384.88
310.949	403.88
311.179	375.88
311.409	380.88
311.639	382.88
311.868	384.88
312.098	391.88
312.328	393.88
312.557	389.88
312.787	387.88
313.017	396.88
313.246	407.88
313.476	371.88
313.706	361.88
313.935	391.88
314.165	385.88
314.394	376.88
314.624	395.88
314.853	381.88
315.083	354.88
315.312	396.88
315.542	371.88
315.771	373.88
316.001	365.88
316.23	378.88
316.46	368.88
316.689	383.88
316.919	373.88
317.148	379.88
317.377	413.88
317.607	411.88
317.836	397.88
318.065	379.88
318.295	377.88
318.524	373.88
318.753	372.88
318.983	388.88
319.212	392.88
319.441	394.88
319.67	394.88
319.9	406.88
320.129	387.88
320.358	387.88
320.587	414.88
320.816	397.88
321.046	393.88
321.275	379.88
321.504	404.88
321.733	398.88
321.962	407.88
322.191	430.88
322.42	433.88
322.649	453.88
322.878	446.88
323.108	457.88
323.337	461.88
323.566	508.88
323.795	515.88
324.024	567.88
324.253	661.88
324.482	957.88
324.71	1390.88
324.939	1881.88
325.168	1603.88
325.397	871.88
325.626	606.88
325.855	517.88
326.084	511.88
326.313	491.88
326.542	505.88
326.77	521.88
326.999	640.88
327.228	863.88
327.457	1232.88
327.686	1417.88
327.914	959.88
328.143	675.88
328.372	592.88
328.6	551.88
328.829	547.88
329.058	563.88
329.287	537.88
329.515	526.88
329.744	489.88
329.972	503.88
330.201	509.88
330.43	530.88
330.658	555.88
330.887	583.88
331.115	549.88
331.344	491.88
331.572	484.88
331.801	487.88
332.03	458.88
332.258	453.88
332.486	437.88
332.715	433.88
332.943	433.88
333.172	453.88
333.4	446.88
333.629	463.88
333.857	455.88
334.085	487.88
334.314	490.88
334.542	474.88
334.771	484.88
334.999	485.88
335.227	456.88
335.455	459.88
335.684	429.88
335.912	428.88
336.14	411.88
336.369	419.88
336.597	422.88
336.825	452.88
337.053	419.88
337.281	437.88
337.51	426.88
337.738	431.88
337.966	433.88
338.194	432.88
338.422	439.88
338.65	411.88
338.878	399.88
339.106	378.88
339.334	425.88
339.562	426.88
339.79	420.88
340.018	439.88
340.246	414.88
340.474	436.88
340.702	425.88
340.93	419.88
341.158	425.88
341.386	424.88
341.614	413.88
341.842	424.88
342.07	405.88
342.298	412.88
342.526	423.88
342.754	396.88
342.981	405.88
343.209	413.88
343.437	406.88
343.665	392.88
343.893	418.88
344.12	428.88
344.348	429.88
344.576	443.88
344.804	442.88
345.031	431.88
345.259	428.88
345.487	416.88
345.714	419.88
345.942	410.88
346.17	393.88
346.397	412.88
346.625	387.88
346.853	401.88
347.08	404.88
347.308	399.88
347.535	399.88
347.763	408.88
347.99	398.88
348.218	405.88
348.445	424.88
348.673	430.88
348.9	397.88
349.128	380.88
349.355	387.88
349.583	393.88
349.81	389.88
350.037	398.88
350.265	391.88
350.492	403.88
350.72	371.88
350.947	393.88
351.174	402.88
351.402	397.88
351.629	407.88
351.856	407.88
352.083	434.88
352.311	431.88
352.538	411.88
352.765	407.88
352.992	409.88
353.22	401.88
353.447	375.88
353.674	379.88
353.901	397.88
354.128	375.88
354.355	381.88
354.583	379.88
354.81	380.88
355.037	373.88
355.264	371.88
355.491	372.88
355.718	380.88
355.945	353.88
356.172	362.88
356.399	365.88
356.626	341.88
356.853	366.88
357.08	367.88
357.307	358.88
357.534	364.88
357.761	362.88
357.988	386.88
358.215	373.88
358.441	378.88
358.668	346.88
358.895	366.88
359.122	385.88
359.349	391.88
359.576	378.88
359.802	398.88
360.029	409.88
360.256	437.88
360.483	401.88
360.709	393.88
360.936	383.88
361.163	400.88
361.39	394.88
361.616	401.88
361.843	383.88
362.07	394.88
362.296	387.88
362.523	368.88
362.749	385.88
362.976	383.88
363.203	361.88
363.429	368.88
363.656	388.88
363.882	357.88
364.109	372.88
364.335	373.88
364.562	362.88
364.788	379.88
365.015	364.88
365.241	372.88
365.468	368.88
365.694	358.88
365.92	355.88
366.147	378.88
366.373	379.88
366.599	362.88
366.826	362.88
367.052	356.88
367.278	356.88
367.505	373.88
367.731	368.88
367.957	360.88
368.184	362.88
368.41	370.88
368.636	394.88
368.862	381.88
369.089	358.88
369.315	376.88
369.541	371.88
369.767	349.88
369.993	375.88
370.219	374.88
370.445	367.88
370.672	365.88
370.898	348.88
371.124	359.88
371.35	365.88
371.576	387.88
371.802	358.88
372.028	331.88
372.254	375.88
372.48	365.88
372.706	363.88
372.932	377.88
373.158	354.88
373.384	377.88
373.61	378.88
373.835	365.88
374.061	356.88
374.287	353.88
374.513	356.88
374.739	377.88
374.965	367.88
375.191	364.88
375.416	358.88
375.642	368.88
375.868	369.88
376.094	359.88
376.319	352.88
376.545	351.88
376.771	342.88
376.997	354.88
377.222	345.88
377.448	347.88
377.674	358.88
377.899	355.88
378.125	353.88
378.35	355.88
378.576	350.88
378.802	337.88
379.027	352.88
379.253	349.88
379.478	347.88
379.704	356.88
379.929	342.88
380.155	337.88
380.38	356.88
380.606	359.88
380.831	350.88
381.057	336.88
381.282	350.88
381.507	356.88
381.733	369.88
381.958	356.88
382.184	365.88
382.409	357.88
382.634	352.88
382.86	344.88
383.085	374.88
383.31	357.88
383.535	359.88
383.761	363.88
383.986	364.88
384.211	379.88
384.436	348.88
384.662	381.88
384.887	370.88
385.112	361.88
385.337	382.88
385.562	389.88
385.787	396.88
386.013	367.88
386.238	366.88
386.463	385.88
386.688	368.88
386.913	355.88
387.138	379.88
387.363	364.88
387.588	376.88
387.813	380.88
388.038	360.88
388.263	365.88
388.488	375.88
388.713	379.88
388.938	370.88
389.163	371.88
389.387	361.88
389.612	371.88
389.837	374.88
390.062	380.88
390.287	369.88
390.512	368.88
390.736	376.88
390.961	390.88
391.186	392.88
391.411	380.88
391.636	380.88
391.86	375.88
392.085	398.88
392.31	381.88
392.534	382.88
392.759	392.88
392.984	375.88
393.208	381.88
393.433	373.88
393.658	372.88
393.882	366.88
394.107	366.88
394.331	396.88
394.556	387.88
394.78	387.88
395.005	351.88
395.229	384.88
395.454	389.88
395.678	372.88
395.903	417.88
396.127	403.88
396.352	383.88
396.576	395.88
396.801	385.88
397.025	405.88
397.249	401.88
397.474	385.88
397.698	398.88
397.922	421.88
398.147	405.88
398.371	428.88
398.595	407.88
398.82	404.88
399.044	418.88
399.268	447.88
399.492	455.88
399.717	462.88
399.941	491.88
400.165	505.88
400.389	515.88
400.613	461.88
400.837	451.88
401.062	419.88
401.286	415.88
401.51	404.88
401.734	409.88
401.958	431.88
402.182	420.88
402.406	431.88
402.63	413.88
402.854	406.88
403.078	410.88
403.302	436.88
403.526	422.88
403.75	429.88
403.974	406.88
404.198	429.88
404.422	425.88
404.645	448.88
404.869	463.88
405.093	448.88
405.317	477.88
405.541	532.88
405.765	461.88
405.988	456.88
406.212	453.88
406.436	471.88
406.66	459.88
406.883	461.88
407.107	474.88
407.331	518.88
407.555	581.88
407.778	550.88
408.002	527.88
408.226	460.88
408.449	441.88
408.673	470.88
408.896	494.88
409.12	528.88
409.344	504.88
409.567	425.88
409.791	426.88
410.014	424.88
410.238	427.88
410.461	425.88
410.685	440.88
410.908	445.88
411.132	469.88
411.355	490.88
411.578	471.88
411.802	420.88
412.025	437.88
412.249	427.88
412.472	460.88
412.695	478.88
412.919	469.88
413.142	445.88
413.365	432.88
413.589	414.88
413.812	417.88
414.035	384.88
414.258	414.88
414.482	385.88
414.705	390.88
414.928	407.88
415.151	406.88
415.374	401.88
415.597	399.88
415.821	395.88
416.044	381.88
416.267	400.88
416.49	400.88
416.713	402.88
416.936	383.88
417.159	378.88
417.382	411.88
417.605	404.88
417.828	408.88
418.051	420.88
418.274	436.88
418.497	408.88
418.72	413.88
418.943	411.88
419.166	405.88
419.389	423.88
419.611	416.88
419.834	417.88
420.057	428.88
420.28	436.88
420.503	419.88
420.726	443.88
420.948	453.88
421.171	465.88
421.394	478.88
421.617	451.88
421.839	418.88
422.062	416.88
422.285	447.88
422.507	456.88
422.73	528.88
422.953	517.88
423.175	446.88
423.398	451.88
423.621	441.88
423.843	448.88
424.066	460.88
424.288	445.88
424.511	469.88
424.733	525.88
424.956	564.88
425.178	557.88
425.401	565.88
425.623	557.88
425.846	485.88
426.068	462.88
426.291	437.88
426.513	438.88
426.735	466.88
426.958	504.88
427.18	573.88
427.402	651.88
427.625	719.88
427.847	616.88
428.069	531.88
428.292	485.88
428.514	430.88
428.736	417.88
428.958	411.88
429.181	420.88
429.403	414.88
429.625	413.88
429.847	452.88
430.069	491.88
430.292	501.88
430.514	437.88
430.736	413.88
430.958	423.88
431.18	400.88
431.402	409.88
431.624	394.88
431.846	395.88
432.068	395.88
432.29	393.88
432.512	409.88
432.734	412.88
432.956	402.88
433.178	409.88
433.4	392.88
433.622	411.88
433.844	389.88
434.066	394.88
434.287	374.88
434.509	391.88
434.731	377.88
434.953	414.88
435.175	398.88
435.397	437.88
435.618	450.88
435.84	496.88
436.062	580.88
436.284	611.88
436.505	501.88
436.727	466.88
436.949	445.88
437.17	425.88
437.392	427.88
437.614	456.88
437.835	465.88
438.057	541.88
438.278	615.88
438.5	588.88
438.721	647.88
438.943	628.88
439.165	521.88
439.386	463.88
439.608	471.88
439.829	464.88
440.05	493.88
440.272	519.88
440.493	472.88
440.715	460.88
440.936	423.88
441.158	441.88
441.379	417.88
441.6	426.88
441.822	445.88
442.043	480.88
442.264	564.88
442.486	548.88
442.707	501.88
442.928	449.88
443.149	458.88
443.371	490.88
443.592	529.88
443.813	576.88
444.034	637.88
444.255	527.88
444.476	486.88
444.698	452.88
444.919	456.88
445.14	582.88
445.361	515.88
445.582	476.88
445.803	559.88
446.024	598.88
446.245	603.88
446.466	572.88
446.687	477.88
446.908	452.88
447.129	424.88
447.35	412.88
447.571	428.88
447.792	401.88
448.013	396.88
448.234	426.88
448.455	477.88
448.675	575.88
448.896	659.88
449.117	564.88
449.338	540.88
449.559	614.88
449.779	709.88
450	553.88
450.221	430.88
450.442	432.88
450.662	400.88
450.883	384.88
451.104	412.88
451.324	400.88
451.545	389.88
451.766	392.88
451.986	397.88
452.207	379.88
452.428	359.88
452.648	359.88
452.869	379.88
453.089	393.88
453.31	389.88
453.53	396.88
453.751	383.88
453.971	376.88
454.192	385.88
454.412	381.88
454.633	366.88
454.853	371.88
455.073	366.88
455.294	413.88
455.514	439.88
455.734	435.88
455.955	364.88
456.175	365.88
456.395	353.88
456.616	347.88
456.836	352.88
457.056	355.88
457.276	348.88
457.497	349.88
457.717	327.88
457.937	340.88
458.157	362.88
458.377	342.88
458.598	390.88
458.818	392.88
459.038	479.88
459.258	475.88
459.478	415.88
459.698	381.88
459.918	389.88
460.138	380.88
460.358	368.88
460.578	381.88
460.798	387.88
461.018	410.88
461.238	399.88
461.458	367.88
461.678	382.88
461.898	394.88
462.118	383.88
462.338	396.88
462.558	391.88
462.777	410.88
462.997	417.88
463.217	423.88
463.437	415.88
463.657	408.88
463.876	392.88
464.096	404.88
464.316	420.88
464.536	427.88
464.755	419.88
464.975	408.88
465.195	436.88
465.414	469.88
465.634	437.88
465.854	422.88
466.073	411.88
466.293	395.88
466.512	364.88
466.732	382.88
466.951	375.88
467.171	376.88
467.391	384.88
467.61	383.88
467.829	386.88
468.049	388.88
468.268	382.88
468.488	366.88
468.707	371.88
468.927	369.88
469.146	387.88
469.365	373.88
469.585	355.88
469.804	377.88
470.023	382.88
470.243	386.88
470.462	390.88
470.681	405.88
470.901	397.88
471.12	379.88
471.339	377.88
471.558	373.88
471.777	402.88
471.997	368.88
472.216	379.88
472.435	395.88
472.654	391.88
472.873	377.88
473.092	377.88
473.311	390.88
473.53	394.88
473.749	408.88
473.968	419.88
474.187	515.88
474.406	519.88
474.625	438.88
474.844	416.88
475.063	387.88
475.282	379.88
475.501	397.88
475.72	390.88
475.939	393.88
476.158	417.88
476.377	400.88
476.596	392.88
476.814	384.88
477.033	398.88
477.252	401.88
477.471	410.88
477.69	414.88
477.908	417.88
478.127	408.88
478.346	415.88
478.564	425.88
478.783	413.88
479.002	417.88
479.22	427.88
479.439	426.88
479.658	456.88
479.876	444.88
480.095	445.88
480.313	485.88
480.532	466.88
480.751	464.88
480.969	469.88
481.188	509.88
481.406	512.88
481.624	474.88
481.843	451.88
482.061	455.88
482.28	439.88
482.498	445.88
482.717	450.88
482.935	442.88
483.153	463.88
483.372	454.88
483.59	439.88
483.808	443.88
484.027	443.88
484.245	457.88
484.463	443.88
484.681	462.88
484.9	453.88
485.118	447.88
485.336	434.88
485.554	447.88
485.772	456.88
485.99	454.88
486.209	450.88
486.427	447.88
486.645	449.88
486.863	472.88
487.081	455.88
487.299	480.88
487.517	465.88
487.735	471.88
487.953	467.88
488.171	480.88
488.389	481.88
488.607	474.88
488.825	483.88
489.043	471.88
489.261	468.88
489.479	472.88
489.696	487.88
489.914	503.88
490.132	484.88
490.35	479.88
490.568	483.88
490.786	521.88
491.003	519.88
491.221	521.88
491.439	499.88
491.657	535.88
491.874	544.88
492.092	550.88
492.31	568.88
492.527	549.88
492.745	562.88
492.963	570.88
493.18	557.88
493.398	544.88
493.615	560.88
493.833	561.88
494.05	565.88
494.268	559.88
494.485	554.88
494.703	555.88
494.92	578.88
495.138	558.88
495.355	568.88
495.573	564.88
495.79	569.88
496.008	557.88
496.225	564.88
496.442	570.88
496.66	584.88
496.877	556.88
497.094	575.88
497.312	573.88
497.529	562.88
497.746	561.88
497.963	587.88
498.181	590.88
498.398	595.88
498.615	600.88
498.832	615.88
499.049	631.88
499.267	641.88
499.484	628.88
499.701	668.88
499.918	693.88
500.135	712.88
500.352	751.88
500.569	720.88
500.786	727.88
501.003	732.88
501.22	727.88
501.437	719.88
501.654	715.88
501.871	714.88
