Data from 1971.PennyLincolnUp.Lamp.En5.5.200Scan.071719.P1._HRD10591_15-20-31-841.txt Node
Date: Thu Jul 18 15:20:31 EDT 2019
User: cochatt
Spectrometer: HR+D1059
Trigger mode: 1
Integration Time (sec): 1.000000E-1
Scans to average: 1
Electric dark correction enabled: true
Nonlinearity correction enabled: false
Boxcar width: 0
XAxis mode: Wavelengths
Number of Pixels in Spectrum: 2048
>>>>>Begin Spectral Data<<<<<
223.165	-7.44
223.4	-7.44
223.635	-7.44
223.869	-14.44
224.104	-31.44
224.338	-17.44
224.573	-15.44
224.808	-8.44
225.042	-2.44
225.277	-2.44
225.511	-7.44
225.746	2.56
225.98	0.56
226.215	11.56
226.449	13.56
226.683	12.56
226.918	28.56
227.152	37.56
227.387	32.56
227.621	32.56
227.856	42.56
228.09	43.56
228.324	51.56
228.559	48.56
228.793	72.56
229.027	91.56
229.262	96.56
229.496	107.56
229.73	131.56
229.964	152.56
230.199	136.56
230.433	113.56
230.667	114.56
230.901	108.56
231.136	100.56
231.37	114.56
231.604	106.56
231.838	116.56
232.072	104.56
232.306	115.56
232.541	116.56
232.775	100.56
233.009	114.56
233.243	120.56
233.477	111.56
233.711	115.56
233.945	107.56
234.179	115.56
234.413	123.56
234.647	117.56
234.881	117.56
235.115	108.56
235.349	126.56
235.583	92.56
235.817	124.56
236.051	122.56
236.285	138.56
236.519	125.56
236.753	131.56
236.987	140.56
237.221	178.56
237.455	204.56
237.689	178.56
237.922	146.56
238.156	121.56
238.39	127.56
238.624	120.56
238.858	119.56
239.091	124.56
239.325	118.56
239.559	121.56
239.793	108.56
240.027	120.56
240.26	128.56
240.494	160.56
240.728	160.56
240.961	150.56
241.195	144.56
241.429	136.56
241.662	138.56
241.896	143.56
242.13	136.56
242.363	144.56
242.597	138.56
242.83	138.56
243.064	148.56
243.298	172.56
243.531	138.56
243.765	139.56
243.998	139.56
244.232	147.56
244.465	146.56
244.699	163.56
244.932	139.56
245.166	148.56
245.399	130.56
245.633	150.56
245.866	148.56
246.099	142.56
246.333	140.56
246.566	149.56
246.8	162.56
247.033	155.56
247.266	164.56
247.5	174.56
247.733	172.56
247.966	168.56
248.2	185.56
248.433	167.56
248.666	180.56
248.899	184.56
249.133	190.56
249.366	204.56
249.599	206.56
249.832	190.56
250.066	198.56
250.299	190.56
250.532	190.56
250.765	198.56
250.998	215.56
251.231	225.56
251.465	232.56
251.698	203.56
251.931	223.56
252.164	209.56
252.397	205.56
252.63	220.56
252.863	212.56
253.096	214.56
253.329	222.56
253.562	234.56
253.795	245.56
254.028	234.56
254.261	238.56
254.494	237.56
254.727	266.56
254.96	284.56
255.193	280.56
255.426	271.56
255.659	241.56
255.892	240.56
256.124	247.56
256.357	244.56
256.59	252.56
256.823	244.56
257.056	208.56
257.289	205.56
257.521	237.56
257.754	212.56
257.987	220.56
258.22	221.56
258.452	236.56
258.685	221.56
258.918	230.56
259.151	218.56
259.383	233.56
259.616	229.56
259.849	240.56
260.081	261.56
260.314	250.56
260.547	285.56
260.779	269.56
261.012	245.56
261.244	235.56
261.477	247.56
261.71	228.56
261.942	230.56
262.175	256.56
262.407	224.56
262.64	226.56
262.872	230.56
263.105	244.56
263.337	219.56
263.57	219.56
263.802	221.56
264.035	205.56
264.267	207.56
264.499	221.56
264.732	217.56
264.964	206.56
265.197	218.56
265.429	219.56
265.661	212.56
265.894	234.56
266.126	220.56
266.358	234.56
266.591	232.56
266.823	230.56
267.055	232.56
267.287	244.56
267.52	247.56
267.752	224.56
267.984	241.56
268.216	231.56
268.448	257.56
268.681	255.56
268.913	244.56
269.145	259.56
269.377	288.56
269.609	291.56
269.841	283.56
270.073	290.56
270.306	321.56
270.538	331.56
270.77	328.56
271.002	316.56
271.234	322.56
271.466	322.56
271.698	316.56
271.93	338.56
272.162	326.56
272.394	328.56
272.626	327.56
272.858	309.56
273.09	291.56
273.322	283.56
273.553	273.56
273.785	284.56
274.017	281.56
274.249	276.56
274.481	282.56
274.713	269.56
274.945	286.56
275.176	280.56
275.408	295.56
275.64	265.56
275.872	280.56
276.104	290.56
276.335	269.56
276.567	295.56
276.799	296.56
277.031	320.56
277.262	316.56
277.494	341.56
277.726	332.56
277.957	311.56
278.189	304.56
278.421	304.56
278.652	291.56
278.884	292.56
279.115	287.56
279.347	285.56
279.579	283.56
279.81	284.56
280.042	287.56
280.273	282.56
280.505	298.56
280.736	277.56
280.968	271.56
281.199	275.56
281.431	289.56
281.662	284.56
281.894	292.56
282.125	299.56
282.356	297.56
282.588	331.56
282.819	323.56
283.051	301.56
283.282	294.56
283.513	284.56
283.745	277.56
283.976	293.56
284.207	280.56
284.439	280.56
284.67	290.56
284.901	289.56
285.132	289.56
285.364	289.56
285.595	286.56
285.826	290.56
286.057	280.56
286.288	280.56
286.52	312.56
286.751	289.56
286.982	311.56
287.213	304.56
287.444	303.56
287.675	298.56
287.906	324.56
288.138	297.56
288.369	309.56
288.6	314.56
288.831	309.56
289.062	314.56
289.293	317.56
289.524	296.56
289.755	309.56
289.986	309.56
290.217	300.56
290.448	294.56
290.679	306.56
290.91	300.56
291.141	313.56
291.371	294.56
291.602	295.56
291.833	305.56
292.064	305.56
292.295	306.56
292.526	299.56
292.757	309.56
292.987	291.56
293.218	306.56
293.449	318.56
293.68	308.56
293.91	314.56
294.141	302.56
294.372	306.56
294.603	315.56
294.833	300.56
295.064	301.56
295.295	298.56
295.525	301.56
295.756	313.56
295.987	298.56
296.217	338.56
296.448	342.56
296.679	310.56
296.909	296.56
297.14	300.56
297.37	313.56
297.601	302.56
297.831	298.56
298.062	313.56
298.292	320.56
298.523	323.56
298.753	331.56
298.984	327.56
299.214	338.56
299.445	319.56
299.675	337.56
299.905	320.56
300.136	325.56
300.366	352.56
300.597	327.56
300.827	321.56
301.057	344.56
301.288	370.56
301.518	334.56
301.748	347.56
301.979	338.56
302.209	319.56
302.439	339.56
302.669	338.56
302.9	339.56
303.13	338.56
303.36	336.56
303.59	348.56
303.82	337.56
304.051	348.56
304.281	363.56
304.511	337.56
304.741	342.56
304.971	356.56
305.201	330.56
305.431	347.56
305.661	341.56
305.891	354.56
306.121	339.56
306.352	336.56
306.582	364.56
306.812	360.56
307.042	348.56
307.272	363.56
307.502	342.56
307.731	354.56
307.961	363.56
308.191	343.56
308.421	372.56
308.651	353.56
308.881	351.56
309.111	358.56
309.341	360.56
309.571	380.56
309.8	376.56
310.03	381.56
310.26	404.56
310.49	396.56
310.72	422.56
310.949	382.56
311.179	414.56
311.409	385.56
311.639	408.56
311.868	387.56
312.098	392.56
312.328	403.56
312.557	406.56
312.787	405.56
313.017	427.56
313.246	401.56
313.476	399.56
313.706	394.56
313.935	394.56
314.165	392.56
314.394	433.56
314.624	440.56
314.853	392.56
315.083	392.56
315.312	400.56
315.542	393.56
315.771	397.56
316.001	382.56
316.23	417.56
316.46	383.56
316.689	412.56
316.919	388.56
317.148	412.56
317.377	413.56
317.607	393.56
317.836	378.56
318.065	404.56
318.295	398.56
318.524	392.56
318.753	396.56
318.983	379.56
319.212	394.56
319.441	389.56
319.67	383.56
319.9	424.56
320.129	393.56
320.358	418.56
320.587	392.56
320.816	410.56
321.046	433.56
321.275	414.56
321.504	410.56
321.733	428.56
321.962	429.56
322.191	459.56
322.42	453.56
322.649	466.56
322.878	469.56
323.108	483.56
323.337	508.56
323.566	548.56
323.795	562.56
324.024	607.56
324.253	718.56
324.482	1021.56
324.71	1575.56
324.939	2070.56
325.168	1766.56
325.397	936.56
325.626	638.56
325.855	561.56
326.084	525.56
326.313	510.56
326.542	533.56
326.77	553.56
326.999	675.56
327.228	907.56
327.457	1360.56
327.686	1540.56
327.914	1008.56
328.143	705.56
328.372	606.56
328.6	592.56
328.829	591.56
329.058	587.56
329.287	572.56
329.515	546.56
329.744	513.56
329.972	504.56
330.201	549.56
330.43	597.56
330.658	577.56
330.887	621.56
331.115	584.56
331.344	518.56
331.572	500.56
331.801	510.56
332.03	516.56
332.258	476.56
332.486	474.56
332.715	450.56
332.943	470.56
333.172	458.56
333.4	473.56
333.629	487.56
333.857	487.56
334.085	499.56
334.314	514.56
334.542	540.56
334.771	521.56
334.999	499.56
335.227	466.56
335.455	472.56
335.684	460.56
335.912	468.56
336.14	445.56
336.369	457.56
336.597	466.56
336.825	476.56
337.053	436.56
337.281	432.56
337.51	443.56
337.738	444.56
337.966	428.56
338.194	463.56
338.422	454.56
338.65	442.56
338.878	441.56
339.106	415.56
339.334	448.56
339.562	441.56
339.79	455.56
340.018	418.56
340.246	421.56
340.474	432.56
340.702	432.56
340.93	431.56
341.158	426.56
341.386	443.56
341.614	442.56
341.842	426.56
342.07	421.56
342.298	426.56
342.526	424.56
342.754	402.56
342.981	404.56
343.209	412.56
343.437	432.56
343.665	422.56
343.893	423.56
344.12	432.56
344.348	425.56
344.576	448.56
344.804	438.56
345.031	444.56
345.259	437.56
345.487	431.56
345.714	434.56
345.942	406.56
346.17	418.56
346.397	396.56
346.625	417.56
346.853	416.56
347.08	406.56
347.308	407.56
347.535	429.56
347.763	418.56
347.99	416.56
348.218	420.56
348.445	443.56
348.673	409.56
348.9	404.56
349.128	406.56
349.355	410.56
349.583	406.56
349.81	393.56
350.037	406.56
350.265	381.56
350.492	404.56
350.72	390.56
350.947	397.56
351.174	411.56
351.402	412.56
351.629	407.56
351.856	418.56
352.083	394.56
352.311	406.56
352.538	402.56
352.765	411.56
352.992	412.56
353.22	408.56
353.447	403.56
353.674	403.56
353.901	377.56
354.128	398.56
354.355	372.56
354.583	371.56
354.81	372.56
355.037	395.56
355.264	368.56
355.491	368.56
355.718	346.56
355.945	371.56
356.172	374.56
356.399	366.56
356.626	378.56
356.853	384.56
357.08	381.56
357.307	382.56
357.534	388.56
357.761	390.56
357.988	400.56
358.215	382.56
358.441	386.56
358.668	374.56
358.895	409.56
359.122	378.56
359.349	380.56
359.576	398.56
359.802	416.56
360.029	437.56
360.256	456.56
360.483	414.56
360.709	411.56
360.936	400.56
361.163	411.56
361.39	403.56
361.616	396.56
361.843	399.56
362.07	387.56
362.296	402.56
362.523	389.56
362.749	401.56
362.976	373.56
363.203	375.56
363.429	372.56
363.656	383.56
363.882	393.56
364.109	404.56
364.335	355.56
364.562	374.56
364.788	376.56
365.015	370.56
365.241	388.56
365.468	396.56
365.694	391.56
365.92	371.56
366.147	373.56
366.373	377.56
366.599	361.56
366.826	373.56
367.052	383.56
367.278	390.56
367.505	379.56
367.731	401.56
367.957	387.56
368.184	375.56
368.41	372.56
368.636	388.56
368.862	390.56
369.089	376.56
369.315	374.56
369.541	368.56
369.767	368.56
369.993	380.56
370.219	371.56
370.445	351.56
370.672	368.56
370.898	370.56
371.124	378.56
371.35	384.56
371.576	368.56
371.802	363.56
372.028	356.56
372.254	366.56
372.48	375.56
372.706	372.56
372.932	366.56
373.158	361.56
373.384	372.56
373.61	382.56
373.835	355.56
374.061	363.56
374.287	386.56
374.513	382.56
374.739	376.56
374.965	356.56
375.191	383.56
375.416	363.56
375.642	381.56
375.868	363.56
376.094	376.56
376.319	370.56
376.545	375.56
376.771	341.56
376.997	368.56
377.222	346.56
377.448	384.56
377.674	368.56
377.899	341.56
378.125	354.56
378.35	348.56
378.576	358.56
378.802	374.56
379.027	376.56
379.253	376.56
379.478	355.56
379.704	367.56
379.929	344.56
380.155	360.56
380.38	357.56
380.606	377.56
380.831	375.56
381.057	370.56
381.282	357.56
381.507	361.56
381.733	376.56
381.958	362.56
382.184	374.56
382.409	375.56
382.634	360.56
382.86	369.56
383.085	376.56
383.31	374.56
383.535	350.56
383.761	368.56
383.986	353.56
384.211	380.56
384.436	384.56
384.662	374.56
384.887	400.56
385.112	388.56
385.337	392.56
385.562	392.56
385.787	388.56
386.013	384.56
386.238	362.56
386.463	393.56
386.688	388.56
386.913	384.56
387.138	372.56
387.363	374.56
387.588	370.56
387.813	389.56
388.038	382.56
388.263	376.56
388.488	378.56
388.713	393.56
388.938	382.56
389.163	396.56
389.387	379.56
389.612	394.56
389.837	397.56
390.062	381.56
390.287	372.56
390.512	385.56
390.736	390.56
390.961	393.56
391.186	386.56
391.411	361.56
391.636	380.56
391.86	380.56
392.085	381.56
392.31	370.56
392.534	389.56
392.759	388.56
392.984	375.56
393.208	372.56
393.433	377.56
393.658	384.56
393.882	378.56
394.107	368.56
394.331	373.56
394.556	377.56
394.78	371.56
395.005	388.56
395.229	391.56
395.454	401.56
395.678	382.56
395.903	394.56
396.127	424.56
396.352	417.56
396.576	394.56
396.801	391.56
397.025	374.56
397.249	403.56
397.474	388.56
397.698	423.56
397.922	412.56
398.147	416.56
398.371	437.56
398.595	398.56
398.82	439.56
399.044	413.56
399.268	450.56
399.492	455.56
399.717	473.56
399.941	469.56
400.165	517.56
400.389	533.56
400.613	471.56
400.837	475.56
401.062	411.56
401.286	404.56
401.51	383.56
401.734	428.56
401.958	438.56
402.182	414.56
402.406	431.56
402.63	428.56
402.854	438.56
403.078	416.56
403.302	447.56
403.526	440.56
403.75	446.56
403.974	432.56
404.198	435.56
404.422	443.56
404.645	460.56
404.869	451.56
405.093	478.56
405.317	508.56
405.541	525.56
405.765	487.56
405.988	440.56
406.212	470.56
406.436	481.56
406.66	498.56
406.883	489.56
407.107	496.56
407.331	523.56
407.555	552.56
407.778	573.56
408.002	526.56
408.226	472.56
408.449	461.56
408.673	496.56
408.896	501.56
409.12	509.56
409.344	526.56
409.567	474.56
409.791	438.56
410.014	428.56
410.238	434.56
410.461	462.56
410.685	457.56
410.908	461.56
411.132	491.56
411.355	513.56
411.578	500.56
411.802	435.56
412.025	440.56
412.249	426.56
412.472	443.56
412.695	510.56
412.919	490.56
413.142	429.56
413.365	425.56
413.589	433.56
413.812	428.56
414.035	408.56
414.258	383.56
414.482	435.56
414.705	421.56
414.928	405.56
415.151	409.56
415.374	406.56
415.597	388.56
415.821	408.56
416.044	429.56
416.267	413.56
416.49	412.56
416.713	396.56
416.936	391.56
417.159	405.56
417.382	406.56
417.605	404.56
417.828	418.56
418.051	437.56
418.274	446.56
418.497	410.56
418.72	407.56
418.943	434.56
419.166	418.56
419.389	446.56
419.611	439.56
419.834	417.56
420.057	468.56
420.28	449.56
420.503	420.56
420.726	443.56
420.948	438.56
421.171	473.56
421.394	509.56
421.617	465.56
421.839	434.56
422.062	432.56
422.285	442.56
422.507	477.56
422.73	549.56
422.953	540.56
423.175	454.56
423.398	461.56
423.621	463.56
423.843	467.56
424.066	476.56
424.288	472.56
424.511	473.56
424.733	532.56
424.956	587.56
425.178	587.56
425.401	567.56
425.623	572.56
425.846	494.56
426.068	468.56
426.291	477.56
426.513	457.56
426.735	482.56
426.958	513.56
427.18	596.56
427.402	658.56
427.625	749.56
427.847	660.56
428.069	568.56
428.292	514.56
428.514	477.56
428.736	469.56
428.958	445.56
429.181	427.56
429.403	414.56
429.625	453.56
429.847	472.56
430.069	523.56
430.292	531.56
430.514	446.56
430.736	422.56
430.958	397.56
431.18	407.56
431.402	398.56
431.624	408.56
431.846	421.56
432.068	388.56
432.29	410.56
432.512	435.56
432.734	404.56
432.956	398.56
433.178	404.56
433.4	410.56
433.622	412.56
433.844	397.56
434.066	390.56
434.287	386.56
434.509	404.56
434.731	401.56
434.953	430.56
435.175	416.56
435.397	456.56
435.618	466.56
435.84	499.56
436.062	596.56
436.284	633.56
436.505	534.56
436.727	476.56
436.949	454.56
437.17	428.56
437.392	432.56
437.614	432.56
437.835	452.56
438.057	548.56
438.278	631.56
438.5	663.56
438.721	683.56
438.943	660.56
439.165	520.56
439.386	486.56
439.608	486.56
439.829	469.56
440.05	492.56
440.272	541.56
440.493	471.56
440.715	466.56
440.936	432.56
441.158	441.56
441.379	434.56
441.6	438.56
441.822	470.56
442.043	505.56
442.264	562.56
442.486	578.56
442.707	492.56
442.928	474.56
443.149	502.56
443.371	522.56
443.592	532.56
443.813	625.56
444.034	648.56
444.255	535.56
444.476	502.56
444.698	476.56
444.919	467.56
445.14	569.56
445.361	536.56
445.582	514.56
445.803	568.56
446.024	635.56
446.245	640.56
446.466	596.56
446.687	494.56
446.908	481.56
447.129	442.56
447.35	436.56
447.571	436.56
447.792	442.56
448.013	449.56
448.234	435.56
448.455	485.56
448.675	614.56
448.896	699.56
449.117	570.56
449.338	533.56
449.559	628.56
449.779	688.56
450	590.56
450.221	489.56
450.442	434.56
450.662	408.56
450.883	432.56
451.104	432.56
451.324	430.56
451.545	421.56
451.766	390.56
451.986	393.56
452.207	389.56
452.428	378.56
452.648	389.56
452.869	386.56
453.089	398.56
453.31	402.56
453.53	371.56
453.751	380.56
453.971	377.56
454.192	390.56
454.412	406.56
454.633	383.56
454.853	376.56
455.073	378.56
455.294	391.56
455.514	456.56
455.734	453.56
455.955	397.56
456.175	378.56
456.395	352.56
456.616	351.56
456.836	358.56
457.056	355.56
457.276	346.56
457.497	363.56
457.717	347.56
457.937	355.56
458.157	366.56
458.377	373.56
458.598	376.56
458.818	422.56
459.038	486.56
459.258	516.56
459.478	447.56
459.698	386.56
459.918	394.56
460.138	391.56
460.358	384.56
460.578	394.56
460.798	403.56
461.018	410.56
461.238	389.56
461.458	409.56
461.678	399.56
461.898	402.56
462.118	420.56
462.338	410.56
462.558	406.56
462.777	399.56
462.997	401.56
463.217	430.56
463.437	430.56
463.657	439.56
463.876	387.56
464.096	411.56
464.316	404.56
464.536	438.56
464.755	436.56
464.975	429.56
465.195	468.56
465.414	510.56
465.634	476.56
465.854	418.56
466.073	404.56
466.293	396.56
466.512	386.56
466.732	380.56
466.951	404.56
467.171	406.56
467.391	378.56
467.61	397.56
467.829	395.56
468.049	396.56
468.268	396.56
468.488	384.56
468.707	377.56
468.927	364.56
469.146	365.56
469.365	377.56
469.585	388.56
469.804	407.56
470.023	393.56
470.243	378.56
470.462	408.56
470.681	415.56
470.901	409.56
471.12	403.56
471.339	365.56
471.558	386.56
471.777	407.56
471.997	385.56
472.216	398.56
472.435	402.56
472.654	386.56
472.873	382.56
473.092	387.56
473.311	385.56
473.53	396.56
473.749	412.56
473.968	441.56
474.187	522.56
474.406	544.56
474.625	433.56
474.844	394.56
475.063	408.56
475.282	405.56
475.501	384.56
475.72	397.56
475.939	413.56
476.158	393.56
476.377	412.56
476.596	398.56
476.814	407.56
477.033	400.56
477.252	407.56
477.471	429.56
477.69	407.56
477.908	404.56
478.127	417.56
478.346	420.56
478.564	415.56
478.783	427.56
479.002	426.56
479.22	432.56
479.439	448.56
479.658	468.56
479.876	451.56
480.095	448.56
480.313	483.56
480.532	482.56
480.751	451.56
480.969	465.56
481.188	518.56
481.406	544.56
481.624	485.56
481.843	474.56
482.061	436.56
482.28	459.56
482.498	444.56
482.717	441.56
482.935	439.56
483.153	452.56
483.372	464.56
483.59	452.56
483.808	450.56
484.027	458.56
484.245	444.56
484.463	454.56
484.681	462.56
484.9	460.56
485.118	473.56
485.336	468.56
485.554	464.56
485.772	451.56
485.99	454.56
486.209	480.56
486.427	487.56
486.645	498.56
486.863	499.56
487.081	490.56
487.299	492.56
487.517	482.56
487.735	483.56
487.953	500.56
488.171	500.56
488.389	480.56
488.607	500.56
488.825	472.56
489.043	457.56
489.261	480.56
489.479	497.56
489.696	500.56
489.914	497.56
490.132	500.56
490.35	506.56
490.568	492.56
490.786	532.56
491.003	518.56
491.221	548.56
491.439	557.56
491.657	551.56
491.874	572.56
492.092	568.56
492.31	568.56
492.527	564.56
492.745	581.56
492.963	575.56
493.18	572.56
493.398	586.56
493.615	594.56
493.833	587.56
494.05	557.56
494.268	592.56
494.485	573.56
494.703	574.56
494.92	606.56
495.138	572.56
495.355	593.56
495.573	571.56
495.79	605.56
496.008	595.56
496.225	550.56
496.442	590.56
496.66	580.56
496.877	595.56
497.094	608.56
497.312	569.56
497.529	573.56
497.746	605.56
497.963	600.56
498.181	631.56
498.398	635.56
498.615	611.56
498.832	624.56
499.049	646.56
499.267	648.56
499.484	658.56
499.701	664.56
499.918	713.56
500.135	734.56
500.352	755.56
500.569	762.56
500.786	772.56
501.003	756.56
501.22	748.56
501.437	735.56
501.654	712.56
501.871	728.56
502.088	662.56
