Data from 1971.PennyLincolnUp.Lamp.En5.5.200Scan.071719.P1.Scan 2. Changed Angle._HRD10591_15-22-23-842.txt Node
Date: Thu Jul 18 15:22:23 EDT 2019
User: cochatt
Spectrometer: HR+D1059
Trigger mode: 1
Integration Time (sec): 1.000000E-1
Scans to average: 1
Electric dark correction enabled: true
Nonlinearity correction enabled: false
Boxcar width: 0
XAxis mode: Wavelengths
Number of Pixels in Spectrum: 2048
>>>>>Begin Spectral Data<<<<<
223.165	-14.88
223.4	-14.88
223.635	-14.88
223.869	-11.88
224.104	-27.88
224.338	-16.88
224.573	-14.88
224.808	-8.88
225.042	-11.88
225.277	-9.88
225.511	-7.88
225.746	14.12
225.98	13.12
226.215	8.12
226.449	21.12
226.683	23.12
226.918	23.12
227.152	22.12
227.387	39.12
227.621	33.12
227.856	50.12
228.09	52.12
228.324	44.12
228.559	37.12
228.793	73.12
229.027	85.12
229.262	116.12
229.496	128.12
229.73	149.12
229.964	210.12
230.199	144.12
230.433	138.12
230.667	125.12
230.901	110.12
231.136	123.12
231.37	110.12
231.604	119.12
231.838	116.12
232.072	105.12
232.306	116.12
232.541	121.12
232.775	111.12
233.009	118.12
233.243	113.12
233.477	119.12
233.711	118.12
233.945	120.12
234.179	102.12
234.413	122.12
234.647	125.12
234.881	105.12
235.115	131.12
235.349	125.12
235.583	128.12
235.817	129.12
236.051	129.12
236.285	121.12
236.519	144.12
236.753	135.12
236.987	154.12
237.221	199.12
237.455	256.12
237.689	204.12
237.922	140.12
238.156	139.12
238.39	133.12
238.624	127.12
238.858	134.12
239.091	115.12
239.325	126.12
239.559	128.12
239.793	126.12
240.027	143.12
240.26	138.12
240.494	182.12
240.728	164.12
240.961	152.12
241.195	153.12
241.429	145.12
241.662	117.12
241.896	134.12
242.13	142.12
242.363	127.12
242.597	137.12
242.83	142.12
243.064	142.12
243.298	141.12
243.531	143.12
243.765	127.12
243.998	143.12
244.232	134.12
244.465	130.12
244.699	133.12
244.932	143.12
245.166	146.12
245.399	159.12
245.633	155.12
245.866	158.12
246.099	149.12
246.333	158.12
246.566	167.12
246.8	149.12
247.033	159.12
247.266	156.12
247.5	152.12
247.733	175.12
247.966	187.12
248.2	180.12
248.433	188.12
248.666	175.12
248.899	195.12
249.133	216.12
249.366	226.12
249.599	217.12
249.832	190.12
250.066	175.12
250.299	177.12
250.532	194.12
250.765	199.12
250.998	231.12
251.231	242.12
251.465	223.12
251.698	213.12
251.931	203.12
252.164	198.12
252.397	200.12
252.63	215.12
252.863	217.12
253.096	225.12
253.329	237.12
253.562	211.12
253.795	232.12
254.028	225.12
254.261	220.12
254.494	235.12
254.727	286.12
254.96	314.12
255.193	280.12
255.426	241.12
255.659	232.12
255.892	234.12
256.124	222.12
256.357	219.12
256.59	217.12
256.823	201.12
257.056	195.12
257.289	216.12
257.521	198.12
257.754	213.12
257.987	209.12
258.22	221.12
258.452	196.12
258.685	188.12
258.918	206.12
259.151	212.12
259.383	225.12
259.616	220.12
259.849	214.12
260.081	231.12
260.314	252.12
260.547	258.12
260.779	263.12
261.012	233.12
261.244	234.12
261.477	240.12
261.71	234.12
261.942	236.12
262.175	247.12
262.407	244.12
262.64	230.12
262.872	233.12
263.105	196.12
263.337	219.12
263.57	210.12
263.802	214.12
264.035	210.12
264.267	202.12
264.499	207.12
264.732	225.12
264.964	211.12
265.197	207.12
265.429	213.12
265.661	184.12
265.894	206.12
266.126	203.12
266.358	210.12
266.591	196.12
266.823	197.12
267.055	224.12
267.287	241.12
267.52	206.12
267.752	223.12
267.984	232.12
268.216	223.12
268.448	234.12
268.681	218.12
268.913	251.12
269.145	256.12
269.377	278.12
269.609	268.12
269.841	264.12
270.073	261.12
270.306	271.12
270.538	318.12
270.77	324.12
271.002	311.12
271.234	306.12
271.466	308.12
271.698	311.12
271.93	304.12
272.162	326.12
272.394	328.12
272.626	314.12
272.858	290.12
273.09	267.12
273.322	260.12
273.553	258.12
273.785	276.12
274.017	273.12
274.249	272.12
274.481	240.12
274.713	263.12
274.945	267.12
275.176	252.12
275.408	268.12
275.64	261.12
275.872	270.12
276.104	268.12
276.335	260.12
276.567	283.12
276.799	280.12
277.031	320.12
277.262	318.12
277.494	317.12
277.726	309.12
277.957	272.12
278.189	282.12
278.421	270.12
278.652	302.12
278.884	264.12
279.115	274.12
279.347	281.12
279.579	316.12
279.81	340.12
280.042	327.12
280.273	294.12
280.505	304.12
280.736	280.12
280.968	260.12
281.199	250.12
281.431	250.12
281.662	239.12
281.894	252.12
282.125	274.12
282.356	280.12
282.588	314.12
282.819	329.12
283.051	281.12
283.282	257.12
283.513	265.12
283.745	267.12
283.976	282.12
284.207	269.12
284.439	289.12
284.67	274.12
284.901	262.12
285.132	280.12
285.364	283.12
285.595	270.12
285.826	273.12
286.057	265.12
286.288	270.12
286.52	277.12
286.751	264.12
286.982	255.12
287.213	260.12
287.444	272.12
287.675	254.12
287.906	302.12
288.138	282.12
288.369	284.12
288.6	287.12
288.831	292.12
289.062	273.12
289.293	278.12
289.524	280.12
289.755	281.12
289.986	285.12
290.217	264.12
290.448	252.12
290.679	277.12
290.91	289.12
291.141	257.12
291.371	272.12
291.602	261.12
291.833	260.12
292.064	269.12
292.295	249.12
292.526	274.12
292.757	253.12
292.987	286.12
293.218	276.12
293.449	266.12
293.68	262.12
293.91	283.12
294.141	277.12
294.372	268.12
294.603	292.12
294.833	291.12
295.064	280.12
295.295	270.12
295.525	265.12
295.756	277.12
295.987	276.12
296.217	329.12
296.448	340.12
296.679	287.12
296.909	266.12
297.14	266.12
297.37	272.12
297.601	275.12
297.831	273.12
298.062	288.12
298.292	270.12
298.523	285.12
298.753	278.12
298.984	281.12
299.214	273.12
299.445	290.12
299.675	289.12
299.905	306.12
300.136	290.12
300.366	280.12
300.597	306.12
300.827	311.12
301.057	290.12
301.288	309.12
301.518	302.12
301.748	305.12
301.979	314.12
302.209	314.12
302.439	316.12
302.669	319.12
302.9	321.12
303.13	314.12
303.36	323.12
303.59	290.12
303.82	322.12
304.051	310.12
304.281	291.12
304.511	297.12
304.741	290.12
304.971	296.12
305.201	286.12
305.431	297.12
305.661	295.12
305.891	286.12
306.121	301.12
306.352	300.12
306.582	312.12
306.812	320.12
307.042	306.12
307.272	316.12
307.502	312.12
307.731	332.12
307.961	313.12
308.191	294.12
308.421	306.12
308.651	313.12
308.881	311.12
309.111	321.12
309.341	324.12
309.571	350.12
309.8	361.12
310.03	372.12
310.26	388.12
310.49	379.12
310.72	384.12
310.949	393.12
311.179	425.12
311.409	375.12
311.639	386.12
311.868	389.12
312.098	367.12
312.328	384.12
312.557	408.12
312.787	406.12
313.017	422.12
313.246	402.12
313.476	350.12
313.706	377.12
313.935	390.12
314.165	381.12
314.394	394.12
314.624	398.12
314.853	378.12
315.083	372.12
315.312	375.12
315.542	365.12
315.771	367.12
316.001	378.12
316.23	392.12
316.46	398.12
316.689	372.12
316.919	390.12
317.148	402.12
317.377	389.12
317.607	413.12
317.836	420.12
318.065	435.12
318.295	460.12
318.524	429.12
318.753	382.12
318.983	394.12
319.212	379.12
319.441	383.12
319.67	392.12
319.9	382.12
320.129	371.12
320.358	380.12
320.587	369.12
320.816	392.12
321.046	400.12
321.275	399.12
321.504	399.12
321.733	408.12
321.962	416.12
322.191	408.12
322.42	464.12
322.649	446.12
322.878	456.12
323.108	496.12
323.337	535.12
323.566	568.12
323.795	623.12
324.024	694.12
324.253	875.12
324.482	1336.12
324.71	2211.12
324.939	3299.12
325.168	2838.12
325.397	1344.12
325.626	829.12
325.855	626.12
326.084	570.12
326.313	540.12
326.542	548.12
326.77	629.12
326.999	787.12
327.228	1164.12
327.457	1938.12
327.686	2539.12
327.914	1607.12
328.143	949.12
328.372	801.12
328.6	733.12
328.829	641.12
329.058	680.12
329.287	710.12
329.515	612.12
329.744	556.12
329.972	528.12
330.201	523.12
330.43	597.12
330.658	664.12
330.887	722.12
331.115	681.12
331.344	569.12
331.572	542.12
331.801	508.12
332.03	497.12
332.258	483.12
332.486	457.12
332.715	437.12
332.943	422.12
333.172	445.12
333.4	435.12
333.629	432.12
333.857	442.12
334.085	460.12
334.314	466.12
334.542	486.12
334.771	494.12
334.999	458.12
335.227	443.12
335.455	448.12
335.684	423.12
335.912	424.12
336.14	412.12
336.369	423.12
336.597	425.12
336.825	457.12
337.053	399.12
337.281	412.12
337.51	414.12
337.738	415.12
337.966	445.12
338.194	442.12
338.422	457.12
338.65	467.12
338.878	424.12
339.106	405.12
339.334	402.12
339.562	388.12
339.79	411.12
340.018	428.12
340.246	413.12
340.474	421.12
340.702	428.12
340.93	410.12
341.158	398.12
341.386	405.12
341.614	401.12
341.842	418.12
342.07	428.12
342.298	411.12
342.526	385.12
342.754	390.12
342.981	388.12
343.209	381.12
343.437	391.12
343.665	400.12
343.893	414.12
344.12	404.12
344.348	387.12
344.576	401.12
344.804	421.12
345.031	445.12
345.259	432.12
345.487	460.12
345.714	426.12
345.942	415.12
346.17	424.12
346.397	411.12
346.625	414.12
346.853	383.12
347.08	417.12
347.308	414.12
347.535	417.12
347.763	437.12
347.99	427.12
348.218	436.12
348.445	461.12
348.673	442.12
348.9	424.12
349.128	404.12
349.355	391.12
349.583	400.12
349.81	383.12
350.037	384.12
350.265	393.12
350.492	407.12
350.72	385.12
350.947	416.12
351.174	426.12
351.402	421.12
351.629	449.12
351.856	444.12
352.083	464.12
352.311	446.12
352.538	457.12
352.765	444.12
352.992	442.12
353.22	438.12
353.447	415.12
353.674	420.12
353.901	386.12
354.128	400.12
354.355	385.12
354.583	404.12
354.81	393.12
355.037	373.12
355.264	361.12
355.491	372.12
355.718	367.12
355.945	376.12
356.172	373.12
356.399	366.12
356.626	398.12
356.853	374.12
357.08	376.12
357.307	366.12
357.534	352.12
357.761	352.12
357.988	370.12
358.215	383.12
358.441	394.12
358.668	385.12
358.895	398.12
359.122	400.12
359.349	404.12
359.576	428.12
359.802	446.12
360.029	507.12
360.256	558.12
360.483	513.12
360.709	443.12
360.936	420.12
361.163	432.12
361.39	430.12
361.616	449.12
361.843	400.12
362.07	429.12
362.296	424.12
362.523	410.12
362.749	433.12
362.976	424.12
363.203	399.12
363.429	407.12
363.656	416.12
363.882	406.12
364.109	400.12
364.335	400.12
364.562	411.12
364.788	410.12
365.015	398.12
365.241	389.12
365.468	420.12
365.694	418.12
365.92	416.12
366.147	405.12
366.373	381.12
366.599	396.12
366.826	383.12
367.052	378.12
367.278	393.12
367.505	387.12
367.731	387.12
367.957	389.12
368.184	383.12
368.41	397.12
368.636	402.12
368.862	398.12
369.089	385.12
369.315	392.12
369.541	396.12
369.767	383.12
369.993	390.12
370.219	396.12
370.445	383.12
370.672	390.12
370.898	395.12
371.124	404.12
371.35	396.12
371.576	390.12
371.802	370.12
372.028	378.12
372.254	376.12
372.48	363.12
372.706	374.12
372.932	389.12
373.158	407.12
373.384	387.12
373.61	379.12
373.835	409.12
374.061	412.12
374.287	391.12
374.513	410.12
374.739	393.12
374.965	408.12
375.191	390.12
375.416	398.12
375.642	390.12
375.868	387.12
376.094	394.12
376.319	396.12
376.545	385.12
376.771	374.12
376.997	371.12
377.222	377.12
377.448	397.12
377.674	389.12
377.899	387.12
378.125	352.12
378.35	376.12
378.576	378.12
378.802	390.12
379.027	386.12
379.253	380.12
379.478	384.12
379.704	389.12
379.929	372.12
380.155	378.12
380.38	378.12
380.606	391.12
380.831	380.12
381.057	395.12
381.282	395.12
381.507	416.12
381.733	410.12
381.958	395.12
382.184	398.12
382.409	406.12
382.634	415.12
382.86	412.12
383.085	396.12
383.31	407.12
383.535	402.12
383.761	396.12
383.986	386.12
384.211	407.12
384.436	419.12
384.662	429.12
384.887	452.12
385.112	441.12
385.337	436.12
385.562	452.12
385.787	426.12
386.013	429.12
386.238	456.12
386.463	463.12
386.688	440.12
386.913	432.12
387.138	425.12
387.363	425.12
387.588	411.12
387.813	428.12
388.038	425.12
388.263	448.12
388.488	446.12
388.713	425.12
388.938	406.12
389.163	428.12
389.387	410.12
389.612	417.12
389.837	400.12
390.062	418.12
390.287	415.12
390.512	407.12
390.736	398.12
390.961	414.12
391.186	407.12
391.411	431.12
391.636	431.12
391.86	452.12
392.085	445.12
392.31	441.12
392.534	475.12
392.759	520.12
392.984	587.12
393.208	803.12
393.433	1261.12
393.658	1420.12
393.882	780.12
394.107	518.12
394.331	475.12
394.556	479.12
394.78	473.12
395.005	439.12
395.229	437.12
395.454	460.12
395.678	459.12
395.903	473.12
396.127	523.12
396.352	552.12
396.576	591.12
396.801	771.12
397.025	1067.12
397.249	827.12
397.474	526.12
397.698	475.12
397.922	480.12
398.147	497.12
398.371	464.12
398.595	471.12
398.82	474.12
399.044	472.12
399.268	488.12
399.492	488.12
399.717	533.12
399.941	552.12
400.165	558.12
400.389	588.12
400.613	538.12
400.837	537.12
401.062	490.12
401.286	477.12
401.51	484.12
401.734	470.12
401.958	470.12
402.182	500.12
402.406	481.12
402.63	516.12
402.854	506.12
403.078	494.12
403.302	514.12
403.526	515.12
403.75	504.12
403.974	492.12
404.198	488.12
404.422	499.12
404.645	520.12
404.869	516.12
405.093	522.12
405.317	570.12
405.541	617.12
405.765	557.12
405.988	524.12
406.212	557.12
406.436	589.12
406.66	605.12
406.883	559.12
407.107	601.12
407.331	616.12
407.555	692.12
407.778	680.12
408.002	620.12
408.226	570.12
408.449	545.12
408.673	570.12
408.896	608.12
409.12	634.12
409.344	595.12
409.567	538.12
409.791	526.12
410.014	508.12
410.238	497.12
410.461	488.12
410.685	507.12
410.908	536.12
411.132	583.12
411.355	623.12
411.578	584.12
411.802	516.12
412.025	505.12
412.249	494.12
412.472	540.12
412.695	555.12
412.919	528.12
413.142	505.12
413.365	491.12
413.589	477.12
413.812	484.12
414.035	467.12
414.258	468.12
414.482	460.12
414.705	472.12
414.928	466.12
415.151	461.12
415.374	475.12
415.597	470.12
415.821	475.12
416.044	475.12
416.267	504.12
416.49	489.12
416.713	454.12
416.936	468.12
417.159	488.12
417.382	480.12
417.605	501.12
417.828	512.12
418.051	518.12
418.274	519.12
418.497	478.12
418.72	476.12
418.943	466.12
419.166	489.12
419.389	521.12
419.611	503.12
419.834	510.12
420.057	521.12
420.28	515.12
420.503	493.12
420.726	485.12
420.948	511.12
421.171	586.12
421.394	599.12
421.617	529.12
421.839	520.12
422.062	526.12
422.285	527.12
422.507	581.12
422.73	767.12
422.953	766.12
423.175	596.12
423.398	552.12
423.621	541.12
423.843	557.12
424.066	549.12
424.288	561.12
424.511	569.12
424.733	653.12
424.956	724.12
425.178	693.12
425.401	714.12
425.623	708.12
425.846	622.12
426.068	578.12
426.291	559.12
426.513	590.12
426.735	572.12
426.958	632.12
427.18	713.12
427.402	884.12
427.625	973.12
427.847	915.12
428.069	756.12
428.292	641.12
428.514	606.12
428.736	576.12
428.958	536.12
429.181	524.12
429.403	526.12
429.625	538.12
429.847	577.12
430.069	665.12
430.292	666.12
430.514	575.12
430.736	518.12
430.958	518.12
431.18	508.12
431.402	486.12
431.624	493.12
431.846	479.12
432.068	481.12
432.29	478.12
432.512	494.12
432.734	489.12
432.956	474.12
433.178	527.12
433.4	528.12
433.622	505.12
433.844	477.12
434.066	480.12
434.287	468.12
434.509	497.12
434.731	483.12
434.953	496.12
435.175	516.12
435.397	549.12
435.618	578.12
435.84	630.12
436.062	742.12
436.284	791.12
436.505	651.12
436.727	590.12
436.949	560.12
437.17	557.12
437.392	538.12
437.614	550.12
437.835	604.12
438.057	746.12
438.278	844.12
438.5	823.12
438.721	866.12
438.943	841.12
439.165	656.12
439.386	604.12
439.608	621.12
439.829	622.12
440.05	667.12
440.272	742.12
440.493	673.12
440.715	581.12
440.936	556.12
441.158	539.12
441.379	544.12
441.6	543.12
441.822	575.12
442.043	626.12
442.264	703.12
442.486	767.12
442.707	678.12
442.928	598.12
443.149	623.12
443.371	638.12
443.592	664.12
443.813	779.12
444.034	836.12
444.255	684.12
444.476	631.12
444.698	582.12
444.919	586.12
445.14	681.12
445.361	609.12
445.582	645.12
445.803	741.12
446.024	868.12
446.245	861.12
446.466	798.12
446.687	659.12
446.908	582.12
447.129	550.12
447.35	564.12
447.571	529.12
447.792	526.12
448.013	534.12
448.234	571.12
448.455	604.12
448.675	773.12
448.896	866.12
449.117	726.12
449.338	680.12
449.559	792.12
449.779	908.12
450	712.12
450.221	613.12
450.442	561.12
450.662	555.12
450.883	583.12
451.104	601.12
451.324	596.12
451.545	560.12
451.766	530.12
451.986	493.12
452.207	479.12
452.428	469.12
452.648	485.12
452.869	493.12
453.089	494.12
453.31	520.12
453.53	517.12
453.751	497.12
453.971	511.12
454.192	546.12
454.412	531.12
454.633	505.12
454.853	499.12
455.073	480.12
455.294	507.12
455.514	599.12
455.734	578.12
455.955	479.12
456.175	489.12
456.395	446.12
456.616	446.12
456.836	461.12
457.056	442.12
457.276	433.12
457.497	456.12
457.717	441.12
457.937	443.12
458.157	449.12
458.377	475.12
458.598	522.12
458.818	602.12
459.038	744.12
459.258	734.12
459.478	584.12
459.698	542.12
459.918	510.12
460.138	479.12
460.358	493.12
460.578	496.12
460.798	498.12
461.018	500.12
461.238	504.12
461.458	498.12
461.678	488.12
461.898	479.12
462.118	485.12
462.338	483.12
462.558	481.12
462.777	488.12
462.997	504.12
463.217	497.12
463.437	520.12
463.657	509.12
463.876	498.12
464.096	512.12
464.316	509.12
464.536	545.12
464.755	565.12
464.975	558.12
465.195	633.12
465.414	806.12
465.634	676.12
465.854	618.12
466.073	541.12
466.293	533.12
466.512	502.12
466.732	505.12
466.951	477.12
467.171	495.12
467.391	506.12
467.61	520.12
467.829	528.12
468.049	522.12
468.268	483.12
468.488	494.12
468.707	502.12
468.927	484.12
469.146	462.12
469.365	454.12
469.585	444.12
469.804	522.12
470.023	521.12
470.243	511.12
470.462	527.12
470.681	531.12
470.901	541.12
471.12	499.12
471.339	495.12
471.558	493.12
471.777	481.12
471.997	493.12
472.216	481.12
472.435	528.12
472.654	500.12
472.873	482.12
473.092	482.12
473.311	481.12
473.53	472.12
473.749	497.12
473.968	563.12
474.187	672.12
474.406	681.12
474.625	569.12
474.844	516.12
475.063	484.12
475.282	502.12
475.501	500.12
475.72	487.12
475.939	513.12
476.158	504.12
476.377	518.12
476.596	519.12
476.814	531.12
477.033	551.12
477.252	533.12
477.471	529.12
477.69	541.12
477.908	530.12
478.127	548.12
478.346	538.12
478.564	548.12
478.783	567.12
479.002	557.12
479.22	574.12
479.439	589.12
479.658	622.12
479.876	608.12
480.095	613.12
480.313	634.12
480.532	612.12
480.751	609.12
480.969	615.12
481.188	676.12
481.406	690.12
481.624	633.12
481.843	612.12
482.061	600.12
482.28	590.12
482.498	583.12
482.717	604.12
482.935	586.12
483.153	588.12
483.372	594.12
483.59	607.12
483.808	590.12
484.027	578.12
484.245	582.12
484.463	603.12
484.681	622.12
484.9	623.12
485.118	594.12
485.336	592.12
485.554	594.12
485.772	581.12
485.99	605.12
486.209	621.12
486.427	606.12
486.645	639.12
486.863	676.12
487.081	673.12
487.299	653.12
487.517	638.12
487.735	629.12
487.953	664.12
488.171	650.12
488.389	645.12
488.607	640.12
488.825	644.12
489.043	627.12
489.261	640.12
489.479	625.12
489.696	628.12
489.914	642.12
490.132	632.12
490.35	648.12
490.568	657.12
490.786	673.12
491.003	686.12
491.221	702.12
491.439	735.12
491.657	725.12
491.874	731.12
492.092	713.12
492.31	743.12
492.527	745.12
492.745	754.12
492.963	735.12
493.18	753.12
493.398	738.12
493.615	742.12
493.833	747.12
494.05	778.12
494.268	753.12
494.485	740.12
494.703	749.12
494.92	755.12
495.138	748.12
495.355	753.12
495.573	763.12
495.79	761.12
496.008	764.12
496.225	757.12
496.442	755.12
496.66	772.12
496.877	762.12
497.094	750.12
497.312	763.12
497.529	756.12
497.746	765.12
497.963	805.12
498.181	802.12
498.398	818.12
498.615	817.12
498.832	817.12
499.049	818.12
499.267	852.12
499.484	825.12
499.701	859.12
499.918	885.12
500.135	904.12
500.352	903.12
500.569	926.12
500.786	936.12
501.003	911.12
501.22	936.12
501.437	916.12
