Data from 1971.PennyLincolnUp.Lamp.En5.5.200Scan.071719.P1.Scan 2. Changed Angle._HRD10591_15-25-15-842.txt Node
Date: Thu Jul 18 15:25:15 EDT 2019
User: cochatt
Spectrometer: HR+D1059
Trigger mode: 1
Integration Time (sec): 1.000000E-1
Scans to average: 1
Electric dark correction enabled: true
Nonlinearity correction enabled: false
Boxcar width: 0
XAxis mode: Wavelengths
Number of Pixels in Spectrum: 2048
>>>>>Begin Spectral Data<<<<<
223.165	-1.19
223.4	-1.19
223.635	-1.19
223.869	-16.19
224.104	-15.19
224.338	-22.19
224.573	-3.19
224.808	-9.19
225.042	-12.19
225.277	-14.19
225.511	-10.19
225.746	-4.19
225.98	6.81
226.215	4.81
226.449	13.81
226.683	19.81
226.918	25.81
227.152	36.81
227.387	33.81
227.621	28.81
227.856	36.81
228.09	40.81
228.324	54.81
228.559	49.81
228.793	78.81
229.027	104.81
229.262	128.81
229.496	108.81
229.73	160.81
229.964	178.81
230.199	146.81
230.433	127.81
230.667	124.81
230.901	122.81
231.136	131.81
231.37	132.81
231.604	119.81
231.838	115.81
232.072	98.81
232.306	107.81
232.541	128.81
232.775	119.81
233.009	126.81
233.243	128.81
233.477	106.81
233.711	120.81
233.945	112.81
234.179	121.81
234.413	120.81
234.647	107.81
234.881	116.81
235.115	115.81
235.349	120.81
235.583	128.81
235.817	130.81
236.051	131.81
236.285	150.81
236.519	124.81
236.753	137.81
236.987	158.81
237.221	201.81
237.455	288.81
237.689	218.81
237.922	159.81
238.156	141.81
238.39	134.81
238.624	136.81
238.858	131.81
239.091	131.81
239.325	123.81
239.559	121.81
239.793	137.81
240.027	151.81
240.26	164.81
240.494	204.81
240.728	171.81
240.961	160.81
241.195	158.81
241.429	138.81
241.662	137.81
241.896	149.81
242.13	150.81
242.363	146.81
242.597	127.81
242.83	140.81
243.064	144.81
243.298	154.81
243.531	138.81
243.765	135.81
243.998	140.81
244.232	144.81
244.465	163.81
244.699	160.81
244.932	144.81
245.166	140.81
245.399	164.81
245.633	162.81
245.866	162.81
246.099	153.81
246.333	158.81
246.566	159.81
246.8	161.81
247.033	155.81
247.266	162.81
247.5	185.81
247.733	168.81
247.966	179.81
248.2	190.81
248.433	174.81
248.666	182.81
248.899	209.81
249.133	225.81
249.366	233.81
249.599	226.81
249.832	199.81
250.066	192.81
250.299	196.81
250.532	208.81
250.765	215.81
250.998	246.81
251.231	258.81
251.465	245.81
251.698	225.81
251.931	218.81
252.164	213.81
252.397	223.81
252.63	225.81
252.863	231.81
253.096	237.81
253.329	250.81
253.562	229.81
253.795	243.81
254.028	234.81
254.261	244.81
254.494	247.81
254.727	283.81
254.96	313.81
255.193	328.81
255.426	282.81
255.659	258.81
255.892	260.81
256.124	264.81
256.357	256.81
256.59	226.81
256.823	236.81
257.056	240.81
257.289	232.81
257.521	221.81
257.754	222.81
257.987	220.81
258.22	231.81
258.452	212.81
258.685	219.81
258.918	213.81
259.151	239.81
259.383	233.81
259.616	225.81
259.849	221.81
260.081	262.81
260.314	278.81
260.547	276.81
260.779	258.81
261.012	252.81
261.244	251.81
261.477	251.81
261.71	236.81
261.942	242.81
262.175	268.81
262.407	261.81
262.64	226.81
262.872	237.81
263.105	234.81
263.337	215.81
263.57	214.81
263.802	219.81
264.035	205.81
264.267	204.81
264.499	207.81
264.732	215.81
264.964	215.81
265.197	224.81
265.429	209.81
265.661	210.81
265.894	238.81
266.126	230.81
266.358	222.81
266.591	219.81
266.823	204.81
267.055	227.81
267.287	239.81
267.52	222.81
267.752	245.81
267.984	234.81
268.216	226.81
268.448	240.81
268.681	236.81
268.913	254.81
269.145	287.81
269.377	295.81
269.609	291.81
269.841	283.81
270.073	282.81
270.306	308.81
270.538	326.81
270.77	339.81
271.002	313.81
271.234	318.81
271.466	316.81
271.698	354.81
271.93	370.81
272.162	366.81
272.394	340.81
272.626	335.81
272.858	314.81
273.09	314.81
273.322	291.81
273.553	283.81
273.785	273.81
274.017	262.81
274.249	284.81
274.481	285.81
274.713	275.81
274.945	279.81
275.176	258.81
275.408	275.81
275.64	283.81
275.872	279.81
276.104	272.81
276.335	270.81
276.567	278.81
276.799	290.81
277.031	330.81
277.262	344.81
277.494	348.81
277.726	316.81
277.957	310.81
278.189	281.81
278.421	284.81
278.652	276.81
278.884	277.81
279.115	274.81
279.347	275.81
279.579	279.81
279.81	276.81
280.042	270.81
280.273	268.81
280.505	279.81
280.736	275.81
280.968	265.81
281.199	243.81
281.431	272.81
281.662	259.81
281.894	260.81
282.125	269.81
282.356	291.81
282.588	308.81
282.819	329.81
283.051	276.81
283.282	278.81
283.513	254.81
283.745	266.81
283.976	271.81
284.207	283.81
284.439	264.81
284.67	277.81
284.901	281.81
285.132	294.81
285.364	265.81
285.595	275.81
285.826	269.81
286.057	273.81
286.288	279.81
286.52	260.81
286.751	276.81
286.982	279.81
287.213	258.81
287.444	270.81
287.675	292.81
287.906	291.81
288.138	312.81
288.369	296.81
288.6	291.81
288.831	282.81
289.062	300.81
289.293	279.81
289.524	288.81
289.755	298.81
289.986	275.81
290.217	277.81
290.448	275.81
290.679	281.81
290.91	267.81
291.141	292.81
291.371	279.81
291.602	278.81
291.833	278.81
292.064	266.81
292.295	286.81
292.526	291.81
292.757	274.81
292.987	292.81
293.218	299.81
293.449	287.81
293.68	291.81
293.91	286.81
294.141	280.81
294.372	285.81
294.603	287.81
294.833	262.81
295.064	297.81
295.295	283.81
295.525	280.81
295.756	271.81
295.987	287.81
296.217	337.81
296.448	345.81
296.679	327.81
296.909	285.81
297.14	282.81
297.37	288.81
297.601	288.81
297.831	279.81
298.062	303.81
298.292	290.81
298.523	300.81
298.753	275.81
298.984	289.81
299.214	290.81
299.445	297.81
299.675	293.81
299.905	307.81
300.136	304.81
300.366	298.81
300.597	305.81
300.827	298.81
301.057	322.81
301.288	332.81
301.518	331.81
301.748	312.81
301.979	322.81
302.209	339.81
302.439	328.81
302.669	330.81
302.9	319.81
303.13	330.81
303.36	324.81
303.59	313.81
303.82	334.81
304.051	339.81
304.281	318.81
304.511	308.81
304.741	306.81
304.971	320.81
305.201	324.81
305.431	320.81
305.661	322.81
305.891	305.81
306.121	323.81
306.352	344.81
306.582	332.81
306.812	320.81
307.042	329.81
307.272	330.81
307.502	310.81
307.731	336.81
307.961	317.81
308.191	305.81
308.421	326.81
308.651	327.81
308.881	352.81
309.111	346.81
309.341	341.81
309.571	355.81
309.8	376.81
310.03	378.81
310.26	393.81
310.49	385.81
310.72	395.81
310.949	407.81
311.179	433.81
311.409	403.81
311.639	384.81
311.868	379.81
312.098	403.81
312.328	398.81
312.557	408.81
312.787	454.81
313.017	426.81
313.246	416.81
313.476	406.81
313.706	379.81
313.935	422.81
314.165	423.81
314.394	444.81
314.624	408.81
314.853	412.81
315.083	391.81
315.312	402.81
315.542	394.81
315.771	375.81
316.001	372.81
316.23	350.81
316.46	378.81
316.689	357.81
316.919	382.81
317.148	397.81
317.377	424.81
317.607	402.81
317.836	412.81
318.065	403.81
318.295	400.81
318.524	386.81
318.753	368.81
318.983	397.81
319.212	397.81
319.441	407.81
319.67	422.81
319.9	385.81
320.129	390.81
320.358	389.81
320.587	377.81
320.816	419.81
321.046	418.81
321.275	421.81
321.504	414.81
321.733	401.81
321.962	419.81
322.191	457.81
322.42	463.81
322.649	492.81
322.878	498.81
323.108	518.81
323.337	548.81
323.566	558.81
323.795	620.81
324.024	715.81
324.253	826.81
324.482	1275.81
324.71	1983.81
324.939	2871.81
325.168	2473.81
325.397	1292.81
325.626	828.81
325.855	655.81
326.084	581.81
326.313	554.81
326.542	590.81
326.77	649.81
326.999	792.81
327.228	1122.81
327.457	1707.81
327.686	2116.81
327.914	1416.81
328.143	918.81
328.372	778.81
328.6	722.81
328.829	662.81
329.058	712.81
329.287	708.81
329.515	633.81
329.744	614.81
329.972	584.81
330.201	583.81
330.43	641.81
330.658	691.81
330.887	725.81
331.115	696.81
331.344	605.81
331.572	560.81
331.801	546.81
332.03	531.81
332.258	514.81
332.486	482.81
332.715	461.81
332.943	464.81
333.172	478.81
333.4	480.81
333.629	500.81
333.857	512.81
334.085	521.81
334.314	532.81
334.542	582.81
334.771	597.81
334.999	538.81
335.227	485.81
335.455	476.81
335.684	465.81
335.912	441.81
336.14	444.81
336.369	465.81
336.597	462.81
336.825	476.81
337.053	463.81
337.281	435.81
337.51	453.81
337.738	455.81
337.966	462.81
338.194	423.81
338.422	458.81
338.65	477.81
338.878	430.81
339.106	442.81
339.334	431.81
339.562	415.81
339.79	434.81
340.018	442.81
340.246	449.81
340.474	442.81
340.702	464.81
340.93	412.81
341.158	439.81
341.386	436.81
341.614	444.81
341.842	445.81
342.07	416.81
342.298	435.81
342.526	405.81
342.754	419.81
342.981	391.81
343.209	406.81
343.437	425.81
343.665	437.81
343.893	437.81
344.12	427.81
344.348	446.81
344.576	432.81
344.804	450.81
345.031	462.81
345.259	480.81
345.487	451.81
345.714	460.81
345.942	422.81
346.17	444.81
346.397	433.81
346.625	453.81
346.853	426.81
347.08	408.81
347.308	424.81
347.535	427.81
347.763	468.81
347.99	476.81
348.218	475.81
348.445	460.81
348.673	452.81
348.9	441.81
349.128	427.81
349.355	407.81
349.583	399.81
349.81	399.81
350.037	426.81
350.265	406.81
350.492	418.81
350.72	416.81
350.947	435.81
351.174	425.81
351.402	475.81
351.629	434.81
351.856	450.81
352.083	483.81
352.311	441.81
352.538	463.81
352.765	454.81
352.992	500.81
353.22	457.81
353.447	451.81
353.674	415.81
353.901	418.81
354.128	420.81
354.355	409.81
354.583	404.81
354.81	437.81
355.037	404.81
355.264	407.81
355.491	397.81
355.718	384.81
355.945	388.81
356.172	407.81
356.399	359.81
356.626	398.81
356.853	416.81
357.08	380.81
357.307	385.81
357.534	384.81
357.761	394.81
357.988	409.81
358.215	384.81
358.441	400.81
358.668	406.81
358.895	401.81
359.122	413.81
359.349	431.81
359.576	461.81
359.802	472.81
360.029	528.81
360.256	536.81
360.483	497.81
360.709	467.81
360.936	450.81
361.163	446.81
361.39	449.81
361.616	453.81
361.843	436.81
362.07	447.81
362.296	456.81
362.523	434.81
362.749	449.81
362.976	432.81
363.203	448.81
363.429	404.81
363.656	411.81
363.882	422.81
364.109	419.81
364.335	415.81
364.562	428.81
364.788	406.81
365.015	423.81
365.241	435.81
365.468	425.81
365.694	431.81
365.92	428.81
366.147	436.81
366.373	437.81
366.599	410.81
366.826	418.81
367.052	407.81
367.278	424.81
367.505	426.81
367.731	434.81
367.957	398.81
368.184	433.81
368.41	444.81
368.636	438.81
368.862	441.81
369.089	432.81
369.315	421.81
369.541	424.81
369.767	421.81
369.993	398.81
370.219	424.81
370.445	412.81
370.672	410.81
370.898	395.81
371.124	392.81
371.35	390.81
371.576	423.81
371.802	394.81
372.028	410.81
372.254	392.81
372.48	398.81
372.706	413.81
372.932	410.81
373.158	391.81
373.384	414.81
373.61	418.81
373.835	421.81
374.061	401.81
374.287	417.81
374.513	412.81
374.739	419.81
374.965	419.81
375.191	394.81
375.416	403.81
375.642	420.81
375.868	410.81
376.094	404.81
376.319	400.81
376.545	432.81
376.771	402.81
376.997	399.81
377.222	414.81
377.448	416.81
377.674	405.81
377.899	397.81
378.125	409.81
378.35	407.81
378.576	397.81
378.802	389.81
379.027	414.81
379.253	394.81
379.478	409.81
379.704	397.81
379.929	401.81
380.155	416.81
380.38	421.81
380.606	426.81
380.831	411.81
381.057	427.81
381.282	424.81
381.507	388.81
381.733	421.81
381.958	428.81
382.184	426.81
382.409	411.81
382.634	396.81
382.86	421.81
383.085	417.81
383.31	425.81
383.535	415.81
383.761	411.81
383.986	419.81
384.211	423.81
384.436	452.81
384.662	436.81
384.887	419.81
385.112	434.81
385.337	418.81
385.562	438.81
385.787	440.81
386.013	442.81
386.238	455.81
386.463	461.81
386.688	466.81
386.913	418.81
387.138	420.81
387.363	436.81
387.588	418.81
387.813	443.81
388.038	438.81
388.263	436.81
388.488	456.81
388.713	432.81
388.938	443.81
389.163	468.81
389.387	423.81
389.612	434.81
389.837	443.81
390.062	434.81
390.287	447.81
390.512	442.81
390.736	419.81
390.961	427.81
391.186	448.81
391.411	435.81
391.636	439.81
391.86	460.81
392.085	451.81
392.31	454.81
392.534	450.81
392.759	442.81
392.984	456.81
393.208	426.81
393.433	447.81
393.658	451.81
393.882	446.81
394.107	436.81
394.331	446.81
394.556	432.81
394.78	452.81
395.005	454.81
395.229	436.81
395.454	436.81
395.678	451.81
395.903	456.81
396.127	478.81
396.352	502.81
396.576	502.81
396.801	463.81
397.025	477.81
397.249	470.81
397.474	447.81
397.698	481.81
397.922	503.81
398.147	512.81
398.371	495.81
398.595	491.81
398.82	476.81
399.044	496.81
399.268	480.81
399.492	542.81
399.717	550.81
399.941	583.81
400.165	622.81
400.389	641.81
400.613	580.81
400.837	550.81
401.062	506.81
401.286	516.81
401.51	527.81
401.734	514.81
401.958	510.81
402.182	512.81
402.406	551.81
402.63	539.81
402.854	527.81
403.078	541.81
403.302	572.81
403.526	532.81
403.75	532.81
403.974	523.81
404.198	538.81
404.422	532.81
404.645	547.81
404.869	567.81
405.093	560.81
405.317	635.81
405.541	674.81
405.765	614.81
405.988	582.81
406.212	580.81
406.436	632.81
406.66	634.81
406.883	592.81
407.107	624.81
407.331	652.81
407.555	721.81
407.778	734.81
408.002	650.81
408.226	594.81
408.449	600.81
408.673	601.81
408.896	608.81
409.12	678.81
409.344	648.81
409.567	582.81
409.791	547.81
410.014	512.81
410.238	538.81
410.461	541.81
410.685	534.81
410.908	584.81
411.132	587.81
411.355	627.81
411.578	602.81
411.802	580.81
412.025	547.81
412.249	540.81
412.472	571.81
412.695	628.81
412.919	615.81
413.142	536.81
413.365	542.81
413.589	524.81
413.812	521.81
414.035	512.81
414.258	519.81
414.482	515.81
414.705	502.81
414.928	517.81
415.151	513.81
415.374	514.81
415.597	516.81
415.821	489.81
416.044	485.81
416.267	511.81
416.49	502.81
416.713	502.81
416.936	526.81
417.159	520.81
417.382	518.81
417.605	520.81
417.828	539.81
418.051	546.81
418.274	544.81
418.497	530.81
418.72	526.81
418.943	522.81
419.166	523.81
419.389	562.81
419.611	555.81
419.834	547.81
420.057	543.81
420.28	531.81
420.503	542.81
420.726	541.81
420.948	585.81
421.171	596.81
421.394	644.81
421.617	608.81
421.839	565.81
422.062	558.81
422.285	547.81
422.507	633.81
422.73	705.81
422.953	686.81
423.175	607.81
423.398	586.81
423.621	568.81
423.843	610.81
424.066	615.81
424.288	603.81
424.511	610.81
424.733	702.81
424.956	790.81
425.178	766.81
425.401	785.81
425.623	772.81
425.846	660.81
426.068	620.81
426.291	588.81
426.513	606.81
426.735	624.81
426.958	671.81
427.18	774.81
427.402	898.81
427.625	996.81
427.847	916.81
428.069	790.81
428.292	702.81
428.514	640.81
428.736	584.81
428.958	607.81
429.181	558.81
429.403	574.81
429.625	569.81
429.847	632.81
430.069	663.81
430.292	706.81
430.514	603.81
430.736	560.81
430.958	564.81
431.18	529.81
431.402	545.81
431.624	542.81
431.846	508.81
432.068	519.81
432.29	554.81
432.512	532.81
432.734	555.81
432.956	536.81
433.178	536.81
433.4	553.81
433.622	526.81
433.844	540.81
434.066	522.81
434.287	530.81
434.509	538.81
434.731	534.81
434.953	535.81
435.175	571.81
435.397	600.81
435.618	623.81
435.84	667.81
436.062	791.81
436.284	841.81
436.505	723.81
436.727	634.81
436.949	592.81
437.17	564.81
437.392	578.81
437.614	601.81
437.835	633.81
438.057	769.81
438.278	874.81
438.5	882.81
438.721	955.81
438.943	907.81
439.165	742.81
439.386	664.81
439.608	662.81
439.829	653.81
440.05	697.81
440.272	736.81
440.493	661.81
440.715	634.81
440.936	592.81
441.158	590.81
441.379	565.81
441.6	575.81
441.822	633.81
442.043	669.81
442.264	784.81
442.486	816.81
442.707	711.81
442.928	653.81
443.149	650.81
443.371	681.81
443.592	707.81
443.813	851.81
444.034	895.81
444.255	734.81
444.476	629.81
444.698	648.81
444.919	606.81
445.14	741.81
445.361	683.81
445.582	677.81
445.803	757.81
446.024	897.81
446.245	899.81
446.466	826.81
446.687	678.81
446.908	632.81
447.129	622.81
447.35	595.81
447.571	580.81
447.792	575.81
448.013	615.81
448.234	595.81
448.455	690.81
448.675	810.81
448.896	928.81
449.117	792.81
449.338	739.81
449.559	836.81
449.779	924.81
450	784.81
450.221	651.81
450.442	614.81
450.662	595.81
450.883	595.81
451.104	615.81
451.324	598.81
451.545	560.81
451.766	553.81
451.986	529.81
452.207	536.81
452.428	512.81
452.648	529.81
452.869	531.81
453.089	535.81
453.31	545.81
453.53	517.81
453.751	519.81
453.971	542.81
454.192	557.81
454.412	572.81
454.633	528.81
454.853	533.81
455.073	533.81
455.294	567.81
455.514	632.81
455.734	639.81
455.955	531.81
456.175	496.81
456.395	482.81
456.616	480.81
456.836	475.81
457.056	459.81
457.276	455.81
457.497	472.81
457.717	476.81
457.937	504.81
458.157	502.81
458.377	479.81
458.598	526.81
458.818	605.81
459.038	712.81
459.258	743.81
459.478	631.81
459.698	573.81
459.918	523.81
460.138	527.81
460.358	529.81
460.578	542.81
460.798	516.81
461.018	530.81
461.238	515.81
461.458	515.81
461.678	513.81
461.898	505.81
462.118	511.81
462.338	532.81
462.558	534.81
462.777	537.81
462.997	516.81
463.217	553.81
463.437	556.81
463.657	567.81
463.876	529.81
464.096	544.81
464.316	569.81
464.536	574.81
464.755	555.81
464.975	573.81
465.195	638.81
465.414	763.81
465.634	665.81
465.854	588.81
466.073	586.81
466.293	543.81
466.512	540.81
466.732	520.81
466.951	535.81
467.171	517.81
467.391	542.81
467.61	544.81
467.829	571.81
468.049	554.81
468.268	531.81
468.488	534.81
468.707	538.81
468.927	518.81
469.146	522.81
469.365	517.81
469.585	507.81
469.804	530.81
470.023	552.81
470.243	518.81
470.462	539.81
470.681	576.81
470.901	544.81
471.12	526.81
471.339	555.81
471.558	537.81
471.777	522.81
471.997	516.81
472.216	532.81
472.435	608.81
472.654	579.81
472.873	552.81
473.092	529.81
473.311	544.81
473.53	546.81
473.749	559.81
473.968	587.81
474.187	730.81
474.406	756.81
474.625	616.81
474.844	572.81
475.063	559.81
475.282	520.81
475.501	525.81
475.72	555.81
475.939	547.81
476.158	549.81
476.377	553.81
476.596	550.81
476.814	564.81
477.033	584.81
477.252	570.81
477.471	569.81
477.69	586.81
477.908	574.81
478.127	584.81
478.346	548.81
478.564	586.81
478.783	585.81
479.002	609.81
479.22	599.81
479.439	626.81
479.658	644.81
479.876	645.81
480.095	644.81
480.313	690.81
480.532	680.81
480.751	660.81
480.969	680.81
481.188	768.81
481.406	819.81
481.624	720.81
481.843	660.81
482.061	656.81
482.28	650.81
482.498	640.81
482.717	640.81
482.935	626.81
483.153	647.81
483.372	638.81
483.59	668.81
483.808	639.81
484.027	619.81
484.245	644.81
484.463	633.81
484.681	668.81
484.9	647.81
485.118	653.81
485.336	640.81
485.554	650.81
485.772	667.81
485.99	669.81
486.209	660.81
486.427	667.81
486.645	676.81
486.863	693.81
487.081	711.81
487.299	698.81
487.517	703.81
487.735	698.81
487.953	691.81
488.171	695.81
488.389	713.81
488.607	707.81
488.825	703.81
489.043	694.81
489.261	696.81
489.479	723.81
489.696	711.81
489.914	700.81
490.132	724.81
490.35	758.81
490.568	756.81
490.786	763.81
491.003	760.81
491.221	798.81
491.439	781.81
491.657	816.81
491.874	816.81
492.092	807.81
492.31	832.81
492.527	838.81
492.745	850.81
492.963	836.81
493.18	839.81
493.398	830.81
493.615	850.81
493.833	846.81
494.05	841.81
494.268	836.81
494.485	842.81
494.703	828.81
494.92	814.81
495.138	859.81
495.355	880.81
495.573	834.81
495.79	874.81
496.008	838.81
496.225	866.81
496.442	831.81
496.66	842.81
496.877	823.81
497.094	870.81
497.312	854.81
497.529	835.81
497.746	882.81
497.963	856.81
498.181	875.81
498.398	893.81
498.615	890.81
498.832	914.81
499.049	915.81
499.267	917.81
499.484	950.81
499.701	944.81
499.918	959.81
500.135	997.81
500.352	1011.81
500.569	1032.81
500.786	1009.81
501.003	1020.81
501.22	1014.81
501.437	1002.81
