Data from 1971.PennyLincolnUp.Lamp.En5.5.200Scan.071719.P1.Scan 2. Changed Angle._HRD10591_15-25-38-842.txt Node
Date: Thu Jul 18 15:25:38 EDT 2019
User: cochatt
Spectrometer: HR+D1059
Trigger mode: 1
Integration Time (sec): 1.000000E-1
Scans to average: 1
Electric dark correction enabled: true
Nonlinearity correction enabled: false
Boxcar width: 0
XAxis mode: Wavelengths
Number of Pixels in Spectrum: 2048
>>>>>Begin Spectral Data<<<<<
223.165	-22.81
223.4	-22.81
223.635	-22.81
223.869	-26.81
224.104	-18.81
224.338	-7.81
224.573	-9.81
224.808	-6.81
225.042	5.19
225.277	-5.81
225.511	-2.81
225.746	0.19
225.98	4.19
226.215	19.19
226.449	14.19
226.683	19.19
226.918	21.19
227.152	18.19
227.387	31.19
227.621	42.19
227.856	46.19
228.09	53.19
228.324	46.19
228.559	62.19
228.793	77.19
229.027	96.19
229.262	133.19
229.496	123.19
229.73	159.19
229.964	183.19
230.199	139.19
230.433	129.19
230.667	126.19
230.901	137.19
231.136	117.19
231.37	140.19
231.604	118.19
231.838	118.19
232.072	109.19
232.306	119.19
232.541	120.19
232.775	137.19
233.009	124.19
233.243	97.19
233.477	118.19
233.711	129.19
233.945	118.19
234.179	116.19
234.413	114.19
234.647	117.19
234.881	136.19
235.115	125.19
235.349	135.19
235.583	136.19
235.817	118.19
236.051	165.19
236.285	144.19
236.519	129.19
236.753	143.19
236.987	166.19
237.221	222.19
237.455	271.19
237.689	217.19
237.922	174.19
238.156	149.19
238.39	131.19
238.624	138.19
238.858	126.19
239.091	122.19
239.325	150.19
239.559	120.19
239.793	144.19
240.027	143.19
240.26	146.19
240.494	179.19
240.728	175.19
240.961	174.19
241.195	169.19
241.429	177.19
241.662	144.19
241.896	150.19
242.13	137.19
242.363	149.19
242.597	152.19
242.83	143.19
243.064	172.19
243.298	157.19
243.531	147.19
243.765	137.19
243.998	126.19
244.232	144.19
244.465	137.19
244.699	174.19
244.932	159.19
245.166	161.19
245.399	164.19
245.633	155.19
245.866	161.19
246.099	156.19
246.333	156.19
246.566	150.19
246.8	164.19
247.033	157.19
247.266	171.19
247.5	181.19
247.733	193.19
247.966	189.19
248.2	184.19
248.433	194.19
248.666	198.19
248.899	218.19
249.133	212.19
249.366	237.19
249.599	235.19
249.832	220.19
250.066	191.19
250.299	206.19
250.532	225.19
250.765	254.19
250.998	269.19
251.231	256.19
251.465	242.19
251.698	210.19
251.931	215.19
252.164	250.19
252.397	227.19
252.63	220.19
252.863	220.19
253.096	242.19
253.329	247.19
253.562	251.19
253.795	244.19
254.028	236.19
254.261	245.19
254.494	254.19
254.727	285.19
254.96	326.19
255.193	310.19
255.426	279.19
255.659	269.19
255.892	252.19
256.124	265.19
256.357	272.19
256.59	244.19
256.823	245.19
257.056	229.19
257.289	238.19
257.521	240.19
257.754	237.19
257.987	238.19
258.22	211.19
258.452	217.19
258.685	230.19
258.918	224.19
259.151	252.19
259.383	232.19
259.616	243.19
259.849	246.19
260.081	263.19
260.314	271.19
260.547	311.19
260.779	277.19
261.012	247.19
261.244	255.19
261.477	246.19
261.71	241.19
261.942	247.19
262.175	256.19
262.407	245.19
262.64	234.19
262.872	245.19
263.105	216.19
263.337	236.19
263.57	231.19
263.802	221.19
264.035	216.19
264.267	227.19
264.499	211.19
264.732	217.19
264.964	225.19
265.197	214.19
265.429	230.19
265.661	226.19
265.894	226.19
266.126	249.19
266.358	217.19
266.591	215.19
266.823	241.19
267.055	235.19
267.287	246.19
267.52	230.19
267.752	226.19
267.984	238.19
268.216	255.19
268.448	243.19
268.681	254.19
268.913	264.19
269.145	286.19
269.377	294.19
269.609	311.19
269.841	284.19
270.073	296.19
270.306	324.19
270.538	340.19
270.77	340.19
271.002	330.19
271.234	330.19
271.466	334.19
271.698	344.19
271.93	347.19
272.162	334.19
272.394	349.19
272.626	330.19
272.858	321.19
273.09	309.19
273.322	315.19
273.553	275.19
273.785	290.19
274.017	285.19
274.249	278.19
274.481	284.19
274.713	292.19
274.945	289.19
275.176	277.19
275.408	283.19
275.64	279.19
275.872	284.19
276.104	295.19
276.335	280.19
276.567	292.19
276.799	312.19
277.031	343.19
277.262	349.19
277.494	346.19
277.726	315.19
277.957	297.19
278.189	325.19
278.421	287.19
278.652	283.19
278.884	271.19
279.115	288.19
279.347	281.19
279.579	276.19
279.81	255.19
280.042	274.19
280.273	281.19
280.505	278.19
280.736	262.19
280.968	279.19
281.199	270.19
281.431	270.19
281.662	286.19
281.894	282.19
282.125	286.19
282.356	280.19
282.588	325.19
282.819	332.19
283.051	296.19
283.282	267.19
283.513	286.19
283.745	277.19
283.976	290.19
284.207	276.19
284.439	281.19
284.67	284.19
284.901	283.19
285.132	284.19
285.364	267.19
285.595	278.19
285.826	288.19
286.057	281.19
286.288	284.19
286.52	268.19
286.751	266.19
286.982	283.19
287.213	273.19
287.444	285.19
287.675	291.19
287.906	293.19
288.138	313.19
288.369	310.19
288.6	296.19
288.831	291.19
289.062	282.19
289.293	305.19
289.524	287.19
289.755	291.19
289.986	299.19
290.217	285.19
290.448	289.19
290.679	307.19
290.91	295.19
291.141	280.19
291.371	291.19
291.602	283.19
291.833	293.19
292.064	297.19
292.295	294.19
292.526	285.19
292.757	299.19
292.987	308.19
293.218	298.19
293.449	296.19
293.68	279.19
293.91	265.19
294.141	280.19
294.372	286.19
294.603	298.19
294.833	284.19
295.064	295.19
295.295	298.19
295.525	302.19
295.756	318.19
295.987	315.19
296.217	325.19
296.448	337.19
296.679	321.19
296.909	299.19
297.14	283.19
297.37	291.19
297.601	316.19
297.831	289.19
298.062	284.19
298.292	287.19
298.523	310.19
298.753	292.19
298.984	311.19
299.214	278.19
299.445	317.19
299.675	311.19
299.905	331.19
300.136	310.19
300.366	325.19
300.597	317.19
300.827	318.19
301.057	328.19
301.288	336.19
301.518	331.19
301.748	324.19
301.979	318.19
302.209	324.19
302.439	372.19
302.669	322.19
302.9	325.19
303.13	323.19
303.36	331.19
303.59	324.19
303.82	357.19
304.051	327.19
304.281	338.19
304.511	330.19
304.741	327.19
304.971	332.19
305.201	326.19
305.431	324.19
305.661	326.19
305.891	341.19
306.121	325.19
306.352	319.19
306.582	340.19
306.812	324.19
307.042	342.19
307.272	324.19
307.502	338.19
307.731	323.19
307.961	335.19
308.191	329.19
308.421	334.19
308.651	339.19
308.881	341.19
309.111	350.19
309.341	339.19
309.571	381.19
309.8	381.19
310.03	390.19
310.26	400.19
310.49	394.19
310.72	403.19
310.949	409.19
311.179	411.19
311.409	421.19
311.639	386.19
311.868	393.19
312.098	412.19
312.328	395.19
312.557	419.19
312.787	448.19
313.017	429.19
313.246	416.19
313.476	385.19
313.706	377.19
313.935	414.19
314.165	391.19
314.394	430.19
314.624	437.19
314.853	404.19
315.083	387.19
315.312	376.19
315.542	378.19
315.771	369.19
316.001	375.19
316.23	367.19
316.46	381.19
316.689	401.19
316.919	382.19
317.148	401.19
317.377	411.19
317.607	427.19
317.836	421.19
318.065	421.19
318.295	379.19
318.524	407.19
318.753	386.19
318.983	395.19
319.212	378.19
319.441	410.19
319.67	406.19
319.9	412.19
320.129	377.19
320.358	393.19
320.587	410.19
320.816	409.19
321.046	433.19
321.275	422.19
321.504	423.19
321.733	444.19
321.962	441.19
322.191	451.19
322.42	475.19
322.649	479.19
322.878	475.19
323.108	523.19
323.337	575.19
323.566	565.19
323.795	620.19
324.024	689.19
324.253	859.19
324.482	1263.19
324.71	2015.19
324.939	2866.19
325.168	2472.19
325.397	1292.19
325.626	815.19
325.855	669.19
326.084	587.19
326.313	575.19
326.542	573.19
326.77	665.19
326.999	815.19
327.228	1109.19
327.457	1725.19
327.686	2197.19
327.914	1426.19
328.143	898.19
328.372	803.19
328.6	717.19
328.829	667.19
329.058	693.19
329.287	732.19
329.515	683.19
329.744	606.19
329.972	583.19
330.201	610.19
330.43	651.19
330.658	714.19
330.887	752.19
331.115	728.19
331.344	614.19
331.572	563.19
331.801	552.19
332.03	545.19
332.258	522.19
332.486	502.19
332.715	478.19
332.943	474.19
333.172	490.19
333.4	492.19
333.629	472.19
333.857	511.19
334.085	524.19
334.314	538.19
334.542	555.19
334.771	571.19
334.999	537.19
335.227	481.19
335.455	468.19
335.684	483.19
335.912	466.19
336.14	449.19
336.369	463.19
336.597	467.19
336.825	483.19
337.053	469.19
337.281	452.19
337.51	451.19
337.738	442.19
337.966	474.19
338.194	455.19
338.422	458.19
338.65	450.19
338.878	478.19
339.106	463.19
339.334	436.19
339.562	426.19
339.79	453.19
340.018	450.19
340.246	459.19
340.474	463.19
340.702	469.19
340.93	457.19
341.158	445.19
341.386	456.19
341.614	470.19
341.842	459.19
342.07	436.19
342.298	425.19
342.526	429.19
342.754	420.19
342.981	436.19
343.209	402.19
343.437	430.19
343.665	422.19
343.893	450.19
344.12	453.19
344.348	456.19
344.576	451.19
344.804	471.19
345.031	474.19
345.259	488.19
345.487	467.19
345.714	436.19
345.942	446.19
346.17	437.19
346.397	419.19
346.625	453.19
346.853	453.19
347.08	440.19
347.308	440.19
347.535	481.19
347.763	462.19
347.99	451.19
348.218	441.19
348.445	481.19
348.673	470.19
348.9	442.19
349.128	440.19
349.355	447.19
349.583	421.19
349.81	420.19
350.037	416.19
350.265	431.19
350.492	418.19
350.72	435.19
350.947	451.19
351.174	446.19
351.402	471.19
351.629	466.19
351.856	457.19
352.083	470.19
352.311	453.19
352.538	467.19
352.765	481.19
352.992	477.19
353.22	453.19
353.447	454.19
353.674	436.19
353.901	441.19
354.128	409.19
354.355	407.19
354.583	410.19
354.81	426.19
355.037	422.19
355.264	383.19
355.491	382.19
355.718	398.19
355.945	400.19
356.172	401.19
356.399	406.19
356.626	413.19
356.853	404.19
357.08	389.19
357.307	390.19
357.534	394.19
357.761	406.19
357.988	407.19
358.215	413.19
358.441	404.19
358.668	421.19
358.895	405.19
359.122	434.19
359.349	429.19
359.576	462.19
359.802	491.19
360.029	521.19
360.256	535.19
360.483	523.19
360.709	467.19
360.936	472.19
361.163	447.19
361.39	464.19
361.616	454.19
361.843	473.19
362.07	467.19
362.296	465.19
362.523	434.19
362.749	449.19
362.976	456.19
363.203	446.19
363.429	449.19
363.656	452.19
363.882	451.19
364.109	417.19
364.335	433.19
364.562	424.19
364.788	439.19
365.015	436.19
365.241	427.19
365.468	437.19
365.694	458.19
365.92	444.19
366.147	441.19
366.373	427.19
366.599	444.19
366.826	405.19
367.052	428.19
367.278	432.19
367.505	433.19
367.731	419.19
367.957	426.19
368.184	430.19
368.41	432.19
368.636	455.19
368.862	445.19
369.089	455.19
369.315	425.19
369.541	426.19
369.767	444.19
369.993	423.19
370.219	449.19
370.445	419.19
370.672	418.19
370.898	395.19
371.124	413.19
371.35	417.19
371.576	414.19
371.802	424.19
372.028	411.19
372.254	417.19
372.48	408.19
372.706	401.19
372.932	410.19
373.158	427.19
373.384	395.19
373.61	413.19
373.835	439.19
374.061	421.19
374.287	431.19
374.513	412.19
374.739	426.19
374.965	429.19
375.191	432.19
375.416	427.19
375.642	433.19
375.868	445.19
376.094	423.19
376.319	417.19
376.545	422.19
376.771	405.19
376.997	425.19
377.222	416.19
377.448	409.19
377.674	411.19
377.899	409.19
378.125	396.19
378.35	417.19
378.576	407.19
378.802	411.19
379.027	389.19
379.253	413.19
379.478	395.19
379.704	431.19
379.929	418.19
380.155	449.19
380.38	415.19
380.606	420.19
380.831	420.19
381.057	422.19
381.282	436.19
381.507	413.19
381.733	418.19
381.958	412.19
382.184	413.19
382.409	412.19
382.634	424.19
382.86	417.19
383.085	402.19
383.31	425.19
383.535	435.19
383.761	436.19
383.986	428.19
384.211	431.19
384.436	415.19
384.662	421.19
384.887	443.19
385.112	423.19
385.337	444.19
385.562	475.19
385.787	429.19
386.013	452.19
386.238	460.19
386.463	450.19
386.688	438.19
386.913	433.19
387.138	467.19
387.363	462.19
387.588	452.19
387.813	442.19
388.038	445.19
388.263	441.19
388.488	467.19
388.713	448.19
388.938	435.19
389.163	448.19
389.387	460.19
389.612	469.19
389.837	441.19
390.062	441.19
390.287	449.19
390.512	454.19
390.736	453.19
390.961	442.19
391.186	462.19
391.411	444.19
391.636	467.19
391.86	462.19
392.085	462.19
392.31	454.19
392.534	468.19
392.759	449.19
392.984	460.19
393.208	467.19
393.433	457.19
393.658	453.19
393.882	460.19
394.107	452.19
394.331	456.19
394.556	477.19
394.78	453.19
395.005	453.19
395.229	455.19
395.454	451.19
395.678	474.19
395.903	476.19
396.127	508.19
396.352	505.19
396.576	489.19
396.801	490.19
397.025	483.19
397.249	476.19
397.474	470.19
397.698	471.19
397.922	494.19
398.147	517.19
398.371	524.19
398.595	488.19
398.82	511.19
399.044	493.19
399.268	540.19
399.492	542.19
399.717	584.19
399.941	584.19
400.165	601.19
400.389	614.19
400.613	614.19
400.837	571.19
401.062	546.19
401.286	531.19
401.51	515.19
401.734	527.19
401.958	535.19
402.182	538.19
402.406	562.19
402.63	562.19
402.854	542.19
403.078	551.19
403.302	550.19
403.526	545.19
403.75	548.19
403.974	516.19
404.198	529.19
404.422	539.19
404.645	554.19
404.869	600.19
405.093	574.19
405.317	630.19
405.541	686.19
405.765	627.19
405.988	583.19
406.212	590.19
406.436	649.19
406.66	617.19
406.883	588.19
407.107	639.19
407.331	664.19
407.555	735.19
407.778	731.19
408.002	666.19
408.226	623.19
408.449	627.19
408.673	607.19
408.896	634.19
409.12	696.19
409.344	649.19
409.567	585.19
409.791	577.19
410.014	555.19
410.238	523.19
410.461	546.19
410.685	561.19
410.908	592.19
411.132	611.19
411.355	686.19
411.578	620.19
411.802	568.19
412.025	557.19
412.249	583.19
412.472	601.19
412.695	647.19
412.919	623.19
413.142	579.19
413.365	554.19
413.589	555.19
413.812	531.19
414.035	548.19
414.258	531.19
414.482	503.19
414.705	530.19
414.928	519.19
415.151	529.19
415.374	498.19
415.597	537.19
415.821	506.19
416.044	526.19
416.267	525.19
416.49	537.19
416.713	501.19
416.936	538.19
417.159	513.19
417.382	518.19
417.605	548.19
417.828	556.19
418.051	547.19
418.274	561.19
418.497	517.19
418.72	546.19
418.943	539.19
419.166	534.19
419.389	564.19
419.611	569.19
419.834	572.19
420.057	577.19
420.28	574.19
420.503	557.19
420.726	563.19
420.948	583.19
421.171	635.19
421.394	685.19
421.617	593.19
421.839	577.19
422.062	569.19
422.285	572.19
422.507	662.19
422.73	764.19
422.953	716.19
423.175	632.19
423.398	587.19
423.621	571.19
423.843	619.19
424.066	636.19
424.288	614.19
424.511	645.19
424.733	714.19
424.956	797.19
425.178	755.19
425.401	765.19
425.623	808.19
425.846	687.19
426.068	623.19
426.291	621.19
426.513	622.19
426.735	649.19
426.958	691.19
427.18	783.19
427.402	894.19
427.625	1046.19
427.847	939.19
428.069	808.19
428.292	733.19
428.514	670.19
428.736	618.19
428.958	625.19
429.181	583.19
429.403	579.19
429.625	602.19
429.847	621.19
430.069	717.19
430.292	698.19
430.514	615.19
430.736	601.19
430.958	588.19
431.18	554.19
431.402	557.19
431.624	569.19
431.846	550.19
432.068	537.19
432.29	543.19
432.512	550.19
432.734	539.19
432.956	558.19
433.178	577.19
433.4	573.19
433.622	561.19
433.844	537.19
434.066	539.19
434.287	553.19
434.509	527.19
434.731	555.19
434.953	589.19
435.175	580.19
435.397	621.19
435.618	607.19
435.84	691.19
436.062	795.19
436.284	857.19
436.505	724.19
436.727	665.19
436.949	615.19
437.17	599.19
437.392	580.19
437.614	603.19
437.835	661.19
438.057	795.19
438.278	891.19
438.5	888.19
438.721	935.19
438.943	911.19
439.165	731.19
439.386	675.19
439.608	658.19
439.829	676.19
440.05	703.19
440.272	743.19
440.493	712.19
440.715	660.19
440.936	620.19
441.158	606.19
441.379	588.19
441.6	606.19
441.822	650.19
442.043	689.19
442.264	817.19
442.486	813.19
442.707	716.19
442.928	663.19
443.149	689.19
443.371	686.19
443.592	725.19
443.813	855.19
444.034	916.19
444.255	778.19
444.476	696.19
444.698	630.19
444.919	638.19
445.14	697.19
445.361	663.19
445.582	717.19
445.803	777.19
446.024	890.19
446.245	905.19
446.466	838.19
446.687	701.19
446.908	650.19
447.129	598.19
447.35	603.19
447.571	583.19
447.792	590.19
448.013	587.19
448.234	618.19
448.455	693.19
448.675	833.19
448.896	946.19
449.117	789.19
449.338	744.19
449.559	897.19
449.779	970.19
450	803.19
450.221	669.19
450.442	620.19
450.662	615.19
450.883	604.19
451.104	603.19
451.324	615.19
451.545	580.19
451.766	559.19
451.986	557.19
452.207	553.19
452.428	518.19
452.648	527.19
452.869	541.19
453.089	546.19
453.31	545.19
453.53	558.19
453.751	538.19
453.971	539.19
454.192	584.19
454.412	539.19
454.633	528.19
454.853	546.19
455.073	527.19
455.294	600.19
455.514	666.19
455.734	637.19
455.955	553.19
456.175	493.19
456.395	509.19
456.616	502.19
456.836	473.19
457.056	472.19
457.276	492.19
457.497	495.19
457.717	513.19
457.937	493.19
458.157	505.19
458.377	490.19
458.598	539.19
458.818	595.19
459.038	746.19
459.258	720.19
459.478	621.19
459.698	560.19
459.918	557.19
460.138	531.19
460.358	554.19
460.578	527.19
460.798	551.19
461.018	526.19
461.238	522.19
461.458	527.19
461.678	531.19
461.898	539.19
462.118	506.19
462.338	527.19
462.558	556.19
462.777	547.19
462.997	555.19
463.217	564.19
463.437	581.19
463.657	575.19
463.876	537.19
464.096	550.19
464.316	553.19
464.536	556.19
464.755	555.19
464.975	595.19
465.195	643.19
465.414	780.19
465.634	692.19
465.854	618.19
466.073	566.19
466.293	555.19
466.512	543.19
466.732	548.19
466.951	537.19
467.171	539.19
467.391	549.19
467.61	543.19
467.829	568.19
468.049	545.19
468.268	537.19
468.488	534.19
468.707	508.19
468.927	537.19
469.146	521.19
469.365	527.19
469.585	508.19
469.804	536.19
470.023	579.19
470.243	554.19
470.462	543.19
470.681	595.19
470.901	575.19
471.12	555.19
471.339	540.19
471.558	543.19
471.777	542.19
471.997	535.19
472.216	543.19
472.435	609.19
472.654	582.19
472.873	545.19
473.092	548.19
473.311	550.19
473.53	561.19
473.749	558.19
473.968	563.19
474.187	729.19
474.406	769.19
474.625	605.19
474.844	570.19
475.063	550.19
475.282	551.19
475.501	580.19
475.72	549.19
475.939	562.19
476.158	559.19
476.377	565.19
476.596	567.19
476.814	569.19
477.033	569.19
477.252	589.19
477.471	571.19
477.69	550.19
477.908	585.19
478.127	575.19
478.346	599.19
478.564	574.19
478.783	598.19
479.002	631.19
479.22	605.19
479.439	637.19
479.658	644.19
479.876	662.19
480.095	669.19
480.313	687.19
480.532	657.19
480.751	671.19
480.969	647.19
481.188	786.19
481.406	799.19
481.624	721.19
481.843	689.19
482.061	690.19
482.28	651.19
482.498	673.19
482.717	630.19
482.935	651.19
483.153	652.19
483.372	661.19
483.59	668.19
483.808	653.19
484.027	648.19
484.245	656.19
484.463	681.19
484.681	675.19
484.9	652.19
485.118	649.19
485.336	654.19
485.554	677.19
485.772	664.19
485.99	655.19
486.209	697.19
486.427	710.19
486.645	697.19
486.863	751.19
487.081	721.19
487.299	699.19
487.517	705.19
487.735	702.19
487.953	700.19
488.171	697.19
488.389	694.19
488.607	704.19
488.825	717.19
489.043	732.19
489.261	707.19
489.479	722.19
489.696	731.19
489.914	725.19
490.132	726.19
490.35	747.19
490.568	756.19
490.786	772.19
491.003	791.19
491.221	796.19
491.439	812.19
491.657	813.19
491.874	819.19
492.092	857.19
492.31	842.19
492.527	829.19
492.745	869.19
492.963	856.19
493.18	864.19
493.398	850.19
493.615	846.19
493.833	863.19
494.05	881.19
494.268	833.19
494.485	866.19
494.703	892.19
494.92	858.19
495.138	853.19
495.355	861.19
495.573	851.19
495.79	850.19
496.008	860.19
496.225	831.19
496.442	853.19
496.66	835.19
496.877	838.19
497.094	847.19
497.312	845.19
497.529	876.19
497.746	888.19
497.963	870.19
498.181	881.19
498.398	893.19
498.615	909.19
498.832	934.19
499.049	921.19
499.267	950.19
499.484	959.19
499.701	946.19
499.918	981.19
500.135	1016.19
500.352	1004.19
500.569	1048.19
500.786	1048.19
501.003	1019.19
501.22	1016.19
501.437	1013.19
