Data from 1971.PennyLincolnUp.Lamp.En5.5.200Scan.071719.P1._HRD10591_15-18-39-843.txt Node
Date: Thu Jul 18 15:18:39 EDT 2019
User: cochatt
Spectrometer: HR+D1059
Trigger mode: 1
Integration Time (sec): 1.000000E-1
Scans to average: 1
Electric dark correction enabled: true
Nonlinearity correction enabled: false
Boxcar width: 0
XAxis mode: Wavelengths
Number of Pixels in Spectrum: 2048
>>>>>Begin Spectral Data<<<<<
223.165	-6.88
223.4	-6.88
223.635	-6.88
223.869	-21.88
224.104	-22.88
224.338	-13.88
224.573	-10.88
224.808	-22.88
225.042	-2.88
225.277	-5.88
225.511	-5.88
225.746	1.12
225.98	4.12
226.215	-0.88
226.449	12.12
226.683	25.12
226.918	39.12
227.152	33.12
227.387	49.12
227.621	45.12
227.856	29.12
228.09	55.12
228.324	51.12
228.559	45.12
228.793	64.12
229.027	89.12
229.262	106.12
229.496	96.12
229.73	124.12
229.964	119.12
230.199	121.12
230.433	115.12
230.667	106.12
230.901	109.12
231.136	105.12
231.37	100.12
231.604	94.12
231.838	97.12
232.072	103.12
232.306	105.12
232.541	97.12
232.775	112.12
233.009	110.12
233.243	123.12
233.477	110.12
233.711	102.12
233.945	107.12
234.179	108.12
234.413	116.12
234.647	113.12
234.881	114.12
235.115	109.12
235.349	99.12
235.583	110.12
235.817	113.12
236.051	121.12
236.285	128.12
236.519	117.12
236.753	137.12
236.987	129.12
237.221	160.12
237.455	215.12
237.689	165.12
237.922	120.12
238.156	123.12
238.39	119.12
238.624	129.12
238.858	127.12
239.091	128.12
239.325	130.12
239.559	118.12
239.793	115.12
240.027	113.12
240.26	149.12
240.494	153.12
240.728	144.12
240.961	147.12
241.195	130.12
241.429	144.12
241.662	142.12
241.896	125.12
242.13	128.12
242.363	135.12
242.597	135.12
242.83	139.12
243.064	131.12
243.298	125.12
243.531	143.12
243.765	143.12
243.998	139.12
244.232	166.12
244.465	131.12
244.699	137.12
244.932	141.12
245.166	128.12
245.399	144.12
245.633	151.12
245.866	137.12
246.099	147.12
246.333	147.12
246.566	147.12
246.8	153.12
247.033	159.12
247.266	159.12
247.5	157.12
247.733	169.12
247.966	175.12
248.2	168.12
248.433	164.12
248.666	186.12
248.899	186.12
249.133	178.12
249.366	189.12
249.599	195.12
249.832	181.12
250.066	174.12
250.299	171.12
250.532	196.12
250.765	202.12
250.998	203.12
251.231	221.12
251.465	224.12
251.698	207.12
251.931	219.12
252.164	186.12
252.397	188.12
252.63	202.12
252.863	198.12
253.096	226.12
253.329	229.12
253.562	227.12
253.795	228.12
254.028	217.12
254.261	208.12
254.494	219.12
254.727	247.12
254.96	259.12
255.193	265.12
255.426	242.12
255.659	231.12
255.892	248.12
256.124	226.12
256.357	211.12
256.59	230.12
256.823	220.12
257.056	211.12
257.289	209.12
257.521	217.12
257.754	209.12
257.987	201.12
258.22	218.12
258.452	202.12
258.685	210.12
258.918	196.12
259.151	202.12
259.383	222.12
259.616	209.12
259.849	236.12
260.081	221.12
260.314	256.12
260.547	263.12
260.779	245.12
261.012	233.12
261.244	221.12
261.477	222.12
261.71	213.12
261.942	216.12
262.175	232.12
262.407	223.12
262.64	213.12
262.872	216.12
263.105	218.12
263.337	209.12
263.57	217.12
263.802	209.12
264.035	240.12
264.267	219.12
264.499	221.12
264.732	215.12
264.964	211.12
265.197	206.12
265.429	218.12
265.661	207.12
265.894	218.12
266.126	213.12
266.358	223.12
266.591	206.12
266.823	207.12
267.055	211.12
267.287	216.12
267.52	222.12
267.752	221.12
267.984	221.12
268.216	229.12
268.448	233.12
268.681	220.12
268.913	258.12
269.145	269.12
269.377	293.12
269.609	272.12
269.841	265.12
270.073	269.12
270.306	284.12
270.538	306.12
270.77	311.12
271.002	300.12
271.234	279.12
271.466	298.12
271.698	295.12
271.93	318.12
272.162	313.12
272.394	315.12
272.626	285.12
272.858	285.12
273.09	274.12
273.322	271.12
273.553	281.12
273.785	265.12
274.017	261.12
274.249	258.12
274.481	271.12
274.713	263.12
274.945	259.12
275.176	250.12
275.408	253.12
275.64	260.12
275.872	271.12
276.104	249.12
276.335	277.12
276.567	264.12
276.799	288.12
277.031	298.12
277.262	289.12
277.494	307.12
277.726	305.12
277.957	263.12
278.189	283.12
278.421	278.12
278.652	263.12
278.884	280.12
279.115	260.12
279.347	267.12
279.579	276.12
279.81	263.12
280.042	261.12
280.273	279.12
280.505	264.12
280.736	271.12
280.968	262.12
281.199	271.12
281.431	262.12
281.662	286.12
281.894	263.12
282.125	259.12
282.356	290.12
282.588	311.12
282.819	295.12
283.051	280.12
283.282	276.12
283.513	267.12
283.745	285.12
283.976	281.12
284.207	263.12
284.439	282.12
284.67	278.12
284.901	265.12
285.132	282.12
285.364	297.12
285.595	276.12
285.826	279.12
286.057	290.12
286.288	292.12
286.52	278.12
286.751	269.12
286.982	305.12
287.213	283.12
287.444	276.12
287.675	283.12
287.906	293.12
288.138	316.12
288.369	306.12
288.6	305.12
288.831	294.12
289.062	281.12
289.293	294.12
289.524	296.12
289.755	307.12
289.986	289.12
290.217	293.12
290.448	281.12
290.679	282.12
290.91	295.12
291.141	284.12
291.371	288.12
291.602	305.12
291.833	286.12
292.064	287.12
292.295	302.12
292.526	283.12
292.757	285.12
292.987	285.12
293.218	284.12
293.449	286.12
293.68	293.12
293.91	289.12
294.141	285.12
294.372	292.12
294.603	292.12
294.833	294.12
295.064	293.12
295.295	278.12
295.525	286.12
295.756	283.12
295.987	288.12
296.217	317.12
296.448	313.12
296.679	305.12
296.909	292.12
297.14	282.12
297.37	295.12
297.601	287.12
297.831	311.12
298.062	290.12
298.292	307.12
298.523	299.12
298.753	307.12
298.984	302.12
299.214	294.12
299.445	310.12
299.675	313.12
299.905	312.12
300.136	290.12
300.366	317.12
300.597	320.12
300.827	333.12
301.057	329.12
301.288	324.12
301.518	332.12
301.748	309.12
301.979	312.12
302.209	325.12
302.439	342.12
302.669	325.12
302.9	331.12
303.13	316.12
303.36	339.12
303.59	340.12
303.82	316.12
304.051	338.12
304.281	306.12
304.511	333.12
304.741	326.12
304.971	324.12
305.201	318.12
305.431	305.12
305.661	306.12
305.891	310.12
306.121	329.12
306.352	332.12
306.582	332.12
306.812	344.12
307.042	335.12
307.272	334.12
307.502	348.12
307.731	353.12
307.961	325.12
308.191	318.12
308.421	338.12
308.651	347.12
308.881	342.12
309.111	335.12
309.341	342.12
309.571	346.12
309.8	354.12
310.03	356.12
310.26	369.12
310.49	385.12
310.72	366.12
310.949	365.12
311.179	365.12
311.409	360.12
311.639	369.12
311.868	363.12
312.098	371.12
312.328	346.12
312.557	382.12
312.787	392.12
313.017	387.12
313.246	382.12
313.476	372.12
313.706	375.12
313.935	385.12
314.165	378.12
314.394	378.12
314.624	360.12
314.853	363.12
315.083	367.12
315.312	367.12
315.542	379.12
315.771	379.12
316.001	364.12
316.23	369.12
316.46	357.12
316.689	382.12
316.919	395.12
317.148	377.12
317.377	377.12
317.607	378.12
317.836	379.12
318.065	376.12
318.295	389.12
318.524	366.12
318.753	377.12
318.983	379.12
319.212	376.12
319.441	371.12
319.67	384.12
319.9	378.12
320.129	360.12
320.358	375.12
320.587	409.12
320.816	379.12
321.046	384.12
321.275	381.12
321.504	391.12
321.733	407.12
321.962	409.12
322.191	410.12
322.42	415.12
322.649	415.12
322.878	414.12
323.108	445.12
323.337	458.12
323.566	471.12
323.795	499.12
324.024	551.12
324.253	647.12
324.482	905.12
324.71	1339.12
324.939	1747.12
325.168	1509.12
325.397	833.12
325.626	586.12
325.855	494.12
326.084	477.12
326.313	469.12
326.542	473.12
326.77	525.12
326.999	617.12
327.228	811.12
327.457	1150.12
327.686	1316.12
327.914	907.12
328.143	617.12
328.372	555.12
328.6	531.12
328.829	521.12
329.058	521.12
329.287	497.12
329.515	497.12
329.744	467.12
329.972	474.12
330.201	482.12
330.43	517.12
330.658	533.12
330.887	545.12
331.115	523.12
331.344	485.12
331.572	449.12
331.801	453.12
332.03	441.12
332.258	426.12
332.486	440.12
332.715	454.12
332.943	430.12
333.172	430.12
333.4	419.12
333.629	435.12
333.857	424.12
334.085	454.12
334.314	453.12
334.542	462.12
334.771	475.12
334.999	448.12
335.227	429.12
335.455	425.12
335.684	413.12
335.912	427.12
336.14	417.12
336.369	424.12
336.597	431.12
336.825	442.12
337.053	419.12
337.281	423.12
337.51	398.12
337.738	397.12
337.966	413.12
338.194	419.12
338.422	417.12
338.65	416.12
338.878	415.12
339.106	397.12
339.334	407.12
339.562	406.12
339.79	398.12
340.018	409.12
340.246	387.12
340.474	394.12
340.702	399.12
340.93	419.12
341.158	387.12
341.386	399.12
341.614	391.12
341.842	407.12
342.07	388.12
342.298	415.12
342.526	409.12
342.754	399.12
342.981	399.12
343.209	406.12
343.437	379.12
343.665	383.12
343.893	395.12
344.12	422.12
344.348	407.12
344.576	397.12
344.804	409.12
345.031	424.12
345.259	419.12
345.487	425.12
345.714	409.12
345.942	400.12
346.17	390.12
346.397	407.12
346.625	389.12
346.853	394.12
347.08	376.12
347.308	391.12
347.535	387.12
347.763	404.12
347.99	394.12
348.218	390.12
348.445	396.12
348.673	396.12
348.9	396.12
349.128	376.12
349.355	370.12
349.583	366.12
349.81	363.12
350.037	366.12
350.265	391.12
350.492	376.12
350.72	373.12
350.947	370.12
351.174	387.12
351.402	385.12
351.629	372.12
351.856	394.12
352.083	397.12
352.311	394.12
352.538	400.12
352.765	395.12
352.992	378.12
353.22	388.12
353.447	370.12
353.674	366.12
353.901	361.12
354.128	357.12
354.355	350.12
354.583	364.12
354.81	365.12
355.037	357.12
355.264	359.12
355.491	343.12
355.718	325.12
355.945	341.12
356.172	353.12
356.399	369.12
356.626	374.12
356.853	357.12
357.08	349.12
357.307	364.12
357.534	366.12
357.761	355.12
357.988	355.12
358.215	362.12
358.441	349.12
358.668	363.12
358.895	356.12
359.122	366.12
359.349	362.12
359.576	377.12
359.802	402.12
360.029	420.12
360.256	414.12
360.483	379.12
360.709	357.12
360.936	404.12
361.163	387.12
361.39	382.12
361.616	379.12
361.843	376.12
362.07	364.12
362.296	370.12
362.523	379.12
362.749	370.12
362.976	358.12
363.203	358.12
363.429	353.12
363.656	349.12
363.882	346.12
364.109	348.12
364.335	346.12
364.562	337.12
364.788	357.12
365.015	356.12
365.241	342.12
365.468	370.12
365.694	361.12
365.92	354.12
366.147	369.12
366.373	355.12
366.599	346.12
366.826	347.12
367.052	360.12
367.278	371.12
367.505	366.12
367.731	355.12
367.957	347.12
368.184	361.12
368.41	350.12
368.636	349.12
368.862	369.12
369.089	369.12
369.315	363.12
369.541	335.12
369.767	350.12
369.993	335.12
370.219	362.12
370.445	360.12
370.672	354.12
370.898	347.12
371.124	347.12
371.35	356.12
371.576	346.12
371.802	340.12
372.028	325.12
372.254	360.12
372.48	358.12
372.706	365.12
372.932	357.12
373.158	347.12
373.384	364.12
373.61	341.12
373.835	347.12
374.061	328.12
374.287	343.12
374.513	359.12
374.739	360.12
374.965	350.12
375.191	358.12
375.416	349.12
375.642	345.12
375.868	362.12
376.094	377.12
376.319	352.12
376.545	319.12
376.771	360.12
376.997	343.12
377.222	342.12
377.448	338.12
377.674	343.12
377.899	346.12
378.125	341.12
378.35	325.12
378.576	344.12
378.802	328.12
379.027	353.12
379.253	353.12
379.478	325.12
379.704	336.12
379.929	338.12
380.155	340.12
380.38	338.12
380.606	351.12
380.831	328.12
381.057	358.12
381.282	338.12
381.507	341.12
381.733	366.12
381.958	359.12
382.184	360.12
382.409	340.12
382.634	347.12
382.86	340.12
383.085	331.12
383.31	337.12
383.535	347.12
383.761	344.12
383.986	359.12
384.211	347.12
384.436	349.12
384.662	376.12
384.887	363.12
385.112	342.12
385.337	373.12
385.562	357.12
385.787	373.12
386.013	370.12
386.238	370.12
386.463	356.12
386.688	361.12
386.913	371.12
387.138	375.12
387.363	375.12
387.588	359.12
387.813	381.12
388.038	378.12
388.263	358.12
388.488	383.12
388.713	380.12
388.938	359.12
389.163	345.12
389.387	356.12
389.612	366.12
389.837	368.12
390.062	364.12
390.287	353.12
390.512	341.12
390.736	343.12
390.961	380.12
391.186	387.12
391.411	359.12
391.636	376.12
391.86	377.12
392.085	362.12
392.31	373.12
392.534	379.12
392.759	376.12
392.984	369.12
393.208	356.12
393.433	366.12
393.658	369.12
393.882	343.12
394.107	355.12
394.331	368.12
394.556	351.12
394.78	358.12
395.005	361.12
395.229	369.12
395.454	377.12
395.678	386.12
395.903	385.12
396.127	406.12
396.352	394.12
396.576	400.12
396.801	399.12
397.025	377.12
397.249	382.12
397.474	375.12
397.698	357.12
397.922	374.12
398.147	395.12
398.371	392.12
398.595	401.12
398.82	384.12
399.044	406.12
399.268	424.12
399.492	446.12
399.717	457.12
399.941	490.12
400.165	517.12
400.389	493.12
400.613	431.12
400.837	448.12
401.062	417.12
401.286	409.12
401.51	406.12
401.734	399.12
401.958	420.12
402.182	403.12
402.406	412.12
402.63	393.12
402.854	409.12
403.078	397.12
403.302	417.12
403.526	408.12
403.75	397.12
403.974	395.12
404.198	415.12
404.422	433.12
404.645	399.12
404.869	413.12
405.093	445.12
405.317	473.12
405.541	486.12
405.765	465.12
405.988	434.12
406.212	455.12
406.436	464.12
406.66	453.12
406.883	449.12
407.107	462.12
407.331	481.12
407.555	547.12
407.778	546.12
408.002	474.12
408.226	459.12
408.449	451.12
408.673	451.12
408.896	503.12
409.12	509.12
409.344	457.12
409.567	433.12
409.791	442.12
410.014	417.12
410.238	414.12
410.461	402.12
410.685	420.12
410.908	430.12
411.132	440.12
411.355	464.12
411.578	452.12
411.802	413.12
412.025	407.12
412.249	415.12
412.472	427.12
412.695	448.12
412.919	451.12
413.142	408.12
413.365	414.12
413.589	415.12
413.812	402.12
414.035	391.12
414.258	391.12
414.482	375.12
414.705	405.12
414.928	392.12
415.151	396.12
415.374	387.12
415.597	387.12
415.821	390.12
416.044	389.12
416.267	387.12
416.49	398.12
416.713	385.12
416.936	382.12
417.159	407.12
417.382	383.12
417.605	398.12
417.828	403.12
418.051	406.12
418.274	389.12
418.497	391.12
418.72	377.12
418.943	381.12
419.166	397.12
419.389	434.12
419.611	419.12
419.834	422.12
420.057	411.12
420.28	398.12
420.503	409.12
420.726	421.12
420.948	429.12
421.171	452.12
421.394	475.12
421.617	427.12
421.839	424.12
422.062	424.12
422.285	420.12
422.507	486.12
422.73	520.12
422.953	503.12
423.175	435.12
423.398	413.12
423.621	420.12
423.843	446.12
424.066	435.12
424.288	421.12
424.511	442.12
424.733	476.12
424.956	563.12
425.178	539.12
425.401	533.12
425.623	539.12
425.846	482.12
426.068	435.12
426.291	434.12
426.513	426.12
426.735	443.12
426.958	464.12
427.18	507.12
427.402	619.12
427.625	676.12
427.847	597.12
428.069	556.12
428.292	483.12
428.514	455.12
428.736	409.12
428.958	413.12
429.181	384.12
429.403	417.12
429.625	425.12
429.847	449.12
430.069	497.12
430.292	477.12
430.514	425.12
430.736	394.12
430.958	401.12
431.18	381.12
431.402	386.12
431.624	376.12
431.846	388.12
432.068	371.12
432.29	385.12
432.512	370.12
432.734	406.12
432.956	383.12
433.178	399.12
433.4	418.12
433.622	387.12
433.844	402.12
434.066	386.12
434.287	346.12
434.509	371.12
434.731	395.12
434.953	412.12
435.175	422.12
435.397	423.12
435.618	435.12
435.84	478.12
436.062	549.12
436.284	573.12
436.505	502.12
436.727	450.12
436.949	433.12
437.17	407.12
437.392	415.12
437.614	410.12
437.835	473.12
438.057	519.12
438.278	587.12
438.5	598.12
438.721	651.12
438.943	619.12
439.165	486.12
439.386	459.12
439.608	456.12
439.829	424.12
440.05	458.12
440.272	511.12
440.493	463.12
440.715	443.12
440.936	413.12
441.158	409.12
441.379	416.12
441.6	430.12
441.822	429.12
442.043	445.12
442.264	548.12
442.486	554.12
442.707	483.12
442.928	466.12
443.149	468.12
443.371	459.12
443.592	511.12
443.813	578.12
444.034	603.12
444.255	490.12
444.476	460.12
444.698	436.12
444.919	463.12
445.14	571.12
445.361	517.12
445.582	475.12
445.803	517.12
446.024	612.12
446.245	594.12
446.466	565.12
446.687	463.12
446.908	439.12
447.129	427.12
447.35	415.12
447.571	403.12
447.792	393.12
448.013	413.12
448.234	437.12
448.455	477.12
448.675	539.12
448.896	620.12
449.117	519.12
449.338	499.12
449.559	580.12
449.779	691.12
450	543.12
450.221	461.12
450.442	423.12
450.662	408.12
450.883	389.12
451.104	398.12
451.324	390.12
451.545	373.12
451.766	377.12
451.986	364.12
452.207	337.12
452.428	358.12
452.648	361.12
452.869	363.12
453.089	363.12
453.31	380.12
453.53	379.12
453.751	355.12
453.971	349.12
454.192	364.12
454.412	371.12
454.633	358.12
454.853	358.12
455.073	358.12
455.294	382.12
455.514	418.12
455.734	423.12
455.955	362.12
456.175	354.12
456.395	342.12
456.616	340.12
456.836	326.12
457.056	343.12
457.276	321.12
457.497	343.12
457.717	342.12
457.937	351.12
458.157	361.12
458.377	351.12
458.598	374.12
458.818	405.12
459.038	460.12
459.258	463.12
459.478	398.12
459.698	391.12
459.918	378.12
460.138	380.12
460.358	395.12
460.578	374.12
460.798	397.12
461.018	376.12
461.238	388.12
461.458	378.12
461.678	365.12
461.898	390.12
462.118	361.12
462.338	379.12
462.558	392.12
462.777	402.12
462.997	403.12
463.217	394.12
463.437	404.12
463.657	397.12
463.876	394.12
464.096	393.12
464.316	400.12
464.536	409.12
464.755	390.12
464.975	390.12
465.195	431.12
465.414	485.12
465.634	411.12
465.854	395.12
466.073	387.12
466.293	378.12
466.512	369.12
466.732	359.12
466.951	361.12
467.171	386.12
467.391	363.12
467.61	373.12
467.829	387.12
468.049	387.12
468.268	385.12
468.488	352.12
468.707	358.12
468.927	355.12
469.146	356.12
469.365	369.12
469.585	363.12
469.804	373.12
470.023	375.12
470.243	397.12
470.462	382.12
470.681	404.12
470.901	398.12
471.12	385.12
471.339	377.12
471.558	379.12
471.777	377.12
471.997	370.12
472.216	388.12
472.435	387.12
472.654	383.12
472.873	350.12
473.092	375.12
473.311	366.12
473.53	376.12
473.749	377.12
473.968	414.12
474.187	489.12
474.406	491.12
474.625	432.12
474.844	394.12
475.063	379.12
475.282	372.12
475.501	374.12
475.72	374.12
475.939	385.12
476.158	375.12
476.377	401.12
476.596	373.12
476.814	390.12
477.033	400.12
477.252	373.12
477.471	388.12
477.69	404.12
477.908	413.12
478.127	415.12
478.346	398.12
478.564	417.12
478.783	411.12
479.002	396.12
479.22	414.12
479.439	435.12
479.658	438.12
479.876	435.12
480.095	436.12
480.313	462.12
480.532	455.12
480.751	449.12
480.969	438.12
481.188	470.12
481.406	501.12
481.624	432.12
481.843	437.12
482.061	430.12
482.28	431.12
482.498	436.12
482.717	427.12
482.935	413.12
483.153	430.12
483.372	442.12
483.59	446.12
483.808	443.12
484.027	429.12
484.245	423.12
484.463	428.12
484.681	426.12
484.9	435.12
485.118	427.12
485.336	446.12
485.554	439.12
485.772	445.12
485.99	444.12
486.209	456.12
486.427	434.12
486.645	419.12
486.863	464.12
487.081	478.12
487.299	469.12
487.517	458.12
487.735	451.12
487.953	434.12
488.171	470.12
488.389	467.12
488.607	460.12
488.825	465.12
489.043	480.12
489.261	468.12
489.479	458.12
489.696	460.12
489.914	466.12
490.132	482.12
490.35	482.12
490.568	477.12
490.786	492.12
491.003	500.12
491.221	515.12
491.439	536.12
491.657	542.12
491.874	517.12
492.092	548.12
492.31	546.12
492.527	557.12
492.745	536.12
492.963	551.12
493.18	548.12
493.398	556.12
493.615	545.12
493.833	558.12
494.05	559.12
494.268	557.12
494.485	538.12
494.703	548.12
494.92	565.12
495.138	575.12
495.355	575.12
495.573	558.12
495.79	554.12
496.008	545.12
496.225	539.12
496.442	565.12
496.66	552.12
496.877	535.12
497.094	561.12
497.312	567.12
497.529	549.12
497.746	577.12
497.963	584.12
498.181	579.12
498.398	577.12
498.615	586.12
498.832	594.12
499.049	590.12
499.267	635.12
499.484	631.12
499.701	657.12
499.918	685.12
500.135	677.12
500.352	713.12
500.569	739.12
500.786	733.12
501.003	716.12
501.22	715.12
501.437	712.12
501.654	685.12
501.871	680.12
502.088	663.12
