Data from 1971.PennyLincolnUp.Lamp.En5.5.200Scan.071719.P1._HRD10591_15-20-20-842.txt Node
Date: Thu Jul 18 15:20:20 EDT 2019
User: cochatt
Spectrometer: HR+D1059
Trigger mode: 1
Integration Time (sec): 1.000000E-1
Scans to average: 1
Electric dark correction enabled: true
Nonlinearity correction enabled: false
Boxcar width: 0
XAxis mode: Wavelengths
Number of Pixels in Spectrum: 2048
>>>>>Begin Spectral Data<<<<<
223.165	-22.31
223.4	-22.31
223.635	-22.31
223.869	-28.31
224.104	0.69
224.338	-13.31
224.573	6.69
224.808	-16.31
225.042	-12.31
225.277	10.69
225.511	-8.31
225.746	-6.31
225.98	-15.31
226.215	19.69
226.449	17.69
226.683	20.69
226.918	7.69
227.152	38.69
227.387	34.69
227.621	25.69
227.856	31.69
228.09	43.69
228.324	35.69
228.559	47.69
228.793	75.69
229.027	102.69
229.262	89.69
229.496	127.69
229.73	119.69
229.964	141.69
230.199	131.69
230.433	111.69
230.667	103.69
230.901	112.69
231.136	98.69
231.37	104.69
231.604	107.69
231.838	109.69
232.072	115.69
232.306	104.69
232.541	121.69
232.775	128.69
233.009	102.69
233.243	103.69
233.477	121.69
233.711	111.69
233.945	94.69
234.179	108.69
234.413	110.69
234.647	93.69
234.881	115.69
235.115	113.69
235.349	129.69
235.583	118.69
235.817	118.69
236.051	126.69
236.285	124.69
236.519	134.69
236.753	133.69
236.987	131.69
237.221	170.69
237.455	218.69
237.689	171.69
237.922	135.69
238.156	123.69
238.39	132.69
238.624	124.69
238.858	126.69
239.091	139.69
239.325	122.69
239.559	113.69
239.793	130.69
240.027	141.69
240.26	147.69
240.494	163.69
240.728	143.69
240.961	135.69
241.195	133.69
241.429	146.69
241.662	130.69
241.896	134.69
242.13	135.69
242.363	140.69
242.597	127.69
242.83	149.69
243.064	137.69
243.298	137.69
243.531	135.69
243.765	129.69
243.998	151.69
244.232	153.69
244.465	141.69
244.699	143.69
244.932	154.69
245.166	142.69
245.399	133.69
245.633	147.69
245.866	137.69
246.099	149.69
246.333	158.69
246.566	145.69
246.8	148.69
247.033	166.69
247.266	165.69
247.5	153.69
247.733	172.69
247.966	167.69
248.2	168.69
248.433	183.69
248.666	177.69
248.899	179.69
249.133	195.69
249.366	204.69
249.599	198.69
249.832	175.69
250.066	181.69
250.299	178.69
250.532	203.69
250.765	202.69
250.998	238.69
251.231	241.69
251.465	198.69
251.698	215.69
251.931	218.69
252.164	214.69
252.397	218.69
252.63	206.69
252.863	214.69
253.096	233.69
253.329	246.69
253.562	251.69
253.795	222.69
254.028	225.69
254.261	223.69
254.494	224.69
254.727	257.69
254.96	279.69
255.193	274.69
255.426	265.69
255.659	242.69
255.892	251.69
256.124	237.69
256.357	248.69
256.59	234.69
256.823	219.69
257.056	225.69
257.289	226.69
257.521	218.69
257.754	213.69
257.987	213.69
258.22	205.69
258.452	220.69
258.685	225.69
258.918	218.69
259.151	207.69
259.383	223.69
259.616	241.69
259.849	231.69
260.081	254.69
260.314	251.69
260.547	246.69
260.779	261.69
261.012	232.69
261.244	220.69
261.477	232.69
261.71	237.69
261.942	224.69
262.175	247.69
262.407	248.69
262.64	220.69
262.872	216.69
263.105	202.69
263.337	217.69
263.57	217.69
263.802	211.69
264.035	216.69
264.267	228.69
264.499	230.69
264.732	228.69
264.964	218.69
265.197	221.69
265.429	218.69
265.661	228.69
265.894	217.69
266.126	234.69
266.358	221.69
266.591	226.69
266.823	231.69
267.055	244.69
267.287	234.69
267.52	245.69
267.752	215.69
267.984	237.69
268.216	253.69
268.448	259.69
268.681	262.69
268.913	252.69
269.145	283.69
269.377	282.69
269.609	264.69
269.841	285.69
270.073	277.69
270.306	298.69
270.538	322.69
270.77	335.69
271.002	323.69
271.234	306.69
271.466	310.69
271.698	318.69
271.93	329.69
272.162	333.69
272.394	340.69
272.626	316.69
272.858	284.69
273.09	291.69
273.322	278.69
273.553	271.69
273.785	274.69
274.017	272.69
274.249	262.69
274.481	289.69
274.713	269.69
274.945	283.69
275.176	277.69
275.408	286.69
275.64	289.69
275.872	255.69
276.104	291.69
276.335	291.69
276.567	293.69
276.799	297.69
277.031	314.69
277.262	325.69
277.494	342.69
277.726	319.69
277.957	301.69
278.189	305.69
278.421	293.69
278.652	280.69
278.884	303.69
279.115	287.69
279.347	271.69
279.579	290.69
279.81	286.69
280.042	280.69
280.273	295.69
280.505	273.69
280.736	256.69
280.968	284.69
281.199	277.69
281.431	287.69
281.662	270.69
281.894	257.69
282.125	280.69
282.356	302.69
282.588	315.69
282.819	296.69
283.051	289.69
283.282	286.69
283.513	283.69
283.745	289.69
283.976	303.69
284.207	298.69
284.439	300.69
284.67	288.69
284.901	285.69
285.132	288.69
285.364	294.69
285.595	303.69
285.826	293.69
286.057	288.69
286.288	280.69
286.52	291.69
286.751	285.69
286.982	304.69
287.213	287.69
287.444	294.69
287.675	273.69
287.906	299.69
288.138	320.69
288.369	319.69
288.6	321.69
288.831	317.69
289.062	333.69
289.293	313.69
289.524	303.69
289.755	289.69
289.986	296.69
290.217	280.69
290.448	288.69
290.679	297.69
290.91	295.69
291.141	312.69
291.371	296.69
291.602	282.69
291.833	292.69
292.064	317.69
292.295	300.69
292.526	313.69
292.757	295.69
292.987	300.69
293.218	319.69
293.449	309.69
293.68	309.69
293.91	311.69
294.141	311.69
294.372	317.69
294.603	284.69
294.833	314.69
295.064	289.69
295.295	295.69
295.525	315.69
295.756	312.69
295.987	309.69
296.217	335.69
296.448	335.69
296.679	311.69
296.909	303.69
297.14	294.69
297.37	309.69
297.601	300.69
297.831	310.69
298.062	291.69
298.292	311.69
298.523	332.69
298.753	324.69
298.984	316.69
299.214	326.69
299.445	331.69
299.675	315.69
299.905	319.69
300.136	301.69
300.366	333.69
300.597	322.69
300.827	330.69
301.057	331.69
301.288	341.69
301.518	323.69
301.748	332.69
301.979	335.69
302.209	308.69
302.439	326.69
302.669	346.69
302.9	346.69
303.13	355.69
303.36	324.69
303.59	357.69
303.82	365.69
304.051	343.69
304.281	326.69
304.511	341.69
304.741	337.69
304.971	345.69
305.201	339.69
305.431	342.69
305.661	343.69
305.891	331.69
306.121	341.69
306.352	353.69
306.582	351.69
306.812	335.69
307.042	337.69
307.272	333.69
307.502	347.69
307.731	369.69
307.961	323.69
308.191	336.69
308.421	350.69
308.651	347.69
308.881	348.69
309.111	343.69
309.341	356.69
309.571	354.69
309.8	364.69
310.03	360.69
310.26	373.69
310.49	397.69
310.72	403.69
310.949	397.69
311.179	393.69
311.409	376.69
311.639	393.69
311.868	387.69
312.098	394.69
312.328	386.69
312.557	406.69
312.787	421.69
313.017	402.69
313.246	404.69
313.476	385.69
313.706	366.69
313.935	392.69
314.165	414.69
314.394	407.69
314.624	388.69
314.853	381.69
315.083	388.69
315.312	412.69
315.542	385.69
315.771	373.69
316.001	393.69
316.23	389.69
316.46	374.69
316.689	403.69
316.919	393.69
317.148	397.69
317.377	397.69
317.607	382.69
317.836	398.69
318.065	395.69
318.295	380.69
318.524	396.69
318.753	397.69
318.983	383.69
319.212	399.69
319.441	405.69
319.67	404.69
319.9	395.69
320.129	392.69
320.358	398.69
320.587	402.69
320.816	401.69
321.046	417.69
321.275	411.69
321.504	420.69
321.733	410.69
321.962	428.69
322.191	421.69
322.42	433.69
322.649	443.69
322.878	467.69
323.108	471.69
323.337	490.69
323.566	528.69
323.795	545.69
324.024	571.69
324.253	678.69
324.482	1001.69
324.71	1494.69
324.939	2008.69
325.168	1696.69
325.397	907.69
325.626	648.69
325.855	548.69
326.084	528.69
326.313	499.69
326.542	520.69
326.77	561.69
326.999	665.69
327.228	912.69
327.457	1313.69
327.686	1507.69
327.914	1031.69
328.143	702.69
328.372	627.69
328.6	586.69
328.829	561.69
329.058	569.69
329.287	574.69
329.515	550.69
329.744	522.69
329.972	530.69
330.201	528.69
330.43	561.69
330.658	570.69
330.887	571.69
331.115	559.69
331.344	506.69
331.572	499.69
331.801	510.69
332.03	468.69
332.258	498.69
332.486	459.69
332.715	449.69
332.943	450.69
333.172	461.69
333.4	451.69
333.629	465.69
333.857	469.69
334.085	481.69
334.314	480.69
334.542	518.69
334.771	526.69
334.999	484.69
335.227	463.69
335.455	458.69
335.684	469.69
335.912	460.69
336.14	428.69
336.369	440.69
336.597	452.69
336.825	462.69
337.053	447.69
337.281	429.69
337.51	430.69
337.738	445.69
337.966	451.69
338.194	445.69
338.422	450.69
338.65	437.69
338.878	427.69
339.106	410.69
339.334	426.69
339.562	422.69
339.79	433.69
340.018	415.69
340.246	414.69
340.474	417.69
340.702	424.69
340.93	420.69
341.158	432.69
341.386	441.69
341.614	412.69
341.842	439.69
342.07	414.69
342.298	398.69
342.526	422.69
342.754	411.69
342.981	414.69
343.209	413.69
343.437	411.69
343.665	412.69
343.893	399.69
344.12	418.69
344.348	427.69
344.576	431.69
344.804	407.69
345.031	457.69
345.259	453.69
345.487	434.69
345.714	431.69
345.942	429.69
346.17	400.69
346.397	409.69
346.625	394.69
346.853	411.69
347.08	406.69
347.308	398.69
347.535	435.69
347.763	433.69
347.99	416.69
348.218	429.69
348.445	408.69
348.673	419.69
348.9	419.69
349.128	408.69
349.355	410.69
349.583	405.69
349.81	379.69
350.037	396.69
350.265	385.69
350.492	392.69
350.72	393.69
350.947	402.69
351.174	419.69
351.402	403.69
351.629	404.69
351.856	397.69
352.083	402.69
352.311	409.69
352.538	413.69
352.765	423.69
352.992	410.69
353.22	401.69
353.447	378.69
353.674	399.69
353.901	400.69
354.128	391.69
354.355	385.69
354.583	385.69
354.81	366.69
355.037	363.69
355.264	380.69
355.491	363.69
355.718	371.69
355.945	374.69
356.172	367.69
356.399	381.69
356.626	369.69
356.853	358.69
357.08	367.69
357.307	362.69
357.534	381.69
357.761	353.69
357.988	375.69
358.215	362.69
358.441	362.69
358.668	369.69
358.895	371.69
359.122	392.69
359.349	401.69
359.576	387.69
359.802	407.69
360.029	436.69
360.256	423.69
360.483	415.69
360.709	397.69
360.936	382.69
361.163	378.69
361.39	389.69
361.616	413.69
361.843	417.69
362.07	379.69
362.296	402.69
362.523	395.69
362.749	394.69
362.976	419.69
363.203	382.69
363.429	359.69
363.656	374.69
363.882	377.69
364.109	396.69
364.335	378.69
364.562	379.69
364.788	378.69
365.015	379.69
365.241	379.69
365.468	373.69
365.694	360.69
365.92	366.69
366.147	366.69
366.373	387.69
366.599	363.69
366.826	362.69
367.052	349.69
367.278	359.69
367.505	343.69
367.731	381.69
367.957	354.69
368.184	383.69
368.41	377.69
368.636	389.69
368.862	385.69
369.089	380.69
369.315	381.69
369.541	353.69
369.767	363.69
369.993	366.69
370.219	362.69
370.445	370.69
370.672	374.69
370.898	359.69
371.124	371.69
371.35	373.69
371.576	370.69
371.802	348.69
372.028	358.69
372.254	354.69
372.48	359.69
372.706	354.69
372.932	359.69
373.158	354.69
373.384	365.69
373.61	373.69
373.835	354.69
374.061	368.69
374.287	371.69
374.513	375.69
374.739	358.69
374.965	364.69
375.191	360.69
375.416	365.69
375.642	370.69
375.868	381.69
376.094	370.69
376.319	350.69
376.545	365.69
376.771	351.69
376.997	337.69
377.222	359.69
377.448	348.69
377.674	347.69
377.899	367.69
378.125	358.69
378.35	370.69
378.576	366.69
378.802	353.69
379.027	343.69
379.253	375.69
379.478	371.69
379.704	370.69
379.929	355.69
380.155	377.69
380.38	353.69
380.606	367.69
380.831	342.69
381.057	367.69
381.282	364.69
381.507	364.69
381.733	366.69
381.958	335.69
382.184	365.69
382.409	366.69
382.634	367.69
382.86	356.69
383.085	354.69
383.31	352.69
383.535	350.69
383.761	357.69
383.986	371.69
384.211	375.69
384.436	378.69
384.662	367.69
384.887	354.69
385.112	366.69
385.337	376.69
385.562	373.69
385.787	379.69
386.013	369.69
386.238	388.69
386.463	389.69
386.688	374.69
386.913	384.69
387.138	389.69
387.363	366.69
387.588	379.69
387.813	353.69
388.038	379.69
388.263	387.69
388.488	379.69
388.713	382.69
388.938	374.69
389.163	374.69
389.387	387.69
389.612	370.69
389.837	352.69
390.062	374.69
390.287	355.69
390.512	362.69
390.736	377.69
390.961	343.69
391.186	369.69
391.411	373.69
391.636	378.69
391.86	378.69
392.085	379.69
392.31	379.69
392.534	384.69
392.759	376.69
392.984	397.69
393.208	385.69
393.433	360.69
393.658	381.69
393.882	367.69
394.107	378.69
394.331	387.69
394.556	381.69
394.78	363.69
395.005	362.69
395.229	365.69
395.454	375.69
395.678	383.69
395.903	399.69
396.127	399.69
396.352	435.69
396.576	390.69
396.801	385.69
397.025	374.69
397.249	380.69
397.474	391.69
397.698	399.69
397.922	418.69
398.147	429.69
398.371	428.69
398.595	406.69
398.82	417.69
399.044	427.69
399.268	443.69
399.492	445.69
399.717	474.69
399.941	491.69
400.165	503.69
400.389	522.69
400.613	487.69
400.837	450.69
401.062	439.69
401.286	438.69
401.51	450.69
401.734	428.69
401.958	430.69
402.182	426.69
402.406	412.69
402.63	435.69
402.854	425.69
403.078	450.69
403.302	447.69
403.526	440.69
403.75	427.69
403.974	429.69
404.198	446.69
404.422	439.69
404.645	445.69
404.869	440.69
405.093	460.69
405.317	482.69
405.541	527.69
405.765	489.69
405.988	454.69
406.212	454.69
406.436	466.69
406.66	478.69
406.883	467.69
407.107	498.69
407.331	511.69
407.555	556.69
407.778	553.69
408.002	521.69
408.226	483.69
408.449	493.69
408.673	472.69
408.896	502.69
409.12	528.69
409.344	487.69
409.567	451.69
409.791	457.69
410.014	449.69
410.238	438.69
410.461	431.69
410.685	436.69
410.908	447.69
411.132	482.69
411.355	500.69
411.578	484.69
411.802	421.69
412.025	424.69
412.249	448.69
412.472	457.69
412.695	492.69
412.919	492.69
413.142	438.69
413.365	432.69
413.589	418.69
413.812	424.69
414.035	399.69
414.258	402.69
414.482	408.69
414.705	405.69
414.928	406.69
415.151	411.69
415.374	422.69
415.597	410.69
415.821	384.69
416.044	411.69
416.267	427.69
416.49	393.69
416.713	413.69
416.936	418.69
417.159	395.69
417.382	411.69
417.605	403.69
417.828	413.69
418.051	425.69
418.274	430.69
418.497	419.69
418.72	415.69
418.943	407.69
419.166	410.69
419.389	454.69
419.611	429.69
419.834	442.69
420.057	438.69
420.28	422.69
420.503	425.69
420.726	433.69
420.948	449.69
421.171	478.69
421.394	495.69
421.617	438.69
421.839	414.69
422.062	420.69
422.285	433.69
422.507	494.69
422.73	539.69
422.953	528.69
423.175	464.69
423.398	449.69
423.621	470.69
423.843	457.69
424.066	451.69
424.288	454.69
424.511	481.69
424.733	519.69
424.956	584.69
425.178	577.69
425.401	559.69
425.623	571.69
425.846	508.69
426.068	463.69
426.291	465.69
426.513	465.69
426.735	455.69
426.958	500.69
427.18	571.69
427.402	690.69
427.625	725.69
427.847	626.69
428.069	538.69
428.292	513.69
428.514	445.69
428.736	426.69
428.958	452.69
429.181	423.69
429.403	405.69
429.625	457.69
429.847	458.69
430.069	519.69
430.292	524.69
430.514	435.69
430.736	420.69
430.958	425.69
431.18	405.69
431.402	408.69
431.624	394.69
431.846	399.69
432.068	399.69
432.29	391.69
432.512	398.69
432.734	417.69
432.956	391.69
433.178	404.69
433.4	394.69
433.622	405.69
433.844	413.69
434.066	396.69
434.287	395.69
434.509	393.69
434.731	426.69
434.953	428.69
435.175	434.69
435.397	443.69
435.618	437.69
435.84	483.69
436.062	559.69
436.284	627.69
436.505	525.69
436.727	487.69
436.949	436.69
437.17	427.69
437.392	417.69
437.614	436.69
437.835	465.69
438.057	541.69
438.278	643.69
438.5	629.69
438.721	695.69
438.943	654.69
439.165	509.69
439.386	481.69
439.608	461.69
439.829	490.69
440.05	465.69
440.272	537.69
440.493	508.69
440.715	455.69
440.936	427.69
441.158	413.69
441.379	415.69
441.6	432.69
441.822	476.69
442.043	512.69
442.264	567.69
442.486	583.69
442.707	493.69
442.928	489.69
443.149	477.69
443.371	491.69
443.592	512.69
443.813	613.69
444.034	652.69
444.255	531.69
444.476	479.69
444.698	473.69
444.919	478.69
445.14	554.69
445.361	511.69
445.582	507.69
445.803	539.69
446.024	629.69
446.245	637.69
446.466	578.69
446.687	514.69
446.908	461.69
447.129	457.69
447.35	421.69
447.571	421.69
447.792	397.69
448.013	427.69
448.234	436.69
448.455	517.69
448.675	577.69
448.896	653.69
449.117	564.69
449.338	539.69
449.559	638.69
449.779	713.69
450	566.69
450.221	469.69
450.442	445.69
450.662	437.69
450.883	399.69
451.104	439.69
451.324	400.69
451.545	389.69
451.766	382.69
451.986	369.69
452.207	381.69
452.428	389.69
452.648	386.69
452.869	391.69
453.089	388.69
453.31	387.69
453.53	373.69
453.751	368.69
453.971	385.69
454.192	392.69
454.412	394.69
454.633	372.69
454.853	376.69
455.073	366.69
455.294	397.69
455.514	462.69
455.734	426.69
455.955	365.69
456.175	349.69
456.395	366.69
456.616	348.69
456.836	367.69
457.056	339.69
457.276	334.69
457.497	354.69
457.717	369.69
457.937	345.69
458.157	374.69
458.377	377.69
458.598	381.69
458.818	426.69
459.038	486.69
459.258	505.69
459.478	421.69
459.698	392.69
459.918	381.69
460.138	390.69
460.358	405.69
460.578	393.69
460.798	391.69
461.018	390.69
461.238	395.69
461.458	387.69
461.678	377.69
461.898	408.69
462.118	394.69
462.338	402.69
462.558	406.69
462.777	418.69
462.997	411.69
463.217	396.69
463.437	405.69
463.657	411.69
463.876	421.69
464.096	414.69
464.316	421.69
464.536	418.69
464.755	421.69
464.975	422.69
465.195	438.69
465.414	488.69
465.634	451.69
465.854	426.69
466.073	403.69
466.293	389.69
466.512	385.69
466.732	364.69
466.951	389.69
467.171	375.69
467.391	378.69
467.61	371.69
467.829	393.69
468.049	406.69
468.268	393.69
468.488	373.69
468.707	378.69
468.927	378.69
469.146	372.69
469.365	366.69
469.585	362.69
469.804	383.69
470.023	379.69
470.243	394.69
470.462	392.69
470.681	429.69
470.901	385.69
471.12	385.69
471.339	393.69
471.558	402.69
471.777	385.69
471.997	387.69
472.216	406.69
472.435	405.69
472.654	415.69
472.873	383.69
473.092	380.69
473.311	376.69
473.53	376.69
473.749	379.69
473.968	422.69
474.187	513.69
474.406	519.69
474.625	438.69
474.844	401.69
475.063	399.69
475.282	387.69
475.501	388.69
475.72	405.69
475.939	409.69
476.158	413.69
476.377	409.69
476.596	414.69
476.814	416.69
477.033	426.69
477.252	428.69
477.471	396.69
477.69	406.69
477.908	406.69
478.127	428.69
478.346	410.69
478.564	422.69
478.783	429.69
479.002	446.69
479.22	437.69
479.439	445.69
479.658	452.69
479.876	431.69
480.095	463.69
480.313	490.69
480.532	487.69
480.751	477.69
480.969	476.69
481.188	517.69
481.406	507.69
481.624	463.69
481.843	459.69
482.061	472.69
482.28	435.69
482.498	451.69
482.717	459.69
482.935	466.69
483.153	433.69
483.372	455.69
483.59	460.69
483.808	464.69
484.027	449.69
484.245	449.69
484.463	441.69
484.681	466.69
484.9	450.69
485.118	453.69
485.336	452.69
485.554	460.69
485.772	455.69
485.99	464.69
486.209	469.69
486.427	457.69
486.645	475.69
486.863	494.69
487.081	480.69
487.299	477.69
487.517	473.69
487.735	494.69
487.953	499.69
488.171	487.69
488.389	467.69
488.607	479.69
488.825	477.69
489.043	489.69
489.261	489.69
489.479	501.69
489.696	511.69
489.914	513.69
490.132	507.69
490.35	512.69
490.568	541.69
490.786	509.69
491.003	521.69
491.221	544.69
491.439	552.69
491.657	551.69
491.874	549.69
492.092	575.69
492.31	575.69
492.527	568.69
492.745	561.69
492.963	570.69
493.18	588.69
493.398	562.69
493.615	563.69
493.833	564.69
494.05	562.69
494.268	555.69
494.485	563.69
494.703	538.69
494.92	552.69
495.138	570.69
495.355	574.69
495.573	577.69
495.79	561.69
496.008	589.69
496.225	565.69
496.442	581.69
496.66	575.69
496.877	567.69
497.094	577.69
497.312	575.69
497.529	584.69
497.746	601.69
497.963	607.69
498.181	600.69
498.398	619.69
498.615	626.69
498.832	617.69
499.049	637.69
499.267	644.69
499.484	655.69
499.701	662.69
499.918	685.69
500.135	717.69
500.352	731.69
500.569	757.69
500.786	775.69
501.003	737.69
501.22	720.69
501.437	728.69
501.654	713.69
501.871	712.69
