Data from 1971.PennyLincolnUp.Lamp.En5.5.200Scan.071719.P1._HRD10591_15-18-22-841.txt Node
Date: Thu Jul 18 15:18:22 EDT 2019
User: cochatt
Spectrometer: HR+D1059
Trigger mode: 1
Integration Time (sec): 1.000000E-1
Scans to average: 1
Electric dark correction enabled: true
Nonlinearity correction enabled: false
Boxcar width: 0
XAxis mode: Wavelengths
Number of Pixels in Spectrum: 2048
>>>>>Begin Spectral Data<<<<<
223.165	-17.19
223.4	-17.19
223.635	-17.19
223.869	-26.19
224.104	-11.19
224.338	-24.19
224.573	-5.19
224.808	-7.19
225.042	-12.19
225.277	-13.19
225.511	1.81
225.746	5.81
225.98	1.81
226.215	8.81
226.449	11.81
226.683	21.81
226.918	28.81
227.152	35.81
227.387	32.81
227.621	33.81
227.856	40.81
228.09	36.81
228.324	37.81
228.559	69.81
228.793	66.81
229.027	80.81
229.262	96.81
229.496	97.81
229.73	98.81
229.964	138.81
230.199	124.81
230.433	104.81
230.667	90.81
230.901	93.81
231.136	109.81
231.37	123.81
231.604	97.81
231.838	97.81
232.072	98.81
232.306	106.81
232.541	101.81
232.775	109.81
233.009	115.81
233.243	104.81
233.477	101.81
233.711	102.81
233.945	106.81
234.179	113.81
234.413	115.81
234.647	119.81
234.881	107.81
235.115	118.81
235.349	123.81
235.583	98.81
235.817	106.81
236.051	108.81
236.285	119.81
236.519	125.81
236.753	125.81
236.987	131.81
237.221	150.81
237.455	182.81
237.689	161.81
237.922	126.81
238.156	118.81
238.39	124.81
238.624	113.81
238.858	112.81
239.091	132.81
239.325	115.81
239.559	109.81
239.793	118.81
240.027	117.81
240.26	130.81
240.494	131.81
240.728	147.81
240.961	142.81
241.195	119.81
241.429	113.81
241.662	131.81
241.896	125.81
242.13	119.81
242.363	117.81
242.597	123.81
242.83	124.81
243.064	140.81
243.298	126.81
243.531	136.81
243.765	129.81
243.998	127.81
244.232	132.81
244.465	134.81
244.699	135.81
244.932	142.81
245.166	118.81
245.399	166.81
245.633	161.81
245.866	142.81
246.099	143.81
246.333	137.81
246.566	138.81
246.8	131.81
247.033	146.81
247.266	146.81
247.5	150.81
247.733	165.81
247.966	142.81
248.2	147.81
248.433	171.81
248.666	168.81
248.899	158.81
249.133	177.81
249.366	194.81
249.599	179.81
249.832	184.81
250.066	167.81
250.299	184.81
250.532	176.81
250.765	164.81
250.998	205.81
251.231	204.81
251.465	178.81
251.698	194.81
251.931	192.81
252.164	173.81
252.397	173.81
252.63	190.81
252.863	207.81
253.096	200.81
253.329	213.81
253.562	213.81
253.795	212.81
254.028	195.81
254.261	213.81
254.494	221.81
254.727	234.81
254.96	233.81
255.193	232.81
255.426	217.81
255.659	222.81
255.892	201.81
256.124	219.81
256.357	212.81
256.59	199.81
256.823	206.81
257.056	183.81
257.289	200.81
257.521	197.81
257.754	214.81
257.987	193.81
258.22	175.81
258.452	194.81
258.685	192.81
258.918	176.81
259.151	201.81
259.383	210.81
259.616	204.81
259.849	206.81
260.081	212.81
260.314	240.81
260.547	253.81
260.779	228.81
261.012	214.81
261.244	195.81
261.477	212.81
261.71	208.81
261.942	201.81
262.175	219.81
262.407	217.81
262.64	201.81
262.872	209.81
263.105	198.81
263.337	194.81
263.57	194.81
263.802	211.81
264.035	186.81
264.267	203.81
264.499	184.81
264.732	191.81
264.964	194.81
265.197	208.81
265.429	207.81
265.661	196.81
265.894	193.81
266.126	205.81
266.358	211.81
266.591	208.81
266.823	217.81
267.055	212.81
267.287	220.81
267.52	205.81
267.752	220.81
267.984	219.81
268.216	219.81
268.448	213.81
268.681	219.81
268.913	221.81
269.145	253.81
269.377	252.81
269.609	232.81
269.841	252.81
270.073	230.81
270.306	256.81
270.538	271.81
270.77	266.81
271.002	289.81
271.234	286.81
271.466	268.81
271.698	259.81
271.93	297.81
272.162	295.81
272.394	282.81
272.626	263.81
272.858	285.81
273.09	268.81
273.322	268.81
273.553	241.81
273.785	258.81
274.017	244.81
274.249	220.81
274.481	224.81
274.713	232.81
274.945	250.81
275.176	234.81
275.408	244.81
275.64	256.81
275.872	238.81
276.104	236.81
276.335	237.81
276.567	260.81
276.799	250.81
277.031	264.81
277.262	277.81
277.494	266.81
277.726	286.81
277.957	269.81
278.189	266.81
278.421	238.81
278.652	259.81
278.884	252.81
279.115	252.81
279.347	231.81
279.579	264.81
279.81	243.81
280.042	265.81
280.273	233.81
280.505	253.81
280.736	251.81
280.968	244.81
281.199	253.81
281.431	256.81
281.662	258.81
281.894	273.81
282.125	237.81
282.356	264.81
282.588	272.81
282.819	271.81
283.051	260.81
283.282	246.81
283.513	253.81
283.745	276.81
283.976	264.81
284.207	263.81
284.439	267.81
284.67	252.81
284.901	269.81
285.132	262.81
285.364	252.81
285.595	249.81
285.826	247.81
286.057	267.81
286.288	263.81
286.52	236.81
286.751	270.81
286.982	253.81
287.213	260.81
287.444	260.81
287.675	253.81
287.906	276.81
288.138	284.81
288.369	264.81
288.6	282.81
288.831	282.81
289.062	276.81
289.293	274.81
289.524	283.81
289.755	259.81
289.986	267.81
290.217	252.81
290.448	266.81
290.679	264.81
290.91	244.81
291.141	253.81
291.371	268.81
291.602	263.81
291.833	276.81
292.064	266.81
292.295	267.81
292.526	268.81
292.757	254.81
292.987	282.81
293.218	278.81
293.449	283.81
293.68	271.81
293.91	261.81
294.141	262.81
294.372	267.81
294.603	262.81
294.833	278.81
295.064	274.81
295.295	269.81
295.525	277.81
295.756	278.81
295.987	270.81
296.217	291.81
296.448	297.81
296.679	287.81
296.909	263.81
297.14	274.81
297.37	284.81
297.601	284.81
297.831	284.81
298.062	266.81
298.292	278.81
298.523	274.81
298.753	274.81
298.984	286.81
299.214	282.81
299.445	288.81
299.675	276.81
299.905	280.81
300.136	270.81
300.366	281.81
300.597	280.81
300.827	317.81
301.057	291.81
301.288	318.81
301.518	292.81
301.748	285.81
301.979	280.81
302.209	286.81
302.439	304.81
302.669	300.81
302.9	308.81
303.13	308.81
303.36	326.81
303.59	299.81
303.82	301.81
304.051	318.81
304.281	301.81
304.511	290.81
304.741	297.81
304.971	282.81
305.201	312.81
305.431	313.81
305.661	331.81
305.891	305.81
306.121	315.81
306.352	322.81
306.582	291.81
306.812	302.81
307.042	289.81
307.272	308.81
307.502	315.81
307.731	297.81
307.961	308.81
308.191	311.81
308.421	315.81
308.651	312.81
308.881	321.81
309.111	296.81
309.341	300.81
309.571	306.81
309.8	329.81
310.03	318.81
310.26	338.81
310.49	339.81
310.72	339.81
310.949	343.81
311.179	353.81
311.409	328.81
311.639	320.81
311.868	330.81
312.098	329.81
312.328	359.81
312.557	349.81
312.787	362.81
313.017	343.81
313.246	340.81
313.476	333.81
313.706	342.81
313.935	337.81
314.165	346.81
314.394	354.81
314.624	347.81
314.853	360.81
315.083	346.81
315.312	331.81
315.542	339.81
315.771	339.81
316.001	338.81
316.23	333.81
316.46	352.81
316.689	334.81
316.919	354.81
317.148	353.81
317.377	345.81
317.607	352.81
317.836	333.81
318.065	324.81
318.295	345.81
318.524	334.81
318.753	332.81
318.983	341.81
319.212	363.81
319.441	341.81
319.67	339.81
319.9	346.81
320.129	360.81
320.358	339.81
320.587	354.81
320.816	346.81
321.046	364.81
321.275	354.81
321.504	352.81
321.733	360.81
321.962	391.81
322.191	403.81
322.42	375.81
322.649	402.81
322.878	407.81
323.108	414.81
323.337	408.81
323.566	417.81
323.795	457.81
324.024	481.81
324.253	571.81
324.482	804.81
324.71	1172.81
324.939	1613.81
325.168	1330.81
325.397	713.81
325.626	512.81
325.855	424.81
326.084	434.81
326.313	438.81
326.542	423.81
326.77	460.81
326.999	550.81
327.228	709.81
327.457	1052.81
327.686	1186.81
327.914	822.81
328.143	572.81
328.372	499.81
328.6	468.81
328.829	456.81
329.058	470.81
329.287	485.81
329.515	465.81
329.744	424.81
329.972	430.81
330.201	452.81
330.43	466.81
330.658	500.81
330.887	488.81
331.115	469.81
331.344	427.81
331.572	402.81
331.801	445.81
332.03	423.81
332.258	407.81
332.486	393.81
332.715	423.81
332.943	394.81
333.172	398.81
333.4	402.81
333.629	392.81
333.857	395.81
334.085	414.81
334.314	404.81
334.542	410.81
334.771	463.81
334.999	406.81
335.227	412.81
335.455	405.81
335.684	411.81
335.912	396.81
336.14	389.81
336.369	378.81
336.597	400.81
336.825	398.81
337.053	398.81
337.281	388.81
337.51	374.81
337.738	392.81
337.966	381.81
338.194	397.81
338.422	381.81
338.65	380.81
338.878	376.81
339.106	367.81
339.334	372.81
339.562	368.81
339.79	374.81
340.018	369.81
340.246	365.81
340.474	397.81
340.702	382.81
340.93	378.81
341.158	367.81
341.386	389.81
341.614	383.81
341.842	394.81
342.07	357.81
342.298	380.81
342.526	357.81
342.754	368.81
342.981	372.81
343.209	378.81
343.437	363.81
343.665	383.81
343.893	390.81
344.12	405.81
344.348	407.81
344.576	373.81
344.804	366.81
345.031	404.81
345.259	386.81
345.487	390.81
345.714	360.81
345.942	376.81
346.17	366.81
346.397	374.81
346.625	376.81
346.853	354.81
347.08	344.81
347.308	373.81
347.535	381.81
347.763	349.81
347.99	346.81
348.218	379.81
348.445	365.81
348.673	352.81
348.9	348.81
349.128	347.81
349.355	365.81
349.583	348.81
349.81	349.81
350.037	360.81
350.265	343.81
350.492	327.81
350.72	336.81
350.947	350.81
351.174	347.81
351.402	374.81
351.629	352.81
351.856	342.81
352.083	357.81
352.311	369.81
352.538	360.81
352.765	357.81
352.992	362.81
353.22	348.81
353.447	346.81
353.674	349.81
353.901	347.81
354.128	349.81
354.355	340.81
354.583	334.81
354.81	336.81
355.037	324.81
355.264	334.81
355.491	342.81
355.718	332.81
355.945	340.81
356.172	327.81
356.399	322.81
356.626	322.81
356.853	337.81
357.08	333.81
357.307	320.81
357.534	355.81
357.761	339.81
357.988	313.81
358.215	338.81
358.441	336.81
358.668	345.81
358.895	338.81
359.122	331.81
359.349	324.81
359.576	348.81
359.802	376.81
360.029	373.81
360.256	375.81
360.483	370.81
360.709	351.81
360.936	330.81
361.163	344.81
361.39	352.81
361.616	353.81
361.843	349.81
362.07	337.81
362.296	331.81
362.523	356.81
362.749	353.81
362.976	340.81
363.203	337.81
363.429	339.81
363.656	344.81
363.882	347.81
364.109	369.81
364.335	333.81
364.562	342.81
364.788	345.81
365.015	335.81
365.241	341.81
365.468	334.81
365.694	323.81
365.92	346.81
366.147	330.81
366.373	328.81
366.599	321.81
366.826	345.81
367.052	334.81
367.278	337.81
367.505	320.81
367.731	322.81
367.957	328.81
368.184	332.81
368.41	346.81
368.636	346.81
368.862	352.81
369.089	337.81
369.315	325.81
369.541	333.81
369.767	334.81
369.993	312.81
370.219	338.81
370.445	335.81
370.672	348.81
370.898	333.81
371.124	324.81
371.35	317.81
371.576	333.81
371.802	341.81
372.028	328.81
372.254	322.81
372.48	320.81
372.706	330.81
372.932	336.81
373.158	317.81
373.384	341.81
373.61	337.81
373.835	341.81
374.061	333.81
374.287	342.81
374.513	334.81
374.739	338.81
374.965	345.81
375.191	331.81
375.416	328.81
375.642	341.81
375.868	349.81
376.094	337.81
376.319	330.81
376.545	314.81
376.771	299.81
376.997	315.81
377.222	311.81
377.448	345.81
377.674	313.81
377.899	314.81
378.125	319.81
378.35	317.81
378.576	316.81
378.802	317.81
379.027	305.81
379.253	317.81
379.478	331.81
379.704	324.81
379.929	341.81
380.155	308.81
380.38	322.81
380.606	342.81
380.831	324.81
381.057	324.81
381.282	311.81
381.507	325.81
381.733	322.81
381.958	325.81
382.184	329.81
382.409	341.81
382.634	330.81
382.86	326.81
383.085	344.81
383.31	324.81
383.535	323.81
383.761	346.81
383.986	325.81
384.211	340.81
384.436	337.81
384.662	339.81
384.887	327.81
385.112	332.81
385.337	340.81
385.562	339.81
385.787	339.81
386.013	356.81
386.238	348.81
386.463	342.81
386.688	337.81
386.913	326.81
387.138	347.81
387.363	339.81
387.588	340.81
387.813	350.81
388.038	339.81
388.263	336.81
388.488	339.81
388.713	358.81
388.938	338.81
389.163	347.81
389.387	345.81
389.612	327.81
389.837	340.81
390.062	328.81
390.287	347.81
390.512	329.81
390.736	344.81
390.961	351.81
391.186	356.81
391.411	349.81
391.636	354.81
391.86	381.81
392.085	364.81
392.31	349.81
392.534	328.81
392.759	354.81
392.984	359.81
393.208	352.81
393.433	361.81
393.658	361.81
393.882	350.81
394.107	340.81
394.331	342.81
394.556	358.81
394.78	348.81
395.005	343.81
395.229	330.81
395.454	344.81
395.678	354.81
395.903	370.81
396.127	380.81
396.352	379.81
396.576	343.81
396.801	354.81
397.025	370.81
397.249	369.81
397.474	353.81
397.698	344.81
397.922	378.81
398.147	379.81
398.371	375.81
398.595	371.81
398.82	363.81
399.044	399.81
399.268	387.81
399.492	404.81
399.717	428.81
399.941	437.81
400.165	456.81
400.389	456.81
400.613	417.81
400.837	384.81
401.062	403.81
401.286	392.81
401.51	382.81
401.734	398.81
401.958	394.81
402.182	407.81
402.406	390.81
402.63	404.81
402.854	379.81
403.078	382.81
403.302	387.81
403.526	361.81
403.75	388.81
403.974	379.81
404.198	387.81
404.422	396.81
404.645	391.81
404.869	392.81
405.093	420.81
405.317	437.81
405.541	456.81
405.765	432.81
405.988	402.81
406.212	395.81
406.436	426.81
406.66	408.81
406.883	440.81
407.107	424.81
407.331	481.81
407.555	493.81
407.778	512.81
408.002	482.81
408.226	440.81
408.449	419.81
408.673	429.81
408.896	434.81
409.12	481.81
409.344	436.81
409.567	418.81
409.791	400.81
410.014	396.81
410.238	390.81
410.461	362.81
410.685	384.81
410.908	408.81
411.132	434.81
411.355	442.81
411.578	436.81
411.802	410.81
412.025	380.81
412.249	384.81
412.472	418.81
412.695	418.81
412.919	424.81
413.142	399.81
413.365	372.81
413.589	369.81
413.812	378.81
414.035	354.81
414.258	376.81
414.482	372.81
414.705	382.81
414.928	380.81
415.151	366.81
415.374	363.81
415.597	375.81
415.821	363.81
416.044	360.81
416.267	363.81
416.49	371.81
416.713	374.81
416.936	366.81
417.159	365.81
417.382	359.81
417.605	360.81
417.828	376.81
418.051	384.81
418.274	361.81
418.497	377.81
418.72	366.81
418.943	372.81
419.166	363.81
419.389	412.81
419.611	408.81
419.834	374.81
420.057	365.81
420.28	380.81
420.503	390.81
420.726	378.81
420.948	390.81
421.171	424.81
421.394	444.81
421.617	406.81
421.839	386.81
422.062	385.81
422.285	379.81
422.507	433.81
422.73	483.81
422.953	467.81
423.175	424.81
423.398	393.81
423.621	402.81
423.843	418.81
424.066	421.81
424.288	395.81
424.511	416.81
424.733	467.81
424.956	518.81
425.178	493.81
425.401	496.81
425.623	485.81
425.846	440.81
426.068	418.81
426.291	410.81
426.513	415.81
426.735	438.81
426.958	442.81
427.18	516.81
427.402	592.81
427.625	644.81
427.847	526.81
428.069	500.81
428.292	452.81
428.514	394.81
428.736	385.81
428.958	394.81
429.181	382.81
429.403	387.81
429.625	409.81
429.847	402.81
430.069	455.81
430.292	443.81
430.514	381.81
430.736	361.81
430.958	361.81
431.18	370.81
431.402	385.81
431.624	350.81
431.846	368.81
432.068	333.81
432.29	353.81
432.512	375.81
432.734	339.81
432.956	348.81
433.178	389.81
433.4	390.81
433.622	377.81
433.844	358.81
434.066	342.81
434.287	349.81
434.509	351.81
434.731	358.81
434.953	379.81
435.175	386.81
435.397	404.81
435.618	418.81
435.84	436.81
436.062	502.81
436.284	541.81
436.505	478.81
436.727	419.81
436.949	392.81
437.17	384.81
437.392	384.81
437.614	380.81
437.835	424.81
438.057	468.81
438.278	532.81
438.5	548.81
438.721	596.81
438.943	572.81
439.165	458.81
439.386	418.81
439.608	419.81
439.829	429.81
440.05	436.81
440.272	454.81
440.493	440.81
440.715	414.81
440.936	380.81
441.158	378.81
441.379	389.81
441.6	405.81
441.822	394.81
442.043	419.81
442.264	477.81
442.486	495.81
442.707	448.81
442.928	427.81
443.149	410.81
443.371	418.81
443.592	456.81
443.813	532.81
444.034	535.81
444.255	471.81
444.476	436.81
444.698	427.81
444.919	417.81
445.14	544.81
445.361	474.81
445.582	444.81
445.803	492.81
446.024	545.81
446.245	554.81
446.466	497.81
446.687	446.81
446.908	408.81
447.129	384.81
447.35	376.81
447.571	374.81
447.792	375.81
448.013	372.81
448.234	396.81
448.455	446.81
448.675	500.81
448.896	565.81
449.117	486.81
449.338	497.81
449.559	576.81
449.779	608.81
450	492.81
450.221	414.81
450.442	372.81
450.662	377.81
450.883	370.81
451.104	380.81
451.324	348.81
451.545	352.81
451.766	364.81
451.986	344.81
452.207	324.81
452.428	342.81
452.648	330.81
452.869	344.81
453.089	338.81
453.31	332.81
453.53	346.81
453.751	339.81
453.971	326.81
454.192	339.81
454.412	344.81
454.633	317.81
454.853	324.81
455.073	316.81
455.294	353.81
455.514	394.81
455.734	376.81
455.955	338.81
456.175	335.81
456.395	308.81
456.616	309.81
456.836	322.81
457.056	302.81
457.276	296.81
457.497	317.81
457.717	315.81
457.937	306.81
458.157	331.81
458.377	328.81
458.598	355.81
458.818	379.81
459.038	411.81
459.258	448.81
459.478	376.81
459.698	349.81
459.918	356.81
460.138	348.81
460.358	358.81
460.578	351.81
460.798	346.81
461.018	341.81
461.238	350.81
461.458	375.81
461.678	346.81
461.898	372.81
462.118	358.81
462.338	332.81
462.558	375.81
462.777	358.81
462.997	378.81
463.217	382.81
463.437	391.81
463.657	382.81
463.876	391.81
464.096	386.81
464.316	380.81
464.536	378.81
464.755	365.81
464.975	384.81
465.195	394.81
465.414	414.81
465.634	380.81
465.854	365.81
466.073	361.81
466.293	345.81
466.512	353.81
466.732	338.81
466.951	343.81
467.171	353.81
467.391	346.81
467.61	352.81
467.829	355.81
468.049	354.81
468.268	349.81
468.488	346.81
468.707	341.81
468.927	333.81
469.146	325.81
469.365	327.81
469.585	327.81
469.804	339.81
470.023	360.81
470.243	356.81
470.462	332.81
470.681	354.81
470.901	354.81
471.12	346.81
471.339	357.81
471.558	353.81
471.777	361.81
471.997	347.81
472.216	347.81
472.435	353.81
472.654	352.81
472.873	336.81
473.092	332.81
473.311	348.81
473.53	355.81
473.749	357.81
473.968	389.81
474.187	474.81
474.406	476.81
474.625	396.81
474.844	382.81
475.063	351.81
475.282	364.81
475.501	343.81
475.72	359.81
475.939	375.81
476.158	369.81
476.377	347.81
476.596	352.81
476.814	366.81
477.033	352.81
477.252	372.81
477.471	365.81
477.69	380.81
477.908	374.81
478.127	369.81
478.346	373.81
478.564	392.81
478.783	380.81
479.002	378.81
479.22	391.81
479.439	409.81
479.658	421.81
479.876	409.81
480.095	413.81
480.313	432.81
480.532	419.81
480.751	437.81
480.969	427.81
481.188	440.81
481.406	444.81
481.624	421.81
481.843	417.81
482.061	413.81
482.28	405.81
482.498	391.81
482.717	384.81
482.935	423.81
483.153	387.81
483.372	408.81
483.59	399.81
483.808	411.81
484.027	419.81
484.245	405.81
484.463	409.81
484.681	420.81
484.9	404.81
485.118	397.81
485.336	397.81
485.554	394.81
485.772	429.81
485.99	418.81
486.209	423.81
486.427	426.81
486.645	429.81
486.863	424.81
487.081	426.81
487.299	409.81
487.517	433.81
487.735	411.81
487.953	437.81
488.171	427.81
488.389	420.81
488.607	455.81
488.825	422.81
489.043	428.81
489.261	425.81
489.479	446.81
489.696	453.81
489.914	435.81
490.132	446.81
490.35	459.81
490.568	471.81
490.786	459.81
491.003	470.81
491.221	468.81
491.439	473.81
491.657	465.81
491.874	490.81
492.092	498.81
492.31	521.81
492.527	520.81
492.745	491.81
492.963	486.81
493.18	496.81
493.398	496.81
493.615	501.81
493.833	518.81
494.05	525.81
494.268	491.81
494.485	539.81
494.703	517.81
494.92	497.81
495.138	497.81
495.355	502.81
495.573	501.81
495.79	496.81
496.008	526.81
496.225	519.81
496.442	533.81
496.66	516.81
496.877	516.81
497.094	474.81
497.312	514.81
497.529	534.81
497.746	545.81
497.963	532.81
498.181	523.81
498.398	556.81
498.615	546.81
498.832	571.81
499.049	557.81
499.267	572.81
499.484	580.81
499.701	610.81
499.918	646.81
500.135	660.81
500.352	691.81
500.569	687.81
500.786	659.81
501.003	660.81
501.22	654.81
501.437	635.81
501.654	617.81
501.871	624.81
502.088	595.81
