Data from 1971.PennyLincolnUp.Lamp.En5.5.200Scan.071719.P1.Scan 2. Changed Angle._HRD10591_15-23-39-842.txt Node
Date: Thu Jul 18 15:23:39 EDT 2019
User: cochatt
Spectrometer: HR+D1059
Trigger mode: 1
Integration Time (sec): 1.000000E-1
Scans to average: 1
Electric dark correction enabled: true
Nonlinearity correction enabled: false
Boxcar width: 0
XAxis mode: Wavelengths
Number of Pixels in Spectrum: 2048
>>>>>Begin Spectral Data<<<<<
223.165	-19.75
223.4	-19.75
223.635	-19.75
223.869	-13.75
224.104	-29.75
224.338	-0.75
224.573	-3.75
224.808	-12.75
225.042	-1.75
225.277	-7.75
225.511	-0.75
225.746	-2.75
225.98	10.25
226.215	10.25
226.449	20.25
226.683	3.25
226.918	15.25
227.152	34.25
227.387	28.25
227.621	37.25
227.856	56.25
228.09	50.25
228.324	57.25
228.559	57.25
228.793	74.25
229.027	110.25
229.262	119.25
229.496	146.25
229.73	148.25
229.964	181.25
230.199	142.25
230.433	121.25
230.667	120.25
230.901	123.25
231.136	102.25
231.37	102.25
231.604	123.25
231.838	118.25
232.072	113.25
232.306	120.25
232.541	118.25
232.775	115.25
233.009	114.25
233.243	125.25
233.477	126.25
233.711	125.25
233.945	107.25
234.179	117.25
234.413	111.25
234.647	124.25
234.881	124.25
235.115	129.25
235.349	130.25
235.583	127.25
235.817	132.25
236.051	124.25
236.285	125.25
236.519	147.25
236.753	135.25
236.987	154.25
237.221	204.25
237.455	252.25
237.689	199.25
237.922	158.25
238.156	145.25
238.39	126.25
238.624	140.25
238.858	138.25
239.091	123.25
239.325	119.25
239.559	123.25
239.793	137.25
240.027	124.25
240.26	156.25
240.494	173.25
240.728	168.25
240.961	171.25
241.195	164.25
241.429	148.25
241.662	156.25
241.896	150.25
242.13	134.25
242.363	138.25
242.597	137.25
242.83	151.25
243.064	139.25
243.298	162.25
243.531	130.25
243.765	143.25
243.998	138.25
244.232	136.25
244.465	161.25
244.699	141.25
244.932	155.25
245.166	147.25
245.399	152.25
245.633	149.25
245.866	158.25
246.099	154.25
246.333	174.25
246.566	158.25
246.8	155.25
247.033	162.25
247.266	158.25
247.5	180.25
247.733	181.25
247.966	196.25
248.2	171.25
248.433	190.25
248.666	185.25
248.899	194.25
249.133	214.25
249.366	229.25
249.599	199.25
249.832	207.25
250.066	196.25
250.299	195.25
250.532	211.25
250.765	211.25
250.998	243.25
251.231	241.25
251.465	244.25
251.698	226.25
251.931	217.25
252.164	230.25
252.397	224.25
252.63	227.25
252.863	220.25
253.096	229.25
253.329	254.25
253.562	262.25
253.795	247.25
254.028	242.25
254.261	223.25
254.494	235.25
254.727	291.25
254.96	326.25
255.193	308.25
255.426	286.25
255.659	269.25
255.892	247.25
256.124	251.25
256.357	238.25
256.59	242.25
256.823	228.25
257.056	228.25
257.289	215.25
257.521	233.25
257.754	232.25
257.987	214.25
258.22	233.25
258.452	219.25
258.685	208.25
258.918	214.25
259.151	227.25
259.383	215.25
259.616	225.25
259.849	246.25
260.081	248.25
260.314	258.25
260.547	287.25
260.779	260.25
261.012	251.25
261.244	230.25
261.477	232.25
261.71	232.25
261.942	244.25
262.175	253.25
262.407	264.25
262.64	234.25
262.872	216.25
263.105	218.25
263.337	218.25
263.57	219.25
263.802	236.25
264.035	230.25
264.267	224.25
264.499	216.25
264.732	233.25
264.964	210.25
265.197	219.25
265.429	211.25
265.661	205.25
265.894	213.25
266.126	214.25
266.358	227.25
266.591	221.25
266.823	229.25
267.055	224.25
267.287	207.25
267.52	228.25
267.752	225.25
267.984	222.25
268.216	229.25
268.448	243.25
268.681	234.25
268.913	253.25
269.145	282.25
269.377	267.25
269.609	280.25
269.841	270.25
270.073	291.25
270.306	311.25
270.538	315.25
270.77	338.25
271.002	311.25
271.234	303.25
271.466	318.25
271.698	347.25
271.93	354.25
272.162	345.25
272.394	324.25
272.626	315.25
272.858	302.25
273.09	281.25
273.322	280.25
273.553	289.25
273.785	293.25
274.017	270.25
274.249	254.25
274.481	274.25
274.713	276.25
274.945	284.25
275.176	264.25
275.408	277.25
275.64	272.25
275.872	274.25
276.104	270.25
276.335	279.25
276.567	277.25
276.799	306.25
277.031	310.25
277.262	320.25
277.494	314.25
277.726	312.25
277.957	296.25
278.189	281.25
278.421	270.25
278.652	260.25
278.884	247.25
279.115	260.25
279.347	270.25
279.579	262.25
279.81	271.25
280.042	266.25
280.273	252.25
280.505	267.25
280.736	268.25
280.968	261.25
281.199	273.25
281.431	270.25
281.662	245.25
281.894	257.25
282.125	264.25
282.356	292.25
282.588	303.25
282.819	322.25
283.051	306.25
283.282	264.25
283.513	250.25
283.745	270.25
283.976	272.25
284.207	272.25
284.439	259.25
284.67	257.25
284.901	272.25
285.132	248.25
285.364	254.25
285.595	276.25
285.826	279.25
286.057	262.25
286.288	271.25
286.52	268.25
286.751	255.25
286.982	258.25
287.213	276.25
287.444	278.25
287.675	273.25
287.906	293.25
288.138	287.25
288.369	286.25
288.6	284.25
288.831	286.25
289.062	286.25
289.293	287.25
289.524	261.25
289.755	287.25
289.986	278.25
290.217	269.25
290.448	279.25
290.679	272.25
290.91	263.25
291.141	292.25
291.371	282.25
291.602	264.25
291.833	276.25
292.064	270.25
292.295	291.25
292.526	280.25
292.757	282.25
292.987	298.25
293.218	273.25
293.449	266.25
293.68	279.25
293.91	271.25
294.141	289.25
294.372	275.25
294.603	263.25
294.833	278.25
295.064	268.25
295.295	267.25
295.525	302.25
295.756	299.25
295.987	294.25
296.217	333.25
296.448	346.25
296.679	290.25
296.909	283.25
297.14	285.25
297.37	293.25
297.601	286.25
297.831	283.25
298.062	293.25
298.292	287.25
298.523	278.25
298.753	286.25
298.984	301.25
299.214	286.25
299.445	282.25
299.675	313.25
299.905	307.25
300.136	291.25
300.366	286.25
300.597	286.25
300.827	315.25
301.057	315.25
301.288	327.25
301.518	322.25
301.748	309.25
301.979	308.25
302.209	304.25
302.439	310.25
302.669	316.25
302.9	310.25
303.13	313.25
303.36	315.25
303.59	321.25
303.82	336.25
304.051	338.25
304.281	316.25
304.511	300.25
304.741	315.25
304.971	322.25
305.201	301.25
305.431	296.25
305.661	316.25
305.891	313.25
306.121	320.25
306.352	319.25
306.582	326.25
306.812	335.25
307.042	318.25
307.272	309.25
307.502	339.25
307.731	338.25
307.961	317.25
308.191	335.25
308.421	331.25
308.651	308.25
308.881	316.25
309.111	327.25
309.341	326.25
309.571	358.25
309.8	349.25
310.03	375.25
310.26	360.25
310.49	361.25
310.72	379.25
310.949	401.25
311.179	404.25
311.409	407.25
311.639	381.25
311.868	366.25
312.098	372.25
312.328	388.25
312.557	406.25
312.787	414.25
313.017	411.25
313.246	389.25
313.476	368.25
313.706	384.25
313.935	383.25
314.165	385.25
314.394	414.25
314.624	404.25
314.853	398.25
315.083	384.25
315.312	366.25
315.542	354.25
315.771	365.25
316.001	366.25
316.23	387.25
316.46	380.25
316.689	378.25
316.919	386.25
317.148	373.25
317.377	386.25
317.607	383.25
317.836	392.25
318.065	384.25
318.295	389.25
318.524	378.25
318.753	367.25
318.983	351.25
319.212	373.25
319.441	380.25
319.67	402.25
319.9	376.25
320.129	359.25
320.358	398.25
320.587	384.25
320.816	389.25
321.046	375.25
321.275	390.25
321.504	418.25
321.733	423.25
321.962	436.25
322.191	437.25
322.42	434.25
322.649	462.25
322.878	471.25
323.108	486.25
323.337	523.25
323.566	535.25
323.795	568.25
324.024	648.25
324.253	791.25
324.482	1147.25
324.71	1832.25
324.939	2592.25
325.168	2237.25
325.397	1152.25
325.626	771.25
325.855	622.25
326.084	556.25
326.313	548.25
326.542	550.25
326.77	618.25
326.999	725.25
327.228	1002.25
327.457	1592.25
327.686	1919.25
327.914	1266.25
328.143	838.25
328.372	725.25
328.6	647.25
328.829	602.25
329.058	622.25
329.287	670.25
329.515	626.25
329.744	551.25
329.972	518.25
330.201	560.25
330.43	624.25
330.658	628.25
330.887	677.25
331.115	676.25
331.344	574.25
331.572	520.25
331.801	540.25
332.03	536.25
332.258	498.25
332.486	479.25
332.715	450.25
332.943	452.25
333.172	460.25
333.4	456.25
333.629	439.25
333.857	461.25
334.085	506.25
334.314	494.25
334.542	541.25
334.771	563.25
334.999	511.25
335.227	473.25
335.455	460.25
335.684	455.25
335.912	440.25
336.14	435.25
336.369	414.25
336.597	463.25
336.825	445.25
337.053	431.25
337.281	443.25
337.51	425.25
337.738	442.25
337.966	434.25
338.194	441.25
338.422	447.25
338.65	449.25
338.878	438.25
339.106	419.25
339.334	434.25
339.562	418.25
339.79	411.25
340.018	442.25
340.246	446.25
340.474	420.25
340.702	430.25
340.93	415.25
341.158	416.25
341.386	420.25
341.614	435.25
341.842	427.25
342.07	440.25
342.298	445.25
342.526	406.25
342.754	404.25
342.981	422.25
343.209	404.25
343.437	420.25
343.665	437.25
343.893	411.25
344.12	408.25
344.348	423.25
344.576	413.25
344.804	430.25
345.031	446.25
345.259	450.25
345.487	448.25
345.714	438.25
345.942	426.25
346.17	421.25
346.397	449.25
346.625	424.25
346.853	444.25
347.08	429.25
347.308	423.25
347.535	431.25
347.763	433.25
347.99	437.25
348.218	427.25
348.445	453.25
348.673	442.25
348.9	445.25
349.128	428.25
349.355	388.25
349.583	417.25
349.81	401.25
350.037	424.25
350.265	412.25
350.492	387.25
350.72	413.25
350.947	420.25
351.174	423.25
351.402	456.25
351.629	458.25
351.856	444.25
352.083	452.25
352.311	442.25
352.538	452.25
352.765	443.25
352.992	434.25
353.22	428.25
353.447	436.25
353.674	438.25
353.901	420.25
354.128	410.25
354.355	388.25
354.583	386.25
354.81	407.25
355.037	397.25
355.264	386.25
355.491	372.25
355.718	374.25
355.945	382.25
356.172	367.25
356.399	386.25
356.626	394.25
356.853	404.25
357.08	380.25
357.307	399.25
357.534	395.25
357.761	401.25
357.988	400.25
358.215	401.25
358.441	367.25
358.668	406.25
358.895	394.25
359.122	391.25
359.349	424.25
359.576	451.25
359.802	448.25
360.029	499.25
360.256	504.25
360.483	493.25
360.709	442.25
360.936	424.25
361.163	457.25
361.39	439.25
361.616	426.25
361.843	428.25
362.07	442.25
362.296	459.25
362.523	416.25
362.749	428.25
362.976	429.25
363.203	447.25
363.429	426.25
363.656	405.25
363.882	413.25
364.109	406.25
364.335	410.25
364.562	421.25
364.788	404.25
365.015	406.25
365.241	396.25
365.468	394.25
365.694	406.25
365.92	410.25
366.147	391.25
366.373	426.25
366.599	434.25
366.826	393.25
367.052	403.25
367.278	421.25
367.505	418.25
367.731	435.25
367.957	429.25
368.184	424.25
368.41	408.25
368.636	435.25
368.862	448.25
369.089	438.25
369.315	419.25
369.541	390.25
369.767	413.25
369.993	417.25
370.219	400.25
370.445	397.25
370.672	392.25
370.898	401.25
371.124	403.25
371.35	406.25
371.576	406.25
371.802	392.25
372.028	393.25
372.254	406.25
372.48	386.25
372.706	398.25
372.932	406.25
373.158	406.25
373.384	414.25
373.61	409.25
373.835	404.25
374.061	387.25
374.287	428.25
374.513	386.25
374.739	407.25
374.965	396.25
375.191	401.25
375.416	427.25
375.642	410.25
375.868	398.25
376.094	396.25
376.319	397.25
376.545	422.25
376.771	404.25
376.997	406.25
377.222	407.25
377.448	410.25
377.674	403.25
377.899	403.25
378.125	422.25
378.35	391.25
378.576	392.25
378.802	398.25
379.027	406.25
379.253	384.25
379.478	412.25
379.704	395.25
379.929	403.25
380.155	390.25
380.38	417.25
380.606	427.25
380.831	404.25
381.057	396.25
381.282	389.25
381.507	415.25
381.733	409.25
381.958	410.25
382.184	417.25
382.409	411.25
382.634	404.25
382.86	414.25
383.085	411.25
383.31	427.25
383.535	418.25
383.761	410.25
383.986	441.25
384.211	405.25
384.436	425.25
384.662	424.25
384.887	421.25
385.112	414.25
385.337	442.25
385.562	438.25
385.787	413.25
386.013	480.25
386.238	453.25
386.463	468.25
386.688	441.25
386.913	444.25
387.138	424.25
387.363	438.25
387.588	442.25
387.813	460.25
388.038	425.25
388.263	444.25
388.488	438.25
388.713	427.25
388.938	438.25
389.163	424.25
389.387	462.25
389.612	442.25
389.837	445.25
390.062	435.25
390.287	442.25
390.512	442.25
390.736	427.25
390.961	442.25
391.186	441.25
391.411	448.25
391.636	460.25
391.86	442.25
392.085	446.25
392.31	437.25
392.534	453.25
392.759	446.25
392.984	436.25
393.208	446.25
393.433	462.25
393.658	448.25
393.882	443.25
394.107	451.25
394.331	429.25
394.556	452.25
394.78	457.25
395.005	454.25
395.229	438.25
395.454	454.25
395.678	453.25
395.903	490.25
396.127	487.25
396.352	498.25
396.576	462.25
396.801	477.25
397.025	469.25
397.249	455.25
397.474	465.25
397.698	475.25
397.922	481.25
398.147	477.25
398.371	506.25
398.595	510.25
398.82	491.25
399.044	478.25
399.268	506.25
399.492	545.25
399.717	524.25
399.941	609.25
400.165	621.25
400.389	618.25
400.613	572.25
400.837	522.25
401.062	502.25
401.286	534.25
401.51	501.25
401.734	517.25
401.958	525.25
402.182	516.25
402.406	532.25
402.63	541.25
402.854	525.25
403.078	522.25
403.302	552.25
403.526	542.25
403.75	549.25
403.974	527.25
404.198	520.25
404.422	517.25
404.645	520.25
404.869	546.25
405.093	570.25
405.317	589.25
405.541	654.25
405.765	589.25
405.988	558.25
406.212	587.25
406.436	615.25
406.66	611.25
406.883	601.25
407.107	596.25
407.331	653.25
407.555	721.25
407.778	692.25
408.002	652.25
408.226	581.25
408.449	612.25
408.673	603.25
408.896	643.25
409.12	664.25
409.344	615.25
409.567	575.25
409.791	557.25
410.014	557.25
410.238	524.25
410.461	542.25
410.685	538.25
410.908	569.25
411.132	608.25
411.355	635.25
411.578	618.25
411.802	575.25
412.025	548.25
412.249	555.25
412.472	587.25
412.695	616.25
412.919	613.25
413.142	560.25
413.365	515.25
413.589	532.25
413.812	515.25
414.035	524.25
414.258	503.25
414.482	522.25
414.705	518.25
414.928	500.25
415.151	487.25
415.374	514.25
415.597	495.25
415.821	476.25
416.044	490.25
416.267	537.25
416.49	501.25
416.713	520.25
416.936	510.25
417.159	522.25
417.382	535.25
417.605	532.25
417.828	527.25
418.051	538.25
418.274	533.25
418.497	506.25
418.72	515.25
418.943	526.25
419.166	542.25
419.389	569.25
419.611	566.25
419.834	534.25
420.057	560.25
420.28	563.25
420.503	557.25
420.726	557.25
420.948	563.25
421.171	593.25
421.394	644.25
421.617	564.25
421.839	551.25
422.062	542.25
422.285	556.25
422.507	606.25
422.73	722.25
422.953	677.25
423.175	611.25
423.398	556.25
423.621	565.25
423.843	564.25
424.066	601.25
424.288	607.25
424.511	605.25
424.733	683.25
424.956	762.25
425.178	754.25
425.401	733.25
425.623	743.25
425.846	640.25
426.068	610.25
426.291	617.25
426.513	594.25
426.735	617.25
426.958	658.25
427.18	763.25
427.402	899.25
427.625	992.25
427.847	908.25
428.069	780.25
428.292	670.25
428.514	604.25
428.736	580.25
428.958	590.25
429.181	566.25
429.403	573.25
429.625	567.25
429.847	625.25
430.069	695.25
430.292	695.25
430.514	588.25
430.736	570.25
430.958	546.25
431.18	520.25
431.402	515.25
431.624	528.25
431.846	522.25
432.068	518.25
432.29	538.25
432.512	524.25
432.734	517.25
432.956	542.25
433.178	559.25
433.4	561.25
433.622	546.25
433.844	543.25
434.066	519.25
434.287	523.25
434.509	522.25
434.731	534.25
434.953	539.25
435.175	555.25
435.397	590.25
435.618	611.25
435.84	638.25
436.062	746.25
436.284	812.25
436.505	686.25
436.727	647.25
436.949	596.25
437.17	586.25
437.392	573.25
437.614	567.25
437.835	641.25
438.057	758.25
438.278	860.25
438.5	837.25
438.721	887.25
438.943	876.25
439.165	712.25
439.386	642.25
439.608	668.25
439.829	658.25
440.05	687.25
440.272	726.25
440.493	682.25
440.715	613.25
440.936	594.25
441.158	556.25
441.379	580.25
441.6	587.25
441.822	615.25
442.043	679.25
442.264	776.25
442.486	782.25
442.707	691.25
442.928	651.25
443.149	643.25
443.371	655.25
443.592	697.25
443.813	796.25
444.034	837.25
444.255	724.25
444.476	629.25
444.698	582.25
444.919	606.25
445.14	680.25
445.361	683.25
445.582	669.25
445.803	758.25
446.024	883.25
446.245	843.25
446.466	799.25
446.687	666.25
446.908	645.25
447.129	614.25
447.35	610.25
447.571	575.25
447.792	560.25
448.013	580.25
448.234	632.25
448.455	672.25
448.675	805.25
448.896	902.25
449.117	756.25
449.338	742.25
449.559	841.25
449.779	913.25
450	738.25
450.221	631.25
450.442	604.25
450.662	573.25
450.883	591.25
451.104	592.25
451.324	598.25
451.545	559.25
451.766	533.25
451.986	573.25
452.207	523.25
452.428	518.25
452.648	515.25
452.869	520.25
453.089	524.25
453.31	512.25
453.53	513.25
453.751	511.25
453.971	518.25
454.192	550.25
454.412	541.25
454.633	505.25
454.853	526.25
455.073	509.25
455.294	547.25
455.514	635.25
455.734	605.25
455.955	522.25
456.175	494.25
456.395	474.25
456.616	482.25
456.836	467.25
457.056	485.25
457.276	450.25
457.497	484.25
457.717	460.25
457.937	482.25
458.157	472.25
458.377	501.25
458.598	528.25
458.818	610.25
459.038	696.25
459.258	712.25
459.478	596.25
459.698	534.25
459.918	524.25
460.138	504.25
460.358	510.25
460.578	522.25
460.798	524.25
461.018	506.25
461.238	498.25
461.458	516.25
461.678	528.25
461.898	523.25
462.118	531.25
462.338	516.25
462.558	540.25
462.777	533.25
462.997	568.25
463.217	548.25
463.437	546.25
463.657	530.25
463.876	551.25
464.096	547.25
464.316	539.25
464.536	563.25
464.755	574.25
464.975	592.25
465.195	622.25
465.414	744.25
465.634	638.25
465.854	586.25
466.073	560.25
466.293	542.25
466.512	503.25
466.732	508.25
466.951	508.25
467.171	535.25
467.391	540.25
467.61	542.25
467.829	551.25
468.049	539.25
468.268	525.25
468.488	540.25
468.707	513.25
468.927	506.25
469.146	515.25
469.365	516.25
469.585	501.25
469.804	509.25
470.023	526.25
470.243	539.25
470.462	550.25
470.681	562.25
470.901	576.25
471.12	542.25
471.339	529.25
471.558	539.25
471.777	523.25
471.997	501.25
472.216	546.25
472.435	572.25
472.654	566.25
472.873	530.25
473.092	531.25
473.311	538.25
473.53	548.25
473.749	548.25
473.968	584.25
474.187	696.25
474.406	749.25
474.625	566.25
474.844	534.25
475.063	524.25
475.282	535.25
475.501	543.25
475.72	569.25
475.939	544.25
476.158	501.25
476.377	540.25
476.596	559.25
476.814	553.25
477.033	584.25
477.252	549.25
477.471	562.25
477.69	540.25
477.908	564.25
478.127	567.25
478.346	582.25
478.564	586.25
478.783	584.25
479.002	598.25
479.22	617.25
479.439	643.25
479.658	646.25
479.876	653.25
480.095	642.25
480.313	674.25
480.532	664.25
480.751	631.25
480.969	657.25
481.188	708.25
481.406	780.25
481.624	697.25
481.843	667.25
482.061	643.25
482.28	622.25
482.498	640.25
482.717	640.25
482.935	644.25
483.153	622.25
483.372	621.25
483.59	631.25
483.808	634.25
484.027	617.25
484.245	624.25
484.463	624.25
484.681	643.25
484.9	663.25
485.118	642.25
485.336	637.25
485.554	651.25
485.772	655.25
485.99	639.25
486.209	662.25
486.427	673.25
486.645	666.25
486.863	683.25
487.081	709.25
487.299	691.25
487.517	655.25
487.735	688.25
487.953	698.25
488.171	684.25
488.389	693.25
488.607	696.25
488.825	666.25
489.043	679.25
489.261	686.25
489.479	679.25
489.696	684.25
489.914	715.25
490.132	703.25
490.35	726.25
490.568	722.25
490.786	722.25
491.003	739.25
491.221	748.25
491.439	756.25
491.657	780.25
491.874	796.25
492.092	803.25
492.31	798.25
492.527	798.25
492.745	801.25
492.963	820.25
493.18	793.25
493.398	810.25
493.615	836.25
493.833	807.25
494.05	785.25
494.268	838.25
494.485	804.25
494.703	844.25
494.92	838.25
495.138	831.25
495.355	800.25
495.573	811.25
495.79	848.25
496.008	832.25
496.225	795.25
496.442	847.25
496.66	830.25
496.877	823.25
497.094	826.25
497.312	857.25
497.529	844.25
497.746	848.25
497.963	872.25
498.181	884.25
498.398	869.25
498.615	892.25
498.832	886.25
499.049	913.25
499.267	895.25
499.484	908.25
499.701	927.25
499.918	967.25
500.135	997.25
500.352	1002.25
500.569	1027.25
500.786	1005.25
501.003	980.25
501.22	1017.25
501.437	1015.25
