Data from 1971.PennyLincolnUp.Lamp.En5.5.200Scan.071719.P1._HRD10591_15-19-45-842.txt Node
Date: Thu Jul 18 15:19:45 EDT 2019
User: cochatt
Spectrometer: HR+D1059
Trigger mode: 1
Integration Time (sec): 1.000000E-1
Scans to average: 1
Electric dark correction enabled: true
Nonlinearity correction enabled: false
Boxcar width: 0
XAxis mode: Wavelengths
Number of Pixels in Spectrum: 2048
>>>>>Begin Spectral Data<<<<<
223.165	-18.56
223.4	-18.56
223.635	-18.56
223.869	-23.56
224.104	-14.56
224.338	-22.56
224.573	-23.56
224.808	-14.56
225.042	-15.56
225.277	-0.56
225.511	-4.56
225.746	10.44
225.98	4.44
226.215	12.44
226.449	24.44
226.683	23.44
226.918	33.44
227.152	29.44
227.387	33.44
227.621	41.44
227.856	53.44
228.09	45.44
228.324	56.44
228.559	60.44
228.793	69.44
229.027	92.44
229.262	112.44
229.496	121.44
229.73	134.44
229.964	143.44
230.199	122.44
230.433	124.44
230.667	111.44
230.901	100.44
231.136	103.44
231.37	113.44
231.604	111.44
231.838	116.44
232.072	108.44
232.306	122.44
232.541	120.44
232.775	108.44
233.009	110.44
233.243	110.44
233.477	112.44
233.711	110.44
233.945	114.44
234.179	109.44
234.413	128.44
234.647	125.44
234.881	126.44
235.115	127.44
235.349	120.44
235.583	133.44
235.817	113.44
236.051	134.44
236.285	112.44
236.519	134.44
236.753	143.44
236.987	147.44
237.221	173.44
237.455	212.44
237.689	166.44
237.922	138.44
238.156	136.44
238.39	132.44
238.624	131.44
238.858	124.44
239.091	122.44
239.325	119.44
239.559	130.44
239.793	114.44
240.027	147.44
240.26	150.44
240.494	162.44
240.728	141.44
240.961	146.44
241.195	143.44
241.429	128.44
241.662	120.44
241.896	126.44
242.13	124.44
242.363	122.44
242.597	142.44
242.83	133.44
243.064	138.44
243.298	131.44
243.531	130.44
243.765	137.44
243.998	150.44
244.232	138.44
244.465	146.44
244.699	149.44
244.932	143.44
245.166	148.44
245.399	152.44
245.633	141.44
245.866	156.44
246.099	169.44
246.333	160.44
246.566	158.44
246.8	152.44
247.033	145.44
247.266	156.44
247.5	173.44
247.733	175.44
247.966	190.44
248.2	175.44
248.433	172.44
248.666	191.44
248.899	182.44
249.133	203.44
249.366	210.44
249.599	205.44
249.832	199.44
250.066	187.44
250.299	174.44
250.532	210.44
250.765	205.44
250.998	236.44
251.231	223.44
251.465	216.44
251.698	228.44
251.931	201.44
252.164	206.44
252.397	211.44
252.63	222.44
252.863	208.44
253.096	221.44
253.329	234.44
253.562	214.44
253.795	219.44
254.028	234.44
254.261	223.44
254.494	239.44
254.727	269.44
254.96	288.44
255.193	290.44
255.426	252.44
255.659	265.44
255.892	244.44
256.124	232.44
256.357	262.44
256.59	238.44
256.823	230.44
257.056	231.44
257.289	239.44
257.521	216.44
257.754	213.44
257.987	230.44
258.22	227.44
258.452	211.44
258.685	216.44
258.918	209.44
259.151	219.44
259.383	225.44
259.616	223.44
259.849	226.44
260.081	269.44
260.314	276.44
260.547	253.44
260.779	261.44
261.012	237.44
261.244	233.44
261.477	227.44
261.71	237.44
261.942	231.44
262.175	252.44
262.407	219.44
262.64	223.44
262.872	224.44
263.105	218.44
263.337	220.44
263.57	222.44
263.802	237.44
264.035	226.44
264.267	229.44
264.499	218.44
264.732	219.44
264.964	223.44
265.197	206.44
265.429	233.44
265.661	222.44
265.894	221.44
266.126	237.44
266.358	220.44
266.591	230.44
266.823	244.44
267.055	220.44
267.287	266.44
267.52	250.44
267.752	245.44
267.984	223.44
268.216	246.44
268.448	240.44
268.681	265.44
268.913	257.44
269.145	285.44
269.377	302.44
269.609	277.44
269.841	280.44
270.073	309.44
270.306	314.44
270.538	331.44
270.77	328.44
271.002	303.44
271.234	308.44
271.466	329.44
271.698	332.44
271.93	318.44
272.162	329.44
272.394	305.44
272.626	324.44
272.858	310.44
273.09	296.44
273.322	286.44
273.553	282.44
273.785	269.44
274.017	274.44
274.249	280.44
274.481	297.44
274.713	287.44
274.945	273.44
275.176	284.44
275.408	277.44
275.64	295.44
275.872	275.44
276.104	281.44
276.335	261.44
276.567	294.44
276.799	301.44
277.031	299.44
277.262	328.44
277.494	337.44
277.726	308.44
277.957	288.44
278.189	301.44
278.421	297.44
278.652	296.44
278.884	280.44
279.115	303.44
279.347	288.44
279.579	284.44
279.81	288.44
280.042	279.44
280.273	293.44
280.505	300.44
280.736	273.44
280.968	274.44
281.199	279.44
281.431	294.44
281.662	271.44
281.894	280.44
282.125	291.44
282.356	314.44
282.588	321.44
282.819	312.44
283.051	276.44
283.282	280.44
283.513	288.44
283.745	296.44
283.976	294.44
284.207	302.44
284.439	293.44
284.67	289.44
284.901	320.44
285.132	289.44
285.364	312.44
285.595	288.44
285.826	287.44
286.057	296.44
286.288	300.44
286.52	290.44
286.751	301.44
286.982	300.44
287.213	301.44
287.444	290.44
287.675	301.44
287.906	309.44
288.138	311.44
288.369	329.44
288.6	300.44
288.831	312.44
289.062	306.44
289.293	313.44
289.524	311.44
289.755	296.44
289.986	292.44
290.217	303.44
290.448	293.44
290.679	319.44
290.91	310.44
291.141	302.44
291.371	315.44
291.602	294.44
291.833	310.44
292.064	310.44
292.295	301.44
292.526	332.44
292.757	310.44
292.987	298.44
293.218	294.44
293.449	325.44
293.68	311.44
293.91	318.44
294.141	304.44
294.372	301.44
294.603	321.44
294.833	287.44
295.064	290.44
295.295	325.44
295.525	296.44
295.756	312.44
295.987	309.44
296.217	345.44
296.448	348.44
296.679	317.44
296.909	318.44
297.14	331.44
297.37	318.44
297.601	309.44
297.831	310.44
298.062	328.44
298.292	333.44
298.523	330.44
298.753	328.44
298.984	309.44
299.214	310.44
299.445	342.44
299.675	325.44
299.905	328.44
300.136	317.44
300.366	317.44
300.597	324.44
300.827	324.44
301.057	340.44
301.288	337.44
301.518	341.44
301.748	337.44
301.979	333.44
302.209	329.44
302.439	326.44
302.669	350.44
302.9	338.44
303.13	349.44
303.36	344.44
303.59	358.44
303.82	338.44
304.051	350.44
304.281	340.44
304.511	345.44
304.741	337.44
304.971	338.44
305.201	356.44
305.431	337.44
305.661	343.44
305.891	350.44
306.121	347.44
306.352	344.44
306.582	327.44
306.812	337.44
307.042	347.44
307.272	356.44
307.502	339.44
307.731	356.44
307.961	347.44
308.191	346.44
308.421	356.44
308.651	346.44
308.881	358.44
309.111	363.44
309.341	359.44
309.571	347.44
309.8	372.44
310.03	372.44
310.26	371.44
310.49	394.44
310.72	380.44
310.949	407.44
311.179	411.44
311.409	387.44
311.639	395.44
311.868	370.44
312.098	394.44
312.328	402.44
312.557	406.44
312.787	418.44
313.017	409.44
313.246	396.44
313.476	365.44
313.706	390.44
313.935	390.44
314.165	418.44
314.394	413.44
314.624	375.44
314.853	382.44
315.083	380.44
315.312	411.44
315.542	390.44
315.771	388.44
316.001	386.44
316.23	379.44
316.46	379.44
316.689	392.44
316.919	390.44
317.148	417.44
317.377	390.44
317.607	419.44
317.836	404.44
318.065	378.44
318.295	395.44
318.524	399.44
318.753	383.44
318.983	387.44
319.212	412.44
319.441	384.44
319.67	408.44
319.9	375.44
320.129	400.44
320.358	411.44
320.587	381.44
320.816	417.44
321.046	421.44
321.275	402.44
321.504	434.44
321.733	430.44
321.962	436.44
322.191	428.44
322.42	433.44
322.649	447.44
322.878	454.44
323.108	478.44
323.337	496.44
323.566	482.44
323.795	532.44
324.024	561.44
324.253	697.44
324.482	998.44
324.71	1471.44
324.939	2008.44
325.168	1665.44
325.397	880.44
325.626	611.44
325.855	544.44
326.084	503.44
326.313	528.44
326.542	515.44
326.77	553.44
326.999	649.44
327.228	874.44
327.457	1290.44
327.686	1480.44
327.914	974.44
328.143	677.44
328.372	606.44
328.6	593.44
328.829	551.44
329.058	570.44
329.287	550.44
329.515	545.44
329.744	514.44
329.972	508.44
330.201	519.44
330.43	532.44
330.658	580.44
330.887	590.44
331.115	572.44
331.344	521.44
331.572	495.44
331.801	471.44
332.03	484.44
332.258	458.44
332.486	443.44
332.715	468.44
332.943	454.44
333.172	455.44
333.4	484.44
333.629	473.44
333.857	490.44
334.085	491.44
334.314	509.44
334.542	508.44
334.771	544.44
334.999	460.44
335.227	478.44
335.455	479.44
335.684	470.44
335.912	438.44
336.14	464.44
336.369	468.44
336.597	451.44
336.825	454.44
337.053	440.44
337.281	444.44
337.51	452.44
337.738	428.44
337.966	417.44
338.194	455.44
338.422	440.44
338.65	437.44
338.878	449.44
339.106	445.44
339.334	434.44
339.562	423.44
339.79	431.44
340.018	431.44
340.246	427.44
340.474	422.44
340.702	440.44
340.93	440.44
341.158	413.44
341.386	440.44
341.614	452.44
341.842	439.44
342.07	410.44
342.298	443.44
342.526	402.44
342.754	413.44
342.981	420.44
343.209	421.44
343.437	434.44
343.665	418.44
343.893	442.44
344.12	437.44
344.348	431.44
344.576	405.44
344.804	428.44
345.031	429.44
345.259	437.44
345.487	443.44
345.714	446.44
345.942	423.44
346.17	414.44
346.397	428.44
346.625	415.44
346.853	401.44
347.08	388.44
347.308	414.44
347.535	415.44
347.763	428.44
347.99	402.44
348.218	414.44
348.445	437.44
348.673	397.44
348.9	416.44
349.128	413.44
349.355	393.44
349.583	409.44
349.81	408.44
350.037	400.44
350.265	394.44
350.492	387.44
350.72	391.44
350.947	410.44
351.174	394.44
351.402	399.44
351.629	402.44
351.856	412.44
352.083	399.44
352.311	417.44
352.538	413.44
352.765	421.44
352.992	414.44
353.22	398.44
353.447	400.44
353.674	392.44
353.901	411.44
354.128	390.44
354.355	379.44
354.583	375.44
354.81	373.44
355.037	393.44
355.264	375.44
355.491	382.44
355.718	365.44
355.945	368.44
356.172	382.44
356.399	367.44
356.626	372.44
356.853	378.44
357.08	383.44
357.307	383.44
357.534	375.44
357.761	366.44
357.988	388.44
358.215	374.44
358.441	378.44
358.668	410.44
358.895	392.44
359.122	384.44
359.349	384.44
359.576	416.44
359.802	426.44
360.029	447.44
360.256	432.44
360.483	432.44
360.709	393.44
360.936	400.44
361.163	397.44
361.39	401.44
361.616	390.44
361.843	380.44
362.07	392.44
362.296	396.44
362.523	381.44
362.749	382.44
362.976	379.44
363.203	364.44
363.429	390.44
363.656	386.44
363.882	366.44
364.109	382.44
364.335	380.44
364.562	393.44
364.788	378.44
365.015	361.44
365.241	372.44
365.468	392.44
365.694	389.44
365.92	381.44
366.147	369.44
366.373	361.44
366.599	374.44
366.826	384.44
367.052	373.44
367.278	375.44
367.505	351.44
367.731	348.44
367.957	368.44
368.184	375.44
368.41	374.44
368.636	398.44
368.862	390.44
369.089	369.44
369.315	376.44
369.541	351.44
369.767	376.44
369.993	382.44
370.219	347.44
370.445	365.44
370.672	376.44
370.898	375.44
371.124	363.44
371.35	358.44
371.576	380.44
371.802	378.44
372.028	379.44
372.254	371.44
372.48	388.44
372.706	381.44
372.932	355.44
373.158	369.44
373.384	372.44
373.61	369.44
373.835	342.44
374.061	350.44
374.287	365.44
374.513	375.44
374.739	381.44
374.965	385.44
375.191	377.44
375.416	367.44
375.642	380.44
375.868	359.44
376.094	363.44
376.319	359.44
376.545	376.44
376.771	366.44
376.997	380.44
377.222	366.44
377.448	369.44
377.674	378.44
377.899	367.44
378.125	343.44
378.35	374.44
378.576	364.44
378.802	334.44
379.027	374.44
379.253	344.44
379.478	358.44
379.704	375.44
379.929	364.44
380.155	351.44
380.38	356.44
380.606	361.44
380.831	355.44
381.057	361.44
381.282	349.44
381.507	359.44
381.733	379.44
381.958	373.44
382.184	369.44
382.409	381.44
382.634	383.44
382.86	358.44
383.085	360.44
383.31	350.44
383.535	379.44
383.761	381.44
383.986	398.44
384.211	383.44
384.436	372.44
384.662	362.44
384.887	360.44
385.112	374.44
385.337	382.44
385.562	395.44
385.787	369.44
386.013	401.44
386.238	391.44
386.463	386.44
386.688	388.44
386.913	390.44
387.138	372.44
387.363	390.44
387.588	394.44
387.813	367.44
388.038	390.44
388.263	384.44
388.488	373.44
388.713	395.44
388.938	383.44
389.163	383.44
389.387	388.44
389.612	384.44
389.837	381.44
390.062	369.44
390.287	380.44
390.512	364.44
390.736	380.44
390.961	366.44
391.186	391.44
391.411	392.44
391.636	396.44
391.86	384.44
392.085	392.44
392.31	383.44
392.534	385.44
392.759	393.44
392.984	400.44
393.208	414.44
393.433	382.44
393.658	388.44
393.882	374.44
394.107	372.44
394.331	385.44
394.556	376.44
394.78	380.44
395.005	376.44
395.229	392.44
395.454	407.44
395.678	398.44
395.903	410.44
396.127	412.44
396.352	423.44
396.576	397.44
396.801	373.44
397.025	388.44
397.249	389.44
397.474	400.44
397.698	390.44
397.922	410.44
398.147	424.44
398.371	440.44
398.595	411.44
398.82	440.44
399.044	445.44
399.268	452.44
399.492	455.44
399.717	480.44
399.941	506.44
400.165	523.44
400.389	520.44
400.613	484.44
400.837	454.44
401.062	434.44
401.286	441.44
401.51	441.44
401.734	425.44
401.958	433.44
402.182	408.44
402.406	441.44
402.63	434.44
402.854	444.44
403.078	450.44
403.302	431.44
403.526	446.44
403.75	440.44
403.974	420.44
404.198	433.44
404.422	458.44
404.645	431.44
404.869	430.44
405.093	458.44
405.317	473.44
405.541	518.44
405.765	475.44
405.988	450.44
406.212	452.44
406.436	463.44
406.66	474.44
406.883	465.44
407.107	494.44
407.331	538.44
407.555	554.44
407.778	566.44
408.002	507.44
408.226	485.44
408.449	499.44
408.673	487.44
408.896	512.44
409.12	538.44
409.344	504.44
409.567	469.44
409.791	466.44
410.014	423.44
410.238	433.44
410.461	428.44
410.685	420.44
410.908	464.44
411.132	476.44
411.355	526.44
411.578	479.44
411.802	465.44
412.025	437.44
412.249	450.44
412.472	452.44
412.695	493.44
412.919	472.44
413.142	440.44
413.365	416.44
413.589	426.44
413.812	420.44
414.035	424.44
414.258	402.44
414.482	412.44
414.705	402.44
414.928	389.44
415.151	408.44
415.374	400.44
415.597	399.44
415.821	430.44
416.044	390.44
416.267	412.44
416.49	404.44
416.713	385.44
416.936	399.44
417.159	408.44
417.382	389.44
417.605	408.44
417.828	436.44
418.051	430.44
418.274	439.44
418.497	415.44
418.72	415.44
418.943	405.44
419.166	402.44
419.389	432.44
419.611	438.44
419.834	434.44
420.057	434.44
420.28	426.44
420.503	449.44
420.726	444.44
420.948	439.44
421.171	471.44
421.394	516.44
421.617	472.44
421.839	428.44
422.062	428.44
422.285	446.44
422.507	486.44
422.73	548.44
422.953	523.44
423.175	462.44
423.398	466.44
423.621	437.44
423.843	454.44
424.066	459.44
424.288	475.44
424.511	480.44
424.733	531.44
424.956	578.44
425.178	568.44
425.401	567.44
425.623	584.44
425.846	529.44
426.068	466.44
426.291	458.44
426.513	452.44
426.735	479.44
426.958	491.44
427.18	568.44
427.402	691.44
427.625	730.44
427.847	662.44
428.069	556.44
428.292	501.44
428.514	482.44
428.736	438.44
428.958	448.44
429.181	421.44
429.403	439.44
429.625	422.44
429.847	485.44
430.069	510.44
430.292	499.44
430.514	416.44
430.736	429.44
430.958	409.44
431.18	419.44
431.402	417.44
431.624	395.44
431.846	393.44
432.068	388.44
432.29	393.44
432.512	401.44
432.734	415.44
432.956	408.44
433.178	423.44
433.4	423.44
433.622	408.44
433.844	435.44
434.066	391.44
434.287	377.44
434.509	390.44
434.731	410.44
434.953	404.44
435.175	414.44
435.397	437.44
435.618	442.44
435.84	519.44
436.062	557.44
436.284	620.44
436.505	524.44
436.727	457.44
436.949	442.44
437.17	431.44
437.392	434.44
437.614	428.44
437.835	462.44
438.057	559.44
438.278	609.44
438.5	632.44
438.721	693.44
438.943	645.44
439.165	534.44
439.386	479.44
439.608	454.44
439.829	478.44
440.05	504.44
440.272	518.44
440.493	495.44
440.715	469.44
440.936	413.44
441.158	439.44
441.379	439.44
441.6	452.44
441.822	480.44
442.043	509.44
442.264	558.44
442.486	588.44
442.707	513.44
442.928	492.44
443.149	506.44
443.371	480.44
443.592	546.44
443.813	616.44
444.034	623.44
444.255	526.44
444.476	502.44
444.698	463.44
444.919	459.44
445.14	598.44
445.361	493.44
445.582	522.44
445.803	550.44
446.024	634.44
446.245	646.44
446.466	591.44
446.687	520.44
446.908	474.44
447.129	449.44
447.35	455.44
447.571	444.44
447.792	410.44
448.013	436.44
448.234	449.44
448.455	487.44
448.675	606.44
448.896	645.44
449.117	556.44
449.338	549.44
449.559	618.44
449.779	714.44
450	571.44
450.221	485.44
450.442	461.44
450.662	430.44
450.883	422.44
451.104	440.44
451.324	430.44
451.545	406.44
451.766	393.44
451.986	386.44
452.207	381.44
452.428	384.44
452.648	383.44
452.869	372.44
453.089	393.44
453.31	384.44
453.53	381.44
453.751	385.44
453.971	375.44
454.192	380.44
454.412	382.44
454.633	369.44
454.853	354.44
455.073	363.44
455.294	416.44
455.514	424.44
455.734	448.44
455.955	402.44
456.175	370.44
456.395	360.44
456.616	361.44
456.836	368.44
457.056	352.44
457.276	337.44
457.497	350.44
457.717	367.44
457.937	376.44
458.157	365.44
458.377	372.44
458.598	386.44
458.818	441.44
459.038	501.44
459.258	509.44
459.478	441.44
459.698	415.44
459.918	393.44
460.138	402.44
460.358	390.44
460.578	397.44
460.798	376.44
461.018	412.44
461.238	400.44
461.458	388.44
461.678	393.44
461.898	401.44
462.118	398.44
462.338	406.44
462.558	404.44
462.777	410.44
462.997	411.44
463.217	412.44
463.437	399.44
463.657	411.44
463.876	423.44
464.096	421.44
464.316	426.44
464.536	417.44
464.755	431.44
464.975	438.44
465.195	444.44
465.414	471.44
465.634	448.44
465.854	412.44
466.073	414.44
466.293	395.44
466.512	384.44
466.732	374.44
466.951	379.44
467.171	384.44
467.391	369.44
467.61	390.44
467.829	398.44
468.049	396.44
468.268	400.44
468.488	387.44
468.707	381.44
468.927	366.44
469.146	382.44
469.365	374.44
469.585	370.44
469.804	390.44
470.023	409.44
470.243	382.44
470.462	396.44
470.681	386.44
470.901	400.44
471.12	388.44
471.339	382.44
471.558	392.44
471.777	380.44
471.997	397.44
472.216	404.44
472.435	416.44
472.654	418.44
472.873	381.44
473.092	371.44
473.311	411.44
473.53	381.44
473.749	402.44
473.968	444.44
474.187	541.44
474.406	537.44
474.625	460.44
474.844	410.44
475.063	403.44
475.282	407.44
475.501	400.44
475.72	388.44
475.939	378.44
476.158	398.44
476.377	411.44
476.596	397.44
476.814	384.44
477.033	399.44
477.252	418.44
477.471	424.44
477.69	428.44
477.908	421.44
478.127	412.44
478.346	418.44
478.564	424.44
478.783	443.44
479.002	443.44
479.22	430.44
479.439	453.44
479.658	479.44
479.876	461.44
480.095	460.44
480.313	478.44
480.532	477.44
480.751	473.44
480.969	469.44
481.188	522.44
481.406	537.44
481.624	475.44
481.843	470.44
482.061	453.44
482.28	472.44
482.498	429.44
482.717	447.44
482.935	432.44
483.153	456.44
483.372	442.44
483.59	466.44
483.808	433.44
484.027	442.44
484.245	453.44
484.463	457.44
484.681	472.44
484.9	456.44
485.118	450.44
485.336	446.44
485.554	464.44
485.772	457.44
485.99	453.44
486.209	480.44
486.427	476.44
486.645	485.44
486.863	483.44
487.081	487.44
487.299	487.44
487.517	477.44
487.735	492.44
487.953	469.44
488.171	493.44
488.389	488.44
488.607	477.44
488.825	483.44
489.043	480.44
489.261	504.44
489.479	497.44
489.696	505.44
489.914	506.44
490.132	484.44
490.35	512.44
490.568	518.44
490.786	523.44
491.003	540.44
491.221	547.44
491.439	559.44
491.657	569.44
491.874	553.44
492.092	578.44
492.31	564.44
492.527	569.44
492.745	568.44
492.963	564.44
493.18	555.44
493.398	559.44
493.615	579.44
493.833	576.44
494.05	558.44
494.268	555.44
494.485	561.44
494.703	574.44
494.92	554.44
495.138	552.44
495.355	560.44
495.573	582.44
495.79	564.44
496.008	601.44
496.225	576.44
496.442	585.44
496.66	576.44
496.877	566.44
497.094	565.44
497.312	578.44
497.529	583.44
497.746	586.44
497.963	590.44
498.181	600.44
498.398	591.44
498.615	624.44
498.832	634.44
499.049	652.44
499.267	654.44
499.484	686.44
499.701	693.44
499.918	704.44
500.135	733.44
500.352	722.44
500.569	756.44
500.786	783.44
501.003	794.44
501.22	753.44
501.437	727.44
501.654	716.44
501.871	703.44
