Data from 1971.PennyLincolnUp.Lamp.En5.5.200Scan.071719.P1._HRD10591_15-20-22-841.txt Node
Date: Thu Jul 18 15:20:22 EDT 2019
User: cochatt
Spectrometer: HR+D1059
Trigger mode: 1
Integration Time (sec): 1.000000E-1
Scans to average: 1
Electric dark correction enabled: true
Nonlinearity correction enabled: false
Boxcar width: 0
XAxis mode: Wavelengths
Number of Pixels in Spectrum: 2048
>>>>>Begin Spectral Data<<<<<
223.165	-18.81
223.4	-18.81
223.635	-18.81
223.869	-6.81
224.104	-19.81
224.338	-6.81
224.573	-14.81
224.808	-7.81
225.042	-2.81
225.277	-6.81
225.511	-21.81
225.746	6.19
225.98	14.19
226.215	12.19
226.449	3.19
226.683	22.19
226.918	18.19
227.152	30.19
227.387	30.19
227.621	29.19
227.856	45.19
228.09	51.19
228.324	52.19
228.559	43.19
228.793	75.19
229.027	94.19
229.262	110.19
229.496	119.19
229.73	116.19
229.964	144.19
230.199	129.19
230.433	105.19
230.667	126.19
230.901	120.19
231.136	105.19
231.37	98.19
231.604	102.19
231.838	108.19
232.072	117.19
232.306	112.19
232.541	109.19
232.775	118.19
233.009	105.19
233.243	120.19
233.477	117.19
233.711	112.19
233.945	115.19
234.179	114.19
234.413	121.19
234.647	120.19
234.881	128.19
235.115	125.19
235.349	113.19
235.583	120.19
235.817	120.19
236.051	121.19
236.285	114.19
236.519	112.19
236.753	132.19
236.987	147.19
237.221	181.19
237.455	218.19
237.689	175.19
237.922	139.19
238.156	145.19
238.39	128.19
238.624	127.19
238.858	126.19
239.091	116.19
239.325	117.19
239.559	132.19
239.793	134.19
240.027	126.19
240.26	134.19
240.494	145.19
240.728	140.19
240.961	138.19
241.195	146.19
241.429	134.19
241.662	124.19
241.896	129.19
242.13	121.19
242.363	127.19
242.597	141.19
242.83	130.19
243.064	137.19
243.298	156.19
243.531	135.19
243.765	153.19
243.998	134.19
244.232	136.19
244.465	138.19
244.699	141.19
244.932	127.19
245.166	138.19
245.399	150.19
245.633	140.19
245.866	171.19
246.099	168.19
246.333	148.19
246.566	148.19
246.8	145.19
247.033	160.19
247.266	164.19
247.5	166.19
247.733	169.19
247.966	166.19
248.2	155.19
248.433	181.19
248.666	180.19
248.899	180.19
249.133	195.19
249.366	216.19
249.599	181.19
249.832	193.19
250.066	183.19
250.299	180.19
250.532	189.19
250.765	198.19
250.998	229.19
251.231	242.19
251.465	190.19
251.698	212.19
251.931	205.19
252.164	202.19
252.397	210.19
252.63	209.19
252.863	215.19
253.096	232.19
253.329	227.19
253.562	229.19
253.795	218.19
254.028	227.19
254.261	212.19
254.494	231.19
254.727	249.19
254.96	283.19
255.193	278.19
255.426	247.19
255.659	245.19
255.892	247.19
256.124	248.19
256.357	228.19
256.59	231.19
256.823	237.19
257.056	240.19
257.289	210.19
257.521	201.19
257.754	197.19
257.987	220.19
258.22	205.19
258.452	196.19
258.685	213.19
258.918	217.19
259.151	214.19
259.383	232.19
259.616	225.19
259.849	236.19
260.081	255.19
260.314	248.19
260.547	264.19
260.779	249.19
261.012	260.19
261.244	224.19
261.477	239.19
261.71	222.19
261.942	227.19
262.175	237.19
262.407	228.19
262.64	221.19
262.872	216.19
263.105	215.19
263.337	214.19
263.57	216.19
263.802	230.19
264.035	208.19
264.267	213.19
264.499	229.19
264.732	217.19
264.964	236.19
265.197	222.19
265.429	212.19
265.661	218.19
265.894	240.19
266.126	213.19
266.358	240.19
266.591	223.19
266.823	220.19
267.055	228.19
267.287	234.19
267.52	215.19
267.752	224.19
267.984	258.19
268.216	211.19
268.448	234.19
268.681	241.19
268.913	263.19
269.145	242.19
269.377	285.19
269.609	271.19
269.841	278.19
270.073	274.19
270.306	304.19
270.538	317.19
270.77	313.19
271.002	296.19
271.234	315.19
271.466	291.19
271.698	331.19
271.93	333.19
272.162	325.19
272.394	328.19
272.626	306.19
272.858	304.19
273.09	299.19
273.322	287.19
273.553	266.19
273.785	285.19
274.017	254.19
274.249	280.19
274.481	269.19
274.713	269.19
274.945	273.19
275.176	280.19
275.408	277.19
275.64	276.19
275.872	251.19
276.104	264.19
276.335	248.19
276.567	281.19
276.799	284.19
277.031	320.19
277.262	315.19
277.494	318.19
277.726	304.19
277.957	315.19
278.189	304.19
278.421	278.19
278.652	282.19
278.884	279.19
279.115	283.19
279.347	268.19
279.579	281.19
279.81	276.19
280.042	262.19
280.273	283.19
280.505	271.19
280.736	282.19
280.968	264.19
281.199	273.19
281.431	288.19
281.662	276.19
281.894	273.19
282.125	272.19
282.356	299.19
282.588	301.19
282.819	290.19
283.051	304.19
283.282	260.19
283.513	278.19
283.745	268.19
283.976	305.19
284.207	280.19
284.439	291.19
284.67	294.19
284.901	296.19
285.132	275.19
285.364	272.19
285.595	265.19
285.826	294.19
286.057	275.19
286.288	292.19
286.52	285.19
286.751	270.19
286.982	294.19
287.213	307.19
287.444	293.19
287.675	286.19
287.906	300.19
288.138	302.19
288.369	295.19
288.6	312.19
288.831	295.19
289.062	308.19
289.293	291.19
289.524	304.19
289.755	309.19
289.986	284.19
290.217	289.19
290.448	299.19
290.679	296.19
290.91	293.19
291.141	276.19
291.371	281.19
291.602	299.19
291.833	309.19
292.064	292.19
292.295	299.19
292.526	309.19
292.757	300.19
292.987	294.19
293.218	296.19
293.449	293.19
293.68	289.19
293.91	309.19
294.141	308.19
294.372	302.19
294.603	270.19
294.833	291.19
295.064	292.19
295.295	311.19
295.525	307.19
295.756	306.19
295.987	285.19
296.217	324.19
296.448	320.19
296.679	309.19
296.909	310.19
297.14	301.19
297.37	300.19
297.601	303.19
297.831	316.19
298.062	289.19
298.292	308.19
298.523	315.19
298.753	312.19
298.984	308.19
299.214	306.19
299.445	314.19
299.675	310.19
299.905	314.19
300.136	310.19
300.366	309.19
300.597	327.19
300.827	322.19
301.057	319.19
301.288	336.19
301.518	319.19
301.748	332.19
301.979	315.19
302.209	348.19
302.439	336.19
302.669	346.19
302.9	330.19
303.13	327.19
303.36	331.19
303.59	334.19
303.82	330.19
304.051	338.19
304.281	337.19
304.511	321.19
304.741	343.19
304.971	312.19
305.201	344.19
305.431	319.19
305.661	324.19
305.891	337.19
306.121	321.19
306.352	340.19
306.582	351.19
306.812	327.19
307.042	325.19
307.272	318.19
307.502	341.19
307.731	334.19
307.961	326.19
308.191	326.19
308.421	362.19
308.651	342.19
308.881	348.19
309.111	335.19
309.341	352.19
309.571	348.19
309.8	358.19
310.03	374.19
310.26	386.19
310.49	373.19
310.72	381.19
310.949	395.19
311.179	406.19
311.409	388.19
311.639	371.19
311.868	381.19
312.098	381.19
312.328	392.19
312.557	384.19
312.787	414.19
313.017	419.19
313.246	396.19
313.476	364.19
313.706	363.19
313.935	377.19
314.165	392.19
314.394	405.19
314.624	406.19
314.853	387.19
315.083	400.19
315.312	387.19
315.542	372.19
315.771	379.19
316.001	380.19
316.23	373.19
316.46	365.19
316.689	384.19
316.919	392.19
317.148	388.19
317.377	416.19
317.607	395.19
317.836	385.19
318.065	395.19
318.295	373.19
318.524	380.19
318.753	384.19
318.983	376.19
319.212	388.19
319.441	410.19
319.67	388.19
319.9	388.19
320.129	391.19
320.358	385.19
320.587	374.19
320.816	396.19
321.046	374.19
321.275	396.19
321.504	406.19
321.733	401.19
321.962	405.19
322.191	417.19
322.42	422.19
322.649	433.19
322.878	451.19
323.108	438.19
323.337	477.19
323.566	503.19
323.795	522.19
324.024	591.19
324.253	697.19
324.482	991.19
324.71	1476.19
324.939	1996.19
325.168	1682.19
325.397	904.19
325.626	634.19
325.855	558.19
326.084	516.19
326.313	491.19
326.542	493.19
326.77	555.19
326.999	636.19
327.228	898.19
327.457	1292.19
327.686	1477.19
327.914	989.19
328.143	662.19
328.372	609.19
328.6	556.19
328.829	541.19
329.058	537.19
329.287	573.19
329.515	538.19
329.744	504.19
329.972	509.19
330.201	509.19
330.43	546.19
330.658	548.19
330.887	574.19
331.115	576.19
331.344	517.19
331.572	490.19
331.801	462.19
332.03	470.19
332.258	460.19
332.486	462.19
332.715	454.19
332.943	440.19
333.172	433.19
333.4	452.19
333.629	454.19
333.857	471.19
334.085	477.19
334.314	475.19
334.542	504.19
334.771	522.19
334.999	510.19
335.227	456.19
335.455	467.19
335.684	447.19
335.912	433.19
336.14	426.19
336.369	437.19
336.597	455.19
336.825	435.19
337.053	442.19
337.281	421.19
337.51	436.19
337.738	437.19
337.966	433.19
338.194	411.19
338.422	424.19
338.65	442.19
338.878	428.19
339.106	414.19
339.334	432.19
339.562	408.19
339.79	431.19
340.018	412.19
340.246	410.19
340.474	400.19
340.702	437.19
340.93	413.19
341.158	416.19
341.386	413.19
341.614	424.19
341.842	425.19
342.07	416.19
342.298	419.19
342.526	412.19
342.754	408.19
342.981	389.19
343.209	404.19
343.437	403.19
343.665	411.19
343.893	428.19
344.12	425.19
344.348	451.19
344.576	421.19
344.804	423.19
345.031	444.19
345.259	449.19
345.487	401.19
345.714	428.19
345.942	386.19
346.17	401.19
346.397	384.19
346.625	408.19
346.853	389.19
347.08	402.19
347.308	376.19
347.535	398.19
347.763	403.19
347.99	411.19
348.218	411.19
348.445	425.19
348.673	398.19
348.9	392.19
349.128	399.19
349.355	378.19
349.583	374.19
349.81	378.19
350.037	373.19
350.265	396.19
350.492	381.19
350.72	378.19
350.947	386.19
351.174	393.19
351.402	377.19
351.629	401.19
351.856	404.19
352.083	399.19
352.311	413.19
352.538	404.19
352.765	399.19
352.992	406.19
353.22	384.19
353.447	385.19
353.674	382.19
353.901	358.19
354.128	381.19
354.355	368.19
354.583	371.19
354.81	376.19
355.037	380.19
355.264	361.19
355.491	363.19
355.718	355.19
355.945	361.19
356.172	376.19
356.399	363.19
356.626	352.19
356.853	381.19
357.08	368.19
357.307	365.19
357.534	356.19
357.761	380.19
357.988	354.19
358.215	373.19
358.441	371.19
358.668	355.19
358.895	352.19
359.122	371.19
359.349	362.19
359.576	384.19
359.802	395.19
360.029	424.19
360.256	418.19
360.483	422.19
360.709	387.19
360.936	386.19
361.163	368.19
361.39	395.19
361.616	393.19
361.843	377.19
362.07	414.19
362.296	381.19
362.523	373.19
362.749	365.19
362.976	368.19
363.203	378.19
363.429	365.19
363.656	362.19
363.882	378.19
364.109	352.19
364.335	356.19
364.562	356.19
364.788	382.19
365.015	369.19
365.241	355.19
365.468	363.19
365.694	368.19
365.92	359.19
366.147	374.19
366.373	380.19
366.599	372.19
366.826	380.19
367.052	361.19
367.278	378.19
367.505	346.19
367.731	343.19
367.957	353.19
368.184	366.19
368.41	384.19
368.636	347.19
368.862	378.19
369.089	375.19
369.315	347.19
369.541	357.19
369.767	347.19
369.993	360.19
370.219	359.19
370.445	364.19
370.672	368.19
370.898	356.19
371.124	350.19
371.35	364.19
371.576	374.19
371.802	350.19
372.028	351.19
372.254	380.19
372.48	378.19
372.706	351.19
372.932	369.19
373.158	354.19
373.384	353.19
373.61	357.19
373.835	358.19
374.061	361.19
374.287	364.19
374.513	347.19
374.739	361.19
374.965	361.19
375.191	344.19
375.416	373.19
375.642	367.19
375.868	359.19
376.094	349.19
376.319	346.19
376.545	327.19
376.771	336.19
376.997	347.19
377.222	348.19
377.448	344.19
377.674	340.19
377.899	355.19
378.125	362.19
378.35	343.19
378.576	344.19
378.802	348.19
379.027	341.19
379.253	349.19
379.478	346.19
379.704	347.19
379.929	346.19
380.155	358.19
380.38	358.19
380.606	353.19
380.831	350.19
381.057	374.19
381.282	340.19
381.507	329.19
381.733	341.19
381.958	358.19
382.184	358.19
382.409	352.19
382.634	344.19
382.86	364.19
383.085	353.19
383.31	343.19
383.535	341.19
383.761	351.19
383.986	361.19
384.211	373.19
384.436	361.19
384.662	366.19
384.887	379.19
385.112	347.19
385.337	363.19
385.562	355.19
385.787	359.19
386.013	380.19
386.238	358.19
386.463	368.19
386.688	363.19
386.913	368.19
387.138	368.19
387.363	372.19
387.588	374.19
387.813	373.19
388.038	369.19
388.263	373.19
388.488	363.19
388.713	382.19
388.938	386.19
389.163	370.19
389.387	388.19
389.612	354.19
389.837	364.19
390.062	376.19
390.287	354.19
390.512	349.19
390.736	365.19
390.961	360.19
391.186	361.19
391.411	371.19
391.636	364.19
391.86	374.19
392.085	370.19
392.31	385.19
392.534	376.19
392.759	358.19
392.984	365.19
393.208	380.19
393.433	376.19
393.658	353.19
393.882	380.19
394.107	361.19
394.331	377.19
394.556	358.19
394.78	375.19
395.005	375.19
395.229	359.19
395.454	374.19
395.678	362.19
395.903	378.19
396.127	396.19
396.352	402.19
396.576	389.19
396.801	376.19
397.025	386.19
397.249	384.19
397.474	392.19
397.698	410.19
397.922	396.19
398.147	409.19
398.371	398.19
398.595	383.19
398.82	398.19
399.044	404.19
399.268	422.19
399.492	453.19
399.717	463.19
399.941	499.19
400.165	470.19
400.389	522.19
400.613	463.19
400.837	426.19
401.062	410.19
401.286	403.19
401.51	423.19
401.734	425.19
401.958	405.19
402.182	416.19
402.406	410.19
402.63	453.19
402.854	414.19
403.078	403.19
403.302	409.19
403.526	414.19
403.75	433.19
403.974	437.19
404.198	419.19
404.422	440.19
404.645	436.19
404.869	416.19
405.093	439.19
405.317	477.19
405.541	508.19
405.765	476.19
405.988	447.19
406.212	438.19
406.436	459.19
406.66	478.19
406.883	450.19
407.107	470.19
407.331	498.19
407.555	542.19
407.778	576.19
408.002	498.19
408.226	462.19
408.449	457.19
408.673	445.19
408.896	460.19
409.12	533.19
409.344	504.19
409.567	461.19
409.791	444.19
410.014	437.19
410.238	414.19
410.461	448.19
410.685	445.19
410.908	453.19
411.132	464.19
411.355	501.19
411.578	468.19
411.802	440.19
412.025	419.19
412.249	427.19
412.472	451.19
412.695	474.19
412.919	469.19
413.142	444.19
413.365	412.19
413.589	414.19
413.812	421.19
414.035	395.19
414.258	365.19
414.482	406.19
414.705	388.19
414.928	392.19
415.151	385.19
415.374	374.19
415.597	385.19
415.821	372.19
416.044	404.19
416.267	430.19
416.49	398.19
416.713	397.19
416.936	409.19
417.159	404.19
417.382	381.19
417.605	411.19
417.828	416.19
418.051	450.19
418.274	426.19
418.497	404.19
418.72	406.19
418.943	405.19
419.166	413.19
419.389	415.19
419.611	429.19
419.834	414.19
420.057	427.19
420.28	414.19
420.503	404.19
420.726	427.19
420.948	425.19
421.171	451.19
421.394	476.19
421.617	424.19
421.839	426.19
422.062	396.19
422.285	416.19
422.507	485.19
422.73	547.19
422.953	535.19
423.175	466.19
423.398	439.19
423.621	437.19
423.843	435.19
424.066	460.19
424.288	448.19
424.511	464.19
424.733	509.19
424.956	565.19
425.178	547.19
425.401	538.19
425.623	546.19
425.846	469.19
426.068	448.19
426.291	442.19
426.513	458.19
426.735	471.19
426.958	493.19
427.18	576.19
427.402	662.19
427.625	718.19
427.847	613.19
428.069	535.19
428.292	482.19
428.514	456.19
428.736	428.19
428.958	435.19
429.181	413.19
429.403	429.19
429.625	433.19
429.847	454.19
430.069	503.19
430.292	496.19
430.514	427.19
430.736	428.19
430.958	416.19
431.18	395.19
431.402	405.19
431.624	392.19
431.846	384.19
432.068	379.19
432.29	384.19
432.512	374.19
432.734	402.19
432.956	402.19
433.178	404.19
433.4	421.19
433.622	401.19
433.844	383.19
434.066	392.19
434.287	381.19
434.509	392.19
434.731	407.19
434.953	404.19
435.175	414.19
435.397	453.19
435.618	440.19
435.84	493.19
436.062	565.19
436.284	620.19
436.505	496.19
436.727	454.19
436.949	430.19
437.17	426.19
437.392	418.19
437.614	421.19
437.835	461.19
438.057	556.19
438.278	617.19
438.5	625.19
438.721	650.19
438.943	635.19
439.165	502.19
439.386	477.19
439.608	480.19
439.829	466.19
440.05	486.19
440.272	515.19
440.493	492.19
440.715	472.19
440.936	421.19
441.158	415.19
441.379	410.19
441.6	419.19
441.822	443.19
442.043	491.19
442.264	562.19
442.486	582.19
442.707	498.19
442.928	453.19
443.149	461.19
443.371	473.19
443.592	529.19
443.813	593.19
444.034	620.19
444.255	537.19
444.476	460.19
444.698	451.19
444.919	457.19
445.14	560.19
445.361	488.19
445.582	506.19
445.803	557.19
446.024	637.19
446.245	625.19
446.466	571.19
446.687	499.19
446.908	460.19
447.129	443.19
447.35	430.19
447.571	429.19
447.792	425.19
448.013	413.19
448.234	428.19
448.455	492.19
448.675	556.19
448.896	663.19
449.117	546.19
449.338	537.19
449.559	624.19
449.779	682.19
450	537.19
450.221	466.19
450.442	437.19
450.662	425.19
450.883	413.19
451.104	415.19
451.324	422.19
451.545	400.19
451.766	368.19
451.986	381.19
452.207	380.19
452.428	361.19
452.648	378.19
452.869	366.19
453.089	357.19
453.31	386.19
453.53	393.19
453.751	362.19
453.971	372.19
454.192	380.19
454.412	378.19
454.633	381.19
454.853	372.19
455.073	375.19
455.294	388.19
455.514	443.19
455.734	439.19
455.955	370.19
456.175	365.19
456.395	345.19
456.616	355.19
456.836	362.19
457.056	329.19
457.276	331.19
457.497	362.19
457.717	338.19
457.937	344.19
458.157	341.19
458.377	362.19
458.598	384.19
458.818	436.19
459.038	458.19
459.258	497.19
459.478	402.19
459.698	379.19
459.918	386.19
460.138	388.19
460.358	389.19
460.578	371.19
460.798	411.19
461.018	397.19
461.238	402.19
461.458	369.19
461.678	385.19
461.898	397.19
462.118	390.19
462.338	392.19
462.558	404.19
462.777	421.19
462.997	406.19
463.217	398.19
463.437	406.19
463.657	438.19
463.876	409.19
464.096	399.19
464.316	403.19
464.536	391.19
464.755	403.19
464.975	418.19
465.195	436.19
465.414	481.19
465.634	426.19
465.854	420.19
466.073	407.19
466.293	379.19
466.512	388.19
466.732	384.19
466.951	368.19
467.171	371.19
467.391	380.19
467.61	384.19
467.829	394.19
468.049	378.19
468.268	393.19
468.488	363.19
468.707	349.19
468.927	361.19
469.146	359.19
469.365	352.19
469.585	371.19
469.804	393.19
470.023	396.19
470.243	397.19
470.462	386.19
470.681	392.19
470.901	394.19
471.12	391.19
471.339	386.19
471.558	363.19
471.777	384.19
471.997	384.19
472.216	388.19
472.435	404.19
472.654	401.19
472.873	392.19
473.092	376.19
473.311	374.19
473.53	379.19
473.749	391.19
473.968	436.19
474.187	526.19
474.406	531.19
474.625	441.19
474.844	406.19
475.063	396.19
475.282	382.19
475.501	381.19
475.72	396.19
475.939	375.19
476.158	380.19
476.377	392.19
476.596	373.19
476.814	394.19
477.033	406.19
477.252	395.19
477.471	407.19
477.69	394.19
477.908	415.19
478.127	382.19
478.346	424.19
478.564	431.19
478.783	420.19
479.002	413.19
479.22	422.19
479.439	420.19
479.658	450.19
479.876	450.19
480.095	452.19
480.313	476.19
480.532	466.19
480.751	443.19
480.969	456.19
481.188	491.19
481.406	534.19
481.624	476.19
481.843	451.19
482.061	446.19
482.28	458.19
482.498	441.19
482.717	426.19
482.935	423.19
483.153	425.19
483.372	439.19
483.59	436.19
483.808	441.19
484.027	446.19
484.245	441.19
484.463	442.19
484.681	428.19
484.9	450.19
485.118	472.19
485.336	425.19
485.554	468.19
485.772	432.19
485.99	441.19
486.209	465.19
486.427	461.19
486.645	471.19
486.863	474.19
487.081	468.19
487.299	471.19
487.517	475.19
487.735	486.19
487.953	477.19
488.171	480.19
488.389	478.19
488.607	481.19
488.825	489.19
489.043	460.19
489.261	485.19
489.479	481.19
489.696	504.19
489.914	492.19
490.132	481.19
490.35	501.19
490.568	474.19
490.786	518.19
491.003	509.19
491.221	534.19
491.439	538.19
491.657	553.19
491.874	535.19
492.092	560.19
492.31	560.19
492.527	552.19
492.745	560.19
492.963	532.19
493.18	563.19
493.398	554.19
493.615	553.19
493.833	540.19
494.05	562.19
494.268	583.19
494.485	555.19
494.703	578.19
494.92	550.19
495.138	533.19
495.355	557.19
495.573	558.19
495.79	570.19
496.008	585.19
496.225	585.19
496.442	571.19
496.66	557.19
496.877	566.19
497.094	562.19
497.312	573.19
497.529	544.19
497.746	578.19
497.963	557.19
498.181	574.19
498.398	616.19
498.615	616.19
498.832	608.19
499.049	633.19
499.267	636.19
499.484	629.19
499.701	692.19
499.918	673.19
500.135	718.19
500.352	742.19
500.569	720.19
500.786	738.19
501.003	705.19
501.22	716.19
501.437	708.19
501.654	706.19
501.871	682.19
