Data from 1971.PennyLincolnUp.Lamp.En5.5.200Scan.071719.P1._HRD10591_15-19-24-841.txt Node
Date: Thu Jul 18 15:19:24 EDT 2019
User: cochatt
Spectrometer: HR+D1059
Trigger mode: 1
Integration Time (sec): 1.000000E-1
Scans to average: 1
Electric dark correction enabled: true
Nonlinearity correction enabled: false
Boxcar width: 0
XAxis mode: Wavelengths
Number of Pixels in Spectrum: 2048
>>>>>Begin Spectral Data<<<<<
223.165	-14.06
223.4	-14.06
223.635	-14.06
223.869	-26.06
224.104	-26.06
224.338	-29.06
224.573	-17.06
224.808	0.94
225.042	-6.06
225.277	-11.06
225.511	-7.06
225.746	1.94
225.98	11.94
226.215	17.94
226.449	17.94
226.683	24.94
226.918	25.94
227.152	34.94
227.387	17.94
227.621	35.94
227.856	42.94
228.09	40.94
228.324	37.94
228.559	65.94
228.793	64.94
229.027	82.94
229.262	94.94
229.496	112.94
229.73	121.94
229.964	138.94
230.199	117.94
230.433	113.94
230.667	101.94
230.901	103.94
231.136	95.94
231.37	90.94
231.604	107.94
231.838	97.94
232.072	86.94
232.306	112.94
232.541	96.94
232.775	106.94
233.009	109.94
233.243	109.94
233.477	115.94
233.711	107.94
233.945	96.94
234.179	117.94
234.413	117.94
234.647	109.94
234.881	113.94
235.115	105.94
235.349	123.94
235.583	117.94
235.817	118.94
236.051	114.94
236.285	105.94
236.519	118.94
236.753	125.94
236.987	138.94
237.221	164.94
237.455	226.94
237.689	166.94
237.922	126.94
238.156	132.94
238.39	118.94
238.624	113.94
238.858	128.94
239.091	108.94
239.325	119.94
239.559	122.94
239.793	117.94
240.027	141.94
240.26	147.94
240.494	133.94
240.728	138.94
240.961	150.94
241.195	139.94
241.429	138.94
241.662	133.94
241.896	131.94
242.13	140.94
242.363	138.94
242.597	136.94
242.83	124.94
243.064	131.94
243.298	138.94
243.531	139.94
243.765	136.94
243.998	136.94
244.232	134.94
244.465	129.94
244.699	150.94
244.932	161.94
245.166	131.94
245.399	150.94
245.633	125.94
245.866	141.94
246.099	153.94
246.333	135.94
246.566	165.94
246.8	154.94
247.033	148.94
247.266	149.94
247.5	158.94
247.733	173.94
247.966	165.94
248.2	178.94
248.433	166.94
248.666	181.94
248.899	168.94
249.133	197.94
249.366	199.94
249.599	202.94
249.832	168.94
250.066	173.94
250.299	180.94
250.532	185.94
250.765	192.94
250.998	218.94
251.231	210.94
251.465	226.94
251.698	199.94
251.931	202.94
252.164	191.94
252.397	193.94
252.63	205.94
252.863	209.94
253.096	216.94
253.329	225.94
253.562	224.94
253.795	233.94
254.028	206.94
254.261	212.94
254.494	213.94
254.727	243.94
254.96	262.94
255.193	273.94
255.426	246.94
255.659	226.94
255.892	242.94
256.124	214.94
256.357	234.94
256.59	194.94
256.823	227.94
257.056	200.94
257.289	201.94
257.521	203.94
257.754	214.94
257.987	222.94
258.22	201.94
258.452	195.94
258.685	201.94
258.918	202.94
259.151	226.94
259.383	233.94
259.616	224.94
259.849	228.94
260.081	232.94
260.314	246.94
260.547	253.94
260.779	248.94
261.012	257.94
261.244	226.94
261.477	239.94
261.71	216.94
261.942	218.94
262.175	225.94
262.407	233.94
262.64	232.94
262.872	220.94
263.105	223.94
263.337	221.94
263.57	206.94
263.802	218.94
264.035	203.94
264.267	226.94
264.499	204.94
264.732	216.94
264.964	225.94
265.197	220.94
265.429	216.94
265.661	221.94
265.894	219.94
266.126	224.94
266.358	225.94
266.591	221.94
266.823	228.94
267.055	230.94
267.287	230.94
267.52	229.94
267.752	244.94
267.984	232.94
268.216	243.94
268.448	250.94
268.681	246.94
268.913	266.94
269.145	297.94
269.377	282.94
269.609	265.94
269.841	286.94
270.073	275.94
270.306	305.94
270.538	310.94
270.77	330.94
271.002	318.94
271.234	296.94
271.466	312.94
271.698	310.94
271.93	315.94
272.162	323.94
272.394	312.94
272.626	293.94
272.858	296.94
273.09	274.94
273.322	286.94
273.553	275.94
273.785	269.94
274.017	264.94
274.249	285.94
274.481	261.94
274.713	270.94
274.945	279.94
275.176	265.94
275.408	258.94
275.64	257.94
275.872	289.94
276.104	272.94
276.335	269.94
276.567	285.94
276.799	286.94
277.031	304.94
277.262	323.94
277.494	331.94
277.726	288.94
277.957	290.94
278.189	285.94
278.421	257.94
278.652	284.94
278.884	276.94
279.115	293.94
279.347	282.94
279.579	278.94
279.81	271.94
280.042	279.94
280.273	282.94
280.505	272.94
280.736	267.94
280.968	263.94
281.199	267.94
281.431	273.94
281.662	270.94
281.894	261.94
282.125	269.94
282.356	291.94
282.588	293.94
282.819	312.94
283.051	273.94
283.282	276.94
283.513	274.94
283.745	265.94
283.976	289.94
284.207	291.94
284.439	285.94
284.67	277.94
284.901	293.94
285.132	276.94
285.364	299.94
285.595	275.94
285.826	275.94
286.057	294.94
286.288	287.94
286.52	278.94
286.751	275.94
286.982	283.94
287.213	299.94
287.444	303.94
287.675	313.94
287.906	294.94
288.138	320.94
288.369	313.94
288.6	278.94
288.831	293.94
289.062	294.94
289.293	286.94
289.524	297.94
289.755	304.94
289.986	297.94
290.217	289.94
290.448	290.94
290.679	313.94
290.91	291.94
291.141	289.94
291.371	297.94
291.602	290.94
291.833	305.94
292.064	294.94
292.295	299.94
292.526	277.94
292.757	283.94
292.987	286.94
293.218	296.94
293.449	288.94
293.68	298.94
293.91	300.94
294.141	290.94
294.372	305.94
294.603	303.94
294.833	297.94
295.064	311.94
295.295	297.94
295.525	285.94
295.756	318.94
295.987	301.94
296.217	343.94
296.448	329.94
296.679	306.94
296.909	298.94
297.14	295.94
297.37	303.94
297.601	279.94
297.831	310.94
298.062	301.94
298.292	299.94
298.523	303.94
298.753	310.94
298.984	315.94
299.214	307.94
299.445	305.94
299.675	319.94
299.905	310.94
300.136	307.94
300.366	303.94
300.597	295.94
300.827	313.94
301.057	338.94
301.288	337.94
301.518	329.94
301.748	320.94
301.979	325.94
302.209	324.94
302.439	336.94
302.669	329.94
302.9	338.94
303.13	330.94
303.36	338.94
303.59	323.94
303.82	341.94
304.051	335.94
304.281	326.94
304.511	326.94
304.741	338.94
304.971	321.94
305.201	330.94
305.431	338.94
305.661	328.94
305.891	329.94
306.121	337.94
306.352	317.94
306.582	316.94
306.812	335.94
307.042	345.94
307.272	340.94
307.502	328.94
307.731	329.94
307.961	329.94
308.191	316.94
308.421	341.94
308.651	344.94
308.881	361.94
309.111	352.94
309.341	343.94
309.571	357.94
309.8	361.94
310.03	354.94
310.26	369.94
310.49	368.94
310.72	382.94
310.949	392.94
311.179	383.94
311.409	374.94
311.639	378.94
311.868	372.94
312.098	386.94
312.328	392.94
312.557	393.94
312.787	403.94
313.017	390.94
313.246	393.94
313.476	368.94
313.706	383.94
313.935	396.94
314.165	385.94
314.394	395.94
314.624	399.94
314.853	388.94
315.083	379.94
315.312	366.94
315.542	370.94
315.771	371.94
316.001	374.94
316.23	361.94
316.46	381.94
316.689	395.94
316.919	396.94
317.148	380.94
317.377	391.94
317.607	370.94
317.836	366.94
318.065	387.94
318.295	378.94
318.524	390.94
318.753	374.94
318.983	389.94
319.212	383.94
319.441	387.94
319.67	394.94
319.9	389.94
320.129	381.94
320.358	395.94
320.587	387.94
320.816	395.94
321.046	387.94
321.275	400.94
321.504	392.94
321.733	405.94
321.962	409.94
322.191	413.94
322.42	436.94
322.649	437.94
322.878	441.94
323.108	455.94
323.337	479.94
323.566	508.94
323.795	526.94
324.024	568.94
324.253	689.94
324.482	943.94
324.71	1425.94
324.939	1886.94
325.168	1633.94
325.397	859.94
325.626	605.94
325.855	530.94
326.084	504.94
326.313	493.94
326.542	493.94
326.77	559.94
326.999	614.94
327.228	861.94
327.457	1205.94
327.686	1406.94
327.914	970.94
328.143	645.94
328.372	585.94
328.6	547.94
328.829	527.94
329.058	526.94
329.287	553.94
329.515	521.94
329.744	522.94
329.972	495.94
330.201	513.94
330.43	510.94
330.658	565.94
330.887	535.94
331.115	540.94
331.344	486.94
331.572	500.94
331.801	481.94
332.03	452.94
332.258	448.94
332.486	449.94
332.715	433.94
332.943	430.94
333.172	455.94
333.4	433.94
333.629	418.94
333.857	465.94
334.085	447.94
334.314	495.94
334.542	510.94
334.771	492.94
334.999	488.94
335.227	455.94
335.455	440.94
335.684	430.94
335.912	431.94
336.14	430.94
336.369	412.94
336.597	446.94
336.825	440.94
337.053	442.94
337.281	446.94
337.51	415.94
337.738	417.94
337.966	438.94
338.194	431.94
338.422	421.94
338.65	425.94
338.878	423.94
339.106	435.94
339.334	427.94
339.562	387.94
339.79	413.94
340.018	410.94
340.246	418.94
340.474	442.94
340.702	408.94
340.93	405.94
341.158	388.94
341.386	403.94
341.614	405.94
341.842	406.94
342.07	419.94
342.298	412.94
342.526	405.94
342.754	399.94
342.981	400.94
343.209	399.94
343.437	409.94
343.665	415.94
343.893	427.94
344.12	423.94
344.348	407.94
344.576	434.94
344.804	429.94
345.031	434.94
345.259	432.94
345.487	439.94
345.714	423.94
345.942	414.94
346.17	404.94
346.397	393.94
346.625	408.94
346.853	402.94
347.08	383.94
347.308	387.94
347.535	408.94
347.763	421.94
347.99	381.94
348.218	416.94
348.445	413.94
348.673	401.94
348.9	384.94
349.128	389.94
349.355	395.94
349.583	396.94
349.81	361.94
350.037	391.94
350.265	376.94
350.492	373.94
350.72	389.94
350.947	395.94
351.174	375.94
351.402	381.94
351.629	390.94
351.856	382.94
352.083	399.94
352.311	424.94
352.538	417.94
352.765	393.94
352.992	391.94
353.22	387.94
353.447	400.94
353.674	374.94
353.901	365.94
354.128	377.94
354.355	375.94
354.583	369.94
354.81	381.94
355.037	372.94
355.264	370.94
355.491	370.94
355.718	367.94
355.945	395.94
356.172	355.94
356.399	357.94
356.626	365.94
356.853	368.94
357.08	362.94
357.307	353.94
357.534	366.94
357.761	354.94
357.988	345.94
358.215	366.94
358.441	391.94
358.668	381.94
358.895	373.94
359.122	365.94
359.349	380.94
359.576	386.94
359.802	400.94
360.029	390.94
360.256	423.94
360.483	398.94
360.709	377.94
360.936	383.94
361.163	398.94
361.39	384.94
361.616	372.94
361.843	381.94
362.07	364.94
362.296	394.94
362.523	379.94
362.749	370.94
362.976	382.94
363.203	374.94
363.429	370.94
363.656	368.94
363.882	361.94
364.109	364.94
364.335	358.94
364.562	365.94
364.788	359.94
365.015	370.94
365.241	355.94
365.468	371.94
365.694	358.94
365.92	355.94
366.147	360.94
366.373	351.94
366.599	369.94
366.826	375.94
367.052	362.94
367.278	368.94
367.505	364.94
367.731	347.94
367.957	365.94
368.184	355.94
368.41	375.94
368.636	383.94
368.862	383.94
369.089	371.94
369.315	360.94
369.541	375.94
369.767	355.94
369.993	358.94
370.219	366.94
370.445	367.94
370.672	358.94
370.898	371.94
371.124	379.94
371.35	357.94
371.576	353.94
371.802	352.94
372.028	343.94
372.254	329.94
372.48	349.94
372.706	351.94
372.932	348.94
373.158	355.94
373.384	341.94
373.61	366.94
373.835	352.94
374.061	348.94
374.287	360.94
374.513	367.94
374.739	359.94
374.965	354.94
375.191	361.94
375.416	368.94
375.642	373.94
375.868	357.94
376.094	346.94
376.319	367.94
376.545	369.94
376.771	366.94
376.997	349.94
377.222	355.94
377.448	351.94
377.674	353.94
377.899	346.94
378.125	369.94
378.35	351.94
378.576	342.94
378.802	345.94
379.027	365.94
379.253	364.94
379.478	338.94
379.704	360.94
379.929	360.94
380.155	355.94
380.38	340.94
380.606	350.94
380.831	347.94
381.057	344.94
381.282	350.94
381.507	353.94
381.733	335.94
381.958	355.94
382.184	345.94
382.409	354.94
382.634	351.94
382.86	341.94
383.085	365.94
383.31	370.94
383.535	341.94
383.761	371.94
383.986	371.94
384.211	366.94
384.436	372.94
384.662	375.94
384.887	356.94
385.112	364.94
385.337	377.94
385.562	360.94
385.787	389.94
386.013	372.94
386.238	373.94
386.463	373.94
386.688	372.94
386.913	368.94
387.138	352.94
387.363	381.94
387.588	383.94
387.813	379.94
388.038	376.94
388.263	379.94
388.488	372.94
388.713	351.94
388.938	350.94
389.163	374.94
389.387	381.94
389.612	358.94
389.837	385.94
390.062	363.94
390.287	359.94
390.512	350.94
390.736	366.94
390.961	366.94
391.186	367.94
391.411	377.94
391.636	382.94
391.86	376.94
392.085	379.94
392.31	385.94
392.534	367.94
392.759	372.94
392.984	373.94
393.208	365.94
393.433	383.94
393.658	379.94
393.882	348.94
394.107	383.94
394.331	375.94
394.556	371.94
394.78	399.94
395.005	374.94
395.229	361.94
395.454	375.94
395.678	377.94
395.903	389.94
396.127	384.94
396.352	401.94
396.576	388.94
396.801	378.94
397.025	380.94
397.249	374.94
397.474	391.94
397.698	407.94
397.922	419.94
398.147	418.94
398.371	414.94
398.595	414.94
398.82	415.94
399.044	405.94
399.268	446.94
399.492	450.94
399.717	477.94
399.941	495.94
400.165	526.94
400.389	497.94
400.613	461.94
400.837	465.94
401.062	404.94
401.286	410.94
401.51	412.94
401.734	417.94
401.958	411.94
402.182	415.94
402.406	429.94
402.63	413.94
402.854	435.94
403.078	430.94
403.302	442.94
403.526	419.94
403.75	419.94
403.974	421.94
404.198	436.94
404.422	426.94
404.645	418.94
404.869	452.94
405.093	462.94
405.317	498.94
405.541	520.94
405.765	465.94
405.988	449.94
406.212	446.94
406.436	465.94
406.66	473.94
406.883	455.94
407.107	464.94
407.331	517.94
407.555	541.94
407.778	541.94
408.002	498.94
408.226	465.94
408.449	441.94
408.673	450.94
408.896	485.94
409.12	528.94
409.344	498.94
409.567	438.94
409.791	434.94
410.014	408.94
410.238	397.94
410.461	429.94
410.685	425.94
410.908	435.94
411.132	459.94
411.355	495.94
411.578	475.94
411.802	433.94
412.025	417.94
412.249	442.94
412.472	444.94
412.695	469.94
412.919	488.94
413.142	430.94
413.365	408.94
413.589	409.94
413.812	403.94
414.035	419.94
414.258	420.94
414.482	394.94
414.705	387.94
414.928	395.94
415.151	395.94
415.374	387.94
415.597	396.94
415.821	376.94
416.044	392.94
416.267	409.94
416.49	408.94
416.713	401.94
416.936	386.94
417.159	398.94
417.382	409.94
417.605	375.94
417.828	413.94
418.051	417.94
418.274	422.94
418.497	409.94
418.72	411.94
418.943	389.94
419.166	406.94
419.389	429.94
419.611	407.94
419.834	418.94
420.057	428.94
420.28	439.94
420.503	427.94
420.726	411.94
420.948	421.94
421.171	467.94
421.394	467.94
421.617	432.94
421.839	427.94
422.062	407.94
422.285	411.94
422.507	490.94
422.73	538.94
422.953	518.94
423.175	469.94
423.398	433.94
423.621	431.94
423.843	437.94
424.066	452.94
424.288	446.94
424.511	474.94
424.733	522.94
424.956	565.94
425.178	549.94
425.401	537.94
425.623	583.94
425.846	477.94
426.068	469.94
426.291	451.94
426.513	451.94
426.735	473.94
426.958	494.94
427.18	557.94
427.402	649.94
427.625	705.94
427.847	594.94
428.069	549.94
428.292	478.94
428.514	425.94
428.736	432.94
428.958	425.94
429.181	403.94
429.403	418.94
429.625	424.94
429.847	451.94
430.069	504.94
430.292	491.94
430.514	435.94
430.736	414.94
430.958	420.94
431.18	395.94
431.402	390.94
431.624	379.94
431.846	372.94
432.068	385.94
432.29	391.94
432.512	387.94
432.734	390.94
432.956	421.94
433.178	405.94
433.4	404.94
433.622	393.94
433.844	408.94
434.066	392.94
434.287	376.94
434.509	389.94
434.731	379.94
434.953	410.94
435.175	428.94
435.397	425.94
435.618	473.94
435.84	488.94
436.062	546.94
436.284	582.94
436.505	505.94
436.727	451.94
436.949	444.94
437.17	417.94
437.392	405.94
437.614	421.94
437.835	446.94
438.057	506.94
438.278	611.94
438.5	605.94
438.721	676.94
438.943	629.94
439.165	497.94
439.386	475.94
439.608	469.94
439.829	458.94
440.05	495.94
440.272	513.94
440.493	481.94
440.715	431.94
440.936	432.94
441.158	424.94
441.379	432.94
441.6	420.94
441.822	429.94
442.043	464.94
442.264	526.94
442.486	567.94
442.707	509.94
442.928	455.94
443.149	474.94
443.371	484.94
443.592	523.94
443.813	589.94
444.034	616.94
444.255	521.94
444.476	481.94
444.698	436.94
444.919	440.94
445.14	568.94
445.361	523.94
445.582	485.94
445.803	533.94
446.024	603.94
446.245	621.94
446.466	580.94
446.687	515.94
446.908	451.94
447.129	447.94
447.35	435.94
447.571	438.94
447.792	410.94
448.013	411.94
448.234	413.94
448.455	468.94
448.675	547.94
448.896	637.94
449.117	541.94
449.338	521.94
449.559	628.94
449.779	683.94
450	552.94
450.221	436.94
450.442	421.94
450.662	391.94
450.883	402.94
451.104	405.94
451.324	407.94
451.545	386.94
451.766	368.94
451.986	363.94
452.207	371.94
452.428	359.94
452.648	376.94
452.869	375.94
453.089	373.94
453.31	381.94
453.53	393.94
453.751	371.94
453.971	377.94
454.192	354.94
454.412	347.94
454.633	381.94
454.853	339.94
455.073	357.94
455.294	409.94
455.514	437.94
455.734	421.94
455.955	393.94
456.175	365.94
456.395	353.94
456.616	343.94
456.836	343.94
457.056	334.94
457.276	327.94
457.497	332.94
457.717	355.94
457.937	365.94
458.157	347.94
458.377	351.94
458.598	376.94
458.818	413.94
459.038	464.94
459.258	483.94
459.478	406.94
459.698	394.94
459.918	358.94
460.138	378.94
460.358	369.94
460.578	378.94
460.798	365.94
461.018	383.94
461.238	384.94
461.458	395.94
461.678	379.94
461.898	366.94
462.118	382.94
462.338	413.94
462.558	390.94
462.777	410.94
462.997	401.94
463.217	396.94
463.437	414.94
463.657	395.94
463.876	422.94
464.096	432.94
464.316	407.94
464.536	400.94
464.755	391.94
464.975	401.94
465.195	446.94
465.414	501.94
465.634	437.94
465.854	405.94
466.073	389.94
466.293	369.94
466.512	375.94
466.732	366.94
466.951	374.94
467.171	355.94
467.391	379.94
467.61	367.94
467.829	377.94
468.049	349.94
468.268	381.94
468.488	350.94
468.707	343.94
468.927	359.94
469.146	370.94
469.365	369.94
469.585	357.94
469.804	369.94
470.023	388.94
470.243	373.94
470.462	373.94
470.681	385.94
470.901	381.94
471.12	389.94
471.339	373.94
471.558	399.94
471.777	395.94
471.997	384.94
472.216	381.94
472.435	406.94
472.654	393.94
472.873	375.94
473.092	380.94
473.311	385.94
473.53	389.94
473.749	400.94
473.968	421.94
474.187	505.94
474.406	515.94
474.625	414.94
474.844	392.94
475.063	391.94
475.282	389.94
475.501	395.94
475.72	392.94
475.939	391.94
476.158	406.94
476.377	404.94
476.596	389.94
476.814	403.94
477.033	395.94
477.252	407.94
477.471	387.94
477.69	385.94
477.908	410.94
478.127	421.94
478.346	393.94
478.564	430.94
478.783	404.94
479.002	418.94
479.22	420.94
479.439	439.94
479.658	456.94
479.876	452.94
480.095	449.94
480.313	477.94
480.532	466.94
480.751	437.94
480.969	465.94
481.188	490.94
481.406	500.94
481.624	465.94
481.843	445.94
482.061	435.94
482.28	440.94
482.498	445.94
482.717	419.94
482.935	451.94
483.153	441.94
483.372	445.94
483.59	444.94
483.808	449.94
484.027	426.94
484.245	434.94
484.463	424.94
484.681	482.94
484.9	454.94
485.118	432.94
485.336	446.94
485.554	451.94
485.772	449.94
485.99	437.94
486.209	457.94
486.427	473.94
486.645	469.94
486.863	474.94
487.081	469.94
487.299	463.94
487.517	472.94
487.735	481.94
487.953	489.94
488.171	473.94
488.389	464.94
488.607	474.94
488.825	468.94
489.043	459.94
489.261	479.94
489.479	473.94
489.696	499.94
489.914	473.94
490.132	471.94
490.35	507.94
490.568	482.94
490.786	520.94
491.003	519.94
491.221	517.94
491.439	531.94
491.657	510.94
491.874	553.94
492.092	583.94
492.31	549.94
492.527	557.94
492.745	549.94
492.963	559.94
493.18	580.94
493.398	544.94
493.615	536.94
493.833	574.94
494.05	579.94
494.268	559.94
494.485	546.94
494.703	537.94
494.92	541.94
495.138	536.94
495.355	543.94
495.573	553.94
495.79	561.94
496.008	570.94
496.225	572.94
496.442	552.94
496.66	576.94
496.877	568.94
497.094	574.94
497.312	577.94
497.529	575.94
497.746	561.94
497.963	580.94
498.181	597.94
498.398	586.94
498.615	604.94
498.832	605.94
499.049	619.94
499.267	637.94
499.484	651.94
499.701	659.94
499.918	681.94
500.135	711.94
500.352	733.94
500.569	734.94
500.786	746.94
501.003	725.94
501.22	705.94
501.437	728.94
501.654	694.94
501.871	703.94
502.088	681.94
