Data from 1971.PennyLincolnUp.Lamp.En5.5.200Scan.071719.P1.Scan 2. Changed Angle._HRD10591_15-25-22-843.txt Node
Date: Thu Jul 18 15:25:22 EDT 2019
User: cochatt
Spectrometer: HR+D1059
Trigger mode: 1
Integration Time (sec): 1.000000E-1
Scans to average: 1
Electric dark correction enabled: true
Nonlinearity correction enabled: false
Boxcar width: 0
XAxis mode: Wavelengths
Number of Pixels in Spectrum: 2048
>>>>>Begin Spectral Data<<<<<
223.165	-32.38
223.4	-32.38
223.635	-32.38
223.869	-18.38
224.104	-9.38
224.338	-10.38
224.573	-12.38
224.808	-7.38
225.042	7.62
225.277	-10.38
225.511	3.62
225.746	5.62
225.98	3.62
226.215	14.62
226.449	18.62
226.683	0.62
226.918	12.62
227.152	33.62
227.387	35.62
227.621	43.62
227.856	43.62
228.09	44.62
228.324	61.62
228.559	69.62
228.793	67.62
229.027	121.62
229.262	125.62
229.496	122.62
229.73	158.62
229.964	193.62
230.199	162.62
230.433	129.62
230.667	137.62
230.901	121.62
231.136	119.62
231.37	134.62
231.604	112.62
231.838	124.62
232.072	123.62
232.306	123.62
232.541	104.62
232.775	133.62
233.009	131.62
233.243	127.62
233.477	121.62
233.711	131.62
233.945	119.62
234.179	138.62
234.413	123.62
234.647	123.62
234.881	134.62
235.115	136.62
235.349	124.62
235.583	131.62
235.817	151.62
236.051	149.62
236.285	141.62
236.519	159.62
236.753	142.62
236.987	170.62
237.221	226.62
237.455	287.62
237.689	230.62
237.922	170.62
238.156	170.62
238.39	136.62
238.624	149.62
238.858	146.62
239.091	139.62
239.325	133.62
239.559	134.62
239.793	147.62
240.027	153.62
240.26	175.62
240.494	164.62
240.728	188.62
240.961	170.62
241.195	175.62
241.429	159.62
241.662	159.62
241.896	133.62
242.13	148.62
242.363	144.62
242.597	159.62
242.83	151.62
243.064	160.62
243.298	152.62
243.531	157.62
243.765	145.62
243.998	159.62
244.232	154.62
244.465	169.62
244.699	163.62
244.932	146.62
245.166	150.62
245.399	167.62
245.633	167.62
245.866	165.62
246.099	157.62
246.333	173.62
246.566	188.62
246.8	179.62
247.033	168.62
247.266	150.62
247.5	182.62
247.733	183.62
247.966	181.62
248.2	188.62
248.433	187.62
248.666	204.62
248.899	204.62
249.133	217.62
249.366	252.62
249.599	230.62
249.832	211.62
250.066	205.62
250.299	214.62
250.532	205.62
250.765	231.62
250.998	264.62
251.231	271.62
251.465	269.62
251.698	235.62
251.931	206.62
252.164	238.62
252.397	229.62
252.63	236.62
252.863	225.62
253.096	237.62
253.329	267.62
253.562	267.62
253.795	253.62
254.028	241.62
254.261	257.62
254.494	253.62
254.727	301.62
254.96	335.62
255.193	337.62
255.426	291.62
255.659	272.62
255.892	277.62
256.124	266.62
256.357	285.62
256.59	270.62
256.823	256.62
257.056	231.62
257.289	239.62
257.521	244.62
257.754	228.62
257.987	227.62
258.22	218.62
258.452	239.62
258.685	227.62
258.918	226.62
259.151	244.62
259.383	247.62
259.616	264.62
259.849	269.62
260.081	287.62
260.314	292.62
260.547	298.62
260.779	286.62
261.012	268.62
261.244	267.62
261.477	274.62
261.71	238.62
261.942	245.62
262.175	254.62
262.407	260.62
262.64	236.62
262.872	235.62
263.105	230.62
263.337	227.62
263.57	223.62
263.802	247.62
264.035	234.62
264.267	229.62
264.499	225.62
264.732	237.62
264.964	232.62
265.197	226.62
265.429	228.62
265.661	211.62
265.894	240.62
266.126	223.62
266.358	225.62
266.591	218.62
266.823	248.62
267.055	259.62
267.287	227.62
267.52	250.62
267.752	222.62
267.984	252.62
268.216	252.62
268.448	247.62
268.681	261.62
268.913	272.62
269.145	284.62
269.377	316.62
269.609	292.62
269.841	288.62
270.073	316.62
270.306	334.62
270.538	358.62
270.77	365.62
271.002	363.62
271.234	337.62
271.466	327.62
271.698	360.62
271.93	341.62
272.162	374.62
272.394	361.62
272.626	352.62
272.858	312.62
273.09	317.62
273.322	319.62
273.553	295.62
273.785	274.62
274.017	280.62
274.249	291.62
274.481	290.62
274.713	277.62
274.945	309.62
275.176	289.62
275.408	282.62
275.64	276.62
275.872	282.62
276.104	286.62
276.335	285.62
276.567	279.62
276.799	320.62
277.031	319.62
277.262	339.62
277.494	357.62
277.726	340.62
277.957	301.62
278.189	307.62
278.421	305.62
278.652	288.62
278.884	299.62
279.115	282.62
279.347	277.62
279.579	293.62
279.81	279.62
280.042	314.62
280.273	279.62
280.505	299.62
280.736	266.62
280.968	273.62
281.199	286.62
281.431	268.62
281.662	291.62
281.894	276.62
282.125	295.62
282.356	299.62
282.588	348.62
282.819	315.62
283.051	311.62
283.282	264.62
283.513	277.62
283.745	294.62
283.976	288.62
284.207	283.62
284.439	274.62
284.67	292.62
284.901	288.62
285.132	292.62
285.364	296.62
285.595	287.62
285.826	288.62
286.057	273.62
286.288	296.62
286.52	295.62
286.751	282.62
286.982	279.62
287.213	289.62
287.444	285.62
287.675	283.62
287.906	303.62
288.138	290.62
288.369	313.62
288.6	331.62
288.831	317.62
289.062	312.62
289.293	297.62
289.524	305.62
289.755	289.62
289.986	297.62
290.217	292.62
290.448	270.62
290.679	294.62
290.91	291.62
291.141	309.62
291.371	283.62
291.602	310.62
291.833	309.62
292.064	293.62
292.295	301.62
292.526	292.62
292.757	280.62
292.987	327.62
293.218	288.62
293.449	300.62
293.68	294.62
293.91	293.62
294.141	291.62
294.372	297.62
294.603	299.62
294.833	294.62
295.064	296.62
295.295	283.62
295.525	293.62
295.756	309.62
295.987	319.62
296.217	338.62
296.448	348.62
296.679	319.62
296.909	301.62
297.14	300.62
297.37	311.62
297.601	308.62
297.831	298.62
298.062	300.62
298.292	318.62
298.523	305.62
298.753	302.62
298.984	299.62
299.214	316.62
299.445	317.62
299.675	321.62
299.905	326.62
300.136	323.62
300.366	315.62
300.597	323.62
300.827	339.62
301.057	324.62
301.288	345.62
301.518	337.62
301.748	324.62
301.979	345.62
302.209	340.62
302.439	344.62
302.669	311.62
302.9	321.62
303.13	325.62
303.36	338.62
303.59	332.62
303.82	344.62
304.051	357.62
304.281	336.62
304.511	336.62
304.741	347.62
304.971	335.62
305.201	334.62
305.431	336.62
305.661	337.62
305.891	323.62
306.121	327.62
306.352	361.62
306.582	357.62
306.812	336.62
307.042	339.62
307.272	360.62
307.502	360.62
307.731	360.62
307.961	350.62
308.191	337.62
308.421	332.62
308.651	371.62
308.881	340.62
309.111	358.62
309.341	352.62
309.571	375.62
309.8	393.62
310.03	413.62
310.26	424.62
310.49	394.62
310.72	414.62
310.949	429.62
311.179	451.62
311.409	410.62
311.639	413.62
311.868	406.62
312.098	417.62
312.328	423.62
312.557	437.62
312.787	477.62
313.017	463.62
313.246	419.62
313.476	405.62
313.706	417.62
313.935	405.62
314.165	423.62
314.394	443.62
314.624	430.62
314.853	423.62
315.083	405.62
315.312	415.62
315.542	409.62
315.771	383.62
316.001	393.62
316.23	426.62
316.46	394.62
316.689	425.62
316.919	415.62
317.148	426.62
317.377	417.62
317.607	414.62
317.836	417.62
318.065	382.62
318.295	412.62
318.524	401.62
318.753	391.62
318.983	397.62
319.212	401.62
319.441	416.62
319.67	441.62
319.9	414.62
320.129	414.62
320.358	408.62
320.587	423.62
320.816	418.62
321.046	454.62
321.275	459.62
321.504	440.62
321.733	432.62
321.962	455.62
322.191	461.62
322.42	496.62
322.649	507.62
322.878	527.62
323.108	529.62
323.337	557.62
323.566	595.62
323.795	649.62
324.024	669.62
324.253	865.62
324.482	1305.62
324.71	2096.62
324.939	2987.62
325.168	2568.62
325.397	1283.62
325.626	855.62
325.855	704.62
326.084	603.62
326.313	587.62
326.542	599.62
326.77	689.62
326.999	791.62
327.228	1169.62
327.457	1803.62
327.686	2197.62
327.914	1450.62
328.143	949.62
328.372	831.62
328.6	745.62
328.829	698.62
329.058	719.62
329.287	718.62
329.515	673.62
329.744	606.62
329.972	599.62
330.201	635.62
330.43	699.62
330.658	705.62
330.887	742.62
331.115	727.62
331.344	616.62
331.572	587.62
331.801	592.62
332.03	564.62
332.258	519.62
332.486	496.62
332.715	488.62
332.943	488.62
333.172	503.62
333.4	477.62
333.629	501.62
333.857	500.62
334.085	529.62
334.314	571.62
334.542	601.62
334.771	617.62
334.999	540.62
335.227	517.62
335.455	485.62
335.684	470.62
335.912	462.62
336.14	462.62
336.369	456.62
336.597	490.62
336.825	493.62
337.053	476.62
337.281	460.62
337.51	459.62
337.738	480.62
337.966	457.62
338.194	495.62
338.422	465.62
338.65	458.62
338.878	467.62
339.106	455.62
339.334	465.62
339.562	478.62
339.79	450.62
340.018	443.62
340.246	455.62
340.474	457.62
340.702	461.62
340.93	485.62
341.158	442.62
341.386	451.62
341.614	457.62
341.842	476.62
342.07	451.62
342.298	446.62
342.526	426.62
342.754	428.62
342.981	449.62
343.209	420.62
343.437	433.62
343.665	462.62
343.893	434.62
344.12	469.62
344.348	467.62
344.576	453.62
344.804	479.62
345.031	490.62
345.259	489.62
345.487	464.62
345.714	472.62
345.942	472.62
346.17	458.62
346.397	461.62
346.625	452.62
346.853	455.62
347.08	444.62
347.308	457.62
347.535	463.62
347.763	500.62
347.99	471.62
348.218	464.62
348.445	471.62
348.673	503.62
348.9	461.62
349.128	455.62
349.355	437.62
349.583	446.62
349.81	445.62
350.037	428.62
350.265	432.62
350.492	430.62
350.72	459.62
350.947	451.62
351.174	476.62
351.402	464.62
351.629	470.62
351.856	467.62
352.083	462.62
352.311	483.62
352.538	488.62
352.765	493.62
352.992	483.62
353.22	463.62
353.447	459.62
353.674	455.62
353.901	432.62
354.128	414.62
354.355	435.62
354.583	433.62
354.81	416.62
355.037	421.62
355.264	427.62
355.491	414.62
355.718	420.62
355.945	418.62
356.172	399.62
356.399	414.62
356.626	408.62
356.853	397.62
357.08	406.62
357.307	423.62
357.534	401.62
357.761	417.62
357.988	413.62
358.215	398.62
358.441	425.62
358.668	423.62
358.895	435.62
359.122	425.62
359.349	440.62
359.576	469.62
359.802	505.62
360.029	550.62
360.256	560.62
360.483	519.62
360.709	476.62
360.936	469.62
361.163	482.62
361.39	488.62
361.616	471.62
361.843	462.62
362.07	454.62
362.296	458.62
362.523	455.62
362.749	476.62
362.976	449.62
363.203	460.62
363.429	446.62
363.656	456.62
363.882	432.62
364.109	431.62
364.335	445.62
364.562	440.62
364.788	423.62
365.015	433.62
365.241	433.62
365.468	448.62
365.694	463.62
365.92	461.62
366.147	435.62
366.373	442.62
366.599	435.62
366.826	447.62
367.052	438.62
367.278	431.62
367.505	426.62
367.731	438.62
367.957	429.62
368.184	432.62
368.41	449.62
368.636	474.62
368.862	444.62
369.089	426.62
369.315	424.62
369.541	418.62
369.767	431.62
369.993	431.62
370.219	425.62
370.445	445.62
370.672	438.62
370.898	422.62
371.124	404.62
371.35	416.62
371.576	416.62
371.802	412.62
372.028	417.62
372.254	413.62
372.48	421.62
372.706	437.62
372.932	421.62
373.158	451.62
373.384	426.62
373.61	421.62
373.835	424.62
374.061	417.62
374.287	426.62
374.513	439.62
374.739	437.62
374.965	427.62
375.191	436.62
375.416	427.62
375.642	427.62
375.868	444.62
376.094	427.62
376.319	411.62
376.545	429.62
376.771	428.62
376.997	433.62
377.222	422.62
377.448	427.62
377.674	429.62
377.899	432.62
378.125	427.62
378.35	430.62
378.576	420.62
378.802	449.62
379.027	443.62
379.253	428.62
379.478	430.62
379.704	428.62
379.929	429.62
380.155	422.62
380.38	429.62
380.606	415.62
380.831	422.62
381.057	419.62
381.282	416.62
381.507	425.62
381.733	423.62
381.958	421.62
382.184	423.62
382.409	448.62
382.634	470.62
382.86	441.62
383.085	441.62
383.31	456.62
383.535	453.62
383.761	438.62
383.986	446.62
384.211	421.62
384.436	457.62
384.662	443.62
384.887	456.62
385.112	431.62
385.337	431.62
385.562	452.62
385.787	466.62
386.013	488.62
386.238	489.62
386.463	488.62
386.688	459.62
386.913	454.62
387.138	460.62
387.363	456.62
387.588	459.62
387.813	446.62
388.038	459.62
388.263	462.62
388.488	466.62
388.713	461.62
388.938	475.62
389.163	476.62
389.387	462.62
389.612	453.62
389.837	451.62
390.062	468.62
390.287	462.62
390.512	460.62
390.736	465.62
390.961	463.62
391.186	478.62
391.411	476.62
391.636	463.62
391.86	458.62
392.085	470.62
392.31	467.62
392.534	469.62
392.759	475.62
392.984	465.62
393.208	463.62
393.433	481.62
393.658	459.62
393.882	471.62
394.107	464.62
394.331	460.62
394.556	462.62
394.78	444.62
395.005	468.62
395.229	457.62
395.454	483.62
395.678	484.62
395.903	490.62
396.127	532.62
396.352	501.62
396.576	495.62
396.801	476.62
397.025	452.62
397.249	485.62
397.474	485.62
397.698	494.62
397.922	495.62
398.147	534.62
398.371	518.62
398.595	514.62
398.82	524.62
399.044	543.62
399.268	520.62
399.492	545.62
399.717	585.62
399.941	623.62
400.165	653.62
400.389	639.62
400.613	611.62
400.837	571.62
401.062	547.62
401.286	536.62
401.51	508.62
401.734	516.62
401.958	546.62
402.182	543.62
402.406	535.62
402.63	557.62
402.854	532.62
403.078	549.62
403.302	561.62
403.526	570.62
403.75	571.62
403.974	540.62
404.198	564.62
404.422	573.62
404.645	584.62
404.869	573.62
405.093	613.62
405.317	652.62
405.541	700.62
405.765	609.62
405.988	624.62
406.212	596.62
406.436	653.62
406.66	654.62
406.883	639.62
407.107	652.62
407.331	696.62
407.555	737.62
407.778	758.62
408.002	685.62
408.226	655.62
408.449	605.62
408.673	617.62
408.896	682.62
409.12	683.62
409.344	696.62
409.567	584.62
409.791	579.62
410.014	576.62
410.238	576.62
410.461	575.62
410.685	577.62
410.908	595.62
411.132	623.62
411.355	668.62
411.578	667.62
411.802	583.62
412.025	573.62
412.249	600.62
412.472	641.62
412.695	653.62
412.919	651.62
413.142	606.62
413.365	568.62
413.589	564.62
413.812	568.62
414.035	537.62
414.258	530.62
414.482	532.62
414.705	532.62
414.928	543.62
415.151	531.62
415.374	551.62
415.597	523.62
415.821	511.62
416.044	542.62
416.267	542.62
416.49	534.62
416.713	538.62
416.936	553.62
417.159	535.62
417.382	529.62
417.605	556.62
417.828	569.62
418.051	575.62
418.274	544.62
418.497	582.62
418.72	547.62
418.943	541.62
419.166	561.62
419.389	579.62
419.611	568.62
419.834	559.62
420.057	569.62
420.28	596.62
420.503	565.62
420.726	578.62
420.948	587.62
421.171	665.62
421.394	676.62
421.617	619.62
421.839	560.62
422.062	586.62
422.285	607.62
422.507	682.62
422.73	745.62
422.953	726.62
423.175	630.62
423.398	615.62
423.621	595.62
423.843	610.62
424.066	614.62
424.288	637.62
424.511	656.62
424.733	698.62
424.956	816.62
425.178	795.62
425.401	806.62
425.623	809.62
425.846	680.62
426.068	669.62
426.291	653.62
426.513	621.62
426.735	668.62
426.958	719.62
427.18	787.62
427.402	953.62
427.625	1042.62
427.847	931.62
428.069	840.62
428.292	718.62
428.514	678.62
428.736	640.62
428.958	629.62
429.181	613.62
429.403	591.62
429.625	609.62
429.847	664.62
430.069	727.62
430.292	748.62
430.514	616.62
430.736	591.62
430.958	606.62
431.18	571.62
431.402	587.62
431.624	539.62
431.846	553.62
432.068	556.62
432.29	560.62
432.512	547.62
432.734	562.62
432.956	558.62
433.178	588.62
433.4	565.62
433.622	563.62
433.844	542.62
434.066	561.62
434.287	528.62
434.509	555.62
434.731	567.62
434.953	567.62
435.175	600.62
435.397	603.62
435.618	665.62
435.84	697.62
436.062	793.62
436.284	873.62
436.505	740.62
436.727	679.62
436.949	619.62
437.17	596.62
437.392	596.62
437.614	604.62
437.835	663.62
438.057	803.62
438.278	919.62
438.5	907.62
438.721	951.62
438.943	939.62
439.165	758.62
439.386	672.62
439.608	677.62
439.829	683.62
440.05	721.62
440.272	796.62
440.493	724.62
440.715	661.62
440.936	633.62
441.158	605.62
441.379	628.62
441.6	609.62
441.822	638.62
442.043	697.62
442.264	814.62
442.486	856.62
442.707	743.62
442.928	680.62
443.149	685.62
443.371	727.62
443.592	769.62
443.813	855.62
444.034	932.62
444.255	759.62
444.476	684.62
444.698	663.62
444.919	622.62
445.14	733.62
445.361	692.62
445.582	722.62
445.803	784.62
446.024	911.62
446.245	906.62
446.466	846.62
446.687	728.62
446.908	669.62
447.129	639.62
447.35	607.62
447.571	611.62
447.792	589.62
448.013	623.62
448.234	636.62
448.455	718.62
448.675	866.62
448.896	951.62
449.117	841.62
449.338	775.62
449.559	893.62
449.779	1000.62
450	815.62
450.221	691.62
450.442	629.62
450.662	630.62
450.883	607.62
451.104	627.62
451.324	623.62
451.545	585.62
451.766	566.62
451.986	539.62
452.207	521.62
452.428	539.62
452.648	530.62
452.869	581.62
453.089	542.62
453.31	546.62
453.53	558.62
453.751	543.62
453.971	554.62
454.192	579.62
454.412	571.62
454.633	569.62
454.853	552.62
455.073	563.62
455.294	574.62
455.514	661.62
455.734	625.62
455.955	556.62
456.175	516.62
456.395	480.62
456.616	496.62
456.836	485.62
457.056	484.62
457.276	493.62
457.497	504.62
457.717	511.62
457.937	517.62
458.157	506.62
458.377	523.62
458.598	553.62
458.818	629.62
459.038	734.62
459.258	769.62
459.478	619.62
459.698	603.62
459.918	561.62
460.138	569.62
460.358	564.62
460.578	568.62
460.798	557.62
461.018	559.62
461.238	544.62
461.458	526.62
461.678	533.62
461.898	567.62
462.118	521.62
462.338	569.62
462.558	589.62
462.777	545.62
462.997	571.62
463.217	553.62
463.437	589.62
463.657	573.62
463.876	581.62
464.096	566.62
464.316	575.62
464.536	582.62
464.755	567.62
464.975	606.62
465.195	659.62
465.414	816.62
465.634	688.62
465.854	648.62
466.073	593.62
466.293	574.62
466.512	554.62
466.732	569.62
466.951	542.62
467.171	527.62
467.391	553.62
467.61	573.62
467.829	573.62
468.049	566.62
468.268	551.62
468.488	549.62
468.707	555.62
468.927	542.62
469.146	541.62
469.365	534.62
469.585	526.62
469.804	535.62
470.023	583.62
470.243	581.62
470.462	578.62
470.681	573.62
470.901	574.62
471.12	582.62
471.339	579.62
471.558	551.62
471.777	585.62
471.997	546.62
472.216	541.62
472.435	599.62
472.654	612.62
472.873	567.62
473.092	561.62
473.311	549.62
473.53	539.62
473.749	575.62
473.968	639.62
474.187	771.62
474.406	779.62
474.625	662.62
474.844	601.62
475.063	563.62
475.282	551.62
475.501	552.62
475.72	588.62
475.939	579.62
476.158	568.62
476.377	569.62
476.596	593.62
476.814	607.62
477.033	633.62
477.252	583.62
477.471	577.62
477.69	592.62
477.908	593.62
478.127	596.62
478.346	604.62
478.564	619.62
478.783	609.62
479.002	639.62
479.22	635.62
479.439	663.62
479.658	675.62
479.876	676.62
480.095	700.62
480.313	709.62
480.532	711.62
480.751	678.62
480.969	693.62
481.188	780.62
481.406	862.62
481.624	733.62
481.843	724.62
482.061	686.62
482.28	657.62
482.498	677.62
482.717	645.62
482.935	693.62
483.153	654.62
483.372	665.62
483.59	647.62
483.808	662.62
484.027	675.62
484.245	685.62
484.463	669.62
484.681	688.62
484.9	691.62
485.118	661.62
485.336	696.62
485.554	670.62
485.772	668.62
485.99	687.62
486.209	681.62
486.427	705.62
486.645	694.62
486.863	748.62
487.081	743.62
487.299	732.62
487.517	739.62
487.735	721.62
487.953	718.62
488.171	736.62
488.389	713.62
488.607	743.62
488.825	728.62
489.043	719.62
489.261	733.62
489.479	746.62
489.696	747.62
489.914	747.62
490.132	780.62
490.35	763.62
490.568	767.62
490.786	798.62
491.003	780.62
491.221	812.62
491.439	808.62
491.657	827.62
491.874	848.62
492.092	867.62
492.31	867.62
492.527	861.62
492.745	843.62
492.963	839.62
493.18	864.62
493.398	887.62
493.615	889.62
493.833	894.62
494.05	871.62
494.268	883.62
494.485	867.62
494.703	873.62
494.92	897.62
495.138	867.62
495.355	873.62
495.573	891.62
495.79	885.62
496.008	886.62
496.225	870.62
496.442	887.62
496.66	877.62
496.877	887.62
497.094	876.62
497.312	878.62
497.529	885.62
497.746	907.62
497.963	900.62
498.181	927.62
498.398	938.62
498.615	926.62
498.832	942.62
499.049	931.62
499.267	956.62
499.484	981.62
499.701	972.62
499.918	1013.62
500.135	1004.62
500.352	1045.62
500.569	1044.62
500.786	1065.62
501.003	1045.62
501.22	1047.62
501.437	1033.62
