Data from 1971.PennyLincolnUp.Lamp.En5.5.200Scan.071719.P1.Scan 2. Changed Angle._HRD10591_15-24-13-842.txt Node
Date: Thu Jul 18 15:24:13 EDT 2019
User: cochatt
Spectrometer: HR+D1059
Trigger mode: 1
Integration Time (sec): 1.000000E-1
Scans to average: 1
Electric dark correction enabled: true
Nonlinearity correction enabled: false
Boxcar width: 0
XAxis mode: Wavelengths
Number of Pixels in Spectrum: 2048
>>>>>Begin Spectral Data<<<<<
223.165	-7.94
223.4	-7.94
223.635	-7.94
223.869	-30.94
224.104	-12.94
224.338	-12.94
224.573	-20.94
224.808	-2.94
225.042	-23.94
225.277	0.06
225.511	3.06
225.746	-8.94
225.98	7.06
226.215	21.06
226.449	26.06
226.683	20.06
226.918	31.06
227.152	13.06
227.387	37.06
227.621	31.06
227.856	42.06
228.09	56.06
228.324	41.06
228.559	64.06
228.793	79.06
229.027	114.06
229.262	115.06
229.496	140.06
229.73	154.06
229.964	188.06
230.199	162.06
230.433	136.06
230.667	118.06
230.901	125.06
231.136	134.06
231.37	116.06
231.604	135.06
231.838	119.06
232.072	124.06
232.306	126.06
232.541	122.06
232.775	125.06
233.009	127.06
233.243	118.06
233.477	121.06
233.711	140.06
233.945	141.06
234.179	122.06
234.413	128.06
234.647	122.06
234.881	123.06
235.115	142.06
235.349	126.06
235.583	126.06
235.817	142.06
236.051	127.06
236.285	128.06
236.519	147.06
236.753	140.06
236.987	156.06
237.221	207.06
237.455	280.06
237.689	207.06
237.922	170.06
238.156	156.06
238.39	155.06
238.624	144.06
238.858	127.06
239.091	127.06
239.325	142.06
239.559	148.06
239.793	145.06
240.027	149.06
240.26	166.06
240.494	178.06
240.728	158.06
240.961	167.06
241.195	152.06
241.429	154.06
241.662	142.06
241.896	151.06
242.13	132.06
242.363	138.06
242.597	148.06
242.83	144.06
243.064	158.06
243.298	164.06
243.531	161.06
243.765	151.06
243.998	148.06
244.232	154.06
244.465	151.06
244.699	156.06
244.932	151.06
245.166	159.06
245.399	154.06
245.633	161.06
245.866	152.06
246.099	162.06
246.333	162.06
246.566	160.06
246.8	157.06
247.033	168.06
247.266	172.06
247.5	179.06
247.733	198.06
247.966	195.06
248.2	181.06
248.433	183.06
248.666	198.06
248.899	203.06
249.133	208.06
249.366	237.06
249.599	214.06
249.832	212.06
250.066	213.06
250.299	189.06
250.532	201.06
250.765	221.06
250.998	258.06
251.231	268.06
251.465	253.06
251.698	227.06
251.931	201.06
252.164	223.06
252.397	226.06
252.63	230.06
252.863	231.06
253.096	233.06
253.329	249.06
253.562	254.06
253.795	227.06
254.028	251.06
254.261	251.06
254.494	266.06
254.727	308.06
254.96	310.06
255.193	312.06
255.426	286.06
255.659	259.06
255.892	260.06
256.124	251.06
256.357	239.06
256.59	240.06
256.823	240.06
257.056	237.06
257.289	212.06
257.521	242.06
257.754	224.06
257.987	232.06
258.22	233.06
258.452	227.06
258.685	232.06
258.918	216.06
259.151	220.06
259.383	232.06
259.616	237.06
259.849	248.06
260.081	253.06
260.314	286.06
260.547	301.06
260.779	275.06
261.012	251.06
261.244	237.06
261.477	254.06
261.71	230.06
261.942	244.06
262.175	259.06
262.407	238.06
262.64	239.06
262.872	233.06
263.105	221.06
263.337	234.06
263.57	228.06
263.802	238.06
264.035	213.06
264.267	202.06
264.499	221.06
264.732	210.06
264.964	233.06
265.197	224.06
265.429	213.06
265.661	230.06
265.894	225.06
266.126	239.06
266.358	219.06
266.591	220.06
266.823	224.06
267.055	223.06
267.287	227.06
267.52	246.06
267.752	228.06
267.984	233.06
268.216	238.06
268.448	239.06
268.681	252.06
268.913	247.06
269.145	263.06
269.377	294.06
269.609	279.06
269.841	306.06
270.073	310.06
270.306	303.06
270.538	342.06
270.77	351.06
271.002	347.06
271.234	311.06
271.466	316.06
271.698	337.06
271.93	347.06
272.162	352.06
272.394	349.06
272.626	323.06
272.858	328.06
273.09	301.06
273.322	302.06
273.553	296.06
273.785	284.06
274.017	286.06
274.249	278.06
274.481	268.06
274.713	274.06
274.945	290.06
275.176	273.06
275.408	278.06
275.64	283.06
275.872	266.06
276.104	283.06
276.335	288.06
276.567	278.06
276.799	294.06
277.031	319.06
277.262	338.06
277.494	342.06
277.726	299.06
277.957	301.06
278.189	287.06
278.421	278.06
278.652	284.06
278.884	290.06
279.115	266.06
279.347	290.06
279.579	278.06
279.81	265.06
280.042	271.06
280.273	290.06
280.505	273.06
280.736	284.06
280.968	264.06
281.199	262.06
281.431	285.06
281.662	275.06
281.894	259.06
282.125	274.06
282.356	302.06
282.588	336.06
282.819	327.06
283.051	295.06
283.282	270.06
283.513	275.06
283.745	265.06
283.976	266.06
284.207	290.06
284.439	291.06
284.67	281.06
284.901	284.06
285.132	279.06
285.364	271.06
285.595	272.06
285.826	283.06
286.057	260.06
286.288	267.06
286.52	272.06
286.751	258.06
286.982	260.06
287.213	278.06
287.444	291.06
287.675	285.06
287.906	288.06
288.138	300.06
288.369	302.06
288.6	322.06
288.831	297.06
289.062	294.06
289.293	293.06
289.524	293.06
289.755	286.06
289.986	278.06
290.217	279.06
290.448	286.06
290.679	275.06
290.91	293.06
291.141	286.06
291.371	284.06
291.602	271.06
291.833	276.06
292.064	294.06
292.295	285.06
292.526	285.06
292.757	318.06
292.987	294.06
293.218	285.06
293.449	294.06
293.68	288.06
293.91	265.06
294.141	272.06
294.372	254.06
294.603	269.06
294.833	287.06
295.064	278.06
295.295	284.06
295.525	281.06
295.756	300.06
295.987	309.06
296.217	334.06
296.448	339.06
296.679	316.06
296.909	307.06
297.14	304.06
297.37	306.06
297.601	294.06
297.831	299.06
298.062	300.06
298.292	277.06
298.523	284.06
298.753	309.06
298.984	300.06
299.214	320.06
299.445	313.06
299.675	294.06
299.905	304.06
300.136	318.06
300.366	299.06
300.597	322.06
300.827	338.06
301.057	325.06
301.288	322.06
301.518	336.06
301.748	310.06
301.979	310.06
302.209	326.06
302.439	316.06
302.669	310.06
302.9	327.06
303.13	306.06
303.36	317.06
303.59	320.06
303.82	323.06
304.051	342.06
304.281	329.06
304.511	327.06
304.741	314.06
304.971	314.06
305.201	300.06
305.431	315.06
305.661	315.06
305.891	332.06
306.121	325.06
306.352	315.06
306.582	340.06
306.812	334.06
307.042	324.06
307.272	334.06
307.502	330.06
307.731	356.06
307.961	335.06
308.191	332.06
308.421	344.06
308.651	350.06
308.881	356.06
309.111	336.06
309.341	364.06
309.571	353.06
309.8	365.06
310.03	379.06
310.26	425.06
310.49	380.06
310.72	411.06
310.949	391.06
311.179	425.06
311.409	406.06
311.639	386.06
311.868	393.06
312.098	408.06
312.328	401.06
312.557	416.06
312.787	451.06
313.017	446.06
313.246	412.06
313.476	390.06
313.706	377.06
313.935	398.06
314.165	413.06
314.394	438.06
314.624	404.06
314.853	410.06
315.083	410.06
315.312	387.06
315.542	382.06
315.771	382.06
316.001	378.06
316.23	384.06
316.46	379.06
316.689	377.06
316.919	365.06
317.148	397.06
317.377	408.06
317.607	415.06
317.836	400.06
318.065	383.06
318.295	377.06
318.524	381.06
318.753	373.06
318.983	376.06
319.212	382.06
319.441	392.06
319.67	401.06
319.9	398.06
320.129	381.06
320.358	386.06
320.587	404.06
320.816	387.06
321.046	439.06
321.275	401.06
321.504	419.06
321.733	431.06
321.962	434.06
322.191	461.06
322.42	450.06
322.649	506.06
322.878	503.06
323.108	506.06
323.337	553.06
323.566	570.06
323.795	612.06
324.024	660.06
324.253	870.06
324.482	1242.06
324.71	1991.06
324.939	2829.06
325.168	2403.06
325.397	1248.06
325.626	807.06
325.855	639.06
326.084	590.06
326.313	551.06
326.542	585.06
326.77	654.06
326.999	777.06
327.228	1114.06
327.457	1692.06
327.686	2076.06
327.914	1394.06
328.143	900.06
328.372	779.06
328.6	698.06
328.829	664.06
329.058	684.06
329.287	696.06
329.515	642.06
329.744	575.06
329.972	558.06
330.201	592.06
330.43	678.06
330.658	701.06
330.887	733.06
331.115	700.06
331.344	572.06
331.572	533.06
331.801	549.06
332.03	537.06
332.258	510.06
332.486	474.06
332.715	478.06
332.943	453.06
333.172	493.06
333.4	462.06
333.629	480.06
333.857	508.06
334.085	505.06
334.314	518.06
334.542	562.06
334.771	581.06
334.999	538.06
335.227	488.06
335.455	472.06
335.684	460.06
335.912	454.06
336.14	469.06
336.369	439.06
336.597	462.06
336.825	469.06
337.053	447.06
337.281	436.06
337.51	439.06
337.738	468.06
337.966	445.06
338.194	438.06
338.422	484.06
338.65	454.06
338.878	432.06
339.106	429.06
339.334	440.06
339.562	442.06
339.79	442.06
340.018	438.06
340.246	453.06
340.474	451.06
340.702	430.06
340.93	429.06
341.158	442.06
341.386	446.06
341.614	467.06
341.842	432.06
342.07	417.06
342.298	430.06
342.526	426.06
342.754	434.06
342.981	424.06
343.209	412.06
343.437	442.06
343.665	426.06
343.893	456.06
344.12	442.06
344.348	444.06
344.576	462.06
344.804	434.06
345.031	479.06
345.259	486.06
345.487	465.06
345.714	457.06
345.942	448.06
346.17	450.06
346.397	436.06
346.625	446.06
346.853	435.06
347.08	427.06
347.308	450.06
347.535	476.06
347.763	461.06
347.99	478.06
348.218	462.06
348.445	450.06
348.673	453.06
348.9	459.06
349.128	421.06
349.355	428.06
349.583	417.06
349.81	443.06
350.037	425.06
350.265	417.06
350.492	425.06
350.72	422.06
350.947	412.06
351.174	437.06
351.402	452.06
351.629	449.06
351.856	456.06
352.083	447.06
352.311	471.06
352.538	490.06
352.765	479.06
352.992	447.06
353.22	472.06
353.447	462.06
353.674	435.06
353.901	432.06
354.128	422.06
354.355	402.06
354.583	414.06
354.81	411.06
355.037	400.06
355.264	423.06
355.491	393.06
355.718	390.06
355.945	408.06
356.172	404.06
356.399	414.06
356.626	407.06
356.853	416.06
357.08	387.06
357.307	402.06
357.534	392.06
357.761	398.06
357.988	416.06
358.215	390.06
358.441	394.06
358.668	396.06
358.895	397.06
359.122	421.06
359.349	442.06
359.576	451.06
359.802	484.06
360.029	512.06
360.256	529.06
360.483	482.06
360.709	459.06
360.936	465.06
361.163	466.06
361.39	451.06
361.616	441.06
361.843	454.06
362.07	464.06
362.296	463.06
362.523	460.06
362.749	447.06
362.976	456.06
363.203	455.06
363.429	419.06
363.656	423.06
363.882	434.06
364.109	425.06
364.335	416.06
364.562	424.06
364.788	421.06
365.015	425.06
365.241	429.06
365.468	446.06
365.694	438.06
365.92	450.06
366.147	421.06
366.373	422.06
366.599	421.06
366.826	400.06
367.052	423.06
367.278	410.06
367.505	418.06
367.731	423.06
367.957	407.06
368.184	422.06
368.41	418.06
368.636	430.06
368.862	455.06
369.089	446.06
369.315	416.06
369.541	434.06
369.767	414.06
369.993	421.06
370.219	423.06
370.445	420.06
370.672	407.06
370.898	423.06
371.124	397.06
371.35	419.06
371.576	430.06
371.802	419.06
372.028	388.06
372.254	396.06
372.48	403.06
372.706	436.06
372.932	410.06
373.158	404.06
373.384	411.06
373.61	423.06
373.835	427.06
374.061	430.06
374.287	419.06
374.513	438.06
374.739	434.06
374.965	433.06
375.191	425.06
375.416	418.06
375.642	389.06
375.868	431.06
376.094	406.06
376.319	406.06
376.545	418.06
376.771	413.06
376.997	406.06
377.222	412.06
377.448	404.06
377.674	412.06
377.899	404.06
378.125	410.06
378.35	422.06
378.576	408.06
378.802	389.06
379.027	406.06
379.253	414.06
379.478	441.06
379.704	406.06
379.929	434.06
380.155	415.06
380.38	428.06
380.606	425.06
380.831	427.06
381.057	428.06
381.282	428.06
381.507	420.06
381.733	419.06
381.958	408.06
382.184	411.06
382.409	424.06
382.634	416.06
382.86	434.06
383.085	434.06
383.31	428.06
383.535	420.06
383.761	423.06
383.986	435.06
384.211	432.06
384.436	427.06
384.662	432.06
384.887	436.06
385.112	431.06
385.337	450.06
385.562	439.06
385.787	477.06
386.013	446.06
386.238	475.06
386.463	455.06
386.688	457.06
386.913	436.06
387.138	445.06
387.363	436.06
387.588	442.06
387.813	467.06
388.038	442.06
388.263	467.06
388.488	460.06
388.713	445.06
388.938	454.06
389.163	439.06
389.387	429.06
389.612	458.06
389.837	456.06
390.062	444.06
390.287	435.06
390.512	443.06
390.736	443.06
390.961	465.06
391.186	428.06
391.411	439.06
391.636	460.06
391.86	479.06
392.085	475.06
392.31	463.06
392.534	436.06
392.759	457.06
392.984	447.06
393.208	446.06
393.433	454.06
393.658	470.06
393.882	474.06
394.107	463.06
394.331	457.06
394.556	472.06
394.78	461.06
395.005	453.06
395.229	462.06
395.454	463.06
395.678	479.06
395.903	476.06
396.127	484.06
396.352	512.06
396.576	470.06
396.801	488.06
397.025	483.06
397.249	461.06
397.474	485.06
397.698	500.06
397.922	497.06
398.147	527.06
398.371	524.06
398.595	487.06
398.82	489.06
399.044	500.06
399.268	524.06
399.492	541.06
399.717	576.06
399.941	589.06
400.165	623.06
400.389	627.06
400.613	577.06
400.837	523.06
401.062	538.06
401.286	540.06
401.51	519.06
401.734	488.06
401.958	530.06
402.182	514.06
402.406	568.06
402.63	551.06
402.854	549.06
403.078	538.06
403.302	541.06
403.526	540.06
403.75	546.06
403.974	548.06
404.198	528.06
404.422	515.06
404.645	547.06
404.869	548.06
405.093	582.06
405.317	629.06
405.541	655.06
405.765	643.06
405.988	589.06
406.212	614.06
406.436	596.06
406.66	630.06
406.883	587.06
407.107	617.06
407.331	693.06
407.555	742.06
407.778	726.06
408.002	654.06
408.226	626.06
408.449	600.06
408.673	608.06
408.896	651.06
409.12	680.06
409.344	645.06
409.567	573.06
409.791	570.06
410.014	533.06
410.238	564.06
410.461	537.06
410.685	554.06
410.908	574.06
411.132	616.06
411.355	644.06
411.578	643.06
411.802	568.06
412.025	555.06
412.249	551.06
412.472	578.06
412.695	634.06
412.919	615.06
413.142	572.06
413.365	558.06
413.589	544.06
413.812	524.06
414.035	522.06
414.258	535.06
414.482	522.06
414.705	502.06
414.928	539.06
415.151	518.06
415.374	509.06
415.597	499.06
415.821	516.06
416.044	495.06
416.267	526.06
416.49	503.06
416.713	500.06
416.936	522.06
417.159	530.06
417.382	527.06
417.605	532.06
417.828	534.06
418.051	540.06
418.274	551.06
418.497	539.06
418.72	527.06
418.943	523.06
419.166	553.06
419.389	558.06
419.611	576.06
419.834	548.06
420.057	566.06
420.28	584.06
420.503	535.06
420.726	557.06
420.948	595.06
421.171	639.06
421.394	634.06
421.617	576.06
421.839	594.06
422.062	577.06
422.285	568.06
422.507	654.06
422.73	717.06
422.953	697.06
423.175	626.06
423.398	599.06
423.621	591.06
423.843	635.06
424.066	613.06
424.288	600.06
424.511	638.06
424.733	723.06
424.956	788.06
425.178	760.06
425.401	756.06
425.623	783.06
425.846	665.06
426.068	605.06
426.291	597.06
426.513	624.06
426.735	652.06
426.958	664.06
427.18	774.06
427.402	932.06
427.625	991.06
427.847	938.06
428.069	797.06
428.292	691.06
428.514	632.06
428.736	596.06
428.958	592.06
429.181	585.06
429.403	594.06
429.625	579.06
429.847	626.06
430.069	703.06
430.292	720.06
430.514	592.06
430.736	579.06
430.958	559.06
431.18	543.06
431.402	536.06
431.624	560.06
431.846	513.06
432.068	520.06
432.29	525.06
432.512	533.06
432.734	558.06
432.956	583.06
433.178	562.06
433.4	562.06
433.622	549.06
433.844	548.06
434.066	520.06
434.287	529.06
434.509	545.06
434.731	575.06
434.953	565.06
435.175	593.06
435.397	586.06
435.618	620.06
435.84	671.06
436.062	794.06
436.284	849.06
436.505	727.06
436.727	649.06
436.949	614.06
437.17	591.06
437.392	600.06
437.614	588.06
437.835	669.06
438.057	783.06
438.278	876.06
438.5	874.06
438.721	944.06
438.943	889.06
439.165	739.06
439.386	658.06
439.608	645.06
439.829	652.06
440.05	700.06
440.272	752.06
440.493	704.06
440.715	630.06
440.936	627.06
441.158	607.06
441.379	626.06
441.6	607.06
441.822	632.06
442.043	684.06
442.264	790.06
442.486	807.06
442.707	722.06
442.928	663.06
443.149	668.06
443.371	681.06
443.592	729.06
443.813	825.06
444.034	909.06
444.255	734.06
444.476	648.06
444.698	636.06
444.919	606.06
445.14	712.06
445.361	700.06
445.582	684.06
445.803	764.06
446.024	876.06
446.245	882.06
446.466	828.06
446.687	696.06
446.908	635.06
447.129	594.06
447.35	608.06
447.571	588.06
447.792	553.06
448.013	582.06
448.234	608.06
448.455	680.06
448.675	780.06
448.896	922.06
449.117	804.06
449.338	727.06
449.559	856.06
449.779	967.06
450	810.06
450.221	655.06
450.442	593.06
450.662	586.06
450.883	591.06
451.104	617.06
451.324	602.06
451.545	580.06
451.766	566.06
451.986	527.06
452.207	538.06
452.428	515.06
452.648	528.06
452.869	523.06
453.089	528.06
453.31	565.06
453.53	539.06
453.751	530.06
453.971	539.06
454.192	572.06
454.412	548.06
454.633	557.06
454.853	525.06
455.073	517.06
455.294	598.06
455.514	627.06
455.734	615.06
455.955	546.06
456.175	512.06
456.395	480.06
456.616	475.06
456.836	453.06
457.056	461.06
457.276	463.06
457.497	478.06
457.717	477.06
457.937	515.06
458.157	495.06
458.377	515.06
458.598	553.06
458.818	612.06
459.038	742.06
459.258	736.06
459.478	602.06
459.698	594.06
459.918	571.06
460.138	531.06
460.358	531.06
460.578	503.06
460.798	536.06
461.018	525.06
461.238	551.06
461.458	516.06
461.678	503.06
461.898	533.06
462.118	548.06
462.338	551.06
462.558	544.06
462.777	542.06
462.997	536.06
463.217	542.06
463.437	573.06
463.657	536.06
463.876	536.06
464.096	559.06
464.316	549.06
464.536	577.06
464.755	589.06
464.975	574.06
465.195	642.06
465.414	780.06
465.634	673.06
465.854	612.06
466.073	569.06
466.293	564.06
466.512	551.06
466.732	551.06
466.951	543.06
467.171	529.06
467.391	518.06
467.61	569.06
467.829	583.06
468.049	566.06
468.268	546.06
468.488	528.06
468.707	510.06
468.927	540.06
469.146	503.06
469.365	518.06
469.585	525.06
469.804	522.06
470.023	542.06
470.243	531.06
470.462	548.06
470.681	556.06
470.901	568.06
471.12	567.06
471.339	555.06
471.558	550.06
471.777	566.06
471.997	562.06
472.216	538.06
472.435	569.06
472.654	580.06
472.873	574.06
473.092	542.06
473.311	538.06
473.53	553.06
473.749	568.06
473.968	600.06
474.187	719.06
474.406	772.06
474.625	617.06
474.844	569.06
475.063	552.06
475.282	566.06
475.501	559.06
475.72	548.06
475.939	566.06
476.158	571.06
476.377	568.06
476.596	556.06
476.814	591.06
477.033	576.06
477.252	566.06
477.471	564.06
477.69	584.06
477.908	578.06
478.127	597.06
478.346	604.06
478.564	590.06
478.783	589.06
479.002	602.06
479.22	626.06
479.439	598.06
479.658	663.06
479.876	668.06
480.095	647.06
480.313	684.06
480.532	667.06
480.751	667.06
480.969	671.06
481.188	780.06
481.406	804.06
481.624	710.06
481.843	650.06
482.061	680.06
482.28	661.06
482.498	635.06
482.717	650.06
482.935	640.06
483.153	652.06
483.372	619.06
483.59	650.06
483.808	644.06
484.027	652.06
484.245	646.06
484.463	649.06
484.681	669.06
484.9	654.06
485.118	665.06
485.336	658.06
485.554	670.06
485.772	654.06
485.99	639.06
486.209	678.06
486.427	669.06
486.645	696.06
486.863	713.06
487.081	726.06
487.299	699.06
487.517	691.06
487.735	698.06
487.953	698.06
488.171	707.06
488.389	707.06
488.607	709.06
488.825	715.06
489.043	717.06
489.261	696.06
489.479	722.06
489.696	717.06
489.914	735.06
490.132	735.06
490.35	726.06
490.568	742.06
490.786	761.06
491.003	774.06
491.221	792.06
491.439	794.06
491.657	826.06
491.874	836.06
492.092	827.06
492.31	839.06
492.527	827.06
492.745	837.06
492.963	845.06
493.18	832.06
493.398	864.06
493.615	846.06
493.833	860.06
494.05	846.06
494.268	847.06
494.485	839.06
494.703	834.06
494.92	837.06
495.138	848.06
495.355	850.06
495.573	844.06
495.79	838.06
496.008	819.06
496.225	853.06
496.442	835.06
496.66	845.06
496.877	837.06
497.094	867.06
497.312	863.06
497.529	875.06
497.746	883.06
497.963	898.06
498.181	892.06
498.398	886.06
498.615	881.06
498.832	913.06
499.049	941.06
499.267	925.06
499.484	929.06
499.701	954.06
499.918	975.06
500.135	986.06
500.352	1003.06
500.569	1038.06
500.786	1034.06
501.003	1034.06
501.22	1014.06
501.437	988.06
501.654	985.06
