Data from 1971.PennyLincolnUp.Lamp.En5.5.200Scan.071719.P1._HRD10591_15-21-01-842.txt Node
Date: Thu Jul 18 15:21:01 EDT 2019
User: cochatt
Spectrometer: HR+D1059
Trigger mode: 1
Integration Time (sec): 1.000000E-1
Scans to average: 1
Electric dark correction enabled: true
Nonlinearity correction enabled: false
Boxcar width: 0
XAxis mode: Wavelengths
Number of Pixels in Spectrum: 2048
>>>>>Begin Spectral Data<<<<<
223.165	-1.31
223.4	-1.31
223.635	-1.31
223.869	-2.31
224.104	-17.31
224.338	-22.31
224.573	-10.31
224.808	-6.31
225.042	-11.31
225.277	-5.31
225.511	-2.31
225.746	-9.31
225.98	5.69
226.215	0.69
226.449	17.69
226.683	14.69
226.918	26.69
227.152	22.69
227.387	30.69
227.621	26.69
227.856	42.69
228.09	48.69
228.324	56.69
228.559	73.69
228.793	75.69
229.027	108.69
229.262	97.69
229.496	109.69
229.73	113.69
229.964	141.69
230.199	136.69
230.433	108.69
230.667	111.69
230.901	116.69
231.136	128.69
231.37	119.69
231.604	115.69
231.838	106.69
232.072	103.69
232.306	108.69
232.541	120.69
232.775	111.69
233.009	119.69
233.243	113.69
233.477	117.69
233.711	112.69
233.945	114.69
234.179	105.69
234.413	124.69
234.647	131.69
234.881	125.69
235.115	126.69
235.349	118.69
235.583	121.69
235.817	126.69
236.051	129.69
236.285	119.69
236.519	121.69
236.753	127.69
236.987	154.69
237.221	179.69
237.455	232.69
237.689	174.69
237.922	157.69
238.156	130.69
238.39	137.69
238.624	127.69
238.858	112.69
239.091	117.69
239.325	127.69
239.559	139.69
239.793	133.69
240.027	144.69
240.26	145.69
240.494	170.69
240.728	152.69
240.961	159.69
241.195	137.69
241.429	151.69
241.662	151.69
241.896	130.69
242.13	146.69
242.363	145.69
242.597	137.69
242.83	138.69
243.064	133.69
243.298	151.69
243.531	135.69
243.765	151.69
243.998	128.69
244.232	145.69
244.465	138.69
244.699	162.69
244.932	146.69
245.166	162.69
245.399	137.69
245.633	161.69
245.866	147.69
246.099	161.69
246.333	157.69
246.566	175.69
246.8	163.69
247.033	177.69
247.266	168.69
247.5	173.69
247.733	181.69
247.966	159.69
248.2	186.69
248.433	191.69
248.666	193.69
248.899	192.69
249.133	201.69
249.366	222.69
249.599	224.69
249.832	199.69
250.066	201.69
250.299	183.69
250.532	208.69
250.765	215.69
250.998	219.69
251.231	241.69
251.465	233.69
251.698	237.69
251.931	209.69
252.164	218.69
252.397	210.69
252.63	208.69
252.863	225.69
253.096	239.69
253.329	267.69
253.562	245.69
253.795	227.69
254.028	219.69
254.261	235.69
254.494	255.69
254.727	266.69
254.96	294.69
255.193	294.69
255.426	251.69
255.659	254.69
255.892	265.69
256.124	237.69
256.357	245.69
256.59	243.69
256.823	238.69
257.056	238.69
257.289	222.69
257.521	215.69
257.754	227.69
257.987	223.69
258.22	219.69
258.452	232.69
258.685	226.69
258.918	226.69
259.151	218.69
259.383	223.69
259.616	204.69
259.849	240.69
260.081	272.69
260.314	296.69
260.547	273.69
260.779	256.69
261.012	232.69
261.244	249.69
261.477	250.69
261.71	225.69
261.942	229.69
262.175	265.69
262.407	229.69
262.64	222.69
262.872	233.69
263.105	239.69
263.337	246.69
263.57	211.69
263.802	223.69
264.035	233.69
264.267	236.69
264.499	233.69
264.732	245.69
264.964	241.69
265.197	245.69
265.429	226.69
265.661	236.69
265.894	229.69
266.126	248.69
266.358	226.69
266.591	232.69
266.823	230.69
267.055	253.69
267.287	267.69
267.52	242.69
267.752	242.69
267.984	253.69
268.216	247.69
268.448	236.69
268.681	253.69
268.913	269.69
269.145	272.69
269.377	305.69
269.609	279.69
269.841	290.69
270.073	292.69
270.306	319.69
270.538	337.69
270.77	327.69
271.002	322.69
271.234	315.69
271.466	312.69
271.698	332.69
271.93	333.69
272.162	351.69
272.394	349.69
272.626	325.69
272.858	303.69
273.09	296.69
273.322	305.69
273.553	285.69
273.785	282.69
274.017	279.69
274.249	302.69
274.481	277.69
274.713	287.69
274.945	281.69
275.176	295.69
275.408	301.69
275.64	255.69
275.872	290.69
276.104	288.69
276.335	283.69
276.567	287.69
276.799	321.69
277.031	343.69
277.262	344.69
277.494	358.69
277.726	330.69
277.957	319.69
278.189	305.69
278.421	306.69
278.652	285.69
278.884	281.69
279.115	275.69
279.347	305.69
279.579	278.69
279.81	287.69
280.042	279.69
280.273	293.69
280.505	289.69
280.736	289.69
280.968	284.69
281.199	282.69
281.431	283.69
281.662	281.69
281.894	269.69
282.125	295.69
282.356	292.69
282.588	314.69
282.819	332.69
283.051	301.69
283.282	285.69
283.513	311.69
283.745	292.69
283.976	311.69
284.207	300.69
284.439	289.69
284.67	285.69
284.901	292.69
285.132	295.69
285.364	296.69
285.595	294.69
285.826	300.69
286.057	306.69
286.288	283.69
286.52	301.69
286.751	306.69
286.982	286.69
287.213	292.69
287.444	299.69
287.675	309.69
287.906	313.69
288.138	309.69
288.369	311.69
288.6	323.69
288.831	318.69
289.062	303.69
289.293	320.69
289.524	321.69
289.755	318.69
289.986	305.69
290.217	299.69
290.448	310.69
290.679	318.69
290.91	305.69
291.141	306.69
291.371	303.69
291.602	289.69
291.833	295.69
292.064	319.69
292.295	299.69
292.526	290.69
292.757	305.69
292.987	306.69
293.218	307.69
293.449	299.69
293.68	320.69
293.91	309.69
294.141	309.69
294.372	296.69
294.603	290.69
294.833	322.69
295.064	309.69
295.295	322.69
295.525	315.69
295.756	328.69
295.987	309.69
296.217	347.69
296.448	354.69
296.679	321.69
296.909	311.69
297.14	320.69
297.37	314.69
297.601	326.69
297.831	327.69
298.062	328.69
298.292	318.69
298.523	325.69
298.753	324.69
298.984	335.69
299.214	341.69
299.445	321.69
299.675	320.69
299.905	332.69
300.136	337.69
300.366	335.69
300.597	333.69
300.827	344.69
301.057	334.69
301.288	358.69
301.518	346.69
301.748	344.69
301.979	349.69
302.209	335.69
302.439	343.69
302.669	333.69
302.9	345.69
303.13	326.69
303.36	345.69
303.59	331.69
303.82	367.69
304.051	365.69
304.281	355.69
304.511	353.69
304.741	320.69
304.971	351.69
305.201	329.69
305.431	350.69
305.661	342.69
305.891	341.69
306.121	341.69
306.352	337.69
306.582	356.69
306.812	346.69
307.042	325.69
307.272	346.69
307.502	357.69
307.731	360.69
307.961	345.69
308.191	360.69
308.421	351.69
308.651	354.69
308.881	357.69
309.111	358.69
309.341	365.69
309.571	359.69
309.8	375.69
310.03	383.69
310.26	414.69
310.49	393.69
310.72	415.69
310.949	403.69
311.179	414.69
311.409	421.69
311.639	400.69
311.868	402.69
312.098	385.69
312.328	409.69
312.557	408.69
312.787	421.69
313.017	433.69
313.246	410.69
313.476	381.69
313.706	376.69
313.935	400.69
314.165	416.69
314.394	413.69
314.624	392.69
314.853	417.69
315.083	390.69
315.312	395.69
315.542	400.69
315.771	402.69
316.001	408.69
316.23	401.69
316.46	398.69
316.689	402.69
316.919	402.69
317.148	411.69
317.377	412.69
317.607	410.69
317.836	379.69
318.065	409.69
318.295	416.69
318.524	401.69
318.753	390.69
318.983	413.69
319.212	398.69
319.441	399.69
319.67	413.69
319.9	405.69
320.129	409.69
320.358	414.69
320.587	405.69
320.816	409.69
321.046	413.69
321.275	429.69
321.504	430.69
321.733	405.69
321.962	423.69
322.191	426.69
322.42	442.69
322.649	461.69
322.878	451.69
323.108	490.69
323.337	527.69
323.566	521.69
323.795	545.69
324.024	584.69
324.253	723.69
324.482	1063.69
324.71	1549.69
324.939	2081.69
325.168	1765.69
325.397	951.69
325.626	672.69
325.855	573.69
326.084	527.69
326.313	516.69
326.542	538.69
326.77	589.69
326.999	671.69
327.228	929.69
327.457	1377.69
327.686	1575.69
327.914	1016.69
328.143	709.69
328.372	629.69
328.6	607.69
328.829	583.69
329.058	596.69
329.287	592.69
329.515	569.69
329.744	514.69
329.972	519.69
330.201	551.69
330.43	564.69
330.658	620.69
330.887	611.69
331.115	589.69
331.344	521.69
331.572	503.69
331.801	523.69
332.03	512.69
332.258	474.69
332.486	461.69
332.715	454.69
332.943	476.69
333.172	468.69
333.4	467.69
333.629	481.69
333.857	477.69
334.085	501.69
334.314	509.69
334.542	504.69
334.771	539.69
334.999	485.69
335.227	507.69
335.455	468.69
335.684	439.69
335.912	449.69
336.14	459.69
336.369	453.69
336.597	449.69
336.825	469.69
337.053	450.69
337.281	441.69
337.51	451.69
337.738	472.69
337.966	467.69
338.194	468.69
338.422	449.69
338.65	438.69
338.878	444.69
339.106	437.69
339.334	426.69
339.562	418.69
339.79	442.69
340.018	422.69
340.246	453.69
340.474	460.69
340.702	431.69
340.93	411.69
341.158	443.69
341.386	437.69
341.614	433.69
341.842	429.69
342.07	427.69
342.298	439.69
342.526	417.69
342.754	413.69
342.981	409.69
343.209	417.69
343.437	425.69
343.665	435.69
343.893	435.69
344.12	444.69
344.348	431.69
344.576	430.69
344.804	439.69
345.031	443.69
345.259	455.69
345.487	448.69
345.714	437.69
345.942	426.69
346.17	436.69
346.397	414.69
346.625	397.69
346.853	422.69
347.08	415.69
347.308	418.69
347.535	421.69
347.763	423.69
347.99	430.69
348.218	429.69
348.445	424.69
348.673	435.69
348.9	403.69
349.128	418.69
349.355	401.69
349.583	407.69
349.81	412.69
350.037	429.69
350.265	408.69
350.492	407.69
350.72	383.69
350.947	403.69
351.174	407.69
351.402	417.69
351.629	413.69
351.856	396.69
352.083	401.69
352.311	443.69
352.538	452.69
352.765	427.69
352.992	422.69
353.22	419.69
353.447	395.69
353.674	399.69
353.901	400.69
354.128	381.69
354.355	376.69
354.583	394.69
354.81	403.69
355.037	383.69
355.264	385.69
355.491	413.69
355.718	375.69
355.945	383.69
356.172	381.69
356.399	372.69
356.626	391.69
356.853	390.69
357.08	369.69
357.307	384.69
357.534	381.69
357.761	384.69
357.988	387.69
358.215	387.69
358.441	387.69
358.668	389.69
358.895	395.69
359.122	404.69
359.349	395.69
359.576	411.69
359.802	434.69
360.029	439.69
360.256	445.69
360.483	428.69
360.709	413.69
360.936	397.69
361.163	407.69
361.39	395.69
361.616	407.69
361.843	401.69
362.07	404.69
362.296	402.69
362.523	421.69
362.749	391.69
362.976	396.69
363.203	361.69
363.429	380.69
363.656	392.69
363.882	378.69
364.109	390.69
364.335	363.69
364.562	395.69
364.788	392.69
365.015	368.69
365.241	381.69
365.468	405.69
365.694	403.69
365.92	398.69
366.147	377.69
366.373	367.69
366.599	380.69
366.826	375.69
367.052	362.69
367.278	387.69
367.505	373.69
367.731	383.69
367.957	365.69
368.184	393.69
368.41	395.69
368.636	383.69
368.862	381.69
369.089	389.69
369.315	368.69
369.541	385.69
369.767	373.69
369.993	386.69
370.219	373.69
370.445	371.69
370.672	377.69
370.898	370.69
371.124	383.69
371.35	381.69
371.576	376.69
371.802	387.69
372.028	379.69
372.254	367.69
372.48	356.69
372.706	361.69
372.932	367.69
373.158	379.69
373.384	365.69
373.61	351.69
373.835	377.69
374.061	375.69
374.287	370.69
374.513	393.69
374.739	385.69
374.965	373.69
375.191	370.69
375.416	375.69
375.642	359.69
375.868	368.69
376.094	372.69
376.319	366.69
376.545	385.69
376.771	349.69
376.997	375.69
377.222	375.69
377.448	355.69
377.674	365.69
377.899	377.69
378.125	368.69
378.35	349.69
378.576	365.69
378.802	361.69
379.027	375.69
379.253	364.69
379.478	354.69
379.704	335.69
379.929	364.69
380.155	375.69
380.38	367.69
380.606	363.69
380.831	391.69
381.057	355.69
381.282	377.69
381.507	359.69
381.733	374.69
381.958	360.69
382.184	373.69
382.409	364.69
382.634	371.69
382.86	346.69
383.085	358.69
383.31	369.69
383.535	374.69
383.761	387.69
383.986	371.69
384.211	373.69
384.436	351.69
384.662	377.69
384.887	357.69
385.112	369.69
385.337	385.69
385.562	391.69
385.787	397.69
386.013	393.69
386.238	403.69
386.463	396.69
386.688	383.69
386.913	393.69
387.138	379.69
387.363	378.69
387.588	385.69
387.813	385.69
388.038	379.69
388.263	386.69
388.488	396.69
388.713	384.69
388.938	386.69
389.163	381.69
389.387	392.69
389.612	380.69
389.837	388.69
390.062	386.69
390.287	383.69
390.512	388.69
390.736	386.69
390.961	387.69
391.186	391.69
391.411	411.69
391.636	413.69
391.86	399.69
392.085	383.69
392.31	381.69
392.534	390.69
392.759	380.69
392.984	383.69
393.208	358.69
393.433	373.69
393.658	377.69
393.882	373.69
394.107	382.69
394.331	411.69
394.556	386.69
394.78	378.69
395.005	382.69
395.229	400.69
395.454	391.69
395.678	396.69
395.903	418.69
396.127	416.69
396.352	415.69
396.576	407.69
396.801	386.69
397.025	422.69
397.249	418.69
397.474	393.69
397.698	396.69
397.922	420.69
398.147	418.69
398.371	430.69
398.595	442.69
398.82	411.69
399.044	422.69
399.268	450.69
399.492	466.69
399.717	503.69
399.941	483.69
400.165	510.69
400.389	532.69
400.613	479.69
400.837	464.69
401.062	433.69
401.286	447.69
401.51	452.69
401.734	435.69
401.958	427.69
402.182	445.69
402.406	421.69
402.63	433.69
402.854	437.69
403.078	432.69
403.302	425.69
403.526	472.69
403.75	416.69
403.974	439.69
404.198	463.69
404.422	442.69
404.645	454.69
404.869	453.69
405.093	495.69
405.317	510.69
405.541	527.69
405.765	496.69
405.988	465.69
406.212	459.69
406.436	465.69
406.66	514.69
406.883	481.69
407.107	494.69
407.331	541.69
407.555	610.69
407.778	576.69
408.002	532.69
408.226	505.69
408.449	479.69
408.673	485.69
408.896	498.69
409.12	541.69
409.344	518.69
409.567	453.69
409.791	447.69
410.014	448.69
410.238	448.69
410.461	438.69
410.685	441.69
410.908	446.69
411.132	491.69
411.355	511.69
411.578	489.69
411.802	435.69
412.025	438.69
412.249	447.69
412.472	463.69
412.695	496.69
412.919	479.69
413.142	459.69
413.365	459.69
413.589	440.69
413.812	440.69
414.035	393.69
414.258	427.69
414.482	433.69
414.705	407.69
414.928	416.69
415.151	413.69
415.374	410.69
415.597	394.69
415.821	415.69
416.044	413.69
416.267	393.69
416.49	406.69
416.713	404.69
416.936	443.69
417.159	397.69
417.382	407.69
417.605	433.69
417.828	446.69
418.051	443.69
418.274	421.69
418.497	435.69
418.72	433.69
418.943	438.69
419.166	434.69
419.389	442.69
419.611	423.69
419.834	425.69
420.057	445.69
420.28	443.69
420.503	437.69
420.726	422.69
420.948	442.69
421.171	493.69
421.394	514.69
421.617	471.69
421.839	429.69
422.062	444.69
422.285	457.69
422.507	497.69
422.73	562.69
422.953	545.69
423.175	477.69
423.398	463.69
423.621	449.69
423.843	472.69
424.066	490.69
424.288	489.69
424.511	506.69
424.733	521.69
424.956	596.69
425.178	580.69
425.401	560.69
425.623	584.69
425.846	520.69
426.068	473.69
426.291	471.69
426.513	492.69
426.735	493.69
426.958	515.69
427.18	590.69
427.402	684.69
427.625	748.69
427.847	657.69
428.069	581.69
428.292	519.69
428.514	447.69
428.736	456.69
428.958	465.69
429.181	419.69
429.403	441.69
429.625	428.69
429.847	477.69
430.069	545.69
430.292	511.69
430.514	467.69
430.736	443.69
430.958	426.69
431.18	417.69
431.402	429.69
431.624	403.69
431.846	391.69
432.068	402.69
432.29	421.69
432.512	401.69
432.734	403.69
432.956	396.69
433.178	410.69
433.4	429.69
433.622	422.69
433.844	410.69
434.066	402.69
434.287	395.69
434.509	409.69
434.731	425.69
434.953	410.69
435.175	421.69
435.397	454.69
435.618	468.69
435.84	519.69
436.062	575.69
436.284	640.69
436.505	521.69
436.727	463.69
436.949	459.69
437.17	425.69
437.392	413.69
437.614	424.69
437.835	482.69
438.057	578.69
438.278	624.69
438.5	654.69
438.721	693.69
438.943	673.69
439.165	535.69
439.386	477.69
439.608	473.69
439.829	460.69
440.05	513.69
440.272	534.69
440.493	536.69
440.715	470.69
440.936	471.69
441.158	434.69
441.379	418.69
441.6	449.69
441.822	450.69
442.043	498.69
442.264	562.69
442.486	610.69
442.707	492.69
442.928	462.69
443.149	471.69
443.371	507.69
443.592	538.69
443.813	621.69
444.034	677.69
444.255	542.69
444.476	485.69
444.698	465.69
444.919	473.69
445.14	546.69
445.361	514.69
445.582	513.69
445.803	566.69
446.024	645.69
446.245	664.69
446.466	594.69
446.687	507.69
446.908	471.69
447.129	463.69
447.35	453.69
447.571	439.69
447.792	410.69
448.013	442.69
448.234	460.69
448.455	517.69
448.675	623.69
448.896	706.69
449.117	591.69
449.338	540.69
449.559	638.69
449.779	727.69
450	589.69
450.221	519.69
450.442	428.69
450.662	446.69
450.883	449.69
451.104	431.69
451.324	425.69
451.545	404.69
451.766	399.69
451.986	393.69
452.207	378.69
452.428	379.69
452.648	363.69
452.869	377.69
453.089	398.69
453.31	403.69
453.53	384.69
453.751	385.69
453.971	377.69
454.192	398.69
454.412	377.69
454.633	377.69
454.853	374.69
455.073	379.69
455.294	429.69
455.514	445.69
455.734	435.69
455.955	391.69
456.175	385.69
456.395	342.69
456.616	365.69
456.836	369.69
457.056	370.69
457.276	337.69
457.497	357.69
457.717	373.69
457.937	353.69
458.157	363.69
458.377	411.69
458.598	395.69
458.818	453.69
459.038	497.69
459.258	514.69
459.478	425.69
459.698	403.69
459.918	399.69
460.138	400.69
460.358	396.69
460.578	416.69
460.798	413.69
461.018	414.69
461.238	399.69
461.458	399.69
461.678	382.69
461.898	386.69
462.118	411.69
462.338	396.69
462.558	417.69
462.777	411.69
462.997	416.69
463.217	415.69
463.437	425.69
463.657	425.69
463.876	425.69
464.096	416.69
464.316	394.69
464.536	417.69
464.755	428.69
464.975	425.69
465.195	466.69
465.414	513.69
465.634	450.69
465.854	421.69
466.073	408.69
466.293	391.69
466.512	368.69
466.732	381.69
466.951	407.69
467.171	379.69
467.391	379.69
467.61	402.69
467.829	407.69
468.049	408.69
468.268	404.69
468.488	395.69
468.707	380.69
468.927	378.69
469.146	366.69
469.365	387.69
469.585	361.69
469.804	399.69
470.023	395.69
470.243	409.69
470.462	412.69
470.681	413.69
470.901	403.69
471.12	411.69
471.339	397.69
471.558	385.69
471.777	409.69
471.997	392.69
472.216	387.69
472.435	408.69
472.654	409.69
472.873	382.69
473.092	387.69
473.311	385.69
473.53	390.69
473.749	422.69
473.968	458.69
474.187	546.69
474.406	550.69
474.625	463.69
474.844	409.69
475.063	394.69
475.282	404.69
475.501	391.69
475.72	431.69
475.939	401.69
476.158	405.69
476.377	400.69
476.596	391.69
476.814	407.69
477.033	424.69
477.252	426.69
477.471	409.69
477.69	408.69
477.908	426.69
478.127	430.69
478.346	411.69
478.564	411.69
478.783	434.69
479.002	426.69
479.22	439.69
479.439	458.69
479.658	455.69
479.876	455.69
480.095	471.69
480.313	511.69
480.532	501.69
480.751	487.69
480.969	497.69
481.188	501.69
481.406	547.69
481.624	518.69
481.843	467.69
482.061	489.69
482.28	443.69
482.498	457.69
482.717	469.69
482.935	473.69
483.153	463.69
483.372	471.69
483.59	457.69
483.808	454.69
484.027	434.69
484.245	454.69
484.463	455.69
484.681	471.69
484.9	473.69
485.118	467.69
485.336	457.69
485.554	465.69
485.772	474.69
485.99	490.69
486.209	482.69
486.427	469.69
486.645	491.69
486.863	518.69
487.081	515.69
487.299	493.69
487.517	473.69
487.735	517.69
487.953	502.69
488.171	497.69
488.389	481.69
488.607	497.69
488.825	489.69
489.043	477.69
489.261	494.69
489.479	512.69
489.696	505.69
489.914	503.69
490.132	511.69
490.35	505.69
490.568	522.69
490.786	549.69
491.003	541.69
491.221	548.69
491.439	545.69
491.657	572.69
491.874	585.69
492.092	591.69
492.31	586.69
492.527	560.69
492.745	597.69
492.963	595.69
493.18	579.69
493.398	591.69
493.615	576.69
493.833	578.69
494.05	627.69
494.268	589.69
494.485	599.69
494.703	580.69
494.92	589.69
495.138	582.69
495.355	605.69
495.573	601.69
495.79	579.69
496.008	585.69
496.225	592.69
496.442	587.69
496.66	589.69
496.877	582.69
497.094	602.69
497.312	599.69
497.529	603.69
497.746	609.69
497.963	606.69
498.181	614.69
498.398	651.69
498.615	657.69
498.832	639.69
499.049	654.69
499.267	643.69
499.484	672.69
499.701	681.69
499.918	702.69
500.135	744.69
500.352	783.69
500.569	757.69
500.786	769.69
501.003	771.69
501.22	744.69
501.437	727.69
501.654	713.69
501.871	728.69
