Data from 1971.PennyLincolnUp.Lamp.En5.5.200Scan.071719.P1._HRD10591_15-18-43-840.txt Node
Date: Thu Jul 18 15:18:43 EDT 2019
User: cochatt
Spectrometer: HR+D1059
Trigger mode: 1
Integration Time (sec): 1.000000E-1
Scans to average: 1
Electric dark correction enabled: true
Nonlinearity correction enabled: false
Boxcar width: 0
XAxis mode: Wavelengths
Number of Pixels in Spectrum: 2048
>>>>>Begin Spectral Data<<<<<
223.165	-21.69
223.4	-21.69
223.635	-21.69
223.869	-17.69
224.104	-17.69
224.338	-11.69
224.573	-6.69
224.808	-19.69
225.042	-9.69
225.277	-9.69
225.511	-7.69
225.746	8.31
225.98	3.31
226.215	17.31
226.449	17.31
226.683	18.31
226.918	31.31
227.152	26.31
227.387	22.31
227.621	28.31
227.856	61.31
228.09	53.31
228.324	43.31
228.559	59.31
228.793	72.31
229.027	87.31
229.262	101.31
229.496	96.31
229.73	112.31
229.964	133.31
230.199	128.31
230.433	109.31
230.667	97.31
230.901	108.31
231.136	98.31
231.37	116.31
231.604	107.31
231.838	119.31
232.072	109.31
232.306	111.31
232.541	105.31
232.775	112.31
233.009	105.31
233.243	111.31
233.477	114.31
233.711	103.31
233.945	111.31
234.179	110.31
234.413	112.31
234.647	125.31
234.881	115.31
235.115	109.31
235.349	101.31
235.583	116.31
235.817	114.31
236.051	123.31
236.285	122.31
236.519	121.31
236.753	108.31
236.987	139.31
237.221	151.31
237.455	198.31
237.689	162.31
237.922	125.31
238.156	120.31
238.39	121.31
238.624	127.31
238.858	121.31
239.091	108.31
239.325	124.31
239.559	127.31
239.793	116.31
240.027	118.31
240.26	134.31
240.494	149.31
240.728	139.31
240.961	139.31
241.195	143.31
241.429	138.31
241.662	132.31
241.896	131.31
242.13	129.31
242.363	128.31
242.597	122.31
242.83	134.31
243.064	133.31
243.298	141.31
243.531	141.31
243.765	128.31
243.998	146.31
244.232	145.31
244.465	141.31
244.699	145.31
244.932	156.31
245.166	157.31
245.399	131.31
245.633	131.31
245.866	137.31
246.099	133.31
246.333	146.31
246.566	150.31
246.8	137.31
247.033	149.31
247.266	165.31
247.5	162.31
247.733	148.31
247.966	155.31
248.2	157.31
248.433	162.31
248.666	165.31
248.899	187.31
249.133	183.31
249.366	193.31
249.599	179.31
249.832	190.31
250.066	180.31
250.299	163.31
250.532	190.31
250.765	202.31
250.998	200.31
251.231	213.31
251.465	210.31
251.698	205.31
251.931	189.31
252.164	211.31
252.397	180.31
252.63	207.31
252.863	202.31
253.096	222.31
253.329	218.31
253.562	225.31
253.795	212.31
254.028	213.31
254.261	219.31
254.494	207.31
254.727	249.31
254.96	266.31
255.193	266.31
255.426	228.31
255.659	223.31
255.892	222.31
256.124	244.31
256.357	242.31
256.59	229.31
256.823	224.31
257.056	222.31
257.289	200.31
257.521	203.31
257.754	210.31
257.987	211.31
258.22	216.31
258.452	223.31
258.685	215.31
258.918	210.31
259.151	199.31
259.383	212.31
259.616	213.31
259.849	233.31
260.081	228.31
260.314	239.31
260.547	247.31
260.779	253.31
261.012	232.31
261.244	210.31
261.477	217.31
261.71	221.31
261.942	209.31
262.175	214.31
262.407	215.31
262.64	213.31
262.872	214.31
263.105	198.31
263.337	220.31
263.57	207.31
263.802	214.31
264.035	227.31
264.267	203.31
264.499	200.31
264.732	227.31
264.964	224.31
265.197	217.31
265.429	221.31
265.661	214.31
265.894	227.31
266.126	214.31
266.358	229.31
266.591	228.31
266.823	234.31
267.055	218.31
267.287	234.31
267.52	216.31
267.752	216.31
267.984	224.31
268.216	224.31
268.448	229.31
268.681	245.31
268.913	222.31
269.145	255.31
269.377	270.31
269.609	264.31
269.841	274.31
270.073	259.31
270.306	291.31
270.538	308.31
270.77	315.31
271.002	288.31
271.234	271.31
271.466	291.31
271.698	286.31
271.93	316.31
272.162	313.31
272.394	310.31
272.626	315.31
272.858	260.31
273.09	281.31
273.322	271.31
273.553	293.31
273.785	271.31
274.017	271.31
274.249	272.31
274.481	279.31
274.713	269.31
274.945	275.31
275.176	257.31
275.408	266.31
275.64	271.31
275.872	274.31
276.104	268.31
276.335	267.31
276.567	276.31
276.799	284.31
277.031	300.31
277.262	328.31
277.494	314.31
277.726	283.31
277.957	275.31
278.189	284.31
278.421	281.31
278.652	266.31
278.884	271.31
279.115	281.31
279.347	280.31
279.579	262.31
279.81	264.31
280.042	277.31
280.273	252.31
280.505	263.31
280.736	263.31
280.968	279.31
281.199	284.31
281.431	277.31
281.662	265.31
281.894	255.31
282.125	277.31
282.356	278.31
282.588	306.31
282.819	299.31
283.051	268.31
283.282	277.31
283.513	276.31
283.745	284.31
283.976	289.31
284.207	285.31
284.439	284.31
284.67	266.31
284.901	266.31
285.132	277.31
285.364	276.31
285.595	272.31
285.826	271.31
286.057	293.31
286.288	278.31
286.52	290.31
286.751	289.31
286.982	269.31
287.213	292.31
287.444	270.31
287.675	290.31
287.906	311.31
288.138	297.31
288.369	292.31
288.6	291.31
288.831	293.31
289.062	292.31
289.293	302.31
289.524	282.31
289.755	294.31
289.986	281.31
290.217	293.31
290.448	295.31
290.679	299.31
290.91	291.31
291.141	296.31
291.371	291.31
291.602	307.31
291.833	287.31
292.064	300.31
292.295	295.31
292.526	293.31
292.757	296.31
292.987	296.31
293.218	299.31
293.449	311.31
293.68	294.31
293.91	275.31
294.141	284.31
294.372	289.31
294.603	279.31
294.833	320.31
295.064	301.31
295.295	287.31
295.525	312.31
295.756	309.31
295.987	311.31
296.217	323.31
296.448	330.31
296.679	285.31
296.909	296.31
297.14	312.31
297.37	303.31
297.601	292.31
297.831	313.31
298.062	300.31
298.292	293.31
298.523	303.31
298.753	284.31
298.984	309.31
299.214	320.31
299.445	320.31
299.675	308.31
299.905	317.31
300.136	297.31
300.366	297.31
300.597	310.31
300.827	297.31
301.057	299.31
301.288	325.31
301.518	323.31
301.748	314.31
301.979	320.31
302.209	318.31
302.439	329.31
302.669	324.31
302.9	312.31
303.13	336.31
303.36	327.31
303.59	333.31
303.82	339.31
304.051	337.31
304.281	324.31
304.511	326.31
304.741	328.31
304.971	305.31
305.201	307.31
305.431	319.31
305.661	325.31
305.891	331.31
306.121	322.31
306.352	339.31
306.582	351.31
306.812	347.31
307.042	318.31
307.272	322.31
307.502	305.31
307.731	339.31
307.961	332.31
308.191	328.31
308.421	334.31
308.651	346.31
308.881	362.31
309.111	341.31
309.341	342.31
309.571	363.31
309.8	346.31
310.03	365.31
310.26	355.31
310.49	355.31
310.72	377.31
310.949	378.31
311.179	374.31
311.409	378.31
311.639	364.31
311.868	356.31
312.098	346.31
312.328	379.31
312.557	399.31
312.787	413.31
313.017	386.31
313.246	397.31
313.476	364.31
313.706	376.31
313.935	379.31
314.165	397.31
314.394	402.31
314.624	385.31
314.853	371.31
315.083	381.31
315.312	366.31
315.542	377.31
315.771	369.31
316.001	376.31
316.23	379.31
316.46	380.31
316.689	379.31
316.919	373.31
317.148	372.31
317.377	381.31
317.607	366.31
317.836	373.31
318.065	368.31
318.295	378.31
318.524	365.31
318.753	352.31
318.983	378.31
319.212	392.31
319.441	367.31
319.67	385.31
319.9	378.31
320.129	373.31
320.358	374.31
320.587	381.31
320.816	393.31
321.046	396.31
321.275	390.31
321.504	393.31
321.733	406.31
321.962	413.31
322.191	392.31
322.42	439.31
322.649	426.31
322.878	441.31
323.108	440.31
323.337	476.31
323.566	464.31
323.795	517.31
324.024	553.31
324.253	634.31
324.482	905.31
324.71	1314.31
324.939	1805.31
325.168	1510.31
325.397	809.31
325.626	572.31
325.855	487.31
326.084	449.31
326.313	482.31
326.542	498.31
326.77	520.31
326.999	608.31
327.228	815.31
327.457	1159.31
327.686	1323.31
327.914	903.31
328.143	626.31
328.372	569.31
328.6	535.31
328.829	536.31
329.058	519.31
329.287	525.31
329.515	491.31
329.744	483.31
329.972	479.31
330.201	490.31
330.43	509.31
330.658	507.31
330.887	560.31
331.115	524.31
331.344	480.31
331.572	471.31
331.801	446.31
332.03	463.31
332.258	435.31
332.486	429.31
332.715	443.31
332.943	434.31
333.172	444.31
333.4	427.31
333.629	441.31
333.857	465.31
334.085	458.31
334.314	460.31
334.542	481.31
334.771	475.31
334.999	439.31
335.227	444.31
335.455	446.31
335.684	463.31
335.912	422.31
336.14	419.31
336.369	403.31
336.597	435.31
336.825	427.31
337.053	413.31
337.281	433.31
337.51	407.31
337.738	424.31
337.966	435.31
338.194	412.31
338.422	425.31
338.65	430.31
338.878	405.31
339.106	413.31
339.334	422.31
339.562	413.31
339.79	399.31
340.018	399.31
340.246	391.31
340.474	404.31
340.702	425.31
340.93	405.31
341.158	390.31
341.386	409.31
341.614	401.31
341.842	433.31
342.07	410.31
342.298	400.31
342.526	401.31
342.754	395.31
342.981	396.31
343.209	389.31
343.437	410.31
343.665	385.31
343.893	413.31
344.12	398.31
344.348	409.31
344.576	398.31
344.804	421.31
345.031	430.31
345.259	419.31
345.487	431.31
345.714	402.31
345.942	398.31
346.17	400.31
346.397	379.31
346.625	379.31
346.853	381.31
347.08	392.31
347.308	400.31
347.535	390.31
347.763	399.31
347.99	410.31
348.218	391.31
348.445	390.31
348.673	386.31
348.9	388.31
349.128	384.31
349.355	383.31
349.583	369.31
349.81	389.31
350.037	390.31
350.265	371.31
350.492	365.31
350.72	379.31
350.947	379.31
351.174	389.31
351.402	392.31
351.629	386.31
351.856	379.31
352.083	398.31
352.311	391.31
352.538	397.31
352.765	370.31
352.992	381.31
353.22	387.31
353.447	387.31
353.674	376.31
353.901	361.31
354.128	390.31
354.355	370.31
354.583	378.31
354.81	370.31
355.037	356.31
355.264	375.31
355.491	345.31
355.718	370.31
355.945	346.31
356.172	355.31
356.399	350.31
356.626	361.31
356.853	374.31
357.08	351.31
357.307	348.31
357.534	366.31
357.761	358.31
357.988	357.31
358.215	335.31
358.441	369.31
358.668	361.31
358.895	371.31
359.122	363.31
359.349	362.31
359.576	387.31
359.802	387.31
360.029	422.31
360.256	411.31
360.483	418.31
360.709	392.31
360.936	398.31
361.163	377.31
361.39	385.31
361.616	397.31
361.843	381.31
362.07	379.31
362.296	381.31
362.523	358.31
362.749	364.31
362.976	364.31
363.203	366.31
363.429	366.31
363.656	360.31
363.882	353.31
364.109	359.31
364.335	361.31
364.562	357.31
364.788	354.31
365.015	365.31
365.241	367.31
365.468	358.31
365.694	372.31
365.92	370.31
366.147	368.31
366.373	373.31
366.599	357.31
366.826	340.31
367.052	348.31
367.278	362.31
367.505	359.31
367.731	370.31
367.957	332.31
368.184	360.31
368.41	368.31
368.636	362.31
368.862	365.31
369.089	356.31
369.315	344.31
369.541	339.31
369.767	331.31
369.993	361.31
370.219	367.31
370.445	344.31
370.672	352.31
370.898	358.31
371.124	347.31
371.35	346.31
371.576	357.31
371.802	367.31
372.028	372.31
372.254	346.31
372.48	353.31
372.706	365.31
372.932	343.31
373.158	345.31
373.384	357.31
373.61	378.31
373.835	357.31
374.061	358.31
374.287	360.31
374.513	372.31
374.739	362.31
374.965	363.31
375.191	349.31
375.416	343.31
375.642	341.31
375.868	354.31
376.094	372.31
376.319	361.31
376.545	357.31
376.771	345.31
376.997	351.31
377.222	340.31
377.448	341.31
377.674	341.31
377.899	336.31
378.125	353.31
378.35	354.31
378.576	343.31
378.802	348.31
379.027	352.31
379.253	355.31
379.478	339.31
379.704	353.31
379.929	343.31
380.155	351.31
380.38	354.31
380.606	339.31
380.831	352.31
381.057	332.31
381.282	350.31
381.507	350.31
381.733	341.31
381.958	358.31
382.184	341.31
382.409	345.31
382.634	348.31
382.86	364.31
383.085	352.31
383.31	349.31
383.535	366.31
383.761	373.31
383.986	341.31
384.211	355.31
384.436	372.31
384.662	375.31
384.887	383.31
385.112	353.31
385.337	361.31
385.562	384.31
385.787	357.31
386.013	379.31
386.238	383.31
386.463	369.31
386.688	361.31
386.913	348.31
387.138	377.31
387.363	366.31
387.588	366.31
387.813	369.31
388.038	377.31
388.263	346.31
388.488	352.31
388.713	361.31
388.938	359.31
389.163	366.31
389.387	350.31
389.612	362.31
389.837	369.31
390.062	374.31
390.287	362.31
390.512	374.31
390.736	365.31
390.961	371.31
391.186	369.31
391.411	369.31
391.636	372.31
391.86	377.31
392.085	391.31
392.31	386.31
392.534	379.31
392.759	385.31
392.984	353.31
393.208	349.31
393.433	375.31
393.658	371.31
393.882	375.31
394.107	386.31
394.331	375.31
394.556	378.31
394.78	378.31
395.005	369.31
395.229	375.31
395.454	362.31
395.678	369.31
395.903	383.31
396.127	394.31
396.352	402.31
396.576	389.31
396.801	401.31
397.025	385.31
397.249	380.31
397.474	393.31
397.698	386.31
397.922	408.31
398.147	381.31
398.371	389.31
398.595	435.31
398.82	390.31
399.044	419.31
399.268	436.31
399.492	447.31
399.717	479.31
399.941	458.31
400.165	499.31
400.389	506.31
400.613	459.31
400.837	414.31
401.062	421.31
401.286	436.31
401.51	415.31
401.734	417.31
401.958	427.31
402.182	415.31
402.406	407.31
402.63	406.31
402.854	422.31
403.078	411.31
403.302	427.31
403.526	417.31
403.75	433.31
403.974	426.31
404.198	397.31
404.422	426.31
404.645	413.31
404.869	429.31
405.093	439.31
405.317	488.31
405.541	509.31
405.765	458.31
405.988	449.31
406.212	446.31
406.436	465.31
406.66	450.31
406.883	433.31
407.107	451.31
407.331	492.31
407.555	535.31
407.778	533.31
408.002	492.31
408.226	489.31
408.449	456.31
408.673	460.31
408.896	476.31
409.12	518.31
409.344	478.31
409.567	397.31
409.791	433.31
410.014	425.31
410.238	425.31
410.461	419.31
410.685	431.31
410.908	441.31
411.132	453.31
411.355	482.31
411.578	473.31
411.802	439.31
412.025	401.31
412.249	411.31
412.472	439.31
412.695	453.31
412.919	466.31
413.142	407.31
413.365	414.31
413.589	424.31
413.812	398.31
414.035	386.31
414.258	393.31
414.482	427.31
414.705	382.31
414.928	389.31
415.151	387.31
415.374	375.31
415.597	369.31
415.821	398.31
416.044	399.31
416.267	403.31
416.49	396.31
416.713	394.31
416.936	392.31
417.159	397.31
417.382	379.31
417.605	397.31
417.828	426.31
418.051	417.31
418.274	411.31
418.497	404.31
418.72	402.31
418.943	406.31
419.166	409.31
419.389	396.31
419.611	425.31
419.834	423.31
420.057	426.31
420.28	437.31
420.503	417.31
420.726	411.31
420.948	409.31
421.171	455.31
421.394	467.31
421.617	427.31
421.839	425.31
422.062	407.31
422.285	434.31
422.507	478.31
422.73	509.31
422.953	518.31
423.175	441.31
423.398	430.31
423.621	419.31
423.843	445.31
424.066	444.31
424.288	431.31
424.511	467.31
424.733	512.31
424.956	561.31
425.178	550.31
425.401	520.31
425.623	534.31
425.846	471.31
426.068	447.31
426.291	446.31
426.513	428.31
426.735	439.31
426.958	484.31
427.18	553.31
427.402	637.31
427.625	687.31
427.847	597.31
428.069	533.31
428.292	466.31
428.514	442.31
428.736	411.31
428.958	399.31
429.181	387.31
429.403	409.31
429.625	399.31
429.847	440.31
430.069	477.31
430.292	492.31
430.514	411.31
430.736	403.31
430.958	414.31
431.18	389.31
431.402	391.31
431.624	380.31
431.846	383.31
432.068	372.31
432.29	370.31
432.512	378.31
432.734	386.31
432.956	381.31
433.178	373.31
433.4	412.31
433.622	397.31
433.844	377.31
434.066	373.31
434.287	391.31
434.509	378.31
434.731	390.31
434.953	385.31
435.175	426.31
435.397	435.31
435.618	447.31
435.84	472.31
436.062	569.31
436.284	597.31
436.505	484.31
436.727	412.31
436.949	422.31
437.17	412.31
437.392	396.31
437.614	414.31
437.835	431.31
438.057	527.31
438.278	585.31
438.5	607.31
438.721	666.31
438.943	626.31
439.165	494.31
439.386	437.31
439.608	437.31
439.829	451.31
440.05	460.31
440.272	519.31
440.493	473.31
440.715	448.31
440.936	407.31
441.158	405.31
441.379	405.31
441.6	424.31
441.822	431.31
442.043	468.31
442.264	539.31
442.486	567.31
442.707	467.31
442.928	448.31
443.149	461.31
443.371	471.31
443.592	480.31
443.813	561.31
444.034	621.31
444.255	515.31
444.476	455.31
444.698	451.31
444.919	460.31
445.14	603.31
445.361	503.31
445.582	449.31
445.803	534.31
446.024	605.31
446.245	585.31
446.466	553.31
446.687	478.31
446.908	431.31
447.129	427.31
447.35	410.31
447.571	396.31
447.792	393.31
448.013	400.31
448.234	423.31
448.455	473.31
448.675	546.31
448.896	654.31
449.117	552.31
449.338	517.31
449.559	601.31
449.779	652.31
450	539.31
450.221	448.31
450.442	419.31
450.662	413.31
450.883	410.31
451.104	413.31
451.324	411.31
451.545	379.31
451.766	383.31
451.986	364.31
452.207	351.31
452.428	358.31
452.648	356.31
452.869	371.31
453.089	357.31
453.31	377.31
453.53	347.31
453.751	354.31
453.971	349.31
454.192	374.31
454.412	354.31
454.633	366.31
454.853	357.31
455.073	362.31
455.294	366.31
455.514	419.31
455.734	425.31
455.955	376.31
456.175	352.31
456.395	337.31
456.616	337.31
456.836	342.31
457.056	331.31
457.276	336.31
457.497	334.31
457.717	330.31
457.937	367.31
458.157	357.31
458.377	319.31
458.598	374.31
458.818	394.31
459.038	458.31
459.258	475.31
459.478	411.31
459.698	399.31
459.918	383.31
460.138	375.31
460.358	386.31
460.578	362.31
460.798	375.31
461.018	393.31
461.238	379.31
461.458	392.31
461.678	378.31
461.898	368.31
462.118	370.31
462.338	384.31
462.558	395.31
462.777	402.31
462.997	373.31
463.217	378.31
463.437	403.31
463.657	410.31
463.876	389.31
464.096	396.31
464.316	394.31
464.536	406.31
464.755	406.31
464.975	402.31
465.195	428.31
465.414	470.31
465.634	441.31
465.854	391.31
466.073	395.31
466.293	378.31
466.512	375.31
466.732	356.31
466.951	361.31
467.171	341.31
467.391	385.31
467.61	369.31
467.829	381.31
468.049	377.31
468.268	356.31
468.488	345.31
468.707	366.31
468.927	339.31
469.146	358.31
469.365	379.31
469.585	355.31
469.804	380.31
470.023	358.31
470.243	371.31
470.462	401.31
470.681	387.31
470.901	381.31
471.12	371.31
471.339	382.31
471.558	378.31
471.777	369.31
471.997	369.31
472.216	374.31
472.435	389.31
472.654	362.31
472.873	379.31
473.092	372.31
473.311	371.31
473.53	368.31
473.749	384.31
473.968	412.31
474.187	482.31
474.406	526.31
474.625	417.31
474.844	379.31
475.063	405.31
475.282	374.31
475.501	391.31
475.72	392.31
475.939	380.31
476.158	387.31
476.377	405.31
476.596	371.31
476.814	382.31
477.033	385.31
477.252	407.31
477.471	402.31
477.69	395.31
477.908	411.31
478.127	389.31
478.346	405.31
478.564	408.31
478.783	405.31
479.002	416.31
479.22	417.31
479.439	434.31
479.658	430.31
479.876	430.31
480.095	445.31
480.313	454.31
480.532	457.31
480.751	457.31
480.969	437.31
481.188	469.31
481.406	486.31
481.624	450.31
481.843	455.31
482.061	451.31
482.28	405.31
482.498	420.31
482.717	421.31
482.935	430.31
483.153	426.31
483.372	426.31
483.59	442.31
483.808	436.31
484.027	419.31
484.245	414.31
484.463	444.31
484.681	443.31
484.9	433.31
485.118	438.31
485.336	430.31
485.554	441.31
485.772	431.31
485.99	453.31
486.209	457.31
486.427	454.31
486.645	440.31
486.863	475.31
487.081	447.31
487.299	456.31
487.517	458.31
487.735	461.31
487.953	465.31
488.171	469.31
488.389	464.31
488.607	460.31
488.825	444.31
489.043	443.31
489.261	471.31
489.479	481.31
489.696	447.31
489.914	473.31
490.132	469.31
490.35	469.31
490.568	485.31
490.786	481.31
491.003	477.31
491.221	513.31
491.439	521.31
491.657	512.31
491.874	534.31
492.092	558.31
492.31	532.31
492.527	499.31
492.745	545.31
492.963	527.31
493.18	525.31
493.398	547.31
493.615	565.31
493.833	557.31
494.05	542.31
494.268	558.31
494.485	531.31
494.703	561.31
494.92	556.31
495.138	525.31
495.355	579.31
495.573	566.31
495.79	537.31
496.008	559.31
496.225	543.31
496.442	563.31
496.66	567.31
496.877	540.31
497.094	570.31
497.312	578.31
497.529	559.31
497.746	569.31
497.963	573.31
498.181	596.31
498.398	604.31
498.615	601.31
498.832	607.31
499.049	605.31
499.267	631.31
499.484	641.31
499.701	637.31
499.918	685.31
500.135	693.31
500.352	734.31
500.569	702.31
500.786	740.31
501.003	754.31
501.22	712.31
501.437	711.31
501.654	684.31
501.871	679.31
502.088	643.31
