Data from 1971.PennyLincolnUp.Lamp.En5.5.200Scan.071719.P1.Scan 2. Changed Angle._HRD10591_15-22-36-843.txt Node
Date: Thu Jul 18 15:22:36 EDT 2019
User: cochatt
Spectrometer: HR+D1059
Trigger mode: 1
Integration Time (sec): 1.000000E-1
Scans to average: 1
Electric dark correction enabled: true
Nonlinearity correction enabled: false
Boxcar width: 0
XAxis mode: Wavelengths
Number of Pixels in Spectrum: 2048
>>>>>Begin Spectral Data<<<<<
223.165	-24.75
223.4	-24.75
223.635	-24.75
223.869	-21.75
224.104	-29.75
224.338	-3.75
224.573	-16.75
224.808	-13.75
225.042	-5.75
225.277	-17.75
225.511	11.25
225.746	2.25
225.98	20.25
226.215	6.25
226.449	16.25
226.683	20.25
226.918	20.25
227.152	37.25
227.387	26.25
227.621	47.25
227.856	32.25
228.09	34.25
228.324	36.25
228.559	52.25
228.793	76.25
229.027	99.25
229.262	106.25
229.496	125.25
229.73	123.25
229.964	139.25
230.199	109.25
230.433	116.25
230.667	115.25
230.901	117.25
231.136	108.25
231.37	90.25
231.604	106.25
231.838	110.25
232.072	101.25
232.306	114.25
232.541	117.25
232.775	112.25
233.009	102.25
233.243	109.25
233.477	119.25
233.711	94.25
233.945	104.25
234.179	121.25
234.413	124.25
234.647	115.25
234.881	98.25
235.115	103.25
235.349	105.25
235.583	104.25
235.817	111.25
236.051	108.25
236.285	114.25
236.519	121.25
236.753	127.25
236.987	140.25
237.221	166.25
237.455	203.25
237.689	167.25
237.922	140.25
238.156	133.25
238.39	119.25
238.624	102.25
238.858	105.25
239.091	125.25
239.325	129.25
239.559	116.25
239.793	115.25
240.027	132.25
240.26	126.25
240.494	144.25
240.728	142.25
240.961	142.25
241.195	137.25
241.429	125.25
241.662	143.25
241.896	136.25
242.13	120.25
242.363	111.25
242.597	118.25
242.83	114.25
243.064	117.25
243.298	123.25
243.531	132.25
243.765	126.25
243.998	130.25
244.232	137.25
244.465	134.25
244.699	135.25
244.932	137.25
245.166	121.25
245.399	130.25
245.633	129.25
245.866	137.25
246.099	155.25
246.333	137.25
246.566	143.25
246.8	143.25
247.033	145.25
247.266	138.25
247.5	142.25
247.733	163.25
247.966	150.25
248.2	155.25
248.433	172.25
248.666	147.25
248.899	173.25
249.133	183.25
249.366	210.25
249.599	194.25
249.832	181.25
250.066	159.25
250.299	164.25
250.532	156.25
250.765	170.25
250.998	202.25
251.231	221.25
251.465	197.25
251.698	165.25
251.931	174.25
252.164	188.25
252.397	196.25
252.63	191.25
252.863	208.25
253.096	187.25
253.329	194.25
253.562	206.25
253.795	205.25
254.028	205.25
254.261	193.25
254.494	203.25
254.727	226.25
254.96	243.25
255.193	239.25
255.426	245.25
255.659	234.25
255.892	212.25
256.124	204.25
256.357	216.25
256.59	208.25
256.823	192.25
257.056	188.25
257.289	203.25
257.521	204.25
257.754	194.25
257.987	194.25
258.22	191.25
258.452	199.25
258.685	181.25
258.918	186.25
259.151	194.25
259.383	202.25
259.616	197.25
259.849	188.25
260.081	224.25
260.314	229.25
260.547	237.25
260.779	226.25
261.012	209.25
261.244	214.25
261.477	205.25
261.71	197.25
261.942	208.25
262.175	209.25
262.407	204.25
262.64	194.25
262.872	195.25
263.105	212.25
263.337	187.25
263.57	207.25
263.802	185.25
264.035	172.25
264.267	183.25
264.499	186.25
264.732	186.25
264.964	188.25
265.197	199.25
265.429	183.25
265.661	182.25
265.894	189.25
266.126	163.25
266.358	186.25
266.591	173.25
266.823	212.25
267.055	205.25
267.287	190.25
267.52	197.25
267.752	186.25
267.984	196.25
268.216	208.25
268.448	200.25
268.681	205.25
268.913	225.25
269.145	196.25
269.377	226.25
269.609	233.25
269.841	218.25
270.073	221.25
270.306	233.25
270.538	242.25
270.77	258.25
271.002	262.25
271.234	247.25
271.466	250.25
271.698	255.25
271.93	275.25
272.162	260.25
272.394	270.25
272.626	249.25
272.858	242.25
273.09	226.25
273.322	235.25
273.553	217.25
273.785	217.25
274.017	226.25
274.249	223.25
274.481	211.25
274.713	229.25
274.945	224.25
275.176	231.25
275.408	229.25
275.64	230.25
275.872	216.25
276.104	208.25
276.335	235.25
276.567	222.25
276.799	233.25
277.031	242.25
277.262	256.25
277.494	259.25
277.726	249.25
277.957	237.25
278.189	221.25
278.421	223.25
278.652	235.25
278.884	214.25
279.115	229.25
279.347	234.25
279.579	226.25
279.81	226.25
280.042	243.25
280.273	225.25
280.505	208.25
280.736	222.25
280.968	214.25
281.199	222.25
281.431	213.25
281.662	212.25
281.894	213.25
282.125	221.25
282.356	232.25
282.588	241.25
282.819	241.25
283.051	233.25
283.282	227.25
283.513	233.25
283.745	229.25
283.976	217.25
284.207	207.25
284.439	239.25
284.67	231.25
284.901	216.25
285.132	202.25
285.364	223.25
285.595	228.25
285.826	223.25
286.057	215.25
286.288	229.25
286.52	203.25
286.751	229.25
286.982	222.25
287.213	235.25
287.444	234.25
287.675	240.25
287.906	231.25
288.138	235.25
288.369	232.25
288.6	248.25
288.831	223.25
289.062	231.25
289.293	223.25
289.524	239.25
289.755	226.25
289.986	234.25
290.217	241.25
290.448	215.25
290.679	244.25
290.91	230.25
291.141	219.25
291.371	231.25
291.602	226.25
291.833	224.25
292.064	238.25
292.295	247.25
292.526	240.25
292.757	234.25
292.987	223.25
293.218	239.25
293.449	247.25
293.68	237.25
293.91	250.25
294.141	228.25
294.372	246.25
294.603	252.25
294.833	224.25
295.064	218.25
295.295	248.25
295.525	222.25
295.756	232.25
295.987	236.25
296.217	259.25
296.448	263.25
296.679	259.25
296.909	232.25
297.14	237.25
297.37	251.25
297.601	251.25
297.831	247.25
298.062	235.25
298.292	231.25
298.523	243.25
298.753	240.25
298.984	226.25
299.214	240.25
299.445	237.25
299.675	239.25
299.905	243.25
300.136	253.25
300.366	235.25
300.597	250.25
300.827	229.25
301.057	272.25
301.288	257.25
301.518	248.25
301.748	251.25
301.979	276.25
302.209	246.25
302.439	260.25
302.669	250.25
302.9	247.25
303.13	256.25
303.36	261.25
303.59	257.25
303.82	260.25
304.051	250.25
304.281	233.25
304.511	270.25
304.741	249.25
304.971	250.25
305.201	269.25
305.431	271.25
305.661	252.25
305.891	266.25
306.121	259.25
306.352	259.25
306.582	262.25
306.812	258.25
307.042	262.25
307.272	246.25
307.502	258.25
307.731	235.25
307.961	260.25
308.191	264.25
308.421	271.25
308.651	271.25
308.881	269.25
309.111	269.25
309.341	279.25
309.571	282.25
309.8	282.25
310.03	284.25
310.26	289.25
310.49	280.25
310.72	308.25
310.949	316.25
311.179	326.25
311.409	299.25
311.639	295.25
311.868	281.25
312.098	303.25
312.328	315.25
312.557	301.25
312.787	346.25
313.017	328.25
313.246	311.25
313.476	305.25
313.706	303.25
313.935	285.25
314.165	298.25
314.394	332.25
314.624	311.25
314.853	292.25
315.083	295.25
315.312	306.25
315.542	278.25
315.771	298.25
316.001	289.25
316.23	283.25
316.46	288.25
316.689	301.25
316.919	301.25
317.148	319.25
317.377	308.25
317.607	318.25
317.836	304.25
318.065	307.25
318.295	315.25
318.524	289.25
318.753	306.25
318.983	308.25
319.212	283.25
319.441	311.25
319.67	329.25
319.9	324.25
320.129	320.25
320.358	307.25
320.587	315.25
320.816	316.25
321.046	330.25
321.275	344.25
321.504	319.25
321.733	320.25
321.962	337.25
322.191	339.25
322.42	339.25
322.649	358.25
322.878	356.25
323.108	372.25
323.337	386.25
323.566	410.25
323.795	422.25
324.024	453.25
324.253	570.25
324.482	796.25
324.71	1204.25
324.939	1769.25
325.168	1540.25
325.397	807.25
325.626	540.25
325.855	460.25
326.084	415.25
326.313	400.25
326.542	415.25
326.77	442.25
326.999	534.25
327.228	707.25
327.457	1066.25
327.686	1300.25
327.914	884.25
328.143	595.25
328.372	504.25
328.6	478.25
328.829	447.25
329.058	462.25
329.287	473.25
329.515	431.25
329.744	403.25
329.972	391.25
330.201	407.25
330.43	453.25
330.658	456.25
330.887	506.25
331.115	467.25
331.344	414.25
331.572	388.25
331.801	398.25
332.03	390.25
332.258	383.25
332.486	377.25
332.715	348.25
332.943	358.25
333.172	354.25
333.4	357.25
333.629	359.25
333.857	352.25
334.085	378.25
334.314	376.25
334.542	394.25
334.771	404.25
334.999	390.25
335.227	394.25
335.455	358.25
335.684	362.25
335.912	357.25
336.14	353.25
336.369	359.25
336.597	341.25
336.825	341.25
337.053	359.25
337.281	351.25
337.51	351.25
337.738	341.25
337.966	360.25
338.194	363.25
338.422	360.25
338.65	360.25
338.878	371.25
339.106	351.25
339.334	333.25
339.562	330.25
339.79	349.25
340.018	341.25
340.246	347.25
340.474	353.25
340.702	343.25
340.93	331.25
341.158	344.25
341.386	343.25
341.614	343.25
341.842	340.25
342.07	347.25
342.298	350.25
342.526	349.25
342.754	350.25
342.981	326.25
343.209	322.25
343.437	327.25
343.665	318.25
343.893	364.25
344.12	354.25
344.348	349.25
344.576	357.25
344.804	348.25
345.031	359.25
345.259	351.25
345.487	361.25
345.714	353.25
345.942	350.25
346.17	334.25
346.397	348.25
346.625	330.25
346.853	334.25
347.08	327.25
347.308	347.25
347.535	340.25
347.763	359.25
347.99	349.25
348.218	345.25
348.445	352.25
348.673	354.25
348.9	342.25
349.128	344.25
349.355	330.25
349.583	327.25
349.81	335.25
350.037	315.25
350.265	323.25
350.492	339.25
350.72	334.25
350.947	352.25
351.174	360.25
351.402	330.25
351.629	347.25
351.856	359.25
352.083	358.25
352.311	344.25
352.538	369.25
352.765	351.25
352.992	366.25
353.22	360.25
353.447	331.25
353.674	343.25
353.901	329.25
354.128	334.25
354.355	332.25
354.583	324.25
354.81	323.25
355.037	327.25
355.264	322.25
355.491	329.25
355.718	331.25
355.945	311.25
356.172	310.25
356.399	323.25
356.626	335.25
356.853	318.25
357.08	341.25
357.307	347.25
357.534	312.25
357.761	313.25
357.988	327.25
358.215	330.25
358.441	351.25
358.668	303.25
358.895	314.25
359.122	326.25
359.349	322.25
359.576	355.25
359.802	360.25
360.029	389.25
360.256	394.25
360.483	378.25
360.709	357.25
360.936	351.25
361.163	357.25
361.39	365.25
361.616	378.25
361.843	351.25
362.07	358.25
362.296	367.25
362.523	359.25
362.749	340.25
362.976	344.25
363.203	349.25
363.429	340.25
363.656	363.25
363.882	364.25
364.109	344.25
364.335	346.25
364.562	340.25
364.788	339.25
365.015	352.25
365.241	344.25
365.468	333.25
365.694	359.25
365.92	357.25
366.147	347.25
366.373	330.25
366.599	326.25
366.826	345.25
367.052	319.25
367.278	345.25
367.505	350.25
367.731	333.25
367.957	330.25
368.184	333.25
368.41	323.25
368.636	357.25
368.862	353.25
369.089	342.25
369.315	353.25
369.541	332.25
369.767	326.25
369.993	358.25
370.219	336.25
370.445	360.25
370.672	336.25
370.898	325.25
371.124	339.25
371.35	356.25
371.576	347.25
371.802	341.25
372.028	354.25
372.254	334.25
372.48	332.25
372.706	330.25
372.932	343.25
373.158	338.25
373.384	341.25
373.61	357.25
373.835	346.25
374.061	350.25
374.287	320.25
374.513	359.25
374.739	343.25
374.965	348.25
375.191	370.25
375.416	353.25
375.642	349.25
375.868	356.25
376.094	363.25
376.319	337.25
376.545	356.25
376.771	337.25
376.997	335.25
377.222	335.25
377.448	336.25
377.674	367.25
377.899	327.25
378.125	332.25
378.35	332.25
378.576	349.25
378.802	352.25
379.027	335.25
379.253	350.25
379.478	331.25
379.704	342.25
379.929	342.25
380.155	359.25
380.38	339.25
380.606	359.25
380.831	341.25
381.057	351.25
381.282	344.25
381.507	360.25
381.733	347.25
381.958	346.25
382.184	336.25
382.409	351.25
382.634	346.25
382.86	367.25
383.085	352.25
383.31	359.25
383.535	360.25
383.761	355.25
383.986	351.25
384.211	364.25
384.436	374.25
384.662	361.25
384.887	383.25
385.112	364.25
385.337	360.25
385.562	357.25
385.787	362.25
386.013	363.25
386.238	388.25
386.463	382.25
386.688	383.25
386.913	356.25
387.138	372.25
387.363	380.25
387.588	390.25
387.813	383.25
388.038	396.25
388.263	381.25
388.488	364.25
388.713	382.25
388.938	383.25
389.163	378.25
389.387	383.25
389.612	362.25
389.837	377.25
390.062	379.25
390.287	381.25
390.512	377.25
390.736	395.25
390.961	372.25
391.186	385.25
391.411	379.25
391.636	378.25
391.86	373.25
392.085	361.25
392.31	354.25
392.534	386.25
392.759	365.25
392.984	394.25
393.208	396.25
393.433	418.25
393.658	420.25
393.882	384.25
394.107	401.25
394.331	387.25
394.556	369.25
394.78	374.25
395.005	380.25
395.229	383.25
395.454	380.25
395.678	393.25
395.903	385.25
396.127	413.25
396.352	418.25
396.576	386.25
396.801	401.25
397.025	407.25
397.249	419.25
397.474	395.25
397.698	408.25
397.922	418.25
398.147	434.25
398.371	443.25
398.595	410.25
398.82	412.25
399.044	425.25
399.268	430.25
399.492	463.25
399.717	476.25
399.941	486.25
400.165	503.25
400.389	534.25
400.613	475.25
400.837	430.25
401.062	452.25
401.286	442.25
401.51	429.25
401.734	427.25
401.958	446.25
402.182	438.25
402.406	456.25
402.63	439.25
402.854	424.25
403.078	450.25
403.302	430.25
403.526	441.25
403.75	457.25
403.974	443.25
404.198	451.25
404.422	458.25
404.645	466.25
404.869	440.25
405.093	471.25
405.317	508.25
405.541	538.25
405.765	470.25
405.988	475.25
406.212	467.25
406.436	490.25
406.66	518.25
406.883	490.25
407.107	502.25
407.331	544.25
407.555	613.25
407.778	591.25
408.002	541.25
408.226	504.25
408.449	491.25
408.673	494.25
408.896	525.25
409.12	565.25
409.344	522.25
409.567	494.25
409.791	482.25
410.014	447.25
410.238	451.25
410.461	450.25
410.685	457.25
410.908	479.25
411.132	513.25
411.355	529.25
411.578	516.25
411.802	472.25
412.025	463.25
412.249	455.25
412.472	478.25
412.695	515.25
412.919	480.25
413.142	446.25
413.365	451.25
413.589	450.25
413.812	414.25
414.035	419.25
414.258	429.25
414.482	432.25
414.705	431.25
414.928	400.25
415.151	428.25
415.374	426.25
415.597	441.25
415.821	450.25
416.044	446.25
416.267	428.25
416.49	417.25
416.713	409.25
416.936	404.25
417.159	416.25
417.382	436.25
417.605	418.25
417.828	420.25
418.051	466.25
418.274	458.25
418.497	429.25
418.72	436.25
418.943	431.25
419.166	438.25
419.389	461.25
419.611	440.25
419.834	454.25
420.057	444.25
420.28	456.25
420.503	434.25
420.726	451.25
420.948	459.25
421.171	504.25
421.394	530.25
421.617	472.25
421.839	454.25
422.062	454.25
422.285	463.25
422.507	533.25
422.73	607.25
422.953	556.25
423.175	482.25
423.398	482.25
423.621	487.25
423.843	484.25
424.066	495.25
424.288	484.25
424.511	540.25
424.733	574.25
424.956	642.25
425.178	605.25
425.401	596.25
425.623	606.25
425.846	546.25
426.068	490.25
426.291	499.25
426.513	501.25
426.735	507.25
426.958	537.25
427.18	631.25
427.402	747.25
427.625	783.25
427.847	706.25
428.069	618.25
428.292	558.25
428.514	519.25
428.736	490.25
428.958	462.25
429.181	471.25
429.403	459.25
429.625	490.25
429.847	506.25
430.069	546.25
430.292	571.25
430.514	475.25
430.736	474.25
430.958	446.25
431.18	459.25
431.402	456.25
431.624	457.25
431.846	423.25
432.068	412.25
432.29	443.25
432.512	430.25
432.734	452.25
432.956	446.25
433.178	464.25
433.4	445.25
433.622	460.25
433.844	443.25
434.066	432.25
434.287	459.25
434.509	425.25
434.731	439.25
434.953	452.25
435.175	467.25
435.397	486.25
435.618	502.25
435.84	556.25
436.062	626.25
436.284	672.25
436.505	580.25
436.727	523.25
436.949	486.25
437.17	465.25
437.392	459.25
437.614	487.25
437.835	485.25
438.057	594.25
438.278	677.25
438.5	700.25
438.721	747.25
438.943	686.25
439.165	592.25
439.386	550.25
439.608	514.25
439.829	525.25
440.05	549.25
440.272	592.25
440.493	549.25
440.715	504.25
440.936	478.25
441.158	487.25
441.379	463.25
441.6	489.25
441.822	518.25
442.043	542.25
442.264	612.25
442.486	644.25
442.707	561.25
442.928	518.25
443.149	495.25
443.371	536.25
443.592	580.25
443.813	648.25
444.034	700.25
444.255	602.25
444.476	518.25
444.698	519.25
444.919	496.25
445.14	620.25
445.361	563.25
445.582	543.25
445.803	600.25
446.024	703.25
446.245	674.25
446.466	646.25
446.687	524.25
446.908	503.25
447.129	494.25
447.35	461.25
447.571	482.25
447.792	454.25
448.013	475.25
448.234	491.25
448.455	538.25
448.675	640.25
448.896	720.25
449.117	636.25
449.338	588.25
449.559	676.25
449.779	741.25
450	626.25
450.221	521.25
450.442	489.25
450.662	485.25
450.883	475.25
451.104	491.25
451.324	476.25
451.545	462.25
451.766	434.25
451.986	444.25
452.207	397.25
452.428	418.25
452.648	418.25
452.869	448.25
453.089	400.25
453.31	423.25
453.53	420.25
453.751	416.25
453.971	411.25
454.192	437.25
454.412	451.25
454.633	412.25
454.853	422.25
455.073	411.25
455.294	440.25
455.514	510.25
455.734	496.25
455.955	434.25
456.175	414.25
456.395	382.25
456.616	385.25
456.836	425.25
457.056	394.25
457.276	365.25
457.497	398.25
457.717	411.25
457.937	403.25
458.157	407.25
458.377	408.25
458.598	423.25
458.818	480.25
459.038	556.25
459.258	579.25
459.478	494.25
459.698	434.25
459.918	436.25
460.138	412.25
460.358	446.25
460.578	440.25
460.798	443.25
461.018	438.25
461.238	419.25
461.458	428.25
461.678	418.25
461.898	430.25
462.118	411.25
462.338	427.25
462.558	445.25
462.777	452.25
462.997	455.25
463.217	452.25
463.437	466.25
463.657	468.25
463.876	430.25
464.096	461.25
464.316	469.25
464.536	454.25
464.755	468.25
464.975	462.25
465.195	514.25
465.414	566.25
465.634	520.25
465.854	466.25
466.073	474.25
466.293	440.25
466.512	431.25
466.732	415.25
466.951	416.25
467.171	435.25
467.391	422.25
467.61	438.25
467.829	456.25
468.049	438.25
468.268	446.25
468.488	440.25
468.707	430.25
468.927	416.25
469.146	401.25
469.365	431.25
469.585	430.25
469.804	431.25
470.023	438.25
470.243	459.25
470.462	431.25
470.681	457.25
470.901	443.25
471.12	443.25
471.339	444.25
471.558	432.25
471.777	449.25
471.997	426.25
472.216	448.25
472.435	484.25
472.654	454.25
472.873	426.25
473.092	446.25
473.311	436.25
473.53	427.25
473.749	438.25
473.968	495.25
474.187	556.25
474.406	599.25
474.625	478.25
474.844	458.25
475.063	446.25
475.282	440.25
475.501	438.25
475.72	435.25
475.939	421.25
476.158	452.25
476.377	450.25
476.596	470.25
476.814	470.25
477.033	472.25
477.252	483.25
477.471	478.25
477.69	469.25
477.908	471.25
478.127	471.25
478.346	476.25
478.564	476.25
478.783	499.25
479.002	485.25
479.22	491.25
479.439	510.25
479.658	514.25
479.876	527.25
480.095	504.25
480.313	565.25
480.532	542.25
480.751	529.25
480.969	532.25
481.188	567.25
481.406	576.25
481.624	554.25
481.843	520.25
482.061	515.25
482.28	514.25
482.498	523.25
482.717	503.25
482.935	512.25
483.153	518.25
483.372	527.25
483.59	516.25
483.808	509.25
484.027	500.25
484.245	510.25
484.463	510.25
484.681	546.25
484.9	536.25
485.118	552.25
485.336	517.25
485.554	540.25
485.772	535.25
485.99	527.25
486.209	526.25
486.427	524.25
486.645	531.25
486.863	583.25
487.081	555.25
487.299	554.25
487.517	563.25
487.735	567.25
487.953	580.25
488.171	579.25
488.389	580.25
488.607	574.25
488.825	564.25
489.043	557.25
489.261	578.25
489.479	592.25
489.696	587.25
489.914	560.25
490.132	559.25
490.35	587.25
490.568	584.25
490.786	608.25
491.003	598.25
491.221	615.25
491.439	626.25
491.657	626.25
491.874	642.25
492.092	637.25
492.31	681.25
492.527	653.25
492.745	678.25
492.963	655.25
493.18	687.25
493.398	667.25
493.615	663.25
493.833	688.25
494.05	664.25
494.268	674.25
494.485	670.25
494.703	667.25
494.92	675.25
495.138	697.25
495.355	662.25
495.573	678.25
495.79	656.25
496.008	690.25
496.225	662.25
496.442	654.25
496.66	692.25
496.877	672.25
497.094	698.25
497.312	687.25
497.529	690.25
497.746	697.25
497.963	720.25
498.181	729.25
498.398	722.25
498.615	732.25
498.832	735.25
499.049	741.25
499.267	759.25
499.484	773.25
499.701	779.25
499.918	800.25
500.135	842.25
500.352	871.25
500.569	879.25
500.786	831.25
501.003	843.25
501.22	852.25
501.437	818.25
501.654	820.25
