Data from 1971.PennyLincolnUp.Lamp.En5.5.200Scan.071719.P1.Scan 2. Changed Angle._HRD10591_15-24-59-843.txt Node
Date: Thu Jul 18 15:24:59 EDT 2019
User: cochatt
Spectrometer: HR+D1059
Trigger mode: 1
Integration Time (sec): 1.000000E-1
Scans to average: 1
Electric dark correction enabled: true
Nonlinearity correction enabled: false
Boxcar width: 0
XAxis mode: Wavelengths
Number of Pixels in Spectrum: 2048
>>>>>Begin Spectral Data<<<<<
223.165	-12.12
223.4	-12.12
223.635	-12.12
223.869	-26.12
224.104	-21.12
224.338	-16.12
224.573	-21.12
224.808	-3.12
225.042	-12.12
225.277	3.88
225.511	10.88
225.746	4.88
225.98	1.88
226.215	7.88
226.449	6.88
226.683	15.88
226.918	29.88
227.152	29.88
227.387	36.88
227.621	33.88
227.856	39.88
228.09	49.88
228.324	45.88
228.559	54.88
228.793	70.88
229.027	101.88
229.262	121.88
229.496	130.88
229.73	148.88
229.964	188.88
230.199	157.88
230.433	136.88
230.667	124.88
230.901	118.88
231.136	118.88
231.37	114.88
231.604	116.88
231.838	116.88
232.072	118.88
232.306	111.88
232.541	127.88
232.775	124.88
233.009	112.88
233.243	113.88
233.477	116.88
233.711	124.88
233.945	129.88
234.179	132.88
234.413	114.88
234.647	125.88
234.881	122.88
235.115	113.88
235.349	122.88
235.583	133.88
235.817	116.88
236.051	124.88
236.285	126.88
236.519	139.88
236.753	146.88
236.987	158.88
237.221	204.88
237.455	281.88
237.689	209.88
237.922	153.88
238.156	146.88
238.39	137.88
238.624	125.88
238.858	134.88
239.091	133.88
239.325	124.88
239.559	131.88
239.793	148.88
240.027	135.88
240.26	157.88
240.494	184.88
240.728	176.88
240.961	154.88
241.195	162.88
241.429	140.88
241.662	136.88
241.896	147.88
242.13	141.88
242.363	135.88
242.597	136.88
242.83	132.88
243.064	144.88
243.298	154.88
243.531	152.88
243.765	134.88
243.998	156.88
244.232	152.88
244.465	151.88
244.699	148.88
244.932	141.88
245.166	160.88
245.399	144.88
245.633	160.88
245.866	144.88
246.099	153.88
246.333	165.88
246.566	162.88
246.8	153.88
247.033	160.88
247.266	177.88
247.5	180.88
247.733	188.88
247.966	188.88
248.2	181.88
248.433	180.88
248.666	177.88
248.899	184.88
249.133	213.88
249.366	225.88
249.599	228.88
249.832	203.88
250.066	177.88
250.299	185.88
250.532	213.88
250.765	234.88
250.998	254.88
251.231	256.88
251.465	236.88
251.698	212.88
251.931	226.88
252.164	202.88
252.397	226.88
252.63	230.88
252.863	216.88
253.096	246.88
253.329	267.88
253.562	246.88
253.795	241.88
254.028	225.88
254.261	241.88
254.494	266.88
254.727	279.88
254.96	326.88
255.193	322.88
255.426	283.88
255.659	271.88
255.892	271.88
256.124	265.88
256.357	268.88
256.59	260.88
256.823	226.88
257.056	255.88
257.289	228.88
257.521	224.88
257.754	220.88
257.987	225.88
258.22	223.88
258.452	250.88
258.685	219.88
258.918	228.88
259.151	206.88
259.383	232.88
259.616	247.88
259.849	252.88
260.081	258.88
260.314	267.88
260.547	286.88
260.779	265.88
261.012	245.88
261.244	256.88
261.477	246.88
261.71	249.88
261.942	246.88
262.175	256.88
262.407	247.88
262.64	213.88
262.872	218.88
263.105	226.88
263.337	213.88
263.57	217.88
263.802	212.88
264.035	231.88
264.267	215.88
264.499	220.88
264.732	222.88
264.964	214.88
265.197	238.88
265.429	220.88
265.661	233.88
265.894	210.88
266.126	227.88
266.358	227.88
266.591	224.88
266.823	218.88
267.055	227.88
267.287	252.88
267.52	239.88
267.752	247.88
267.984	231.88
268.216	246.88
268.448	233.88
268.681	263.88
268.913	276.88
269.145	273.88
269.377	285.88
269.609	288.88
269.841	288.88
270.073	306.88
270.306	311.88
270.538	348.88
270.77	354.88
271.002	327.88
271.234	317.88
271.466	334.88
271.698	338.88
271.93	329.88
272.162	339.88
272.394	356.88
272.626	359.88
272.858	329.88
273.09	291.88
273.322	293.88
273.553	271.88
273.785	281.88
274.017	281.88
274.249	287.88
274.481	286.88
274.713	272.88
274.945	283.88
275.176	300.88
275.408	299.88
275.64	261.88
275.872	273.88
276.104	270.88
276.335	266.88
276.567	286.88
276.799	300.88
277.031	327.88
277.262	350.88
277.494	338.88
277.726	328.88
277.957	315.88
278.189	311.88
278.421	289.88
278.652	294.88
278.884	284.88
279.115	263.88
279.347	270.88
279.579	263.88
279.81	272.88
280.042	267.88
280.273	280.88
280.505	269.88
280.736	264.88
280.968	266.88
281.199	230.88
281.431	247.88
281.662	260.88
281.894	266.88
282.125	284.88
282.356	310.88
282.588	328.88
282.819	329.88
283.051	298.88
283.282	281.88
283.513	264.88
283.745	282.88
283.976	294.88
284.207	288.88
284.439	266.88
284.67	272.88
284.901	263.88
285.132	287.88
285.364	261.88
285.595	270.88
285.826	284.88
286.057	272.88
286.288	298.88
286.52	297.88
286.751	287.88
286.982	281.88
287.213	273.88
287.444	288.88
287.675	288.88
287.906	310.88
288.138	290.88
288.369	286.88
288.6	311.88
288.831	321.88
289.062	296.88
289.293	302.88
289.524	284.88
289.755	281.88
289.986	294.88
290.217	280.88
290.448	276.88
290.679	293.88
290.91	258.88
291.141	300.88
291.371	288.88
291.602	288.88
291.833	284.88
292.064	291.88
292.295	287.88
292.526	287.88
292.757	296.88
292.987	293.88
293.218	288.88
293.449	292.88
293.68	252.88
293.91	270.88
294.141	289.88
294.372	282.88
294.603	275.88
294.833	302.88
295.064	276.88
295.295	286.88
295.525	296.88
295.756	287.88
295.987	294.88
296.217	336.88
296.448	321.88
296.679	317.88
296.909	320.88
297.14	307.88
297.37	310.88
297.601	302.88
297.831	317.88
298.062	295.88
298.292	286.88
298.523	304.88
298.753	285.88
298.984	322.88
299.214	295.88
299.445	286.88
299.675	302.88
299.905	308.88
300.136	314.88
300.366	299.88
300.597	305.88
300.827	326.88
301.057	335.88
301.288	328.88
301.518	326.88
301.748	317.88
301.979	318.88
302.209	329.88
302.439	317.88
302.669	322.88
302.9	307.88
303.13	313.88
303.36	318.88
303.59	313.88
303.82	332.88
304.051	330.88
304.281	326.88
304.511	308.88
304.741	318.88
304.971	332.88
305.201	330.88
305.431	316.88
305.661	349.88
305.891	328.88
306.121	318.88
306.352	321.88
306.582	337.88
306.812	336.88
307.042	311.88
307.272	328.88
307.502	330.88
307.731	329.88
307.961	332.88
308.191	336.88
308.421	326.88
308.651	345.88
308.881	341.88
309.111	343.88
309.341	332.88
309.571	381.88
309.8	393.88
310.03	382.88
310.26	393.88
310.49	383.88
310.72	398.88
310.949	415.88
311.179	421.88
311.409	401.88
311.639	404.88
311.868	377.88
312.098	406.88
312.328	408.88
312.557	433.88
312.787	454.88
313.017	437.88
313.246	431.88
313.476	401.88
313.706	382.88
313.935	413.88
314.165	434.88
314.394	421.88
314.624	428.88
314.853	396.88
315.083	404.88
315.312	385.88
315.542	369.88
315.771	370.88
316.001	367.88
316.23	382.88
316.46	380.88
316.689	396.88
316.919	399.88
317.148	393.88
317.377	391.88
317.607	397.88
317.836	398.88
318.065	391.88
318.295	382.88
318.524	410.88
318.753	379.88
318.983	398.88
319.212	371.88
319.441	391.88
319.67	404.88
319.9	386.88
320.129	388.88
320.358	410.88
320.587	418.88
320.816	414.88
321.046	444.88
321.275	420.88
321.504	428.88
321.733	436.88
321.962	422.88
322.191	460.88
322.42	472.88
322.649	497.88
322.878	505.88
323.108	515.88
323.337	545.88
323.566	572.88
323.795	634.88
324.024	680.88
324.253	860.88
324.482	1258.88
324.71	1980.88
324.939	2829.88
325.168	2424.88
325.397	1265.88
325.626	821.88
325.855	661.88
326.084	596.88
326.313	583.88
326.542	596.88
326.77	656.88
326.999	758.88
327.228	1093.88
327.457	1719.88
327.686	2084.88
327.914	1425.88
328.143	898.88
328.372	764.88
328.6	701.88
328.829	664.88
329.058	668.88
329.287	688.88
329.515	633.88
329.744	585.88
329.972	575.88
330.201	614.88
330.43	642.88
330.658	680.88
330.887	734.88
331.115	695.88
331.344	596.88
331.572	519.88
331.801	540.88
332.03	537.88
332.258	499.88
332.486	497.88
332.715	492.88
332.943	487.88
333.172	488.88
333.4	498.88
333.629	476.88
333.857	505.88
334.085	512.88
334.314	524.88
334.542	546.88
334.771	594.88
334.999	548.88
335.227	537.88
335.455	497.88
335.684	465.88
335.912	466.88
336.14	457.88
336.369	464.88
336.597	476.88
336.825	480.88
337.053	450.88
337.281	448.88
337.51	471.88
337.738	459.88
337.966	476.88
338.194	458.88
338.422	440.88
338.65	447.88
338.878	468.88
339.106	456.88
339.334	430.88
339.562	472.88
339.79	440.88
340.018	448.88
340.246	453.88
340.474	438.88
340.702	447.88
340.93	448.88
341.158	457.88
341.386	456.88
341.614	458.88
341.842	437.88
342.07	432.88
342.298	439.88
342.526	424.88
342.754	425.88
342.981	441.88
343.209	436.88
343.437	435.88
343.665	424.88
343.893	436.88
344.12	475.88
344.348	461.88
344.576	464.88
344.804	457.88
345.031	484.88
345.259	473.88
345.487	462.88
345.714	460.88
345.942	418.88
346.17	430.88
346.397	451.88
346.625	441.88
346.853	441.88
347.08	430.88
347.308	440.88
347.535	453.88
347.763	469.88
347.99	449.88
348.218	455.88
348.445	454.88
348.673	456.88
348.9	465.88
349.128	430.88
349.355	419.88
349.583	436.88
349.81	428.88
350.037	430.88
350.265	423.88
350.492	436.88
350.72	445.88
350.947	431.88
351.174	450.88
351.402	473.88
351.629	442.88
351.856	457.88
352.083	451.88
352.311	467.88
352.538	474.88
352.765	501.88
352.992	443.88
353.22	469.88
353.447	440.88
353.674	420.88
353.901	406.88
354.128	432.88
354.355	412.88
354.583	438.88
354.81	411.88
355.037	404.88
355.264	392.88
355.491	401.88
355.718	418.88
355.945	408.88
356.172	413.88
356.399	386.88
356.626	380.88
356.853	389.88
357.08	421.88
357.307	392.88
357.534	380.88
357.761	412.88
357.988	413.88
358.215	428.88
358.441	396.88
358.668	413.88
358.895	433.88
359.122	406.88
359.349	446.88
359.576	473.88
359.802	469.88
360.029	513.88
360.256	534.88
360.483	485.88
360.709	450.88
360.936	446.88
361.163	446.88
361.39	450.88
361.616	462.88
361.843	436.88
362.07	438.88
362.296	452.88
362.523	428.88
362.749	445.88
362.976	434.88
363.203	454.88
363.429	424.88
363.656	446.88
363.882	420.88
364.109	425.88
364.335	424.88
364.562	428.88
364.788	442.88
365.015	435.88
365.241	429.88
365.468	414.88
365.694	438.88
365.92	459.88
366.147	416.88
366.373	420.88
366.599	418.88
366.826	413.88
367.052	413.88
367.278	421.88
367.505	431.88
367.731	431.88
367.957	434.88
368.184	451.88
368.41	432.88
368.636	458.88
368.862	449.88
369.089	456.88
369.315	441.88
369.541	421.88
369.767	441.88
369.993	432.88
370.219	419.88
370.445	421.88
370.672	409.88
370.898	415.88
371.124	416.88
371.35	412.88
371.576	414.88
371.802	416.88
372.028	401.88
372.254	412.88
372.48	427.88
372.706	419.88
372.932	396.88
373.158	421.88
373.384	428.88
373.61	412.88
373.835	410.88
374.061	412.88
374.287	451.88
374.513	432.88
374.739	421.88
374.965	437.88
375.191	426.88
375.416	435.88
375.642	420.88
375.868	428.88
376.094	444.88
376.319	431.88
376.545	414.88
376.771	429.88
376.997	408.88
377.222	420.88
377.448	397.88
377.674	415.88
377.899	404.88
378.125	395.88
378.35	414.88
378.576	416.88
378.802	437.88
379.027	403.88
379.253	415.88
379.478	408.88
379.704	420.88
379.929	423.88
380.155	433.88
380.38	412.88
380.606	413.88
380.831	450.88
381.057	419.88
381.282	421.88
381.507	439.88
381.733	430.88
381.958	440.88
382.184	415.88
382.409	432.88
382.634	432.88
382.86	425.88
383.085	417.88
383.31	430.88
383.535	443.88
383.761	434.88
383.986	424.88
384.211	437.88
384.436	422.88
384.662	437.88
384.887	441.88
385.112	451.88
385.337	432.88
385.562	448.88
385.787	445.88
386.013	462.88
386.238	482.88
386.463	459.88
386.688	461.88
386.913	464.88
387.138	451.88
387.363	459.88
387.588	456.88
387.813	457.88
388.038	441.88
388.263	454.88
388.488	446.88
388.713	455.88
388.938	451.88
389.163	453.88
389.387	454.88
389.612	464.88
389.837	473.88
390.062	443.88
390.287	472.88
390.512	458.88
390.736	437.88
390.961	449.88
391.186	434.88
391.411	455.88
391.636	447.88
391.86	453.88
392.085	458.88
392.31	460.88
392.534	474.88
392.759	464.88
392.984	460.88
393.208	456.88
393.433	457.88
393.658	444.88
393.882	465.88
394.107	474.88
394.331	473.88
394.556	459.88
394.78	470.88
395.005	451.88
395.229	448.88
395.454	468.88
395.678	478.88
395.903	482.88
396.127	490.88
396.352	509.88
396.576	511.88
396.801	470.88
397.025	496.88
397.249	486.88
397.474	481.88
397.698	474.88
397.922	498.88
398.147	502.88
398.371	550.88
398.595	513.88
398.82	497.88
399.044	542.88
399.268	548.88
399.492	535.88
399.717	553.88
399.941	593.88
400.165	632.88
400.389	648.88
400.613	601.88
400.837	552.88
401.062	543.88
401.286	523.88
401.51	526.88
401.734	517.88
401.958	511.88
402.182	551.88
402.406	545.88
402.63	532.88
402.854	530.88
403.078	546.88
403.302	559.88
403.526	564.88
403.75	548.88
403.974	543.88
404.198	525.88
404.422	552.88
404.645	572.88
404.869	581.88
405.093	606.88
405.317	644.88
405.541	686.88
405.765	641.88
405.988	569.88
406.212	596.88
406.436	632.88
406.66	621.88
406.883	614.88
407.107	632.88
407.331	691.88
407.555	735.88
407.778	694.88
408.002	670.88
408.226	624.88
408.449	595.88
408.673	617.88
408.896	632.88
409.12	699.88
409.344	649.88
409.567	605.88
409.791	572.88
410.014	553.88
410.238	574.88
410.461	583.88
410.685	569.88
410.908	589.88
411.132	607.88
411.355	657.88
411.578	642.88
411.802	559.88
412.025	568.88
412.249	549.88
412.472	594.88
412.695	624.88
412.919	649.88
413.142	581.88
413.365	541.88
413.589	534.88
413.812	531.88
414.035	531.88
414.258	557.88
414.482	521.88
414.705	521.88
414.928	510.88
415.151	498.88
415.374	529.88
415.597	511.88
415.821	512.88
416.044	510.88
416.267	544.88
416.49	526.88
416.713	516.88
416.936	531.88
417.159	533.88
417.382	548.88
417.605	546.88
417.828	558.88
418.051	566.88
418.274	563.88
418.497	557.88
418.72	549.88
418.943	532.88
419.166	552.88
419.389	580.88
419.611	568.88
419.834	565.88
420.057	587.88
420.28	580.88
420.503	573.88
420.726	577.88
420.948	581.88
421.171	638.88
421.394	669.88
421.617	618.88
421.839	589.88
422.062	569.88
422.285	588.88
422.507	642.88
422.73	766.88
422.953	701.88
423.175	635.88
423.398	593.88
423.621	597.88
423.843	625.88
424.066	606.88
424.288	625.88
424.511	641.88
424.733	708.88
424.956	788.88
425.178	779.88
425.401	750.88
425.623	799.88
425.846	688.88
426.068	638.88
426.291	635.88
426.513	616.88
426.735	653.88
426.958	714.88
427.18	770.88
427.402	929.88
427.625	1030.88
427.847	930.88
428.069	842.88
428.292	713.88
428.514	636.88
428.736	638.88
428.958	626.88
429.181	585.88
429.403	579.88
429.625	593.88
429.847	636.88
430.069	728.88
430.292	708.88
430.514	624.88
430.736	593.88
430.958	548.88
431.18	569.88
431.402	573.88
431.624	515.88
431.846	528.88
432.068	521.88
432.29	522.88
432.512	527.88
432.734	529.88
432.956	533.88
433.178	582.88
433.4	584.88
433.622	566.88
433.844	574.88
434.066	548.88
434.287	533.88
434.509	549.88
434.731	556.88
434.953	574.88
435.175	586.88
435.397	648.88
435.618	639.88
435.84	679.88
436.062	789.88
436.284	859.88
436.505	723.88
436.727	631.88
436.949	591.88
437.17	599.88
437.392	593.88
437.614	632.88
437.835	671.88
438.057	781.88
438.278	904.88
438.5	881.88
438.721	959.88
438.943	905.88
439.165	728.88
439.386	674.88
439.608	658.88
439.829	681.88
440.05	738.88
440.272	756.88
440.493	682.88
440.715	665.88
440.936	621.88
441.158	601.88
441.379	597.88
441.6	627.88
441.822	634.88
442.043	677.88
442.264	757.88
442.486	814.88
442.707	709.88
442.928	671.88
443.149	657.88
443.371	678.88
443.592	737.88
443.813	845.88
444.034	890.88
444.255	748.88
444.476	651.88
444.698	628.88
444.919	629.88
445.14	783.88
445.361	686.88
445.582	709.88
445.803	795.88
446.024	911.88
446.245	924.88
446.466	840.88
446.687	713.88
446.908	630.88
447.129	607.88
447.35	605.88
447.571	611.88
447.792	600.88
448.013	612.88
448.234	640.88
448.455	700.88
448.675	846.88
448.896	922.88
449.117	814.88
449.338	764.88
449.559	862.88
449.779	968.88
450	780.88
450.221	676.88
450.442	633.88
450.662	597.88
450.883	601.88
451.104	632.88
451.324	583.88
451.545	560.88
451.766	533.88
451.986	528.88
452.207	533.88
452.428	519.88
452.648	556.88
452.869	533.88
453.089	556.88
453.31	534.88
453.53	561.88
453.751	547.88
453.971	544.88
454.192	587.88
454.412	540.88
454.633	545.88
454.853	510.88
455.073	519.88
455.294	561.88
455.514	658.88
455.734	654.88
455.955	530.88
456.175	502.88
456.395	482.88
456.616	493.88
456.836	497.88
457.056	506.88
457.276	485.88
457.497	471.88
457.717	510.88
457.937	484.88
458.157	496.88
458.377	512.88
458.598	551.88
458.818	622.88
459.038	738.88
459.258	750.88
459.478	604.88
459.698	575.88
459.918	542.88
460.138	523.88
460.358	541.88
460.578	522.88
460.798	507.88
461.018	546.88
461.238	541.88
461.458	518.88
461.678	508.88
461.898	526.88
462.118	514.88
462.338	537.88
462.558	521.88
462.777	535.88
462.997	570.88
463.217	569.88
463.437	581.88
463.657	576.88
463.876	562.88
464.096	574.88
464.316	559.88
464.536	550.88
464.755	598.88
464.975	579.88
465.195	638.88
465.414	766.88
465.634	700.88
465.854	620.88
466.073	563.88
466.293	568.88
466.512	562.88
466.732	543.88
466.951	556.88
467.171	519.88
467.391	552.88
467.61	565.88
467.829	564.88
468.049	525.88
468.268	549.88
468.488	545.88
468.707	540.88
468.927	534.88
469.146	510.88
469.365	516.88
469.585	519.88
469.804	534.88
470.023	558.88
470.243	554.88
470.462	561.88
470.681	567.88
470.901	572.88
471.12	571.88
471.339	546.88
471.558	523.88
471.777	548.88
471.997	530.88
472.216	550.88
472.435	583.88
472.654	570.88
472.873	560.88
473.092	541.88
473.311	530.88
473.53	542.88
473.749	566.88
473.968	619.88
474.187	735.88
474.406	776.88
474.625	632.88
474.844	574.88
475.063	544.88
475.282	557.88
475.501	556.88
475.72	560.88
475.939	552.88
476.158	569.88
476.377	565.88
476.596	561.88
476.814	578.88
477.033	587.88
477.252	602.88
477.471	594.88
477.69	572.88
477.908	595.88
478.127	572.88
478.346	585.88
478.564	596.88
478.783	606.88
479.002	615.88
479.22	625.88
479.439	622.88
479.658	648.88
479.876	663.88
480.095	675.88
480.313	691.88
480.532	672.88
480.751	665.88
480.969	665.88
481.188	754.88
481.406	815.88
481.624	700.88
481.843	692.88
482.061	646.88
482.28	651.88
482.498	621.88
482.717	654.88
482.935	629.88
483.153	638.88
483.372	681.88
483.59	658.88
483.808	669.88
484.027	651.88
484.245	663.88
484.463	647.88
484.681	663.88
484.9	664.88
485.118	645.88
485.336	674.88
485.554	670.88
485.772	687.88
485.99	663.88
486.209	701.88
486.427	692.88
486.645	717.88
486.863	732.88
487.081	714.88
487.299	733.88
487.517	709.88
487.735	710.88
487.953	729.88
488.171	713.88
488.389	706.88
488.607	715.88
488.825	705.88
489.043	703.88
489.261	714.88
489.479	717.88
489.696	740.88
489.914	732.88
490.132	734.88
490.35	756.88
490.568	762.88
490.786	798.88
491.003	771.88
491.221	797.88
491.439	816.88
491.657	830.88
491.874	798.88
492.092	849.88
492.31	857.88
492.527	831.88
492.745	855.88
492.963	860.88
493.18	851.88
493.398	841.88
493.615	845.88
493.833	872.88
494.05	857.88
494.268	850.88
494.485	845.88
494.703	868.88
494.92	851.88
495.138	861.88
495.355	860.88
495.573	857.88
495.79	864.88
496.008	851.88
496.225	869.88
496.442	855.88
496.66	850.88
496.877	838.88
497.094	855.88
497.312	867.88
497.529	883.88
497.746	896.88
497.963	896.88
498.181	915.88
498.398	908.88
498.615	919.88
498.832	957.88
499.049	901.88
499.267	922.88
499.484	943.88
499.701	964.88
499.918	998.88
500.135	1008.88
500.352	1005.88
500.569	1048.88
500.786	1022.88
501.003	1057.88
501.22	1034.88
501.437	1011.88
