Data from 1971.PennyLincolnUp.Lamp.En5.5.200Scan.071719.P1.Scan 2. Changed Angle._HRD10591_15-24-43-842.txt Node
Date: Thu Jul 18 15:24:43 EDT 2019
User: cochatt
Spectrometer: HR+D1059
Trigger mode: 1
Integration Time (sec): 1.000000E-1
Scans to average: 1
Electric dark correction enabled: true
Nonlinearity correction enabled: false
Boxcar width: 0
XAxis mode: Wavelengths
Number of Pixels in Spectrum: 2048
>>>>>Begin Spectral Data<<<<<
223.165	-3.25
223.4	-3.25
223.635	-3.25
223.869	-18.25
224.104	-17.25
224.338	-16.25
224.573	-8.25
224.808	-20.25
225.042	-8.25
225.277	-5.25
225.511	-12.25
225.746	4.75
225.98	-1.25
226.215	14.75
226.449	14.75
226.683	25.75
226.918	20.75
227.152	29.75
227.387	37.75
227.621	44.75
227.856	54.75
228.09	34.75
228.324	62.75
228.559	61.75
228.793	69.75
229.027	122.75
229.262	111.75
229.496	150.75
229.73	135.75
229.964	193.75
230.199	148.75
230.433	146.75
230.667	133.75
230.901	137.75
231.136	127.75
231.37	111.75
231.604	128.75
231.838	120.75
232.072	125.75
232.306	132.75
232.541	125.75
232.775	115.75
233.009	100.75
233.243	130.75
233.477	124.75
233.711	126.75
233.945	133.75
234.179	126.75
234.413	120.75
234.647	131.75
234.881	130.75
235.115	125.75
235.349	128.75
235.583	116.75
235.817	143.75
236.051	145.75
236.285	146.75
236.519	130.75
236.753	151.75
236.987	182.75
237.221	207.75
237.455	312.75
237.689	222.75
237.922	178.75
238.156	142.75
238.39	147.75
238.624	155.75
238.858	123.75
239.091	148.75
239.325	141.75
239.559	141.75
239.793	163.75
240.027	148.75
240.26	157.75
240.494	182.75
240.728	180.75
240.961	164.75
241.195	165.75
241.429	146.75
241.662	158.75
241.896	153.75
242.13	143.75
242.363	148.75
242.597	140.75
242.83	156.75
243.064	155.75
243.298	149.75
243.531	151.75
243.765	155.75
243.998	156.75
244.232	142.75
244.465	151.75
244.699	147.75
244.932	161.75
245.166	162.75
245.399	156.75
245.633	166.75
245.866	161.75
246.099	156.75
246.333	156.75
246.566	163.75
246.8	172.75
247.033	182.75
247.266	166.75
247.5	178.75
247.733	182.75
247.966	200.75
248.2	183.75
248.433	195.75
248.666	180.75
248.899	213.75
249.133	218.75
249.366	246.75
249.599	230.75
249.832	194.75
250.066	202.75
250.299	196.75
250.532	218.75
250.765	233.75
250.998	247.75
251.231	270.75
251.465	260.75
251.698	233.75
251.931	225.75
252.164	231.75
252.397	218.75
252.63	211.75
252.863	239.75
253.096	239.75
253.329	265.75
253.562	280.75
253.795	253.75
254.028	266.75
254.261	258.75
254.494	265.75
254.727	298.75
254.96	330.75
255.193	321.75
255.426	286.75
255.659	276.75
255.892	253.75
256.124	249.75
256.357	268.75
256.59	271.75
256.823	235.75
257.056	237.75
257.289	242.75
257.521	240.75
257.754	232.75
257.987	237.75
258.22	220.75
258.452	216.75
258.685	239.75
258.918	251.75
259.151	233.75
259.383	237.75
259.616	255.75
259.849	251.75
260.081	269.75
260.314	271.75
260.547	274.75
260.779	293.75
261.012	249.75
261.244	257.75
261.477	247.75
261.71	240.75
261.942	267.75
262.175	275.75
262.407	254.75
262.64	246.75
262.872	232.75
263.105	230.75
263.337	245.75
263.57	238.75
263.802	220.75
264.035	234.75
264.267	241.75
264.499	229.75
264.732	222.75
264.964	237.75
265.197	227.75
265.429	223.75
265.661	214.75
265.894	236.75
266.126	227.75
266.358	226.75
266.591	224.75
266.823	220.75
267.055	234.75
267.287	240.75
267.52	252.75
267.752	231.75
267.984	243.75
268.216	235.75
268.448	238.75
268.681	252.75
268.913	265.75
269.145	273.75
269.377	295.75
269.609	296.75
269.841	297.75
270.073	303.75
270.306	310.75
270.538	360.75
270.77	362.75
271.002	357.75
271.234	328.75
271.466	344.75
271.698	332.75
271.93	336.75
272.162	363.75
272.394	357.75
272.626	348.75
272.858	319.75
273.09	303.75
273.322	297.75
273.553	299.75
273.785	276.75
274.017	281.75
274.249	291.75
274.481	308.75
274.713	279.75
274.945	295.75
275.176	288.75
275.408	293.75
275.64	291.75
275.872	282.75
276.104	277.75
276.335	273.75
276.567	290.75
276.799	308.75
277.031	323.75
277.262	358.75
277.494	349.75
277.726	336.75
277.957	323.75
278.189	285.75
278.421	281.75
278.652	297.75
278.884	306.75
279.115	294.75
279.347	286.75
279.579	268.75
279.81	277.75
280.042	291.75
280.273	261.75
280.505	275.75
280.736	276.75
280.968	296.75
281.199	282.75
281.431	270.75
281.662	294.75
281.894	276.75
282.125	284.75
282.356	298.75
282.588	334.75
282.819	343.75
283.051	280.75
283.282	268.75
283.513	276.75
283.745	282.75
283.976	283.75
284.207	276.75
284.439	278.75
284.67	268.75
284.901	306.75
285.132	274.75
285.364	281.75
285.595	268.75
285.826	281.75
286.057	287.75
286.288	285.75
286.52	275.75
286.751	275.75
286.982	290.75
287.213	285.75
287.444	300.75
287.675	296.75
287.906	290.75
288.138	307.75
288.369	305.75
288.6	307.75
288.831	294.75
289.062	297.75
289.293	285.75
289.524	289.75
289.755	289.75
289.986	279.75
290.217	275.75
290.448	287.75
290.679	303.75
290.91	271.75
291.141	291.75
291.371	292.75
291.602	282.75
291.833	289.75
292.064	294.75
292.295	295.75
292.526	293.75
292.757	286.75
292.987	292.75
293.218	280.75
293.449	294.75
293.68	291.75
293.91	300.75
294.141	275.75
294.372	286.75
294.603	294.75
294.833	278.75
295.064	312.75
295.295	294.75
295.525	274.75
295.756	296.75
295.987	316.75
296.217	333.75
296.448	363.75
296.679	323.75
296.909	314.75
297.14	291.75
297.37	310.75
297.601	305.75
297.831	298.75
298.062	309.75
298.292	301.75
298.523	304.75
298.753	308.75
298.984	313.75
299.214	310.75
299.445	319.75
299.675	322.75
299.905	317.75
300.136	330.75
300.366	312.75
300.597	319.75
300.827	310.75
301.057	303.75
301.288	327.75
301.518	329.75
301.748	324.75
301.979	330.75
302.209	319.75
302.439	347.75
302.669	336.75
302.9	334.75
303.13	331.75
303.36	326.75
303.59	317.75
303.82	347.75
304.051	348.75
304.281	333.75
304.511	324.75
304.741	328.75
304.971	318.75
305.201	320.75
305.431	316.75
305.661	328.75
305.891	324.75
306.121	323.75
306.352	346.75
306.582	355.75
306.812	337.75
307.042	317.75
307.272	352.75
307.502	338.75
307.731	348.75
307.961	332.75
308.191	353.75
308.421	349.75
308.651	331.75
308.881	351.75
309.111	343.75
309.341	354.75
309.571	383.75
309.8	386.75
310.03	395.75
310.26	398.75
310.49	393.75
310.72	414.75
310.949	440.75
311.179	447.75
311.409	400.75
311.639	415.75
311.868	430.75
312.098	401.75
312.328	402.75
312.557	414.75
312.787	452.75
313.017	441.75
313.246	414.75
313.476	393.75
313.706	404.75
313.935	391.75
314.165	431.75
314.394	444.75
314.624	448.75
314.853	415.75
315.083	415.75
315.312	406.75
315.542	388.75
315.771	382.75
316.001	376.75
316.23	364.75
316.46	386.75
316.689	399.75
316.919	400.75
317.148	427.75
317.377	423.75
317.607	425.75
317.836	408.75
318.065	403.75
318.295	399.75
318.524	412.75
318.753	397.75
318.983	400.75
319.212	413.75
319.441	434.75
319.67	400.75
319.9	398.75
320.129	394.75
320.358	414.75
320.587	408.75
320.816	408.75
321.046	412.75
321.275	430.75
321.504	405.75
321.733	437.75
321.962	430.75
322.191	443.75
322.42	484.75
322.649	496.75
322.878	524.75
323.108	511.75
323.337	545.75
323.566	591.75
323.795	608.75
324.024	712.75
324.253	857.75
324.482	1306.75
324.71	2034.75
324.939	2916.75
325.168	2463.75
325.397	1264.75
325.626	822.75
325.855	680.75
326.084	602.75
326.313	595.75
326.542	609.75
326.77	659.75
326.999	782.75
327.228	1100.75
327.457	1752.75
327.686	2200.75
327.914	1423.75
328.143	917.75
328.372	771.75
328.6	726.75
328.829	668.75
329.058	706.75
329.287	708.75
329.515	662.75
329.744	595.75
329.972	590.75
330.201	628.75
330.43	674.75
330.658	709.75
330.887	763.75
331.115	751.75
331.344	627.75
331.572	539.75
331.801	576.75
332.03	568.75
332.258	545.75
332.486	503.75
332.715	466.75
332.943	505.75
333.172	468.75
333.4	492.75
333.629	479.75
333.857	518.75
334.085	532.75
334.314	517.75
334.542	590.75
334.771	603.75
334.999	533.75
335.227	520.75
335.455	471.75
335.684	469.75
335.912	447.75
336.14	451.75
336.369	450.75
336.597	482.75
336.825	485.75
337.053	475.75
337.281	438.75
337.51	474.75
337.738	443.75
337.966	472.75
338.194	463.75
338.422	466.75
338.65	452.75
338.878	473.75
339.106	445.75
339.334	444.75
339.562	470.75
339.79	439.75
340.018	446.75
340.246	463.75
340.474	472.75
340.702	465.75
340.93	473.75
341.158	439.75
341.386	463.75
341.614	431.75
341.842	453.75
342.07	468.75
342.298	460.75
342.526	426.75
342.754	432.75
342.981	432.75
343.209	422.75
343.437	430.75
343.665	447.75
343.893	431.75
344.12	452.75
344.348	468.75
344.576	445.75
344.804	457.75
345.031	477.75
345.259	486.75
345.487	462.75
345.714	463.75
345.942	446.75
346.17	443.75
346.397	438.75
346.625	444.75
346.853	443.75
347.08	457.75
347.308	481.75
347.535	469.75
347.763	445.75
347.99	449.75
348.218	476.75
348.445	474.75
348.673	462.75
348.9	442.75
349.128	431.75
349.355	441.75
349.583	444.75
349.81	434.75
350.037	426.75
350.265	429.75
350.492	428.75
350.72	453.75
350.947	456.75
351.174	455.75
351.402	447.75
351.629	453.75
351.856	454.75
352.083	470.75
352.311	461.75
352.538	468.75
352.765	489.75
352.992	478.75
353.22	475.75
353.447	458.75
353.674	430.75
353.901	419.75
354.128	409.75
354.355	436.75
354.583	436.75
354.81	415.75
355.037	416.75
355.264	402.75
355.491	399.75
355.718	416.75
355.945	403.75
356.172	396.75
356.399	410.75
356.626	394.75
356.853	418.75
357.08	400.75
357.307	402.75
357.534	384.75
357.761	410.75
357.988	414.75
358.215	421.75
358.441	413.75
358.668	415.75
358.895	424.75
359.122	436.75
359.349	435.75
359.576	463.75
359.802	503.75
360.029	524.75
360.256	542.75
360.483	506.75
360.709	471.75
360.936	455.75
361.163	439.75
361.39	484.75
361.616	470.75
361.843	455.75
362.07	461.75
362.296	468.75
362.523	460.75
362.749	465.75
362.976	444.75
363.203	439.75
363.429	449.75
363.656	460.75
363.882	426.75
364.109	452.75
364.335	439.75
364.562	441.75
364.788	414.75
365.015	410.75
365.241	426.75
365.468	435.75
365.694	447.75
365.92	453.75
366.147	461.75
366.373	427.75
366.599	437.75
366.826	423.75
367.052	428.75
367.278	455.75
367.505	432.75
367.731	442.75
367.957	427.75
368.184	448.75
368.41	440.75
368.636	452.75
368.862	456.75
369.089	424.75
369.315	425.75
369.541	442.75
369.767	415.75
369.993	450.75
370.219	422.75
370.445	423.75
370.672	431.75
370.898	432.75
371.124	426.75
371.35	427.75
371.576	426.75
371.802	438.75
372.028	418.75
372.254	419.75
372.48	422.75
372.706	407.75
372.932	408.75
373.158	425.75
373.384	452.75
373.61	410.75
373.835	422.75
374.061	442.75
374.287	423.75
374.513	440.75
374.739	427.75
374.965	432.75
375.191	419.75
375.416	409.75
375.642	428.75
375.868	437.75
376.094	419.75
376.319	423.75
376.545	434.75
376.771	412.75
376.997	417.75
377.222	420.75
377.448	418.75
377.674	422.75
377.899	399.75
378.125	410.75
378.35	422.75
378.576	410.75
378.802	404.75
379.027	418.75
379.253	416.75
379.478	422.75
379.704	439.75
379.929	430.75
380.155	411.75
380.38	440.75
380.606	440.75
380.831	426.75
381.057	414.75
381.282	412.75
381.507	436.75
381.733	426.75
381.958	415.75
382.184	422.75
382.409	419.75
382.634	438.75
382.86	415.75
383.085	444.75
383.31	437.75
383.535	455.75
383.761	443.75
383.986	444.75
384.211	446.75
384.436	450.75
384.662	443.75
384.887	448.75
385.112	446.75
385.337	431.75
385.562	454.75
385.787	434.75
386.013	470.75
386.238	470.75
386.463	480.75
386.688	470.75
386.913	458.75
387.138	456.75
387.363	480.75
387.588	471.75
387.813	463.75
388.038	450.75
388.263	450.75
388.488	461.75
388.713	455.75
388.938	465.75
389.163	470.75
389.387	478.75
389.612	445.75
389.837	483.75
390.062	444.75
390.287	477.75
390.512	452.75
390.736	463.75
390.961	456.75
391.186	470.75
391.411	465.75
391.636	471.75
391.86	459.75
392.085	485.75
392.31	459.75
392.534	489.75
392.759	456.75
392.984	438.75
393.208	482.75
393.433	463.75
393.658	469.75
393.882	459.75
394.107	457.75
394.331	468.75
394.556	461.75
394.78	476.75
395.005	490.75
395.229	465.75
395.454	460.75
395.678	501.75
395.903	485.75
396.127	494.75
396.352	526.75
396.576	500.75
396.801	486.75
397.025	493.75
397.249	510.75
397.474	485.75
397.698	504.75
397.922	530.75
398.147	526.75
398.371	515.75
398.595	523.75
398.82	506.75
399.044	520.75
399.268	518.75
399.492	539.75
399.717	557.75
399.941	612.75
400.165	638.75
400.389	644.75
400.613	596.75
400.837	592.75
401.062	563.75
401.286	548.75
401.51	526.75
401.734	529.75
401.958	529.75
402.182	547.75
402.406	548.75
402.63	552.75
402.854	550.75
403.078	547.75
403.302	549.75
403.526	549.75
403.75	548.75
403.974	553.75
404.198	552.75
404.422	550.75
404.645	578.75
404.869	559.75
405.093	612.75
405.317	648.75
405.541	673.75
405.765	630.75
405.988	594.75
406.212	609.75
406.436	623.75
406.66	630.75
406.883	618.75
407.107	661.75
407.331	699.75
407.555	760.75
407.778	776.75
408.002	675.75
408.226	642.75
408.449	617.75
408.673	632.75
408.896	640.75
409.12	703.75
409.344	654.75
409.567	591.75
409.791	592.75
410.014	587.75
410.238	580.75
410.461	564.75
410.685	596.75
410.908	607.75
411.132	639.75
411.355	640.75
411.578	603.75
411.802	570.75
412.025	584.75
412.249	571.75
412.472	607.75
412.695	643.75
412.919	614.75
413.142	600.75
413.365	536.75
413.589	536.75
413.812	533.75
414.035	527.75
414.258	526.75
414.482	540.75
414.705	524.75
414.928	526.75
415.151	508.75
415.374	514.75
415.597	542.75
415.821	535.75
416.044	518.75
416.267	553.75
416.49	552.75
416.713	516.75
416.936	524.75
417.159	532.75
417.382	547.75
417.605	578.75
417.828	570.75
418.051	572.75
418.274	585.75
418.497	532.75
418.72	525.75
418.943	532.75
419.166	581.75
419.389	578.75
419.611	552.75
419.834	558.75
420.057	572.75
420.28	576.75
420.503	580.75
420.726	586.75
420.948	589.75
421.171	655.75
421.394	684.75
421.617	624.75
421.839	581.75
422.062	593.75
422.285	580.75
422.507	681.75
422.73	754.75
422.953	748.75
423.175	640.75
423.398	624.75
423.621	636.75
423.843	666.75
424.066	632.75
424.288	601.75
424.511	646.75
424.733	736.75
424.956	834.75
425.178	793.75
425.401	801.75
425.623	790.75
425.846	705.75
426.068	652.75
426.291	628.75
426.513	651.75
426.735	639.75
426.958	706.75
427.18	788.75
427.402	972.75
427.625	1066.75
427.847	968.75
428.069	822.75
428.292	740.75
428.514	639.75
428.736	612.75
428.958	618.75
429.181	589.75
429.403	602.75
429.625	607.75
429.847	639.75
430.069	750.75
430.292	722.75
430.514	618.75
430.736	598.75
430.958	582.75
431.18	550.75
431.402	554.75
431.624	554.75
431.846	526.75
432.068	539.75
432.29	566.75
432.512	562.75
432.734	564.75
432.956	573.75
433.178	568.75
433.4	587.75
433.622	554.75
433.844	541.75
434.066	559.75
434.287	523.75
434.509	539.75
434.731	544.75
434.953	577.75
435.175	590.75
435.397	611.75
435.618	621.75
435.84	680.75
436.062	780.75
436.284	897.75
436.505	760.75
436.727	683.75
436.949	642.75
437.17	592.75
437.392	588.75
437.614	616.75
437.835	674.75
438.057	800.75
438.278	916.75
438.5	872.75
438.721	969.75
438.943	930.75
439.165	759.75
439.386	694.75
439.608	670.75
439.829	676.75
440.05	710.75
440.272	760.75
440.493	736.75
440.715	666.75
440.936	604.75
441.158	597.75
441.379	604.75
441.6	620.75
441.822	653.75
442.043	702.75
442.264	784.75
442.486	840.75
442.707	693.75
442.928	674.75
443.149	667.75
443.371	713.75
443.592	736.75
443.813	839.75
444.034	918.75
444.255	782.75
444.476	664.75
444.698	626.75
444.919	656.75
445.14	775.75
445.361	703.75
445.582	709.75
445.803	796.75
446.024	912.75
446.245	921.75
446.466	854.75
446.687	701.75
446.908	652.75
447.129	598.75
447.35	590.75
447.571	597.75
447.792	580.75
448.013	613.75
448.234	644.75
448.455	702.75
448.675	811.75
448.896	910.75
449.117	836.75
449.338	751.75
449.559	884.75
449.779	990.75
450	817.75
450.221	704.75
450.442	618.75
450.662	584.75
450.883	618.75
451.104	619.75
451.324	620.75
451.545	596.75
451.766	578.75
451.986	542.75
452.207	538.75
452.428	522.75
452.648	545.75
452.869	554.75
453.089	554.75
453.31	581.75
453.53	542.75
453.751	530.75
453.971	538.75
454.192	576.75
454.412	571.75
454.633	526.75
454.853	520.75
455.073	517.75
455.294	582.75
455.514	655.75
455.734	636.75
455.955	548.75
456.175	511.75
456.395	472.75
456.616	496.75
456.836	498.75
457.056	479.75
457.276	489.75
457.497	493.75
457.717	483.75
457.937	495.75
458.157	502.75
458.377	547.75
458.598	548.75
458.818	619.75
459.038	733.75
459.258	761.75
459.478	642.75
459.698	574.75
459.918	545.75
460.138	540.75
460.358	547.75
460.578	535.75
460.798	548.75
461.018	554.75
461.238	531.75
461.458	535.75
461.678	524.75
461.898	530.75
462.118	539.75
462.338	520.75
462.558	552.75
462.777	588.75
462.997	588.75
463.217	547.75
463.437	557.75
463.657	555.75
463.876	581.75
464.096	577.75
464.316	563.75
464.536	579.75
464.755	578.75
464.975	589.75
465.195	673.75
465.414	798.75
465.634	697.75
465.854	631.75
466.073	600.75
466.293	554.75
466.512	538.75
466.732	531.75
466.951	536.75
467.171	542.75
467.391	528.75
467.61	535.75
467.829	580.75
468.049	542.75
468.268	536.75
468.488	550.75
468.707	527.75
468.927	530.75
469.146	532.75
469.365	549.75
469.585	520.75
469.804	536.75
470.023	564.75
470.243	560.75
470.462	546.75
470.681	588.75
470.901	599.75
471.12	558.75
471.339	554.75
471.558	550.75
471.777	553.75
471.997	543.75
472.216	559.75
472.435	615.75
472.654	592.75
472.873	552.75
473.092	554.75
473.311	555.75
473.53	557.75
473.749	569.75
473.968	607.75
474.187	735.75
474.406	779.75
474.625	633.75
474.844	586.75
475.063	573.75
475.282	562.75
475.501	562.75
475.72	574.75
475.939	559.75
476.158	579.75
476.377	586.75
476.596	562.75
476.814	573.75
477.033	588.75
477.252	594.75
477.471	582.75
477.69	609.75
477.908	621.75
478.127	608.75
478.346	611.75
478.564	602.75
478.783	622.75
479.002	628.75
479.22	618.75
479.439	636.75
479.658	667.75
479.876	672.75
480.095	657.75
480.313	705.75
480.532	698.75
480.751	691.75
480.969	672.75
481.188	775.75
481.406	806.75
481.624	746.75
481.843	715.75
482.061	653.75
482.28	666.75
482.498	646.75
482.717	660.75
482.935	674.75
483.153	676.75
483.372	657.75
483.59	663.75
483.808	676.75
484.027	635.75
484.245	664.75
484.463	676.75
484.681	668.75
484.9	684.75
485.118	692.75
485.336	655.75
485.554	688.75
485.772	663.75
485.99	683.75
486.209	707.75
486.427	707.75
486.645	699.75
486.863	759.75
487.081	737.75
487.299	740.75
487.517	712.75
487.735	700.75
487.953	712.75
488.171	718.75
488.389	716.75
488.607	727.75
488.825	729.75
489.043	714.75
489.261	728.75
489.479	730.75
489.696	726.75
489.914	735.75
490.132	733.75
490.35	749.75
490.568	744.75
490.786	796.75
491.003	783.75
491.221	792.75
491.439	815.75
491.657	840.75
491.874	815.75
492.092	847.75
492.31	869.75
492.527	851.75
492.745	845.75
492.963	846.75
493.18	835.75
493.398	862.75
493.615	868.75
493.833	862.75
494.05	866.75
494.268	862.75
494.485	896.75
494.703	884.75
494.92	877.75
495.138	876.75
495.355	885.75
495.573	894.75
495.79	855.75
496.008	856.75
496.225	860.75
496.442	858.75
496.66	893.75
496.877	870.75
497.094	875.75
497.312	895.75
497.529	886.75
497.746	916.75
497.963	891.75
498.181	938.75
498.398	929.75
498.615	931.75
498.832	945.75
499.049	950.75
499.267	917.75
499.484	954.75
499.701	962.75
499.918	989.75
500.135	1048.75
500.352	1056.75
500.569	1043.75
500.786	1096.75
501.003	1074.75
501.22	1039.75
501.437	1040.75
