Data from 1971.PennyLincolnUp.Lamp.En5.5.200Scan.071719.P1.Scan 2. Changed Angle._HRD10591_15-25-30-843.txt Node
Date: Thu Jul 18 15:25:30 EDT 2019
User: cochatt
Spectrometer: HR+D1059
Trigger mode: 1
Integration Time (sec): 1.000000E-1
Scans to average: 1
Electric dark correction enabled: true
Nonlinearity correction enabled: false
Boxcar width: 0
XAxis mode: Wavelengths
Number of Pixels in Spectrum: 2048
>>>>>Begin Spectral Data<<<<<
223.165	-16.69
223.4	-16.69
223.635	-16.69
223.869	-21.69
224.104	-15.69
224.338	-17.69
224.573	-24.69
224.808	-19.69
225.042	-0.69
225.277	0.31
225.511	-5.69
225.746	-2.69
225.98	6.31
226.215	21.31
226.449	17.31
226.683	19.31
226.918	26.31
227.152	34.31
227.387	27.31
227.621	39.31
227.856	32.31
228.09	36.31
228.324	47.31
228.559	68.31
228.793	85.31
229.027	126.31
229.262	131.31
229.496	123.31
229.73	157.31
229.964	180.31
230.199	154.31
230.433	131.31
230.667	128.31
230.901	127.31
231.136	131.31
231.37	135.31
231.604	111.31
231.838	138.31
232.072	134.31
232.306	128.31
232.541	111.31
232.775	123.31
233.009	131.31
233.243	139.31
233.477	127.31
233.711	115.31
233.945	120.31
234.179	144.31
234.413	134.31
234.647	120.31
234.881	122.31
235.115	124.31
235.349	115.31
235.583	128.31
235.817	133.31
236.051	149.31
236.285	144.31
236.519	138.31
236.753	137.31
236.987	167.31
237.221	221.31
237.455	252.31
237.689	216.31
237.922	180.31
238.156	154.31
238.39	152.31
238.624	132.31
238.858	130.31
239.091	134.31
239.325	124.31
239.559	146.31
239.793	142.31
240.027	131.31
240.26	159.31
240.494	200.31
240.728	172.31
240.961	178.31
241.195	176.31
241.429	141.31
241.662	146.31
241.896	142.31
242.13	158.31
242.363	148.31
242.597	142.31
242.83	151.31
243.064	147.31
243.298	159.31
243.531	153.31
243.765	148.31
243.998	171.31
244.232	156.31
244.465	171.31
244.699	162.31
244.932	178.31
245.166	149.31
245.399	144.31
245.633	166.31
245.866	152.31
246.099	146.31
246.333	169.31
246.566	159.31
246.8	159.31
247.033	171.31
247.266	175.31
247.5	195.31
247.733	179.31
247.966	185.31
248.2	200.31
248.433	190.31
248.666	191.31
248.899	210.31
249.133	220.31
249.366	237.31
249.599	217.31
249.832	206.31
250.066	196.31
250.299	226.31
250.532	203.31
250.765	213.31
250.998	256.31
251.231	247.31
251.465	244.31
251.698	242.31
251.931	235.31
252.164	223.31
252.397	240.31
252.63	231.31
252.863	227.31
253.096	231.31
253.329	252.31
253.562	253.31
253.795	251.31
254.028	256.31
254.261	238.31
254.494	270.31
254.727	314.31
254.96	337.31
255.193	324.31
255.426	281.31
255.659	294.31
255.892	265.31
256.124	282.31
256.357	262.31
256.59	252.31
256.823	249.31
257.056	226.31
257.289	230.31
257.521	205.31
257.754	233.31
257.987	233.31
258.22	226.31
258.452	226.31
258.685	225.31
258.918	229.31
259.151	225.31
259.383	231.31
259.616	239.31
259.849	261.31
260.081	264.31
260.314	279.31
260.547	284.31
260.779	273.31
261.012	252.31
261.244	238.31
261.477	238.31
261.71	251.31
261.942	257.31
262.175	256.31
262.407	244.31
262.64	246.31
262.872	229.31
263.105	231.31
263.337	225.31
263.57	223.31
263.802	236.31
264.035	225.31
264.267	241.31
264.499	228.31
264.732	212.31
264.964	223.31
265.197	208.31
265.429	228.31
265.661	240.31
265.894	226.31
266.126	233.31
266.358	216.31
266.591	227.31
266.823	230.31
267.055	241.31
267.287	239.31
267.52	236.31
267.752	240.31
267.984	251.31
268.216	233.31
268.448	252.31
268.681	252.31
268.913	267.31
269.145	285.31
269.377	302.31
269.609	279.31
269.841	294.31
270.073	305.31
270.306	300.31
270.538	361.31
270.77	337.31
271.002	334.31
271.234	323.31
271.466	320.31
271.698	340.31
271.93	338.31
272.162	346.31
272.394	331.31
272.626	339.31
272.858	304.31
273.09	320.31
273.322	275.31
273.553	301.31
273.785	276.31
274.017	292.31
274.249	280.31
274.481	287.31
274.713	287.31
274.945	286.31
275.176	282.31
275.408	291.31
275.64	281.31
275.872	270.31
276.104	271.31
276.335	276.31
276.567	284.31
276.799	307.31
277.031	334.31
277.262	339.31
277.494	350.31
277.726	329.31
277.957	308.31
278.189	301.31
278.421	291.31
278.652	281.31
278.884	271.31
279.115	284.31
279.347	274.31
279.579	263.31
279.81	275.31
280.042	266.31
280.273	267.31
280.505	283.31
280.736	279.31
280.968	283.31
281.199	268.31
281.431	258.31
281.662	262.31
281.894	294.31
282.125	293.31
282.356	311.31
282.588	305.31
282.819	328.31
283.051	292.31
283.282	271.31
283.513	297.31
283.745	284.31
283.976	283.31
284.207	309.31
284.439	291.31
284.67	277.31
284.901	282.31
285.132	298.31
285.364	283.31
285.595	271.31
285.826	251.31
286.057	279.31
286.288	276.31
286.52	272.31
286.751	280.31
286.982	292.31
287.213	271.31
287.444	278.31
287.675	291.31
287.906	294.31
288.138	294.31
288.369	312.31
288.6	302.31
288.831	303.31
289.062	288.31
289.293	294.31
289.524	295.31
289.755	298.31
289.986	304.31
290.217	290.31
290.448	279.31
290.679	274.31
290.91	292.31
291.141	287.31
291.371	279.31
291.602	287.31
291.833	283.31
292.064	302.31
292.295	306.31
292.526	282.31
292.757	303.31
292.987	304.31
293.218	286.31
293.449	283.31
293.68	285.31
293.91	298.31
294.141	296.31
294.372	267.31
294.603	298.31
294.833	289.31
295.064	303.31
295.295	273.31
295.525	280.31
295.756	290.31
295.987	315.31
296.217	343.31
296.448	341.31
296.679	316.31
296.909	299.31
297.14	282.31
297.37	300.31
297.601	299.31
297.831	289.31
298.062	288.31
298.292	307.31
298.523	301.31
298.753	310.31
298.984	317.31
299.214	312.31
299.445	325.31
299.675	322.31
299.905	313.31
300.136	314.31
300.366	318.31
300.597	310.31
300.827	328.31
301.057	321.31
301.288	328.31
301.518	334.31
301.748	321.31
301.979	313.31
302.209	316.31
302.439	325.31
302.669	326.31
302.9	330.31
303.13	324.31
303.36	338.31
303.59	337.31
303.82	336.31
304.051	327.31
304.281	313.31
304.511	318.31
304.741	321.31
304.971	319.31
305.201	314.31
305.431	320.31
305.661	319.31
305.891	321.31
306.121	321.31
306.352	324.31
306.582	324.31
306.812	345.31
307.042	332.31
307.272	320.31
307.502	336.31
307.731	350.31
307.961	335.31
308.191	343.31
308.421	337.31
308.651	342.31
308.881	356.31
309.111	351.31
309.341	359.31
309.571	380.31
309.8	374.31
310.03	374.31
310.26	390.31
310.49	384.31
310.72	390.31
310.949	434.31
311.179	432.31
311.409	400.31
311.639	398.31
311.868	403.31
312.098	412.31
312.328	409.31
312.557	428.31
312.787	455.31
313.017	446.31
313.246	423.31
313.476	402.31
313.706	378.31
313.935	410.31
314.165	426.31
314.394	425.31
314.624	431.31
314.853	416.31
315.083	395.31
315.312	391.31
315.542	382.31
315.771	378.31
316.001	380.31
316.23	381.31
316.46	402.31
316.689	372.31
316.919	390.31
317.148	406.31
317.377	405.31
317.607	401.31
317.836	402.31
318.065	393.31
318.295	397.31
318.524	386.31
318.753	383.31
318.983	395.31
319.212	407.31
319.441	424.31
319.67	414.31
319.9	387.31
320.129	392.31
320.358	399.31
320.587	426.31
320.816	430.31
321.046	413.31
321.275	429.31
321.504	430.31
321.733	442.31
321.962	427.31
322.191	455.31
322.42	455.31
322.649	486.31
322.878	518.31
323.108	529.31
323.337	569.31
323.566	569.31
323.795	624.31
324.024	689.31
324.253	878.31
324.482	1310.31
324.71	2035.31
324.939	2974.31
325.168	2517.31
325.397	1302.31
325.626	846.31
325.855	681.31
326.084	622.31
326.313	594.31
326.542	614.31
326.77	640.31
326.999	794.31
327.228	1155.31
327.457	1760.31
327.686	2159.31
327.914	1468.31
328.143	927.31
328.372	778.31
328.6	739.31
328.829	682.31
329.058	717.31
329.287	710.31
329.515	663.31
329.744	583.31
329.972	576.31
330.201	613.31
330.43	675.31
330.658	704.31
330.887	762.31
331.115	725.31
331.344	610.31
331.572	556.31
331.801	566.31
332.03	574.31
332.258	529.31
332.486	494.31
332.715	492.31
332.943	476.31
333.172	468.31
333.4	482.31
333.629	470.31
333.857	525.31
334.085	514.31
334.314	527.31
334.542	588.31
334.771	609.31
334.999	546.31
335.227	519.31
335.455	495.31
335.684	462.31
335.912	475.31
336.14	454.31
336.369	451.31
336.597	450.31
336.825	465.31
337.053	470.31
337.281	444.31
337.51	424.31
337.738	464.31
337.966	450.31
338.194	446.31
338.422	461.31
338.65	451.31
338.878	446.31
339.106	442.31
339.334	410.31
339.562	435.31
339.79	454.31
340.018	442.31
340.246	440.31
340.474	457.31
340.702	456.31
340.93	436.31
341.158	431.31
341.386	450.31
341.614	448.31
341.842	433.31
342.07	437.31
342.298	432.31
342.526	437.31
342.754	452.31
342.981	418.31
343.209	426.31
343.437	439.31
343.665	432.31
343.893	435.31
344.12	443.31
344.348	458.31
344.576	427.31
344.804	455.31
345.031	477.31
345.259	492.31
345.487	469.31
345.714	459.31
345.942	455.31
346.17	437.31
346.397	440.31
346.625	448.31
346.853	441.31
347.08	441.31
347.308	419.31
347.535	456.31
347.763	464.31
347.99	466.31
348.218	474.31
348.445	460.31
348.673	466.31
348.9	455.31
349.128	456.31
349.355	447.31
349.583	449.31
349.81	428.31
350.037	436.31
350.265	415.31
350.492	452.31
350.72	440.31
350.947	448.31
351.174	456.31
351.402	464.31
351.629	460.31
351.856	462.31
352.083	472.31
352.311	478.31
352.538	485.31
352.765	472.31
352.992	477.31
353.22	455.31
353.447	426.31
353.674	445.31
353.901	430.31
354.128	428.31
354.355	417.31
354.583	431.31
354.81	410.31
355.037	408.31
355.264	402.31
355.491	402.31
355.718	402.31
355.945	411.31
356.172	382.31
356.399	399.31
356.626	405.31
356.853	408.31
357.08	394.31
357.307	407.31
357.534	410.31
357.761	383.31
357.988	413.31
358.215	413.31
358.441	413.31
358.668	408.31
358.895	415.31
359.122	437.31
359.349	429.31
359.576	462.31
359.802	479.31
360.029	557.31
360.256	560.31
360.483	525.31
360.709	463.31
360.936	468.31
361.163	452.31
361.39	447.31
361.616	454.31
361.843	452.31
362.07	457.31
362.296	470.31
362.523	442.31
362.749	425.31
362.976	439.31
363.203	444.31
363.429	434.31
363.656	440.31
363.882	445.31
364.109	428.31
364.335	415.31
364.562	406.31
364.788	431.31
365.015	448.31
365.241	418.31
365.468	422.31
365.694	429.31
365.92	446.31
366.147	435.31
366.373	418.31
366.599	429.31
366.826	426.31
367.052	397.31
367.278	404.31
367.505	406.31
367.731	433.31
367.957	428.31
368.184	429.31
368.41	427.31
368.636	443.31
368.862	445.31
369.089	446.31
369.315	421.31
369.541	431.31
369.767	450.31
369.993	413.31
370.219	444.31
370.445	409.31
370.672	421.31
370.898	418.31
371.124	407.31
371.35	403.31
371.576	409.31
371.802	384.31
372.028	395.31
372.254	411.31
372.48	409.31
372.706	418.31
372.932	406.31
373.158	414.31
373.384	410.31
373.61	423.31
373.835	403.31
374.061	402.31
374.287	410.31
374.513	432.31
374.739	424.31
374.965	419.31
375.191	412.31
375.416	419.31
375.642	418.31
375.868	430.31
376.094	419.31
376.319	414.31
376.545	420.31
376.771	412.31
376.997	404.31
377.222	414.31
377.448	429.31
377.674	403.31
377.899	412.31
378.125	425.31
378.35	416.31
378.576	393.31
378.802	412.31
379.027	414.31
379.253	425.31
379.478	424.31
379.704	404.31
379.929	424.31
380.155	426.31
380.38	412.31
380.606	432.31
380.831	403.31
381.057	417.31
381.282	416.31
381.507	416.31
381.733	445.31
381.958	416.31
382.184	404.31
382.409	426.31
382.634	435.31
382.86	419.31
383.085	415.31
383.31	420.31
383.535	428.31
383.761	426.31
383.986	451.31
384.211	446.31
384.436	432.31
384.662	436.31
384.887	436.31
385.112	424.31
385.337	458.31
385.562	443.31
385.787	444.31
386.013	448.31
386.238	461.31
386.463	481.31
386.688	447.31
386.913	430.31
387.138	428.31
387.363	449.31
387.588	427.31
387.813	457.31
388.038	455.31
388.263	442.31
388.488	471.31
388.713	449.31
388.938	436.31
389.163	459.31
389.387	466.31
389.612	462.31
389.837	436.31
390.062	436.31
390.287	426.31
390.512	455.31
390.736	440.31
390.961	439.31
391.186	429.31
391.411	452.31
391.636	457.31
391.86	469.31
392.085	455.31
392.31	440.31
392.534	473.31
392.759	470.31
392.984	465.31
393.208	463.31
393.433	445.31
393.658	445.31
393.882	439.31
394.107	454.31
394.331	460.31
394.556	457.31
394.78	445.31
395.005	446.31
395.229	461.31
395.454	465.31
395.678	492.31
395.903	472.31
396.127	508.31
396.352	499.31
396.576	471.31
396.801	462.31
397.025	469.31
397.249	491.31
397.474	480.31
397.698	487.31
397.922	498.31
398.147	512.31
398.371	503.31
398.595	506.31
398.82	502.31
399.044	522.31
399.268	512.31
399.492	553.31
399.717	566.31
399.941	587.31
400.165	609.31
400.389	611.31
400.613	583.31
400.837	552.31
401.062	545.31
401.286	524.31
401.51	538.31
401.734	509.31
401.958	514.31
402.182	533.31
402.406	530.31
402.63	510.31
402.854	513.31
403.078	499.31
403.302	547.31
403.526	550.31
403.75	547.31
403.974	536.31
404.198	530.31
404.422	555.31
404.645	558.31
404.869	534.31
405.093	577.31
405.317	619.31
405.541	682.31
405.765	595.31
405.988	564.31
406.212	589.31
406.436	610.31
406.66	618.31
406.883	585.31
407.107	610.31
407.331	644.31
407.555	730.31
407.778	708.31
408.002	668.31
408.226	605.31
408.449	606.31
408.673	614.31
408.896	657.31
409.12	672.31
409.344	620.31
409.567	610.31
409.791	553.31
410.014	554.31
410.238	569.31
410.461	537.31
410.685	560.31
410.908	590.31
411.132	616.31
411.355	632.31
411.578	628.31
411.802	560.31
412.025	544.31
412.249	579.31
412.472	583.31
412.695	652.31
412.919	628.31
413.142	595.31
413.365	568.31
413.589	531.31
413.812	528.31
414.035	504.31
414.258	532.31
414.482	513.31
414.705	532.31
414.928	502.31
415.151	514.31
415.374	506.31
415.597	495.31
415.821	486.31
416.044	509.31
416.267	518.31
416.49	491.31
416.713	495.31
416.936	505.31
417.159	522.31
417.382	543.31
417.605	546.31
417.828	546.31
418.051	551.31
418.274	556.31
418.497	530.31
418.72	531.31
418.943	552.31
419.166	556.31
419.389	576.31
419.611	574.31
419.834	544.31
420.057	564.31
420.28	550.31
420.503	546.31
420.726	552.31
420.948	567.31
421.171	636.31
421.394	634.31
421.617	592.31
421.839	584.31
422.062	558.31
422.285	580.31
422.507	641.31
422.73	734.31
422.953	689.31
423.175	623.31
423.398	602.31
423.621	593.31
423.843	622.31
424.066	634.31
424.288	620.31
424.511	633.31
424.733	696.31
424.956	794.31
425.178	764.31
425.401	752.31
425.623	767.31
425.846	684.31
426.068	638.31
426.291	617.31
426.513	618.31
426.735	632.31
426.958	698.31
427.18	795.31
427.402	947.31
427.625	1064.31
427.847	940.31
428.069	792.31
428.292	719.31
428.514	658.31
428.736	614.31
428.958	631.31
429.181	582.31
429.403	598.31
429.625	570.31
429.847	639.31
430.069	726.31
430.292	688.31
430.514	623.31
430.736	578.31
430.958	572.31
431.18	577.31
431.402	544.31
431.624	545.31
431.846	542.31
432.068	531.31
432.29	537.31
432.512	518.31
432.734	553.31
432.956	541.31
433.178	569.31
433.4	571.31
433.622	569.31
433.844	530.31
434.066	539.31
434.287	535.31
434.509	545.31
434.731	560.31
434.953	538.31
435.175	555.31
435.397	599.31
435.618	643.31
435.84	675.31
436.062	764.31
436.284	867.31
436.505	731.31
436.727	649.31
436.949	614.31
437.17	578.31
437.392	591.31
437.614	576.31
437.835	652.31
438.057	786.31
438.278	892.31
438.5	887.31
438.721	923.31
438.943	902.31
439.165	761.31
439.386	671.31
439.608	649.31
439.829	640.31
440.05	682.31
440.272	763.31
440.493	722.31
440.715	652.31
440.936	609.31
441.158	594.31
441.379	593.31
441.6	601.31
441.822	625.31
442.043	701.31
442.264	764.31
442.486	830.31
442.707	697.31
442.928	663.31
443.149	673.31
443.371	692.31
443.592	740.31
443.813	840.31
444.034	913.31
444.255	737.31
444.476	649.31
444.698	625.31
444.919	622.31
445.14	688.31
445.361	682.31
445.582	681.31
445.803	789.31
446.024	894.31
446.245	888.31
446.466	840.31
446.687	691.31
446.908	658.31
447.129	613.31
447.35	590.31
447.571	576.31
447.792	568.31
448.013	595.31
448.234	613.31
448.455	688.31
448.675	789.31
448.896	883.31
449.117	799.31
449.338	771.31
449.559	891.31
449.779	962.31
450	794.31
450.221	672.31
450.442	625.31
450.662	596.31
450.883	614.31
451.104	626.31
451.324	600.31
451.545	575.31
451.766	554.31
451.986	550.31
452.207	538.31
452.428	523.31
452.648	524.31
452.869	535.31
453.089	529.31
453.31	552.31
453.53	544.31
453.751	543.31
453.971	550.31
454.192	560.31
454.412	552.31
454.633	556.31
454.853	518.31
455.073	540.31
455.294	584.31
455.514	651.31
455.734	616.31
455.955	529.31
456.175	499.31
456.395	493.31
456.616	493.31
456.836	469.31
457.056	510.31
457.276	472.31
457.497	486.31
457.717	498.31
457.937	491.31
458.157	484.31
458.377	496.31
458.598	537.31
458.818	656.31
459.038	749.31
459.258	761.31
459.478	632.31
459.698	574.31
459.918	554.31
460.138	531.31
460.358	548.31
460.578	537.31
460.798	534.31
461.018	535.31
461.238	513.31
461.458	524.31
461.678	506.31
461.898	525.31
462.118	506.31
462.338	549.31
462.558	536.31
462.777	551.31
462.997	561.31
463.217	554.31
463.437	535.31
463.657	558.31
463.876	542.31
464.096	552.31
464.316	550.31
464.536	572.31
464.755	559.31
464.975	600.31
465.195	670.31
465.414	782.31
465.634	668.31
465.854	610.31
466.073	582.31
466.293	563.31
466.512	529.31
466.732	502.31
466.951	532.31
467.171	520.31
467.391	516.31
467.61	534.31
467.829	562.31
468.049	540.31
468.268	545.31
468.488	520.31
468.707	552.31
468.927	520.31
469.146	519.31
469.365	500.31
469.585	514.31
469.804	546.31
470.023	551.31
470.243	547.31
470.462	544.31
470.681	570.31
470.901	578.31
471.12	559.31
471.339	561.31
471.558	551.31
471.777	529.31
471.997	534.31
472.216	556.31
472.435	597.31
472.654	601.31
472.873	554.31
473.092	542.31
473.311	524.31
473.53	542.31
473.749	566.31
473.968	598.31
474.187	712.31
474.406	755.31
474.625	633.31
474.844	579.31
475.063	554.31
475.282	553.31
475.501	556.31
475.72	564.31
475.939	563.31
476.158	566.31
476.377	548.31
476.596	564.31
476.814	565.31
477.033	562.31
477.252	592.31
477.471	568.31
477.69	581.31
477.908	600.31
478.127	598.31
478.346	586.31
478.564	591.31
478.783	602.31
479.002	580.31
479.22	607.31
479.439	620.31
479.658	655.31
479.876	668.31
480.095	645.31
480.313	691.31
480.532	665.31
480.751	650.31
480.969	670.31
481.188	753.31
481.406	840.31
481.624	706.31
481.843	657.31
482.061	652.31
482.28	635.31
482.498	647.31
482.717	616.31
482.935	640.31
483.153	639.31
483.372	648.31
483.59	662.31
483.808	630.31
484.027	647.31
484.245	660.31
484.463	656.31
484.681	657.31
484.9	668.31
485.118	640.31
485.336	679.31
485.554	656.31
485.772	646.31
485.99	658.31
486.209	668.31
486.427	666.31
486.645	670.31
486.863	705.31
487.081	703.31
487.299	700.31
487.517	710.31
487.735	699.31
487.953	710.31
488.171	697.31
488.389	703.31
488.607	708.31
488.825	732.31
489.043	707.31
489.261	696.31
489.479	723.31
489.696	713.31
489.914	704.31
490.132	734.31
490.35	738.31
490.568	754.31
490.786	760.31
491.003	760.31
491.221	790.31
491.439	810.31
491.657	793.31
491.874	818.31
492.092	837.31
492.31	847.31
492.527	849.31
492.745	852.31
492.963	831.31
493.18	867.31
493.398	846.31
493.615	864.31
493.833	881.31
494.05	853.31
494.268	838.31
494.485	816.31
494.703	862.31
494.92	850.31
495.138	875.31
495.355	871.31
495.573	832.31
495.79	876.31
496.008	843.31
496.225	858.31
496.442	844.31
496.66	856.31
496.877	810.31
497.094	864.31
497.312	857.31
497.529	863.31
497.746	887.31
497.963	866.31
498.181	887.31
498.398	890.31
498.615	892.31
498.832	901.31
499.049	909.31
499.267	904.31
499.484	936.31
499.701	936.31
499.918	967.31
500.135	988.31
500.352	1021.31
500.569	1024.31
500.786	1023.31
501.003	1020.31
501.22	1030.31
501.437	991.31
