Data from 1971.PennyLincolnUp.Lamp.En5.5.200Scan.071719.P1.Scan 2. Changed Angle._HRD10591_15-25-11-842.txt Node
Date: Thu Jul 18 15:25:11 EDT 2019
User: cochatt
Spectrometer: HR+D1059
Trigger mode: 1
Integration Time (sec): 1.000000E-1
Scans to average: 1
Electric dark correction enabled: true
Nonlinearity correction enabled: false
Boxcar width: 0
XAxis mode: Wavelengths
Number of Pixels in Spectrum: 2048
>>>>>Begin Spectral Data<<<<<
223.165	0.25
223.4	0.25
223.635	0.25
223.869	-15.75
224.104	-15.75
224.338	-5.75
224.573	-22.75
224.808	-9.75
225.042	-7.75
225.277	-23.75
225.511	4.25
225.746	8.25
225.98	3.25
226.215	11.25
226.449	5.25
226.683	11.25
226.918	28.25
227.152	29.25
227.387	33.25
227.621	37.25
227.856	54.25
228.09	33.25
228.324	51.25
228.559	44.25
228.793	67.25
229.027	114.25
229.262	118.25
229.496	136.25
229.73	137.25
229.964	190.25
230.199	138.25
230.433	128.25
230.667	131.25
230.901	132.25
231.136	120.25
231.37	142.25
231.604	106.25
231.838	121.25
232.072	114.25
232.306	106.25
232.541	116.25
232.775	101.25
233.009	105.25
233.243	97.25
233.477	121.25
233.711	125.25
233.945	113.25
234.179	122.25
234.413	122.25
234.647	124.25
234.881	118.25
235.115	111.25
235.349	118.25
235.583	121.25
235.817	136.25
236.051	126.25
236.285	132.25
236.519	132.25
236.753	134.25
236.987	161.25
237.221	205.25
237.455	268.25
237.689	213.25
237.922	158.25
238.156	143.25
238.39	138.25
238.624	140.25
238.858	150.25
239.091	120.25
239.325	134.25
239.559	122.25
239.793	143.25
240.027	141.25
240.26	138.25
240.494	166.25
240.728	157.25
240.961	150.25
241.195	172.25
241.429	157.25
241.662	129.25
241.896	143.25
242.13	130.25
242.363	140.25
242.597	140.25
242.83	140.25
243.064	143.25
243.298	141.25
243.531	164.25
243.765	142.25
243.998	143.25
244.232	160.25
244.465	142.25
244.699	153.25
244.932	155.25
245.166	142.25
245.399	164.25
245.633	160.25
245.866	138.25
246.099	161.25
246.333	156.25
246.566	153.25
246.8	156.25
247.033	181.25
247.266	182.25
247.5	174.25
247.733	182.25
247.966	192.25
248.2	186.25
248.433	169.25
248.666	185.25
248.899	200.25
249.133	220.25
249.366	239.25
249.599	217.25
249.832	216.25
250.066	194.25
250.299	190.25
250.532	206.25
250.765	242.25
250.998	244.25
251.231	271.25
251.465	260.25
251.698	230.25
251.931	229.25
252.164	232.25
252.397	210.25
252.63	212.25
252.863	218.25
253.096	231.25
253.329	247.25
253.562	244.25
253.795	240.25
254.028	244.25
254.261	259.25
254.494	244.25
254.727	317.25
254.96	315.25
255.193	300.25
255.426	290.25
255.659	247.25
255.892	258.25
256.124	263.25
256.357	288.25
256.59	265.25
256.823	247.25
257.056	225.25
257.289	221.25
257.521	237.25
257.754	219.25
257.987	202.25
258.22	224.25
258.452	242.25
258.685	220.25
258.918	219.25
259.151	220.25
259.383	246.25
259.616	233.25
259.849	235.25
260.081	254.25
260.314	275.25
260.547	294.25
260.779	280.25
261.012	259.25
261.244	237.25
261.477	245.25
261.71	256.25
261.942	248.25
262.175	270.25
262.407	257.25
262.64	243.25
262.872	227.25
263.105	233.25
263.337	223.25
263.57	223.25
263.802	223.25
264.035	205.25
264.267	227.25
264.499	209.25
264.732	211.25
264.964	215.25
265.197	217.25
265.429	214.25
265.661	212.25
265.894	228.25
266.126	206.25
266.358	230.25
266.591	236.25
266.823	235.25
267.055	228.25
267.287	219.25
267.52	235.25
267.752	246.25
267.984	244.25
268.216	226.25
268.448	219.25
268.681	260.25
268.913	269.25
269.145	270.25
269.377	315.25
269.609	292.25
269.841	293.25
270.073	294.25
270.306	336.25
270.538	350.25
270.77	351.25
271.002	329.25
271.234	328.25
271.466	345.25
271.698	334.25
271.93	339.25
272.162	371.25
272.394	352.25
272.626	322.25
272.858	326.25
273.09	300.25
273.322	304.25
273.553	291.25
273.785	281.25
274.017	288.25
274.249	270.25
274.481	284.25
274.713	283.25
274.945	276.25
275.176	256.25
275.408	263.25
275.64	283.25
275.872	268.25
276.104	280.25
276.335	263.25
276.567	285.25
276.799	297.25
277.031	338.25
277.262	348.25
277.494	349.25
277.726	315.25
277.957	302.25
278.189	293.25
278.421	293.25
278.652	282.25
278.884	271.25
279.115	269.25
279.347	269.25
279.579	275.25
279.81	248.25
280.042	276.25
280.273	256.25
280.505	274.25
280.736	265.25
280.968	283.25
281.199	269.25
281.431	291.25
281.662	280.25
281.894	276.25
282.125	261.25
282.356	291.25
282.588	330.25
282.819	339.25
283.051	292.25
283.282	284.25
283.513	285.25
283.745	276.25
283.976	273.25
284.207	285.25
284.439	269.25
284.67	276.25
284.901	272.25
285.132	270.25
285.364	275.25
285.595	274.25
285.826	260.25
286.057	286.25
286.288	277.25
286.52	280.25
286.751	271.25
286.982	278.25
287.213	289.25
287.444	248.25
287.675	280.25
287.906	289.25
288.138	305.25
288.369	315.25
288.6	315.25
288.831	311.25
289.062	288.25
289.293	309.25
289.524	288.25
289.755	279.25
289.986	275.25
290.217	280.25
290.448	299.25
290.679	285.25
290.91	280.25
291.141	275.25
291.371	273.25
291.602	287.25
291.833	284.25
292.064	267.25
292.295	276.25
292.526	271.25
292.757	274.25
292.987	283.25
293.218	283.25
293.449	288.25
293.68	305.25
293.91	284.25
294.141	281.25
294.372	298.25
294.603	289.25
294.833	276.25
295.064	278.25
295.295	300.25
295.525	278.25
295.756	300.25
295.987	318.25
296.217	324.25
296.448	338.25
296.679	317.25
296.909	288.25
297.14	301.25
297.37	298.25
297.601	290.25
297.831	274.25
298.062	284.25
298.292	283.25
298.523	309.25
298.753	316.25
298.984	285.25
299.214	300.25
299.445	294.25
299.675	281.25
299.905	331.25
300.136	296.25
300.366	314.25
300.597	295.25
300.827	321.25
301.057	308.25
301.288	314.25
301.518	349.25
301.748	314.25
301.979	322.25
302.209	304.25
302.439	336.25
302.669	320.25
302.9	307.25
303.13	334.25
303.36	316.25
303.59	353.25
303.82	342.25
304.051	335.25
304.281	308.25
304.511	317.25
304.741	316.25
304.971	313.25
305.201	314.25
305.431	326.25
305.661	315.25
305.891	319.25
306.121	327.25
306.352	325.25
306.582	336.25
306.812	315.25
307.042	304.25
307.272	320.25
307.502	330.25
307.731	333.25
307.961	348.25
308.191	330.25
308.421	346.25
308.651	335.25
308.881	344.25
309.111	343.25
309.341	332.25
309.571	345.25
309.8	384.25
310.03	386.25
310.26	380.25
310.49	368.25
310.72	404.25
310.949	413.25
311.179	456.25
311.409	421.25
311.639	390.25
311.868	394.25
312.098	393.25
312.328	409.25
312.557	416.25
312.787	432.25
313.017	436.25
313.246	407.25
313.476	391.25
313.706	397.25
313.935	392.25
314.165	429.25
314.394	463.25
314.624	428.25
314.853	402.25
315.083	398.25
315.312	403.25
315.542	381.25
315.771	374.25
316.001	364.25
316.23	370.25
316.46	384.25
316.689	360.25
316.919	374.25
317.148	416.25
317.377	398.25
317.607	415.25
317.836	390.25
318.065	385.25
318.295	383.25
318.524	360.25
318.753	381.25
318.983	392.25
319.212	385.25
319.441	390.25
319.67	394.25
319.9	404.25
320.129	388.25
320.358	420.25
320.587	419.25
320.816	422.25
321.046	420.25
321.275	427.25
321.504	436.25
321.733	416.25
321.962	421.25
322.191	446.25
322.42	472.25
322.649	511.25
322.878	498.25
323.108	519.25
323.337	568.25
323.566	586.25
323.795	635.25
324.024	678.25
324.253	860.25
324.482	1269.25
324.71	2008.25
324.939	2880.25
325.168	2516.25
325.397	1262.25
325.626	867.25
325.855	653.25
326.084	600.25
326.313	589.25
326.542	606.25
326.77	633.25
326.999	790.25
327.228	1108.25
327.457	1767.25
327.686	2194.25
327.914	1432.25
328.143	891.25
328.372	779.25
328.6	705.25
328.829	688.25
329.058	688.25
329.287	697.25
329.515	653.25
329.744	589.25
329.972	595.25
330.201	598.25
330.43	682.25
330.658	704.25
330.887	744.25
331.115	732.25
331.344	595.25
331.572	557.25
331.801	588.25
332.03	550.25
332.258	536.25
332.486	490.25
332.715	484.25
332.943	482.25
333.172	454.25
333.4	467.25
333.629	488.25
333.857	514.25
334.085	513.25
334.314	542.25
334.542	574.25
334.771	606.25
334.999	551.25
335.227	507.25
335.455	484.25
335.684	475.25
335.912	437.25
336.14	471.25
336.369	460.25
336.597	471.25
336.825	474.25
337.053	458.25
337.281	437.25
337.51	448.25
337.738	464.25
337.966	452.25
338.194	466.25
338.422	473.25
338.65	455.25
338.878	435.25
339.106	450.25
339.334	436.25
339.562	437.25
339.79	451.25
340.018	450.25
340.246	453.25
340.474	460.25
340.702	451.25
340.93	429.25
341.158	445.25
341.386	425.25
341.614	461.25
341.842	465.25
342.07	450.25
342.298	440.25
342.526	418.25
342.754	422.25
342.981	426.25
343.209	448.25
343.437	417.25
343.665	441.25
343.893	433.25
344.12	455.25
344.348	452.25
344.576	461.25
344.804	459.25
345.031	482.25
345.259	485.25
345.487	478.25
345.714	448.25
345.942	461.25
346.17	458.25
346.397	442.25
346.625	447.25
346.853	424.25
347.08	419.25
347.308	437.25
347.535	446.25
347.763	473.25
347.99	457.25
348.218	472.25
348.445	480.25
348.673	456.25
348.9	432.25
349.128	447.25
349.355	438.25
349.583	412.25
349.81	426.25
350.037	410.25
350.265	414.25
350.492	425.25
350.72	430.25
350.947	435.25
351.174	442.25
351.402	453.25
351.629	435.25
351.856	456.25
352.083	468.25
352.311	466.25
352.538	489.25
352.765	463.25
352.992	454.25
353.22	460.25
353.447	445.25
353.674	441.25
353.901	438.25
354.128	424.25
354.355	427.25
354.583	392.25
354.81	405.25
355.037	407.25
355.264	420.25
355.491	404.25
355.718	420.25
355.945	401.25
356.172	389.25
356.399	379.25
356.626	402.25
356.853	390.25
357.08	416.25
357.307	396.25
357.534	403.25
357.761	412.25
357.988	423.25
358.215	402.25
358.441	404.25
358.668	408.25
358.895	418.25
359.122	424.25
359.349	418.25
359.576	445.25
359.802	469.25
360.029	512.25
360.256	556.25
360.483	525.25
360.709	461.25
360.936	446.25
361.163	450.25
361.39	452.25
361.616	453.25
361.843	441.25
362.07	464.25
362.296	464.25
362.523	458.25
362.749	439.25
362.976	433.25
363.203	427.25
363.429	432.25
363.656	416.25
363.882	408.25
364.109	436.25
364.335	434.25
364.562	408.25
364.788	426.25
365.015	429.25
365.241	431.25
365.468	431.25
365.694	419.25
365.92	446.25
366.147	439.25
366.373	415.25
366.599	421.25
366.826	432.25
367.052	397.25
367.278	414.25
367.505	438.25
367.731	439.25
367.957	419.25
368.184	432.25
368.41	417.25
368.636	420.25
368.862	449.25
369.089	428.25
369.315	430.25
369.541	422.25
369.767	413.25
369.993	421.25
370.219	412.25
370.445	423.25
370.672	427.25
370.898	411.25
371.124	397.25
371.35	423.25
371.576	406.25
371.802	422.25
372.028	429.25
372.254	409.25
372.48	421.25
372.706	406.25
372.932	414.25
373.158	418.25
373.384	422.25
373.61	411.25
373.835	408.25
374.061	434.25
374.287	430.25
374.513	426.25
374.739	432.25
374.965	414.25
375.191	432.25
375.416	413.25
375.642	420.25
375.868	432.25
376.094	417.25
376.319	393.25
376.545	404.25
376.771	407.25
376.997	422.25
377.222	416.25
377.448	406.25
377.674	416.25
377.899	405.25
378.125	412.25
378.35	427.25
378.576	396.25
378.802	379.25
379.027	413.25
379.253	420.25
379.478	398.25
379.704	405.25
379.929	419.25
380.155	418.25
380.38	406.25
380.606	429.25
380.831	426.25
381.057	412.25
381.282	410.25
381.507	398.25
381.733	429.25
381.958	432.25
382.184	423.25
382.409	433.25
382.634	420.25
382.86	425.25
383.085	427.25
383.31	422.25
383.535	435.25
383.761	428.25
383.986	435.25
384.211	440.25
384.436	425.25
384.662	417.25
384.887	434.25
385.112	450.25
385.337	437.25
385.562	438.25
385.787	445.25
386.013	444.25
386.238	468.25
386.463	441.25
386.688	446.25
386.913	436.25
387.138	443.25
387.363	455.25
387.588	457.25
387.813	452.25
388.038	424.25
388.263	447.25
388.488	447.25
388.713	459.25
388.938	462.25
389.163	449.25
389.387	437.25
389.612	425.25
389.837	452.25
390.062	434.25
390.287	454.25
390.512	443.25
390.736	442.25
390.961	463.25
391.186	448.25
391.411	453.25
391.636	454.25
391.86	447.25
392.085	466.25
392.31	465.25
392.534	461.25
392.759	459.25
392.984	453.25
393.208	450.25
393.433	445.25
393.658	448.25
393.882	450.25
394.107	440.25
394.331	443.25
394.556	471.25
394.78	460.25
395.005	455.25
395.229	448.25
395.454	454.25
395.678	455.25
395.903	476.25
396.127	502.25
396.352	515.25
396.576	503.25
396.801	487.25
397.025	471.25
397.249	475.25
397.474	483.25
397.698	452.25
397.922	483.25
398.147	486.25
398.371	515.25
398.595	492.25
398.82	487.25
399.044	498.25
399.268	518.25
399.492	545.25
399.717	566.25
399.941	595.25
400.165	614.25
400.389	635.25
400.613	576.25
400.837	538.25
401.062	541.25
401.286	512.25
401.51	520.25
401.734	531.25
401.958	519.25
402.182	528.25
402.406	544.25
402.63	533.25
402.854	541.25
403.078	526.25
403.302	526.25
403.526	548.25
403.75	564.25
403.974	536.25
404.198	530.25
404.422	535.25
404.645	539.25
404.869	545.25
405.093	588.25
405.317	630.25
405.541	680.25
405.765	628.25
405.988	598.25
406.212	586.25
406.436	634.25
406.66	614.25
406.883	611.25
407.107	618.25
407.331	676.25
407.555	722.25
407.778	732.25
408.002	667.25
408.226	620.25
408.449	591.25
408.673	580.25
408.896	640.25
409.12	676.25
409.344	658.25
409.567	578.25
409.791	557.25
410.014	553.25
410.238	550.25
410.461	564.25
410.685	566.25
410.908	585.25
411.132	632.25
411.355	671.25
411.578	637.25
411.802	557.25
412.025	542.25
412.249	548.25
412.472	565.25
412.695	616.25
412.919	610.25
413.142	581.25
413.365	550.25
413.589	536.25
413.812	527.25
414.035	532.25
414.258	542.25
414.482	520.25
414.705	506.25
414.928	533.25
415.151	506.25
415.374	517.25
415.597	513.25
415.821	505.25
416.044	510.25
416.267	517.25
416.49	525.25
416.713	496.25
416.936	536.25
417.159	529.25
417.382	555.25
417.605	536.25
417.828	543.25
418.051	561.25
418.274	562.25
418.497	521.25
418.72	512.25
418.943	544.25
419.166	549.25
419.389	548.25
419.611	543.25
419.834	565.25
420.057	547.25
420.28	565.25
420.503	552.25
420.726	571.25
420.948	589.25
421.171	626.25
421.394	671.25
421.617	598.25
421.839	570.25
422.062	568.25
422.285	596.25
422.507	677.25
422.73	723.25
422.953	705.25
423.175	616.25
423.398	606.25
423.621	600.25
423.843	611.25
424.066	641.25
424.288	615.25
424.511	628.25
424.733	691.25
424.956	793.25
425.178	773.25
425.401	782.25
425.623	792.25
425.846	680.25
426.068	606.25
426.291	588.25
426.513	615.25
426.735	630.25
426.958	706.25
427.18	775.25
427.402	924.25
427.625	1028.25
427.847	949.25
428.069	807.25
428.292	715.25
428.514	646.25
428.736	590.25
428.958	593.25
429.181	564.25
429.403	564.25
429.625	594.25
429.847	631.25
430.069	714.25
430.292	692.25
430.514	601.25
430.736	581.25
430.958	573.25
431.18	529.25
431.402	536.25
431.624	545.25
431.846	528.25
432.068	497.25
432.29	533.25
432.512	542.25
432.734	549.25
432.956	551.25
433.178	561.25
433.4	573.25
433.622	557.25
433.844	543.25
434.066	541.25
434.287	532.25
434.509	546.25
434.731	534.25
434.953	564.25
435.175	568.25
435.397	621.25
435.618	613.25
435.84	666.25
436.062	782.25
436.284	866.25
436.505	729.25
436.727	650.25
436.949	594.25
437.17	592.25
437.392	590.25
437.614	626.25
437.835	651.25
438.057	779.25
438.278	896.25
438.5	910.25
438.721	957.25
438.943	889.25
439.165	737.25
439.386	678.25
439.608	667.25
439.829	673.25
440.05	689.25
440.272	749.25
440.493	691.25
440.715	628.25
440.936	615.25
441.158	604.25
441.379	583.25
441.6	604.25
441.822	652.25
442.043	677.25
442.264	789.25
442.486	846.25
442.707	726.25
442.928	643.25
443.149	671.25
443.371	686.25
443.592	738.25
443.813	865.25
444.034	882.25
444.255	756.25
444.476	675.25
444.698	636.25
444.919	614.25
445.14	771.25
445.361	683.25
445.582	686.25
445.803	791.25
446.024	884.25
446.245	943.25
446.466	847.25
446.687	693.25
446.908	614.25
447.129	604.25
447.35	614.25
447.571	608.25
447.792	598.25
448.013	596.25
448.234	624.25
448.455	702.25
448.675	839.25
448.896	927.25
449.117	789.25
449.338	739.25
449.559	900.25
449.779	982.25
450	801.25
450.221	648.25
450.442	624.25
450.662	619.25
450.883	612.25
451.104	609.25
451.324	626.25
451.545	581.25
451.766	562.25
451.986	520.25
452.207	534.25
452.428	518.25
452.648	532.25
452.869	529.25
453.089	548.25
453.31	588.25
453.53	548.25
453.751	520.25
453.971	535.25
454.192	557.25
454.412	551.25
454.633	542.25
454.853	520.25
455.073	531.25
455.294	562.25
455.514	651.25
455.734	659.25
455.955	556.25
456.175	516.25
456.395	469.25
456.616	476.25
456.836	482.25
457.056	497.25
457.276	466.25
457.497	475.25
457.717	494.25
457.937	502.25
458.157	489.25
458.377	491.25
458.598	522.25
458.818	627.25
459.038	736.25
459.258	754.25
459.478	637.25
459.698	539.25
459.918	537.25
460.138	540.25
460.358	522.25
460.578	505.25
460.798	533.25
461.018	542.25
461.238	555.25
461.458	531.25
461.678	511.25
461.898	541.25
462.118	512.25
462.338	518.25
462.558	541.25
462.777	544.25
462.997	571.25
463.217	580.25
463.437	574.25
463.657	571.25
463.876	550.25
464.096	556.25
464.316	539.25
464.536	551.25
464.755	567.25
464.975	565.25
465.195	641.25
465.414	801.25
465.634	674.25
465.854	616.25
466.073	572.25
466.293	554.25
466.512	529.25
466.732	533.25
466.951	529.25
467.171	536.25
467.391	522.25
467.61	548.25
467.829	550.25
468.049	548.25
468.268	549.25
468.488	556.25
468.707	539.25
468.927	521.25
469.146	532.25
469.365	509.25
469.585	489.25
469.804	530.25
470.023	522.25
470.243	524.25
470.462	555.25
470.681	569.25
470.901	574.25
471.12	535.25
471.339	538.25
471.558	536.25
471.777	540.25
471.997	526.25
472.216	542.25
472.435	605.25
472.654	578.25
472.873	561.25
473.092	538.25
473.311	532.25
473.53	554.25
473.749	549.25
473.968	619.25
474.187	712.25
474.406	775.25
474.625	630.25
474.844	579.25
475.063	564.25
475.282	526.25
475.501	537.25
475.72	552.25
475.939	561.25
476.158	572.25
476.377	562.25
476.596	563.25
476.814	578.25
477.033	584.25
477.252	585.25
477.471	588.25
477.69	600.25
477.908	590.25
478.127	580.25
478.346	569.25
478.564	572.25
478.783	599.25
479.002	572.25
479.22	590.25
479.439	603.25
479.658	625.25
479.876	656.25
480.095	666.25
480.313	680.25
480.532	666.25
480.751	672.25
480.969	696.25
481.188	746.25
481.406	836.25
481.624	716.25
481.843	670.25
482.061	659.25
482.28	646.25
482.498	655.25
482.717	640.25
482.935	626.25
483.153	630.25
483.372	650.25
483.59	653.25
483.808	635.25
484.027	630.25
484.245	642.25
484.463	656.25
484.681	668.25
484.9	658.25
485.118	661.25
485.336	662.25
485.554	673.25
485.772	668.25
485.99	661.25
486.209	683.25
486.427	708.25
486.645	718.25
486.863	715.25
487.081	718.25
487.299	718.25
487.517	701.25
487.735	710.25
487.953	728.25
488.171	702.25
488.389	709.25
488.607	722.25
488.825	720.25
489.043	697.25
489.261	712.25
489.479	725.25
489.696	733.25
489.914	717.25
490.132	740.25
490.35	744.25
490.568	757.25
490.786	765.25
491.003	751.25
491.221	799.25
491.439	824.25
491.657	782.25
491.874	812.25
492.092	849.25
492.31	854.25
492.527	839.25
492.745	835.25
492.963	806.25
493.18	843.25
493.398	866.25
493.615	859.25
493.833	864.25
494.05	871.25
494.268	861.25
494.485	844.25
494.703	826.25
494.92	841.25
495.138	860.25
495.355	868.25
495.573	853.25
495.79	871.25
496.008	853.25
496.225	827.25
496.442	850.25
496.66	842.25
496.877	845.25
497.094	852.25
497.312	870.25
497.529	871.25
497.746	890.25
497.963	900.25
498.181	893.25
498.398	914.25
498.615	890.25
498.832	905.25
499.049	937.25
499.267	911.25
499.484	940.25
499.701	960.25
499.918	979.25
500.135	1015.25
500.352	1048.25
500.569	1048.25
500.786	1027.25
501.003	1013.25
501.22	984.25
501.437	977.25
501.654	992.25
