Data from 1971.PennyLincolnUp.Lamp.En5.5.200Scan.071719.P1._HRD10591_15-19-54-841.txt Node
Date: Thu Jul 18 15:19:54 EDT 2019
User: cochatt
Spectrometer: HR+D1059
Trigger mode: 1
Integration Time (sec): 1.000000E-1
Scans to average: 1
Electric dark correction enabled: true
Nonlinearity correction enabled: false
Boxcar width: 0
XAxis mode: Wavelengths
Number of Pixels in Spectrum: 2048
>>>>>Begin Spectral Data<<<<<
223.165	-22.19
223.4	-22.19
223.635	-22.19
223.869	-5.19
224.104	-27.19
224.338	6.81
224.573	-8.19
224.808	-15.19
225.042	-12.19
225.277	-9.19
225.511	4.81
225.746	2.81
225.98	4.81
226.215	7.81
226.449	4.81
226.683	24.81
226.918	22.81
227.152	19.81
227.387	28.81
227.621	27.81
227.856	38.81
228.09	41.81
228.324	34.81
228.559	44.81
228.793	62.81
229.027	83.81
229.262	90.81
229.496	108.81
229.73	119.81
229.964	118.81
230.199	116.81
230.433	96.81
230.667	119.81
230.901	113.81
231.136	94.81
231.37	109.81
231.604	99.81
231.838	112.81
232.072	103.81
232.306	112.81
232.541	106.81
232.775	111.81
233.009	120.81
233.243	119.81
233.477	114.81
233.711	110.81
233.945	109.81
234.179	94.81
234.413	120.81
234.647	115.81
234.881	116.81
235.115	126.81
235.349	106.81
235.583	108.81
235.817	125.81
236.051	117.81
236.285	112.81
236.519	107.81
236.753	121.81
236.987	140.81
237.221	166.81
237.455	212.81
237.689	170.81
237.922	131.81
238.156	124.81
238.39	137.81
238.624	132.81
238.858	116.81
239.091	125.81
239.325	109.81
239.559	117.81
239.793	114.81
240.027	124.81
240.26	141.81
240.494	146.81
240.728	131.81
240.961	152.81
241.195	138.81
241.429	141.81
241.662	124.81
241.896	134.81
242.13	126.81
242.363	116.81
242.597	130.81
242.83	122.81
243.064	128.81
243.298	138.81
243.531	128.81
243.765	145.81
243.998	138.81
244.232	137.81
244.465	133.81
244.699	124.81
244.932	144.81
245.166	132.81
245.399	129.81
245.633	150.81
245.866	137.81
246.099	141.81
246.333	136.81
246.566	142.81
246.8	154.81
247.033	146.81
247.266	150.81
247.5	145.81
247.733	145.81
247.966	171.81
248.2	168.81
248.433	172.81
248.666	177.81
248.899	189.81
249.133	179.81
249.366	204.81
249.599	195.81
249.832	169.81
250.066	178.81
250.299	181.81
250.532	193.81
250.765	199.81
250.998	230.81
251.231	230.81
251.465	225.81
251.698	213.81
251.931	193.81
252.164	202.81
252.397	205.81
252.63	197.81
252.863	205.81
253.096	212.81
253.329	240.81
253.562	238.81
253.795	224.81
254.028	218.81
254.261	228.81
254.494	235.81
254.727	248.81
254.96	280.81
255.193	283.81
255.426	242.81
255.659	260.81
255.892	233.81
256.124	223.81
256.357	225.81
256.59	236.81
256.823	206.81
257.056	215.81
257.289	224.81
257.521	209.81
257.754	214.81
257.987	218.81
258.22	221.81
258.452	214.81
258.685	219.81
258.918	216.81
259.151	224.81
259.383	243.81
259.616	226.81
259.849	241.81
260.081	240.81
260.314	258.81
260.547	261.81
260.779	261.81
261.012	233.81
261.244	210.81
261.477	205.81
261.71	212.81
261.942	221.81
262.175	225.81
262.407	219.81
262.64	246.81
262.872	228.81
263.105	209.81
263.337	216.81
263.57	211.81
263.802	214.81
264.035	226.81
264.267	213.81
264.499	214.81
264.732	218.81
264.964	224.81
265.197	220.81
265.429	229.81
265.661	208.81
265.894	220.81
266.126	229.81
266.358	220.81
266.591	215.81
266.823	219.81
267.055	248.81
267.287	247.81
267.52	221.81
267.752	231.81
267.984	225.81
268.216	251.81
268.448	243.81
268.681	250.81
268.913	275.81
269.145	265.81
269.377	281.81
269.609	278.81
269.841	298.81
270.073	289.81
270.306	284.81
270.538	329.81
270.77	323.81
271.002	293.81
271.234	321.81
271.466	304.81
271.698	323.81
271.93	328.81
272.162	331.81
272.394	306.81
272.626	306.81
272.858	304.81
273.09	291.81
273.322	279.81
273.553	269.81
273.785	284.81
274.017	253.81
274.249	277.81
274.481	287.81
274.713	286.81
274.945	299.81
275.176	265.81
275.408	284.81
275.64	258.81
275.872	228.81
276.104	266.81
276.335	282.81
276.567	284.81
276.799	278.81
277.031	321.81
277.262	332.81
277.494	325.81
277.726	297.81
277.957	288.81
278.189	301.81
278.421	285.81
278.652	270.81
278.884	284.81
279.115	274.81
279.347	277.81
279.579	291.81
279.81	276.81
280.042	256.81
280.273	282.81
280.505	274.81
280.736	269.81
280.968	269.81
281.199	278.81
281.431	276.81
281.662	267.81
281.894	274.81
282.125	281.81
282.356	287.81
282.588	304.81
282.819	322.81
283.051	285.81
283.282	270.81
283.513	297.81
283.745	284.81
283.976	282.81
284.207	294.81
284.439	277.81
284.67	293.81
284.901	294.81
285.132	299.81
285.364	284.81
285.595	324.81
285.826	274.81
286.057	271.81
286.288	284.81
286.52	278.81
286.751	285.81
286.982	289.81
287.213	276.81
287.444	309.81
287.675	301.81
287.906	290.81
288.138	310.81
288.369	310.81
288.6	292.81
288.831	313.81
289.062	309.81
289.293	298.81
289.524	308.81
289.755	297.81
289.986	306.81
290.217	293.81
290.448	290.81
290.679	290.81
290.91	296.81
291.141	274.81
291.371	299.81
291.602	288.81
291.833	301.81
292.064	290.81
292.295	284.81
292.526	294.81
292.757	293.81
292.987	302.81
293.218	294.81
293.449	309.81
293.68	292.81
293.91	291.81
294.141	306.81
294.372	292.81
294.603	293.81
294.833	293.81
295.064	296.81
295.295	297.81
295.525	301.81
295.756	307.81
295.987	309.81
296.217	309.81
296.448	318.81
296.679	320.81
296.909	298.81
297.14	299.81
297.37	296.81
297.601	317.81
297.831	305.81
298.062	291.81
298.292	296.81
298.523	297.81
298.753	318.81
298.984	308.81
299.214	313.81
299.445	325.81
299.675	319.81
299.905	329.81
300.136	333.81
300.366	331.81
300.597	324.81
300.827	326.81
301.057	328.81
301.288	320.81
301.518	316.81
301.748	322.81
301.979	310.81
302.209	344.81
302.439	334.81
302.669	324.81
302.9	344.81
303.13	339.81
303.36	334.81
303.59	335.81
303.82	314.81
304.051	326.81
304.281	328.81
304.511	306.81
304.741	341.81
304.971	326.81
305.201	325.81
305.431	338.81
305.661	314.81
305.891	334.81
306.121	334.81
306.352	344.81
306.582	346.81
306.812	342.81
307.042	322.81
307.272	321.81
307.502	339.81
307.731	328.81
307.961	319.81
308.191	360.81
308.421	334.81
308.651	343.81
308.881	346.81
309.111	357.81
309.341	337.81
309.571	368.81
309.8	346.81
310.03	368.81
310.26	365.81
310.49	372.81
310.72	381.81
310.949	377.81
311.179	391.81
311.409	365.81
311.639	382.81
311.868	377.81
312.098	391.81
312.328	380.81
312.557	401.81
312.787	396.81
313.017	418.81
313.246	395.81
313.476	378.81
313.706	364.81
313.935	376.81
314.165	412.81
314.394	377.81
314.624	397.81
314.853	398.81
315.083	388.81
315.312	389.81
315.542	378.81
315.771	374.81
316.001	379.81
316.23	369.81
316.46	377.81
316.689	373.81
316.919	377.81
317.148	377.81
317.377	392.81
317.607	360.81
317.836	376.81
318.065	398.81
318.295	389.81
318.524	389.81
318.753	396.81
318.983	407.81
319.212	380.81
319.441	401.81
319.67	392.81
319.9	374.81
320.129	391.81
320.358	384.81
320.587	393.81
320.816	393.81
321.046	402.81
321.275	388.81
321.504	401.81
321.733	410.81
321.962	407.81
322.191	420.81
322.42	415.81
322.649	452.81
322.878	445.81
323.108	450.81
323.337	485.81
323.566	497.81
323.795	522.81
324.024	546.81
324.253	693.81
324.482	974.81
324.71	1434.81
324.939	1937.81
325.168	1670.81
325.397	863.81
325.626	630.81
325.855	533.81
326.084	506.81
326.313	486.81
326.542	494.81
326.77	522.81
326.999	621.81
327.228	864.81
327.457	1216.81
327.686	1422.81
327.914	978.81
328.143	648.81
328.372	588.81
328.6	603.81
328.829	562.81
329.058	539.81
329.287	542.81
329.515	529.81
329.744	501.81
329.972	486.81
330.201	515.81
330.43	531.81
330.658	561.81
330.887	579.81
331.115	565.81
331.344	503.81
331.572	488.81
331.801	489.81
332.03	465.81
332.258	466.81
332.486	453.81
332.715	451.81
332.943	443.81
333.172	447.81
333.4	427.81
333.629	466.81
333.857	468.81
334.085	468.81
334.314	489.81
334.542	512.81
334.771	520.81
334.999	459.81
335.227	463.81
335.455	462.81
335.684	441.81
335.912	442.81
336.14	437.81
336.369	433.81
336.597	438.81
336.825	448.81
337.053	429.81
337.281	425.81
337.51	419.81
337.738	434.81
337.966	438.81
338.194	425.81
338.422	437.81
338.65	417.81
338.878	419.81
339.106	413.81
339.334	422.81
339.562	426.81
339.79	404.81
340.018	425.81
340.246	438.81
340.474	423.81
340.702	419.81
340.93	425.81
341.158	414.81
341.386	421.81
341.614	418.81
341.842	413.81
342.07	405.81
342.298	407.81
342.526	413.81
342.754	393.81
342.981	398.81
343.209	409.81
343.437	422.81
343.665	412.81
343.893	417.81
344.12	430.81
344.348	430.81
344.576	425.81
344.804	438.81
345.031	409.81
345.259	439.81
345.487	436.81
345.714	414.81
345.942	387.81
346.17	413.81
346.397	401.81
346.625	413.81
346.853	394.81
347.08	416.81
347.308	404.81
347.535	411.81
347.763	417.81
347.99	397.81
348.218	410.81
348.445	404.81
348.673	407.81
348.9	406.81
349.128	396.81
349.355	391.81
349.583	374.81
349.81	362.81
350.037	392.81
350.265	388.81
350.492	372.81
350.72	412.81
350.947	391.81
351.174	404.81
351.402	418.81
351.629	404.81
351.856	392.81
352.083	401.81
352.311	394.81
352.538	387.81
352.765	401.81
352.992	396.81
353.22	380.81
353.447	369.81
353.674	386.81
353.901	377.81
354.128	382.81
354.355	386.81
354.583	373.81
354.81	387.81
355.037	376.81
355.264	368.81
355.491	361.81
355.718	364.81
355.945	374.81
356.172	350.81
356.399	375.81
356.626	373.81
356.853	364.81
357.08	356.81
357.307	355.81
357.534	350.81
357.761	347.81
357.988	373.81
358.215	376.81
358.441	376.81
358.668	382.81
358.895	368.81
359.122	384.81
359.349	383.81
359.576	375.81
359.802	404.81
360.029	406.81
360.256	419.81
360.483	413.81
360.709	397.81
360.936	390.81
361.163	372.81
361.39	388.81
361.616	381.81
361.843	384.81
362.07	362.81
362.296	392.81
362.523	356.81
362.749	368.81
362.976	365.81
363.203	373.81
363.429	362.81
363.656	366.81
363.882	373.81
364.109	365.81
364.335	366.81
364.562	358.81
364.788	368.81
365.015	380.81
365.241	386.81
365.468	373.81
365.694	374.81
365.92	381.81
366.147	363.81
366.373	392.81
366.599	360.81
366.826	377.81
367.052	361.81
367.278	360.81
367.505	361.81
367.731	361.81
367.957	364.81
368.184	382.81
368.41	378.81
368.636	370.81
368.862	366.81
369.089	361.81
369.315	356.81
369.541	371.81
369.767	372.81
369.993	353.81
370.219	377.81
370.445	346.81
370.672	332.81
370.898	371.81
371.124	357.81
371.35	362.81
371.576	372.81
371.802	349.81
372.028	365.81
372.254	351.81
372.48	365.81
372.706	355.81
372.932	373.81
373.158	370.81
373.384	357.81
373.61	364.81
373.835	355.81
374.061	355.81
374.287	360.81
374.513	373.81
374.739	365.81
374.965	355.81
375.191	357.81
375.416	377.81
375.642	352.81
375.868	374.81
376.094	366.81
376.319	349.81
376.545	355.81
376.771	354.81
376.997	354.81
377.222	347.81
377.448	366.81
377.674	358.81
377.899	348.81
378.125	351.81
378.35	350.81
378.576	348.81
378.802	332.81
379.027	365.81
379.253	342.81
379.478	361.81
379.704	358.81
379.929	353.81
380.155	349.81
380.38	346.81
380.606	359.81
380.831	349.81
381.057	354.81
381.282	359.81
381.507	366.81
381.733	356.81
381.958	348.81
382.184	368.81
382.409	353.81
382.634	359.81
382.86	347.81
383.085	360.81
383.31	357.81
383.535	365.81
383.761	370.81
383.986	372.81
384.211	343.81
384.436	372.81
384.662	352.81
384.887	357.81
385.112	373.81
385.337	372.81
385.562	378.81
385.787	375.81
386.013	393.81
386.238	384.81
386.463	378.81
386.688	392.81
386.913	405.81
387.138	380.81
387.363	376.81
387.588	376.81
387.813	361.81
388.038	371.81
388.263	379.81
388.488	373.81
388.713	371.81
388.938	398.81
389.163	357.81
389.387	362.81
389.612	378.81
389.837	365.81
390.062	370.81
390.287	365.81
390.512	377.81
390.736	373.81
390.961	362.81
391.186	362.81
391.411	373.81
391.636	362.81
391.86	370.81
392.085	382.81
392.31	374.81
392.534	386.81
392.759	365.81
392.984	374.81
393.208	377.81
393.433	369.81
393.658	358.81
393.882	371.81
394.107	378.81
394.331	354.81
394.556	374.81
394.78	373.81
395.005	376.81
395.229	370.81
395.454	361.81
395.678	371.81
395.903	395.81
396.127	404.81
396.352	399.81
396.576	389.81
396.801	398.81
397.025	393.81
397.249	370.81
397.474	392.81
397.698	392.81
397.922	411.81
398.147	421.81
398.371	421.81
398.595	397.81
398.82	407.81
399.044	426.81
399.268	419.81
399.492	444.81
399.717	463.81
399.941	497.81
400.165	487.81
400.389	496.81
400.613	450.81
400.837	447.81
401.062	427.81
401.286	414.81
401.51	407.81
401.734	399.81
401.958	422.81
402.182	419.81
402.406	429.81
402.63	428.81
402.854	416.81
403.078	438.81
403.302	417.81
403.526	434.81
403.75	453.81
403.974	430.81
404.198	414.81
404.422	430.81
404.645	423.81
404.869	444.81
405.093	456.81
405.317	491.81
405.541	506.81
405.765	466.81
405.988	450.81
406.212	469.81
406.436	464.81
406.66	457.81
406.883	463.81
407.107	474.81
407.331	491.81
407.555	565.81
407.778	526.81
408.002	529.81
408.226	467.81
408.449	461.81
408.673	472.81
408.896	489.81
409.12	516.81
409.344	510.81
409.567	453.81
409.791	417.81
410.014	432.81
410.238	413.81
410.461	429.81
410.685	449.81
410.908	429.81
411.132	472.81
411.355	493.81
411.578	464.81
411.802	429.81
412.025	418.81
412.249	430.81
412.472	465.81
412.695	521.81
412.919	472.81
413.142	442.81
413.365	398.81
413.589	414.81
413.812	410.81
414.035	406.81
414.258	396.81
414.482	413.81
414.705	404.81
414.928	392.81
415.151	392.81
415.374	372.81
415.597	406.81
415.821	418.81
416.044	394.81
416.267	404.81
416.49	403.81
416.713	406.81
416.936	412.81
417.159	392.81
417.382	390.81
417.605	385.81
417.828	412.81
418.051	413.81
418.274	416.81
418.497	397.81
418.72	406.81
418.943	389.81
419.166	416.81
419.389	423.81
419.611	409.81
419.834	421.81
420.057	436.81
420.28	414.81
420.503	424.81
420.726	419.81
420.948	427.81
421.171	454.81
421.394	469.81
421.617	434.81
421.839	433.81
422.062	412.81
422.285	443.81
422.507	449.81
422.73	525.81
422.953	508.81
423.175	459.81
423.398	436.81
423.621	435.81
423.843	460.81
424.066	455.81
424.288	454.81
424.511	469.81
424.733	518.81
424.956	592.81
425.178	552.81
425.401	542.81
425.623	566.81
425.846	470.81
426.068	457.81
426.291	461.81
426.513	453.81
426.735	448.81
426.958	494.81
427.18	563.81
427.402	664.81
427.625	718.81
427.847	622.81
428.069	565.81
428.292	505.81
428.514	452.81
428.736	419.81
428.958	428.81
429.181	397.81
429.403	422.81
429.625	426.81
429.847	451.81
430.069	501.81
430.292	509.81
430.514	445.81
430.736	422.81
430.958	419.81
431.18	396.81
431.402	412.81
431.624	408.81
431.846	391.81
432.068	392.81
432.29	396.81
432.512	397.81
432.734	396.81
432.956	398.81
433.178	402.81
433.4	402.81
433.622	396.81
433.844	393.81
434.066	399.81
434.287	393.81
434.509	374.81
434.731	390.81
434.953	410.81
435.175	422.81
435.397	451.81
435.618	458.81
435.84	480.81
436.062	576.81
436.284	613.81
436.505	526.81
436.727	474.81
436.949	421.81
437.17	415.81
437.392	421.81
437.614	414.81
437.835	455.81
438.057	512.81
438.278	602.81
438.5	584.81
438.721	689.81
438.943	636.81
439.165	510.81
439.386	454.81
439.608	477.81
439.829	460.81
440.05	477.81
440.272	504.81
440.493	487.81
440.715	458.81
440.936	435.81
441.158	417.81
441.379	422.81
441.6	438.81
441.822	454.81
442.043	488.81
442.264	554.81
442.486	567.81
442.707	515.81
442.928	478.81
443.149	450.81
443.371	464.81
443.592	537.81
443.813	606.81
444.034	639.81
444.255	538.81
444.476	468.81
444.698	458.81
444.919	466.81
445.14	549.81
445.361	494.81
445.582	510.81
445.803	534.81
446.024	592.81
446.245	596.81
446.466	569.81
446.687	501.81
446.908	440.81
447.129	421.81
447.35	419.81
447.571	424.81
447.792	393.81
448.013	414.81
448.234	448.81
448.455	475.81
448.675	570.81
448.896	659.81
449.117	566.81
449.338	521.81
449.559	610.81
449.779	675.81
450	560.81
450.221	459.81
450.442	424.81
450.662	411.81
450.883	409.81
451.104	429.81
451.324	405.81
451.545	384.81
451.766	374.81
451.986	374.81
452.207	352.81
452.428	353.81
452.648	361.81
452.869	369.81
453.089	376.81
453.31	398.81
453.53	376.81
453.751	356.81
453.971	374.81
454.192	374.81
454.412	370.81
454.633	344.81
454.853	360.81
455.073	377.81
455.294	397.81
455.514	443.81
455.734	433.81
455.955	374.81
456.175	343.81
456.395	350.81
456.616	342.81
456.836	364.81
457.056	344.81
457.276	343.81
457.497	348.81
457.717	348.81
457.937	355.81
458.157	341.81
458.377	360.81
458.598	378.81
458.818	426.81
459.038	474.81
459.258	504.81
459.478	420.81
459.698	387.81
459.918	372.81
460.138	383.81
460.358	372.81
460.578	393.81
460.798	380.81
461.018	392.81
461.238	387.81
461.458	413.81
461.678	382.81
461.898	395.81
462.118	384.81
462.338	392.81
462.558	388.81
462.777	398.81
462.997	414.81
463.217	403.81
463.437	424.81
463.657	398.81
463.876	402.81
464.096	400.81
464.316	392.81
464.536	406.81
464.755	404.81
464.975	437.81
465.195	457.81
465.414	497.81
465.634	426.81
465.854	404.81
466.073	413.81
466.293	371.81
466.512	381.81
466.732	369.81
466.951	370.81
467.171	363.81
467.391	383.81
467.61	386.81
467.829	382.81
468.049	378.81
468.268	394.81
468.488	368.81
468.707	360.81
468.927	355.81
469.146	359.81
469.365	362.81
469.585	368.81
469.804	380.81
470.023	393.81
470.243	370.81
470.462	384.81
470.681	396.81
470.901	405.81
471.12	400.81
471.339	399.81
471.558	360.81
471.777	397.81
471.997	374.81
472.216	390.81
472.435	409.81
472.654	370.81
472.873	374.81
473.092	381.81
473.311	375.81
473.53	392.81
473.749	396.81
473.968	437.81
474.187	507.81
474.406	496.81
474.625	411.81
474.844	376.81
475.063	383.81
475.282	380.81
475.501	386.81
475.72	380.81
475.939	391.81
476.158	377.81
476.377	391.81
476.596	410.81
476.814	398.81
477.033	405.81
477.252	387.81
477.471	421.81
477.69	414.81
477.908	397.81
478.127	421.81
478.346	405.81
478.564	403.81
478.783	415.81
479.002	409.81
479.22	428.81
479.439	445.81
479.658	438.81
479.876	444.81
480.095	445.81
480.313	470.81
480.532	484.81
480.751	458.81
480.969	448.81
481.188	490.81
481.406	518.81
481.624	480.81
481.843	436.81
482.061	444.81
482.28	448.81
482.498	427.81
482.717	440.81
482.935	437.81
483.153	436.81
483.372	449.81
483.59	467.81
483.808	435.81
484.027	425.81
484.245	428.81
484.463	459.81
484.681	445.81
484.9	441.81
485.118	455.81
485.336	443.81
485.554	452.81
485.772	453.81
485.99	449.81
486.209	449.81
486.427	478.81
486.645	467.81
486.863	456.81
487.081	477.81
487.299	447.81
487.517	460.81
487.735	458.81
487.953	499.81
488.171	484.81
488.389	468.81
488.607	475.81
488.825	469.81
489.043	484.81
489.261	474.81
489.479	475.81
489.696	478.81
489.914	474.81
490.132	485.81
490.35	507.81
490.568	488.81
490.786	530.81
491.003	523.81
491.221	538.81
491.439	530.81
491.657	538.81
491.874	528.81
492.092	555.81
492.31	570.81
492.527	553.81
492.745	585.81
492.963	559.81
493.18	539.81
493.398	566.81
493.615	562.81
493.833	585.81
494.05	552.81
494.268	567.81
494.485	577.81
494.703	557.81
494.92	587.81
495.138	568.81
495.355	575.81
495.573	577.81
495.79	570.81
496.008	570.81
496.225	571.81
496.442	555.81
496.66	562.81
496.877	557.81
497.094	544.81
497.312	586.81
497.529	573.81
497.746	551.81
497.963	571.81
498.181	608.81
498.398	578.81
498.615	588.81
498.832	624.81
499.049	632.81
499.267	632.81
499.484	643.81
499.701	648.81
499.918	677.81
500.135	690.81
500.352	746.81
500.569	750.81
500.786	746.81
501.003	725.81
501.22	694.81
501.437	707.81
501.654	705.81
501.871	674.81
502.088	653.81
