Data from 1971.PennyLincolnUp.Lamp.En5.5.200Scan.071719.P1.Scan 2. Changed Angle._HRD10591_15-23-26-842.txt Node
Date: Thu Jul 18 15:23:26 EDT 2019
User: cochatt
Spectrometer: HR+D1059
Trigger mode: 1
Integration Time (sec): 1.000000E-1
Scans to average: 1
Electric dark correction enabled: true
Nonlinearity correction enabled: false
Boxcar width: 0
XAxis mode: Wavelengths
Number of Pixels in Spectrum: 2048
>>>>>Begin Spectral Data<<<<<
223.165	-29.88
223.4	-29.88
223.635	-29.88
223.869	-13.88
224.104	-13.88
224.338	2.12
224.573	-16.88
224.808	-13.88
225.042	-21.88
225.277	1.12
225.511	-1.88
225.746	3.12
225.98	4.12
226.215	3.12
226.449	26.12
226.683	21.12
226.918	20.12
227.152	31.12
227.387	35.12
227.621	32.12
227.856	46.12
228.09	53.12
228.324	46.12
228.559	61.12
228.793	60.12
229.027	106.12
229.262	125.12
229.496	121.12
229.73	145.12
229.964	176.12
230.199	149.12
230.433	121.12
230.667	105.12
230.901	98.12
231.136	127.12
231.37	123.12
231.604	117.12
231.838	123.12
232.072	116.12
232.306	122.12
232.541	117.12
232.775	116.12
233.009	114.12
233.243	109.12
233.477	120.12
233.711	105.12
233.945	132.12
234.179	118.12
234.413	131.12
234.647	119.12
234.881	122.12
235.115	128.12
235.349	112.12
235.583	121.12
235.817	128.12
236.051	114.12
236.285	124.12
236.519	130.12
236.753	134.12
236.987	152.12
237.221	207.12
237.455	256.12
237.689	207.12
237.922	156.12
238.156	150.12
238.39	145.12
238.624	132.12
238.858	119.12
239.091	118.12
239.325	125.12
239.559	134.12
239.793	141.12
240.027	138.12
240.26	156.12
240.494	162.12
240.728	158.12
240.961	167.12
241.195	148.12
241.429	146.12
241.662	129.12
241.896	146.12
242.13	131.12
242.363	124.12
242.597	138.12
242.83	135.12
243.064	156.12
243.298	149.12
243.531	141.12
243.765	126.12
243.998	141.12
244.232	150.12
244.465	138.12
244.699	163.12
244.932	152.12
245.166	160.12
245.399	153.12
245.633	142.12
245.866	154.12
246.099	162.12
246.333	146.12
246.566	176.12
246.8	149.12
247.033	157.12
247.266	161.12
247.5	165.12
247.733	178.12
247.966	180.12
248.2	172.12
248.433	187.12
248.666	187.12
248.899	183.12
249.133	205.12
249.366	212.12
249.599	231.12
249.832	203.12
250.066	197.12
250.299	184.12
250.532	200.12
250.765	225.12
250.998	239.12
251.231	242.12
251.465	241.12
251.698	197.12
251.931	210.12
252.164	207.12
252.397	213.12
252.63	231.12
252.863	218.12
253.096	229.12
253.329	249.12
253.562	253.12
253.795	241.12
254.028	228.12
254.261	226.12
254.494	253.12
254.727	277.12
254.96	315.12
255.193	301.12
255.426	274.12
255.659	258.12
255.892	243.12
256.124	245.12
256.357	244.12
256.59	253.12
256.823	238.12
257.056	229.12
257.289	238.12
257.521	242.12
257.754	223.12
257.987	217.12
258.22	213.12
258.452	202.12
258.685	204.12
258.918	218.12
259.151	216.12
259.383	218.12
259.616	227.12
259.849	223.12
260.081	258.12
260.314	260.12
260.547	276.12
260.779	275.12
261.012	226.12
261.244	232.12
261.477	234.12
261.71	225.12
261.942	232.12
262.175	254.12
262.407	250.12
262.64	219.12
262.872	206.12
263.105	202.12
263.337	228.12
263.57	209.12
263.802	208.12
264.035	213.12
264.267	197.12
264.499	202.12
264.732	222.12
264.964	224.12
265.197	201.12
265.429	204.12
265.661	219.12
265.894	207.12
266.126	219.12
266.358	214.12
266.591	219.12
266.823	199.12
267.055	224.12
267.287	242.12
267.52	237.12
267.752	221.12
267.984	217.12
268.216	208.12
268.448	231.12
268.681	228.12
268.913	252.12
269.145	259.12
269.377	278.12
269.609	270.12
269.841	261.12
270.073	282.12
270.306	298.12
270.538	333.12
270.77	322.12
271.002	321.12
271.234	312.12
271.466	326.12
271.698	298.12
271.93	312.12
272.162	326.12
272.394	330.12
272.626	307.12
272.858	302.12
273.09	284.12
273.322	283.12
273.553	248.12
273.785	270.12
274.017	253.12
274.249	258.12
274.481	274.12
274.713	272.12
274.945	246.12
275.176	247.12
275.408	277.12
275.64	259.12
275.872	267.12
276.104	256.12
276.335	274.12
276.567	266.12
276.799	309.12
277.031	297.12
277.262	311.12
277.494	325.12
277.726	323.12
277.957	293.12
278.189	287.12
278.421	292.12
278.652	296.12
278.884	272.12
279.115	251.12
279.347	260.12
279.579	267.12
279.81	250.12
280.042	261.12
280.273	241.12
280.505	265.12
280.736	258.12
280.968	260.12
281.199	264.12
281.431	259.12
281.662	265.12
281.894	269.12
282.125	258.12
282.356	284.12
282.588	302.12
282.819	312.12
283.051	268.12
283.282	239.12
283.513	264.12
283.745	260.12
283.976	254.12
284.207	266.12
284.439	268.12
284.67	253.12
284.901	267.12
285.132	265.12
285.364	253.12
285.595	262.12
285.826	253.12
286.057	271.12
286.288	263.12
286.52	265.12
286.751	257.12
286.982	263.12
287.213	281.12
287.444	294.12
287.675	270.12
287.906	284.12
288.138	273.12
288.369	287.12
288.6	289.12
288.831	285.12
289.062	290.12
289.293	292.12
289.524	272.12
289.755	293.12
289.986	277.12
290.217	271.12
290.448	253.12
290.679	283.12
290.91	281.12
291.141	285.12
291.371	280.12
291.602	283.12
291.833	278.12
292.064	268.12
292.295	282.12
292.526	299.12
292.757	278.12
292.987	264.12
293.218	277.12
293.449	290.12
293.68	269.12
293.91	280.12
294.141	270.12
294.372	259.12
294.603	292.12
294.833	280.12
295.064	278.12
295.295	270.12
295.525	267.12
295.756	276.12
295.987	292.12
296.217	293.12
296.448	321.12
296.679	302.12
296.909	286.12
297.14	289.12
297.37	289.12
297.601	292.12
297.831	286.12
298.062	277.12
298.292	278.12
298.523	290.12
298.753	299.12
298.984	292.12
299.214	287.12
299.445	304.12
299.675	290.12
299.905	295.12
300.136	287.12
300.366	281.12
300.597	294.12
300.827	292.12
301.057	317.12
301.288	307.12
301.518	291.12
301.748	295.12
301.979	317.12
302.209	297.12
302.439	317.12
302.669	300.12
302.9	308.12
303.13	315.12
303.36	325.12
303.59	328.12
303.82	320.12
304.051	326.12
304.281	314.12
304.511	306.12
304.741	304.12
304.971	315.12
305.201	318.12
305.431	315.12
305.661	301.12
305.891	316.12
306.121	324.12
306.352	317.12
306.582	315.12
306.812	327.12
307.042	329.12
307.272	313.12
307.502	307.12
307.731	314.12
307.961	308.12
308.191	324.12
308.421	324.12
308.651	325.12
308.881	330.12
309.111	334.12
309.341	336.12
309.571	344.12
309.8	361.12
310.03	366.12
310.26	369.12
310.49	377.12
310.72	362.12
310.949	390.12
311.179	404.12
311.409	368.12
311.639	359.12
311.868	370.12
312.098	372.12
312.328	373.12
312.557	384.12
312.787	419.12
313.017	412.12
313.246	393.12
313.476	372.12
313.706	380.12
313.935	375.12
314.165	365.12
314.394	395.12
314.624	382.12
314.853	397.12
315.083	390.12
315.312	375.12
315.542	355.12
315.771	361.12
316.001	360.12
316.23	363.12
316.46	355.12
316.689	379.12
316.919	376.12
317.148	375.12
317.377	385.12
317.607	400.12
317.836	388.12
318.065	371.12
318.295	376.12
318.524	379.12
318.753	353.12
318.983	373.12
319.212	392.12
319.441	396.12
319.67	381.12
319.9	342.12
320.129	377.12
320.358	377.12
320.587	370.12
320.816	382.12
321.046	389.12
321.275	382.12
321.504	380.12
321.733	408.12
321.962	403.12
322.191	385.12
322.42	434.12
322.649	466.12
322.878	457.12
323.108	472.12
323.337	504.12
323.566	521.12
323.795	604.12
324.024	629.12
324.253	766.12
324.482	1117.12
324.71	1787.12
324.939	2570.12
325.168	2198.12
325.397	1140.12
325.626	757.12
325.855	598.12
326.084	564.12
326.313	541.12
326.542	538.12
326.77	619.12
326.999	715.12
327.228	1001.12
327.457	1597.12
327.686	1925.12
327.914	1246.12
328.143	826.12
328.372	702.12
328.6	655.12
328.829	634.12
329.058	636.12
329.287	658.12
329.515	589.12
329.744	518.12
329.972	543.12
330.201	584.12
330.43	584.12
330.658	626.12
330.887	686.12
331.115	658.12
331.344	559.12
331.572	533.12
331.801	522.12
332.03	513.12
332.258	489.12
332.486	450.12
332.715	445.12
332.943	434.12
333.172	462.12
333.4	442.12
333.629	454.12
333.857	490.12
334.085	478.12
334.314	488.12
334.542	529.12
334.771	555.12
334.999	500.12
335.227	472.12
335.455	436.12
335.684	460.12
335.912	416.12
336.14	432.12
336.369	421.12
336.597	445.12
336.825	432.12
337.053	440.12
337.281	422.12
337.51	422.12
337.738	411.12
337.966	434.12
338.194	439.12
338.422	452.12
338.65	409.12
338.878	427.12
339.106	408.12
339.334	430.12
339.562	436.12
339.79	429.12
340.018	420.12
340.246	413.12
340.474	465.12
340.702	393.12
340.93	410.12
341.158	440.12
341.386	441.12
341.614	447.12
341.842	421.12
342.07	422.12
342.298	412.12
342.526	411.12
342.754	398.12
342.981	403.12
343.209	398.12
343.437	416.12
343.665	422.12
343.893	425.12
344.12	424.12
344.348	427.12
344.576	409.12
344.804	427.12
345.031	426.12
345.259	471.12
345.487	449.12
345.714	449.12
345.942	424.12
346.17	413.12
346.397	432.12
346.625	449.12
346.853	445.12
347.08	428.12
347.308	412.12
347.535	444.12
347.763	439.12
347.99	431.12
348.218	420.12
348.445	438.12
348.673	444.12
348.9	412.12
349.128	425.12
349.355	422.12
349.583	406.12
349.81	398.12
350.037	404.12
350.265	403.12
350.492	404.12
350.72	404.12
350.947	422.12
351.174	430.12
351.402	448.12
351.629	442.12
351.856	423.12
352.083	441.12
352.311	448.12
352.538	454.12
352.765	450.12
352.992	436.12
353.22	449.12
353.447	428.12
353.674	408.12
353.901	416.12
354.128	408.12
354.355	370.12
354.583	383.12
354.81	384.12
355.037	387.12
355.264	389.12
355.491	387.12
355.718	384.12
355.945	395.12
356.172	384.12
356.399	390.12
356.626	395.12
356.853	376.12
357.08	378.12
357.307	376.12
357.534	394.12
357.761	393.12
357.988	372.12
358.215	386.12
358.441	412.12
358.668	386.12
358.895	390.12
359.122	412.12
359.349	418.12
359.576	435.12
359.802	470.12
360.029	473.12
360.256	492.12
360.483	472.12
360.709	458.12
360.936	432.12
361.163	414.12
361.39	427.12
361.616	437.12
361.843	427.12
362.07	441.12
362.296	448.12
362.523	422.12
362.749	429.12
362.976	429.12
363.203	413.12
363.429	434.12
363.656	390.12
363.882	440.12
364.109	418.12
364.335	417.12
364.562	415.12
364.788	379.12
365.015	394.12
365.241	432.12
365.468	419.12
365.694	454.12
365.92	427.12
366.147	403.12
366.373	396.12
366.599	396.12
366.826	395.12
367.052	399.12
367.278	398.12
367.505	406.12
367.731	402.12
367.957	409.12
368.184	392.12
368.41	416.12
368.636	427.12
368.862	434.12
369.089	415.12
369.315	395.12
369.541	399.12
369.767	396.12
369.993	413.12
370.219	405.12
370.445	407.12
370.672	403.12
370.898	407.12
371.124	394.12
371.35	427.12
371.576	417.12
371.802	402.12
372.028	401.12
372.254	422.12
372.48	403.12
372.706	399.12
372.932	401.12
373.158	408.12
373.384	410.12
373.61	398.12
373.835	390.12
374.061	417.12
374.287	397.12
374.513	413.12
374.739	413.12
374.965	423.12
375.191	410.12
375.416	419.12
375.642	429.12
375.868	420.12
376.094	387.12
376.319	399.12
376.545	404.12
376.771	410.12
376.997	388.12
377.222	391.12
377.448	369.12
377.674	392.12
377.899	412.12
378.125	392.12
378.35	391.12
378.576	390.12
378.802	398.12
379.027	419.12
379.253	404.12
379.478	406.12
379.704	400.12
379.929	411.12
380.155	406.12
380.38	417.12
380.606	412.12
380.831	399.12
381.057	418.12
381.282	416.12
381.507	407.12
381.733	398.12
381.958	420.12
382.184	427.12
382.409	426.12
382.634	421.12
382.86	421.12
383.085	419.12
383.31	400.12
383.535	419.12
383.761	416.12
383.986	445.12
384.211	416.12
384.436	403.12
384.662	421.12
384.887	430.12
385.112	415.12
385.337	430.12
385.562	412.12
385.787	443.12
386.013	437.12
386.238	435.12
386.463	456.12
386.688	433.12
386.913	443.12
387.138	440.12
387.363	427.12
387.588	456.12
387.813	442.12
388.038	440.12
388.263	442.12
388.488	421.12
388.713	429.12
388.938	439.12
389.163	434.12
389.387	444.12
389.612	457.12
389.837	434.12
390.062	451.12
390.287	439.12
390.512	448.12
390.736	438.12
390.961	452.12
391.186	423.12
391.411	410.12
391.636	441.12
391.86	449.12
392.085	447.12
392.31	435.12
392.534	449.12
392.759	432.12
392.984	435.12
393.208	445.12
393.433	457.12
393.658	452.12
393.882	447.12
394.107	421.12
394.331	429.12
394.556	440.12
394.78	427.12
395.005	445.12
395.229	451.12
395.454	457.12
395.678	467.12
395.903	470.12
396.127	491.12
396.352	482.12
396.576	458.12
396.801	458.12
397.025	472.12
397.249	484.12
397.474	472.12
397.698	478.12
397.922	492.12
398.147	498.12
398.371	526.12
398.595	462.12
398.82	484.12
399.044	477.12
399.268	510.12
399.492	520.12
399.717	537.12
399.941	557.12
400.165	606.12
400.389	626.12
400.613	589.12
400.837	536.12
401.062	506.12
401.286	535.12
401.51	515.12
401.734	507.12
401.958	487.12
402.182	524.12
402.406	523.12
402.63	539.12
402.854	508.12
403.078	508.12
403.302	496.12
403.526	527.12
403.75	534.12
403.974	519.12
404.198	539.12
404.422	543.12
404.645	535.12
404.869	543.12
405.093	570.12
405.317	595.12
405.541	634.12
405.765	588.12
405.988	572.12
406.212	579.12
406.436	601.12
406.66	633.12
406.883	594.12
407.107	640.12
407.331	669.12
407.555	724.12
407.778	690.12
408.002	674.12
408.226	596.12
408.449	594.12
408.673	566.12
408.896	606.12
409.12	662.12
409.344	646.12
409.567	560.12
409.791	543.12
410.014	567.12
410.238	531.12
410.461	531.12
410.685	561.12
410.908	563.12
411.132	603.12
411.355	629.12
411.578	585.12
411.802	562.12
412.025	555.12
412.249	542.12
412.472	560.12
412.695	603.12
412.919	621.12
413.142	558.12
413.365	519.12
413.589	556.12
413.812	532.12
414.035	515.12
414.258	494.12
414.482	512.12
414.705	500.12
414.928	501.12
415.151	502.12
415.374	482.12
415.597	499.12
415.821	496.12
416.044	486.12
416.267	514.12
416.49	497.12
416.713	510.12
416.936	517.12
417.159	482.12
417.382	514.12
417.605	505.12
417.828	531.12
418.051	538.12
418.274	514.12
418.497	514.12
418.72	536.12
418.943	517.12
419.166	530.12
419.389	549.12
419.611	565.12
419.834	558.12
420.057	544.12
420.28	554.12
420.503	524.12
420.726	544.12
420.948	557.12
421.171	614.12
421.394	641.12
421.617	570.12
421.839	561.12
422.062	566.12
422.285	583.12
422.507	632.12
422.73	714.12
422.953	697.12
423.175	602.12
423.398	587.12
423.621	564.12
423.843	611.12
424.066	606.12
424.288	610.12
424.511	637.12
424.733	678.12
424.956	785.12
425.178	741.12
425.401	754.12
425.623	744.12
425.846	636.12
426.068	626.12
426.291	608.12
426.513	620.12
426.735	608.12
426.958	676.12
427.18	763.12
427.402	854.12
427.625	995.12
427.847	898.12
428.069	753.12
428.292	690.12
428.514	634.12
428.736	569.12
428.958	578.12
429.181	558.12
429.403	549.12
429.625	571.12
429.847	621.12
430.069	676.12
430.292	662.12
430.514	596.12
430.736	566.12
430.958	556.12
431.18	544.12
431.402	514.12
431.624	489.12
431.846	502.12
432.068	482.12
432.29	509.12
432.512	526.12
432.734	525.12
432.956	545.12
433.178	557.12
433.4	548.12
433.622	517.12
433.844	521.12
434.066	508.12
434.287	493.12
434.509	522.12
434.731	512.12
434.953	530.12
435.175	553.12
435.397	594.12
435.618	617.12
435.84	666.12
436.062	759.12
436.284	835.12
436.505	685.12
436.727	644.12
436.949	590.12
437.17	569.12
437.392	568.12
437.614	600.12
437.835	612.12
438.057	755.12
438.278	826.12
438.5	858.12
438.721	916.12
438.943	856.12
439.165	683.12
439.386	654.12
439.608	649.12
439.829	629.12
440.05	661.12
440.272	705.12
440.493	669.12
440.715	610.12
440.936	574.12
441.158	584.12
441.379	557.12
441.6	603.12
441.822	598.12
442.043	661.12
442.264	725.12
442.486	814.12
442.707	672.12
442.928	650.12
443.149	646.12
443.371	634.12
443.592	697.12
443.813	809.12
444.034	856.12
444.255	730.12
444.476	629.12
444.698	615.12
444.919	608.12
445.14	702.12
445.361	674.12
445.582	658.12
445.803	760.12
446.024	861.12
446.245	850.12
446.466	771.12
446.687	662.12
446.908	641.12
447.129	590.12
447.35	550.12
447.571	566.12
447.792	572.12
448.013	562.12
448.234	615.12
448.455	637.12
448.675	786.12
448.896	876.12
449.117	788.12
449.338	738.12
449.559	848.12
449.779	917.12
450	735.12
450.221	627.12
450.442	604.12
450.662	557.12
450.883	572.12
451.104	598.12
451.324	597.12
451.545	578.12
451.766	555.12
451.986	498.12
452.207	502.12
452.428	509.12
452.648	515.12
452.869	501.12
453.089	502.12
453.31	541.12
453.53	538.12
453.751	509.12
453.971	512.12
454.192	554.12
454.412	558.12
454.633	518.12
454.853	500.12
455.073	501.12
455.294	563.12
455.514	632.12
455.734	595.12
455.955	528.12
456.175	488.12
456.395	470.12
456.616	451.12
456.836	466.12
457.056	457.12
457.276	463.12
457.497	465.12
457.717	471.12
457.937	464.12
458.157	508.12
458.377	499.12
458.598	525.12
458.818	611.12
459.038	691.12
459.258	684.12
459.478	586.12
459.698	541.12
459.918	536.12
460.138	528.12
460.358	520.12
460.578	497.12
460.798	513.12
461.018	541.12
461.238	522.12
461.458	534.12
461.678	507.12
461.898	520.12
462.118	519.12
462.338	547.12
462.558	499.12
462.777	520.12
462.997	533.12
463.217	556.12
463.437	550.12
463.657	537.12
463.876	542.12
464.096	522.12
464.316	534.12
464.536	554.12
464.755	561.12
464.975	557.12
465.195	612.12
465.414	732.12
465.634	645.12
465.854	612.12
466.073	566.12
466.293	562.12
466.512	498.12
466.732	502.12
466.951	530.12
467.171	498.12
467.391	521.12
467.61	528.12
467.829	528.12
468.049	514.12
468.268	527.12
468.488	512.12
468.707	502.12
468.927	502.12
469.146	501.12
469.365	516.12
469.585	478.12
469.804	539.12
470.023	536.12
470.243	530.12
470.462	553.12
470.681	549.12
470.901	569.12
471.12	516.12
471.339	517.12
471.558	518.12
471.777	527.12
471.997	542.12
472.216	517.12
472.435	585.12
472.654	557.12
472.873	539.12
473.092	531.12
473.311	515.12
473.53	526.12
473.749	547.12
473.968	578.12
474.187	701.12
474.406	729.12
474.625	625.12
474.844	558.12
475.063	538.12
475.282	522.12
475.501	509.12
475.72	534.12
475.939	520.12
476.158	551.12
476.377	537.12
476.596	536.12
476.814	576.12
477.033	572.12
477.252	552.12
477.471	544.12
477.69	548.12
477.908	575.12
478.127	556.12
478.346	568.12
478.564	584.12
478.783	558.12
479.002	584.12
479.22	610.12
479.439	602.12
479.658	624.12
479.876	613.12
480.095	640.12
480.313	650.12
480.532	658.12
480.751	673.12
480.969	650.12
481.188	728.12
481.406	766.12
481.624	681.12
481.843	658.12
482.061	646.12
482.28	624.12
482.498	627.12
482.717	627.12
482.935	627.12
483.153	628.12
483.372	633.12
483.59	628.12
483.808	616.12
484.027	622.12
484.245	621.12
484.463	629.12
484.681	627.12
484.9	652.12
485.118	628.12
485.336	650.12
485.554	637.12
485.772	622.12
485.99	616.12
486.209	662.12
486.427	660.12
486.645	675.12
486.863	689.12
487.081	682.12
487.299	682.12
487.517	677.12
487.735	680.12
487.953	684.12
488.171	700.12
488.389	672.12
488.607	680.12
488.825	696.12
489.043	683.12
489.261	668.12
489.479	674.12
489.696	703.12
489.914	680.12
490.132	716.12
490.35	719.12
490.568	730.12
490.786	728.12
491.003	730.12
491.221	779.12
491.439	771.12
491.657	780.12
491.874	782.12
492.092	796.12
492.31	805.12
492.527	802.12
492.745	794.12
492.963	809.12
493.18	794.12
493.398	824.12
493.615	817.12
493.833	833.12
494.05	828.12
494.268	825.12
494.485	813.12
494.703	822.12
494.92	819.12
495.138	819.12
495.355	826.12
495.573	829.12
495.79	805.12
496.008	844.12
496.225	820.12
496.442	820.12
496.66	810.12
496.877	822.12
497.094	806.12
497.312	840.12
497.529	814.12
497.746	828.12
497.963	854.12
498.181	880.12
498.398	884.12
498.615	893.12
498.832	878.12
499.049	892.12
499.267	927.12
499.484	926.12
499.701	937.12
499.918	971.12
500.135	953.12
500.352	1000.12
500.569	994.12
500.786	1048.12
501.003	1031.12
501.22	1003.12
501.437	980.12
501.654	967.12
