Data from 1971.PennyLincolnUp.Lamp.En5.5.200Scan.071719.P1._HRD10591_15-20-51-842.txt Node
Date: Thu Jul 18 15:20:51 EDT 2019
User: cochatt
Spectrometer: HR+D1059
Trigger mode: 1
Integration Time (sec): 1.000000E-1
Scans to average: 1
Electric dark correction enabled: true
Nonlinearity correction enabled: false
Boxcar width: 0
XAxis mode: Wavelengths
Number of Pixels in Spectrum: 2048
>>>>>Begin Spectral Data<<<<<
223.165	-22.38
223.4	-22.38
223.635	-22.38
223.869	-19.38
224.104	-8.38
224.338	-26.38
224.573	-18.38
224.808	-17.38
225.042	3.62
225.277	-2.38
225.511	1.62
225.746	10.62
225.98	1.62
226.215	9.62
226.449	17.62
226.683	16.62
226.918	19.62
227.152	33.62
227.387	28.62
227.621	51.62
227.856	46.62
228.09	38.62
228.324	44.62
228.559	56.62
228.793	70.62
229.027	86.62
229.262	105.62
229.496	124.62
229.73	118.62
229.964	133.62
230.199	117.62
230.433	113.62
230.667	109.62
230.901	102.62
231.136	104.62
231.37	95.62
231.604	106.62
231.838	107.62
232.072	110.62
232.306	115.62
232.541	107.62
232.775	110.62
233.009	118.62
233.243	101.62
233.477	121.62
233.711	97.62
233.945	107.62
234.179	114.62
234.413	120.62
234.647	130.62
234.881	118.62
235.115	114.62
235.349	120.62
235.583	122.62
235.817	119.62
236.051	122.62
236.285	128.62
236.519	120.62
236.753	119.62
236.987	149.62
237.221	161.62
237.455	208.62
237.689	170.62
237.922	129.62
238.156	149.62
238.39	109.62
238.624	132.62
238.858	125.62
239.091	134.62
239.325	132.62
239.559	136.62
239.793	131.62
240.027	124.62
240.26	136.62
240.494	134.62
240.728	140.62
240.961	147.62
241.195	157.62
241.429	133.62
241.662	129.62
241.896	121.62
242.13	145.62
242.363	136.62
242.597	137.62
242.83	149.62
243.064	134.62
243.298	139.62
243.531	114.62
243.765	142.62
243.998	148.62
244.232	141.62
244.465	141.62
244.699	158.62
244.932	146.62
245.166	141.62
245.399	142.62
245.633	153.62
245.866	148.62
246.099	162.62
246.333	152.62
246.566	152.62
246.8	154.62
247.033	170.62
247.266	165.62
247.5	164.62
247.733	160.62
247.966	175.62
248.2	186.62
248.433	173.62
248.666	180.62
248.899	186.62
249.133	192.62
249.366	220.62
249.599	201.62
249.832	188.62
250.066	192.62
250.299	192.62
250.532	203.62
250.765	200.62
250.998	225.62
251.231	226.62
251.465	219.62
251.698	212.62
251.931	206.62
252.164	216.62
252.397	194.62
252.63	202.62
252.863	217.62
253.096	221.62
253.329	229.62
253.562	235.62
253.795	231.62
254.028	236.62
254.261	226.62
254.494	205.62
254.727	244.62
254.96	294.62
255.193	285.62
255.426	244.62
255.659	250.62
255.892	240.62
256.124	231.62
256.357	225.62
256.59	224.62
256.823	226.62
257.056	211.62
257.289	225.62
257.521	215.62
257.754	220.62
257.987	205.62
258.22	221.62
258.452	236.62
258.685	221.62
258.918	206.62
259.151	233.62
259.383	241.62
259.616	225.62
259.849	235.62
260.081	247.62
260.314	264.62
260.547	255.62
260.779	249.62
261.012	238.62
261.244	245.62
261.477	243.62
261.71	216.62
261.942	224.62
262.175	247.62
262.407	231.62
262.64	225.62
262.872	220.62
263.105	204.62
263.337	214.62
263.57	239.62
263.802	229.62
264.035	223.62
264.267	233.62
264.499	213.62
264.732	207.62
264.964	218.62
265.197	224.62
265.429	235.62
265.661	216.62
265.894	243.62
266.126	219.62
266.358	203.62
266.591	210.62
266.823	237.62
267.055	240.62
267.287	240.62
267.52	243.62
267.752	248.62
267.984	243.62
268.216	234.62
268.448	237.62
268.681	240.62
268.913	268.62
269.145	264.62
269.377	276.62
269.609	296.62
269.841	275.62
270.073	292.62
270.306	313.62
270.538	334.62
270.77	327.62
271.002	306.62
271.234	305.62
271.466	319.62
271.698	330.62
271.93	320.62
272.162	349.62
272.394	327.62
272.626	309.62
272.858	295.62
273.09	284.62
273.322	299.62
273.553	280.62
273.785	271.62
274.017	288.62
274.249	283.62
274.481	293.62
274.713	283.62
274.945	297.62
275.176	280.62
275.408	292.62
275.64	275.62
275.872	284.62
276.104	285.62
276.335	278.62
276.567	293.62
276.799	300.62
277.031	314.62
277.262	319.62
277.494	328.62
277.726	315.62
277.957	290.62
278.189	293.62
278.421	275.62
278.652	284.62
278.884	290.62
279.115	288.62
279.347	268.62
279.579	287.62
279.81	281.62
280.042	282.62
280.273	284.62
280.505	280.62
280.736	277.62
280.968	292.62
281.199	286.62
281.431	275.62
281.662	289.62
281.894	291.62
282.125	296.62
282.356	306.62
282.588	300.62
282.819	306.62
283.051	318.62
283.282	276.62
283.513	281.62
283.745	290.62
283.976	292.62
284.207	290.62
284.439	288.62
284.67	278.62
284.901	293.62
285.132	314.62
285.364	293.62
285.595	309.62
285.826	284.62
286.057	270.62
286.288	304.62
286.52	284.62
286.751	277.62
286.982	294.62
287.213	293.62
287.444	288.62
287.675	294.62
287.906	309.62
288.138	326.62
288.369	351.62
288.6	321.62
288.831	320.62
289.062	305.62
289.293	294.62
289.524	296.62
289.755	291.62
289.986	300.62
290.217	317.62
290.448	304.62
290.679	298.62
290.91	316.62
291.141	292.62
291.371	290.62
291.602	282.62
291.833	289.62
292.064	296.62
292.295	299.62
292.526	305.62
292.757	289.62
292.987	286.62
293.218	308.62
293.449	310.62
293.68	290.62
293.91	288.62
294.141	297.62
294.372	301.62
294.603	307.62
294.833	285.62
295.064	288.62
295.295	310.62
295.525	317.62
295.756	296.62
295.987	305.62
296.217	335.62
296.448	338.62
296.679	310.62
296.909	315.62
297.14	310.62
297.37	314.62
297.601	309.62
297.831	312.62
298.062	323.62
298.292	307.62
298.523	321.62
298.753	326.62
298.984	312.62
299.214	313.62
299.445	321.62
299.675	324.62
299.905	328.62
300.136	318.62
300.366	336.62
300.597	322.62
300.827	318.62
301.057	336.62
301.288	341.62
301.518	336.62
301.748	321.62
301.979	345.62
302.209	331.62
302.439	341.62
302.669	331.62
302.9	338.62
303.13	347.62
303.36	341.62
303.59	341.62
303.82	374.62
304.051	356.62
304.281	354.62
304.511	334.62
304.741	330.62
304.971	341.62
305.201	325.62
305.431	347.62
305.661	325.62
305.891	332.62
306.121	346.62
306.352	340.62
306.582	338.62
306.812	350.62
307.042	330.62
307.272	356.62
307.502	345.62
307.731	347.62
307.961	336.62
308.191	358.62
308.421	348.62
308.651	348.62
308.881	347.62
309.111	370.62
309.341	366.62
309.571	355.62
309.8	384.62
310.03	380.62
310.26	369.62
310.49	380.62
310.72	378.62
310.949	403.62
311.179	414.62
311.409	387.62
311.639	378.62
311.868	386.62
312.098	397.62
312.328	394.62
312.557	413.62
312.787	422.62
313.017	425.62
313.246	394.62
313.476	386.62
313.706	380.62
313.935	393.62
314.165	388.62
314.394	420.62
314.624	401.62
314.853	393.62
315.083	400.62
315.312	394.62
315.542	393.62
315.771	390.62
316.001	385.62
316.23	395.62
316.46	381.62
316.689	386.62
316.919	398.62
317.148	414.62
317.377	389.62
317.607	395.62
317.836	388.62
318.065	381.62
318.295	360.62
318.524	379.62
318.753	374.62
318.983	386.62
319.212	378.62
319.441	391.62
319.67	395.62
319.9	418.62
320.129	380.62
320.358	402.62
320.587	397.62
320.816	403.62
321.046	408.62
321.275	413.62
321.504	391.62
321.733	404.62
321.962	406.62
322.191	451.62
322.42	438.62
322.649	442.62
322.878	459.62
323.108	455.62
323.337	498.62
323.566	515.62
323.795	541.62
324.024	588.62
324.253	708.62
324.482	1014.62
324.71	1479.62
324.939	2032.62
325.168	1740.62
325.397	909.62
325.626	660.62
325.855	562.62
326.084	501.62
326.313	497.62
326.542	525.62
326.77	555.62
326.999	671.62
327.228	946.62
327.457	1344.62
327.686	1535.62
327.914	1056.62
328.143	694.62
328.372	610.62
328.6	581.62
328.829	572.62
329.058	565.62
329.287	571.62
329.515	526.62
329.744	499.62
329.972	520.62
330.201	522.62
330.43	557.62
330.658	576.62
330.887	570.62
331.115	598.62
331.344	527.62
331.572	496.62
331.801	481.62
332.03	467.62
332.258	499.62
332.486	443.62
332.715	455.62
332.943	452.62
333.172	465.62
333.4	460.62
333.629	478.62
333.857	488.62
334.085	494.62
334.314	507.62
334.542	501.62
334.771	538.62
334.999	484.62
335.227	466.62
335.455	449.62
335.684	465.62
335.912	434.62
336.14	448.62
336.369	456.62
336.597	435.62
336.825	444.62
337.053	425.62
337.281	428.62
337.51	432.62
337.738	422.62
337.966	430.62
338.194	434.62
338.422	447.62
338.65	439.62
338.878	436.62
339.106	425.62
339.334	405.62
339.562	426.62
339.79	431.62
340.018	413.62
340.246	420.62
340.474	435.62
340.702	413.62
340.93	420.62
341.158	411.62
341.386	436.62
341.614	446.62
341.842	426.62
342.07	432.62
342.298	432.62
342.526	402.62
342.754	412.62
342.981	398.62
343.209	405.62
343.437	405.62
343.665	405.62
343.893	456.62
344.12	438.62
344.348	431.62
344.576	437.62
344.804	430.62
345.031	428.62
345.259	433.62
345.487	425.62
345.714	408.62
345.942	410.62
346.17	406.62
346.397	403.62
346.625	419.62
346.853	393.62
347.08	397.62
347.308	403.62
347.535	413.62
347.763	413.62
347.99	428.62
348.218	418.62
348.445	427.62
348.673	411.62
348.9	403.62
349.128	401.62
349.355	391.62
349.583	390.62
349.81	406.62
350.037	398.62
350.265	394.62
350.492	388.62
350.72	389.62
350.947	403.62
351.174	409.62
351.402	412.62
351.629	399.62
351.856	411.62
352.083	396.62
352.311	415.62
352.538	397.62
352.765	417.62
352.992	398.62
353.22	403.62
353.447	402.62
353.674	398.62
353.901	406.62
354.128	391.62
354.355	370.62
354.583	386.62
354.81	394.62
355.037	377.62
355.264	386.62
355.491	367.62
355.718	368.62
355.945	387.62
356.172	371.62
356.399	353.62
356.626	362.62
356.853	363.62
357.08	361.62
357.307	368.62
357.534	371.62
357.761	386.62
357.988	369.62
358.215	359.62
358.441	376.62
358.668	357.62
358.895	378.62
359.122	365.62
359.349	378.62
359.576	394.62
359.802	424.62
360.029	429.62
360.256	429.62
360.483	407.62
360.709	391.62
360.936	414.62
361.163	397.62
361.39	392.62
361.616	403.62
361.843	381.62
362.07	399.62
362.296	377.62
362.523	402.62
362.749	373.62
362.976	383.62
363.203	389.62
363.429	361.62
363.656	388.62
363.882	372.62
364.109	372.62
364.335	365.62
364.562	369.62
364.788	372.62
365.015	372.62
365.241	360.62
365.468	378.62
365.694	374.62
365.92	386.62
366.147	377.62
366.373	379.62
366.599	374.62
366.826	370.62
367.052	372.62
367.278	365.62
367.505	355.62
367.731	394.62
367.957	371.62
368.184	372.62
368.41	380.62
368.636	361.62
368.862	388.62
369.089	392.62
369.315	375.62
369.541	387.62
369.767	368.62
369.993	370.62
370.219	381.62
370.445	371.62
370.672	363.62
370.898	359.62
371.124	366.62
371.35	363.62
371.576	373.62
371.802	370.62
372.028	356.62
372.254	349.62
372.48	365.62
372.706	366.62
372.932	360.62
373.158	363.62
373.384	343.62
373.61	369.62
373.835	335.62
374.061	358.62
374.287	349.62
374.513	369.62
374.739	371.62
374.965	380.62
375.191	363.62
375.416	380.62
375.642	371.62
375.868	375.62
376.094	375.62
376.319	345.62
376.545	358.62
376.771	356.62
376.997	334.62
377.222	368.62
377.448	362.62
377.674	342.62
377.899	360.62
378.125	364.62
378.35	356.62
378.576	356.62
378.802	347.62
379.027	348.62
379.253	378.62
379.478	341.62
379.704	346.62
379.929	348.62
380.155	345.62
380.38	360.62
380.606	370.62
380.831	361.62
381.057	360.62
381.282	352.62
381.507	369.62
381.733	356.62
381.958	376.62
382.184	356.62
382.409	366.62
382.634	349.62
382.86	372.62
383.085	373.62
383.31	363.62
383.535	374.62
383.761	344.62
383.986	357.62
384.211	355.62
384.436	361.62
384.662	371.62
384.887	388.62
385.112	360.62
385.337	361.62
385.562	382.62
385.787	374.62
386.013	393.62
386.238	396.62
386.463	377.62
386.688	355.62
386.913	392.62
387.138	363.62
387.363	380.62
387.588	380.62
387.813	372.62
388.038	377.62
388.263	371.62
388.488	375.62
388.713	361.62
388.938	371.62
389.163	384.62
389.387	360.62
389.612	361.62
389.837	357.62
390.062	358.62
390.287	381.62
390.512	372.62
390.736	356.62
390.961	378.62
391.186	377.62
391.411	376.62
391.636	376.62
391.86	369.62
392.085	382.62
392.31	370.62
392.534	362.62
392.759	357.62
392.984	388.62
393.208	374.62
393.433	386.62
393.658	356.62
393.882	372.62
394.107	361.62
394.331	359.62
394.556	378.62
394.78	374.62
395.005	376.62
395.229	368.62
395.454	397.62
395.678	398.62
395.903	393.62
396.127	403.62
396.352	422.62
396.576	400.62
396.801	381.62
397.025	388.62
397.249	371.62
397.474	385.62
397.698	397.62
397.922	406.62
398.147	413.62
398.371	394.62
398.595	423.62
398.82	428.62
399.044	410.62
399.268	435.62
399.492	450.62
399.717	464.62
399.941	484.62
400.165	537.62
400.389	514.62
400.613	463.62
400.837	436.62
401.062	414.62
401.286	413.62
401.51	402.62
401.734	397.62
401.958	402.62
402.182	417.62
402.406	424.62
402.63	429.62
402.854	396.62
403.078	432.62
403.302	420.62
403.526	440.62
403.75	452.62
403.974	424.62
404.198	434.62
404.422	420.62
404.645	434.62
404.869	466.62
405.093	471.62
405.317	489.62
405.541	513.62
405.765	459.62
405.988	429.62
406.212	454.62
406.436	458.62
406.66	497.62
406.883	510.62
407.107	473.62
407.331	530.62
407.555	579.62
407.778	564.62
408.002	494.62
408.226	472.62
408.449	482.62
408.673	477.62
408.896	484.62
409.12	521.62
409.344	498.62
409.567	454.62
409.791	460.62
410.014	445.62
410.238	429.62
410.461	429.62
410.685	456.62
410.908	444.62
411.132	470.62
411.355	499.62
411.578	486.62
411.802	441.62
412.025	434.62
412.249	439.62
412.472	430.62
412.695	470.62
412.919	464.62
413.142	420.62
413.365	427.62
413.589	424.62
413.812	408.62
414.035	405.62
414.258	411.62
414.482	408.62
414.705	389.62
414.928	396.62
415.151	392.62
415.374	404.62
415.597	388.62
415.821	389.62
416.044	402.62
416.267	408.62
416.49	403.62
416.713	408.62
416.936	370.62
417.159	413.62
417.382	406.62
417.605	404.62
417.828	426.62
418.051	434.62
418.274	418.62
418.497	403.62
418.72	399.62
418.943	393.62
419.166	411.62
419.389	438.62
419.611	428.62
419.834	423.62
420.057	422.62
420.28	450.62
420.503	410.62
420.726	444.62
420.948	432.62
421.171	477.62
421.394	489.62
421.617	444.62
421.839	420.62
422.062	425.62
422.285	441.62
422.507	481.62
422.73	532.62
422.953	525.62
423.175	459.62
423.398	441.62
423.621	435.62
423.843	433.62
424.066	432.62
424.288	464.62
424.511	486.62
424.733	535.62
424.956	590.62
425.178	545.62
425.401	553.62
425.623	580.62
425.846	477.62
426.068	455.62
426.291	445.62
426.513	443.62
426.735	476.62
426.958	515.62
427.18	584.62
427.402	690.62
427.625	737.62
427.847	616.62
428.069	552.62
428.292	478.62
428.514	448.62
428.736	433.62
428.958	452.62
429.181	412.62
429.403	420.62
429.625	427.62
429.847	479.62
430.069	493.62
430.292	495.62
430.514	452.62
430.736	424.62
430.958	399.62
431.18	397.62
431.402	404.62
431.624	395.62
431.846	385.62
432.068	397.62
432.29	395.62
432.512	393.62
432.734	412.62
432.956	395.62
433.178	404.62
433.4	410.62
433.622	382.62
433.844	408.62
434.066	396.62
434.287	391.62
434.509	388.62
434.731	385.62
434.953	406.62
435.175	420.62
435.397	467.62
435.618	449.62
435.84	480.62
436.062	569.62
436.284	637.62
436.505	507.62
436.727	462.62
436.949	425.62
437.17	424.62
437.392	430.62
437.614	440.62
437.835	478.62
438.057	546.62
438.278	614.62
438.5	642.62
438.721	680.62
438.943	641.62
439.165	512.62
439.386	494.62
439.608	472.62
439.829	464.62
440.05	482.62
440.272	537.62
440.493	516.62
440.715	453.62
440.936	424.62
441.158	449.62
441.379	408.62
441.6	444.62
441.822	444.62
442.043	499.62
442.264	555.62
442.486	586.62
442.707	515.62
442.928	477.62
443.149	460.62
443.371	487.62
443.592	541.62
443.813	603.62
444.034	617.62
444.255	534.62
444.476	449.62
444.698	458.62
444.919	445.62
445.14	551.62
445.361	500.62
445.582	519.62
445.803	554.62
446.024	620.62
446.245	642.62
446.466	609.62
446.687	484.62
446.908	474.62
447.129	428.62
447.35	456.62
447.571	446.62
447.792	428.62
448.013	441.62
448.234	448.62
448.455	488.62
448.675	569.62
448.896	645.62
449.117	568.62
449.338	552.62
449.559	610.62
449.779	690.62
450	558.62
450.221	485.62
450.442	438.62
450.662	409.62
450.883	420.62
451.104	417.62
451.324	421.62
451.545	407.62
451.766	390.62
451.986	398.62
452.207	368.62
452.428	372.62
452.648	376.62
452.869	370.62
453.089	379.62
453.31	396.62
453.53	380.62
453.751	369.62
453.971	379.62
454.192	384.62
454.412	375.62
454.633	384.62
454.853	373.62
455.073	388.62
455.294	394.62
455.514	442.62
455.734	418.62
455.955	380.62
456.175	357.62
456.395	349.62
456.616	357.62
456.836	340.62
457.056	346.62
457.276	352.62
457.497	352.62
457.717	361.62
457.937	358.62
458.157	355.62
458.377	371.62
458.598	388.62
458.818	415.62
459.038	486.62
459.258	494.62
459.478	436.62
459.698	402.62
459.918	372.62
460.138	387.62
460.358	368.62
460.578	407.62
460.798	377.62
461.018	374.62
461.238	384.62
461.458	381.62
461.678	382.62
461.898	372.62
462.118	402.62
462.338	378.62
462.558	401.62
462.777	389.62
462.997	398.62
463.217	401.62
463.437	427.62
463.657	413.62
463.876	384.62
464.096	417.62
464.316	397.62
464.536	420.62
464.755	404.62
464.975	411.62
465.195	429.62
465.414	525.62
465.634	435.62
465.854	406.62
466.073	397.62
466.293	374.62
466.512	387.62
466.732	394.62
466.951	363.62
467.171	362.62
467.391	387.62
467.61	368.62
467.829	399.62
468.049	409.62
468.268	385.62
468.488	384.62
468.707	378.62
468.927	379.62
469.146	353.62
469.365	378.62
469.585	356.62
469.804	379.62
470.023	376.62
470.243	389.62
470.462	394.62
470.681	391.62
470.901	381.62
471.12	378.62
471.339	379.62
471.558	391.62
471.777	380.62
471.997	377.62
472.216	388.62
472.435	402.62
472.654	386.62
472.873	381.62
473.092	373.62
473.311	355.62
473.53	383.62
473.749	377.62
473.968	426.62
474.187	512.62
474.406	544.62
474.625	441.62
474.844	410.62
475.063	390.62
475.282	380.62
475.501	391.62
475.72	402.62
475.939	390.62
476.158	403.62
476.377	384.62
476.596	382.62
476.814	393.62
477.033	390.62
477.252	394.62
477.471	394.62
477.69	383.62
477.908	425.62
478.127	413.62
478.346	428.62
478.564	420.62
478.783	419.62
479.002	433.62
479.22	436.62
479.439	463.62
479.658	439.62
479.876	447.62
480.095	461.62
480.313	490.62
480.532	479.62
480.751	472.62
480.969	483.62
481.188	506.62
481.406	530.62
481.624	470.62
481.843	445.62
482.061	452.62
482.28	446.62
482.498	444.62
482.717	459.62
482.935	459.62
483.153	443.62
483.372	437.62
483.59	458.62
483.808	445.62
484.027	433.62
484.245	434.62
484.463	450.62
484.681	462.62
484.9	459.62
485.118	464.62
485.336	442.62
485.554	460.62
485.772	453.62
485.99	459.62
486.209	466.62
486.427	456.62
486.645	478.62
486.863	492.62
487.081	480.62
487.299	470.62
487.517	498.62
487.735	479.62
487.953	506.62
488.171	516.62
488.389	474.62
488.607	470.62
488.825	479.62
489.043	471.62
489.261	476.62
489.479	485.62
489.696	492.62
489.914	479.62
490.132	507.62
490.35	500.62
490.568	514.62
490.786	497.62
491.003	523.62
491.221	536.62
491.439	533.62
491.657	546.62
491.874	549.62
492.092	554.62
492.31	562.62
492.527	572.62
492.745	567.62
492.963	589.62
493.18	570.62
493.398	568.62
493.615	565.62
493.833	577.62
494.05	564.62
494.268	576.62
494.485	584.62
494.703	586.62
494.92	586.62
495.138	586.62
495.355	563.62
495.573	588.62
495.79	597.62
496.008	573.62
496.225	581.62
496.442	570.62
496.66	586.62
496.877	578.62
497.094	591.62
497.312	566.62
497.529	589.62
497.746	575.62
497.963	587.62
498.181	571.62
498.398	589.62
498.615	598.62
498.832	609.62
499.049	618.62
499.267	630.62
499.484	658.62
499.701	690.62
499.918	698.62
500.135	709.62
500.352	736.62
500.569	726.62
500.786	740.62
501.003	724.62
501.22	726.62
501.437	741.62
501.654	704.62
501.871	692.62
