Data from 1971.PennyLincolnUp.Lamp.En5.5.200Scan.071719.P1.Scan 2. Changed Angle._HRD10591_15-25-17-843.txt Node
Date: Thu Jul 18 15:25:17 EDT 2019
User: cochatt
Spectrometer: HR+D1059
Trigger mode: 1
Integration Time (sec): 1.000000E-1
Scans to average: 1
Electric dark correction enabled: true
Nonlinearity correction enabled: false
Boxcar width: 0
XAxis mode: Wavelengths
Number of Pixels in Spectrum: 2048
>>>>>Begin Spectral Data<<<<<
223.165	-26.31
223.4	-26.31
223.635	-26.31
223.869	-13.31
224.104	-20.31
224.338	-10.31
224.573	-19.31
224.808	-10.31
225.042	-10.31
225.277	0.69
225.511	-4.31
225.746	15.69
225.98	-3.31
226.215	27.69
226.449	4.69
226.683	24.69
226.918	15.69
227.152	28.69
227.387	35.69
227.621	46.69
227.856	33.69
228.09	49.69
228.324	45.69
228.559	38.69
228.793	58.69
229.027	101.69
229.262	125.69
229.496	125.69
229.73	151.69
229.964	188.69
230.199	154.69
230.433	116.69
230.667	127.69
230.901	123.69
231.136	117.69
231.37	122.69
231.604	129.69
231.838	124.69
232.072	133.69
232.306	124.69
232.541	121.69
232.775	115.69
233.009	111.69
233.243	121.69
233.477	123.69
233.711	113.69
233.945	142.69
234.179	121.69
234.413	123.69
234.647	110.69
234.881	125.69
235.115	133.69
235.349	118.69
235.583	135.69
235.817	130.69
236.051	134.69
236.285	147.69
236.519	125.69
236.753	151.69
236.987	173.69
237.221	218.69
237.455	286.69
237.689	224.69
237.922	145.69
238.156	152.69
238.39	142.69
238.624	131.69
238.858	139.69
239.091	131.69
239.325	130.69
239.559	135.69
239.793	137.69
240.027	139.69
240.26	161.69
240.494	185.69
240.728	165.69
240.961	179.69
241.195	168.69
241.429	193.69
241.662	153.69
241.896	136.69
242.13	146.69
242.363	151.69
242.597	139.69
242.83	161.69
243.064	154.69
243.298	147.69
243.531	153.69
243.765	152.69
243.998	147.69
244.232	153.69
244.465	153.69
244.699	165.69
244.932	153.69
245.166	149.69
245.399	149.69
245.633	156.69
245.866	168.69
246.099	165.69
246.333	153.69
246.566	165.69
246.8	174.69
247.033	162.69
247.266	170.69
247.5	167.69
247.733	189.69
247.966	179.69
248.2	194.69
248.433	173.69
248.666	202.69
248.899	203.69
249.133	217.69
249.366	232.69
249.599	228.69
249.832	211.69
250.066	213.69
250.299	216.69
250.532	214.69
250.765	226.69
250.998	234.69
251.231	275.69
251.465	233.69
251.698	217.69
251.931	227.69
252.164	227.69
252.397	210.69
252.63	225.69
252.863	228.69
253.096	236.69
253.329	251.69
253.562	247.69
253.795	230.69
254.028	241.69
254.261	240.69
254.494	246.69
254.727	290.69
254.96	326.69
255.193	308.69
255.426	266.69
255.659	249.69
255.892	265.69
256.124	269.69
256.357	247.69
256.59	241.69
256.823	255.69
257.056	245.69
257.289	228.69
257.521	226.69
257.754	225.69
257.987	230.69
258.22	215.69
258.452	216.69
258.685	222.69
258.918	230.69
259.151	214.69
259.383	223.69
259.616	248.69
259.849	234.69
260.081	264.69
260.314	284.69
260.547	295.69
260.779	271.69
261.012	268.69
261.244	240.69
261.477	244.69
261.71	245.69
261.942	236.69
262.175	266.69
262.407	244.69
262.64	238.69
262.872	235.69
263.105	237.69
263.337	214.69
263.57	227.69
263.802	249.69
264.035	220.69
264.267	215.69
264.499	230.69
264.732	228.69
264.964	241.69
265.197	236.69
265.429	235.69
265.661	230.69
265.894	216.69
266.126	221.69
266.358	216.69
266.591	227.69
266.823	235.69
267.055	259.69
267.287	235.69
267.52	234.69
267.752	230.69
267.984	249.69
268.216	249.69
268.448	246.69
268.681	256.69
268.913	254.69
269.145	297.69
269.377	283.69
269.609	296.69
269.841	291.69
270.073	298.69
270.306	319.69
270.538	343.69
270.77	358.69
271.002	339.69
271.234	330.69
271.466	328.69
271.698	351.69
271.93	348.69
272.162	370.69
272.394	359.69
272.626	332.69
272.858	339.69
273.09	309.69
273.322	298.69
273.553	287.69
273.785	275.69
274.017	277.69
274.249	275.69
274.481	281.69
274.713	270.69
274.945	278.69
275.176	285.69
275.408	291.69
275.64	285.69
275.872	294.69
276.104	284.69
276.335	277.69
276.567	285.69
276.799	290.69
277.031	343.69
277.262	338.69
277.494	332.69
277.726	318.69
277.957	309.69
278.189	286.69
278.421	297.69
278.652	269.69
278.884	277.69
279.115	269.69
279.347	287.69
279.579	277.69
279.81	257.69
280.042	265.69
280.273	282.69
280.505	284.69
280.736	265.69
280.968	266.69
281.199	260.69
281.431	275.69
281.662	264.69
281.894	284.69
282.125	307.69
282.356	305.69
282.588	329.69
282.819	334.69
283.051	292.69
283.282	286.69
283.513	260.69
283.745	276.69
283.976	286.69
284.207	294.69
284.439	286.69
284.67	278.69
284.901	287.69
285.132	300.69
285.364	269.69
285.595	273.69
285.826	276.69
286.057	292.69
286.288	281.69
286.52	277.69
286.751	278.69
286.982	275.69
287.213	278.69
287.444	291.69
287.675	289.69
287.906	302.69
288.138	301.69
288.369	308.69
288.6	305.69
288.831	316.69
289.062	294.69
289.293	286.69
289.524	294.69
289.755	284.69
289.986	288.69
290.217	299.69
290.448	269.69
290.679	279.69
290.91	278.69
291.141	292.69
291.371	291.69
291.602	283.69
291.833	293.69
292.064	282.69
292.295	270.69
292.526	291.69
292.757	295.69
292.987	281.69
293.218	263.69
293.449	290.69
293.68	309.69
293.91	270.69
294.141	307.69
294.372	278.69
294.603	279.69
294.833	292.69
295.064	288.69
295.295	275.69
295.525	274.69
295.756	289.69
295.987	314.69
296.217	345.69
296.448	362.69
296.679	326.69
296.909	280.69
297.14	290.69
297.37	296.69
297.601	292.69
297.831	306.69
298.062	315.69
298.292	301.69
298.523	291.69
298.753	293.69
298.984	300.69
299.214	289.69
299.445	300.69
299.675	303.69
299.905	315.69
300.136	306.69
300.366	294.69
300.597	317.69
300.827	333.69
301.057	323.69
301.288	327.69
301.518	339.69
301.748	332.69
301.979	306.69
302.209	320.69
302.439	314.69
302.669	337.69
302.9	329.69
303.13	307.69
303.36	313.69
303.59	315.69
303.82	340.69
304.051	341.69
304.281	315.69
304.511	331.69
304.741	302.69
304.971	315.69
305.201	318.69
305.431	307.69
305.661	315.69
305.891	326.69
306.121	328.69
306.352	341.69
306.582	344.69
306.812	332.69
307.042	327.69
307.272	334.69
307.502	338.69
307.731	338.69
307.961	324.69
308.191	344.69
308.421	340.69
308.651	356.69
308.881	342.69
309.111	352.69
309.341	350.69
309.571	353.69
309.8	356.69
310.03	398.69
310.26	395.69
310.49	391.69
310.72	405.69
310.949	413.69
311.179	416.69
311.409	395.69
311.639	383.69
311.868	404.69
312.098	409.69
312.328	416.69
312.557	428.69
312.787	433.69
313.017	440.69
313.246	408.69
313.476	394.69
313.706	391.69
313.935	401.69
314.165	405.69
314.394	423.69
314.624	413.69
314.853	410.69
315.083	413.69
315.312	391.69
315.542	381.69
315.771	372.69
316.001	374.69
316.23	389.69
316.46	379.69
316.689	396.69
316.919	398.69
317.148	404.69
317.377	407.69
317.607	397.69
317.836	391.69
318.065	397.69
318.295	392.69
318.524	380.69
318.753	400.69
318.983	393.69
319.212	379.69
319.441	420.69
319.67	415.69
319.9	397.69
320.129	394.69
320.358	376.69
320.587	402.69
320.816	410.69
321.046	439.69
321.275	423.69
321.504	403.69
321.733	443.69
321.962	439.69
322.191	441.69
322.42	469.69
322.649	489.69
322.878	493.69
323.108	518.69
323.337	522.69
323.566	571.69
323.795	639.69
324.024	712.69
324.253	853.69
324.482	1303.69
324.71	2044.69
324.939	2878.69
325.168	2473.69
325.397	1282.69
325.626	826.69
325.855	655.69
326.084	604.69
326.313	588.69
326.542	598.69
326.77	661.69
326.999	774.69
327.228	1137.69
327.457	1722.69
327.686	2151.69
327.914	1453.69
328.143	927.69
328.372	780.69
328.6	743.69
328.829	671.69
329.058	725.69
329.287	730.69
329.515	673.69
329.744	598.69
329.972	567.69
330.201	610.69
330.43	666.69
330.658	702.69
330.887	741.69
331.115	715.69
331.344	600.69
331.572	582.69
331.801	548.69
332.03	558.69
332.258	519.69
332.486	498.69
332.715	482.69
332.943	473.69
333.172	470.69
333.4	466.69
333.629	478.69
333.857	506.69
334.085	499.69
334.314	521.69
334.542	572.69
334.771	601.69
334.999	547.69
335.227	473.69
335.455	469.69
335.684	479.69
335.912	459.69
336.14	453.69
336.369	450.69
336.597	471.69
336.825	489.69
337.053	470.69
337.281	447.69
337.51	435.69
337.738	447.69
337.966	470.69
338.194	449.69
338.422	466.69
338.65	454.69
338.878	450.69
339.106	427.69
339.334	427.69
339.562	438.69
339.79	442.69
340.018	443.69
340.246	453.69
340.474	453.69
340.702	467.69
340.93	447.69
341.158	437.69
341.386	444.69
341.614	441.69
341.842	456.69
342.07	463.69
342.298	442.69
342.526	429.69
342.754	427.69
342.981	421.69
343.209	426.69
343.437	423.69
343.665	436.69
343.893	441.69
344.12	433.69
344.348	437.69
344.576	419.69
344.804	447.69
345.031	467.69
345.259	500.69
345.487	465.69
345.714	472.69
345.942	448.69
346.17	433.69
346.397	435.69
346.625	434.69
346.853	453.69
347.08	437.69
347.308	440.69
347.535	440.69
347.763	471.69
347.99	465.69
348.218	463.69
348.445	473.69
348.673	481.69
348.9	454.69
349.128	424.69
349.355	438.69
349.583	425.69
349.81	413.69
350.037	430.69
350.265	422.69
350.492	436.69
350.72	425.69
350.947	426.69
351.174	449.69
351.402	460.69
351.629	472.69
351.856	452.69
352.083	491.69
352.311	481.69
352.538	486.69
352.765	467.69
352.992	452.69
353.22	439.69
353.447	445.69
353.674	437.69
353.901	428.69
354.128	419.69
354.355	381.69
354.583	404.69
354.81	396.69
355.037	380.69
355.264	385.69
355.491	395.69
355.718	398.69
355.945	396.69
356.172	402.69
356.399	387.69
356.626	406.69
356.853	401.69
357.08	404.69
357.307	419.69
357.534	385.69
357.761	382.69
357.988	403.69
358.215	402.69
358.441	396.69
358.668	397.69
358.895	418.69
359.122	419.69
359.349	407.69
359.576	477.69
359.802	481.69
360.029	524.69
360.256	545.69
360.483	515.69
360.709	472.69
360.936	452.69
361.163	452.69
361.39	462.69
361.616	462.69
361.843	454.69
362.07	470.69
362.296	455.69
362.523	424.69
362.749	457.69
362.976	465.69
363.203	429.69
363.429	434.69
363.656	399.69
363.882	411.69
364.109	422.69
364.335	393.69
364.562	415.69
364.788	438.69
365.015	418.69
365.241	422.69
365.468	433.69
365.694	452.69
365.92	433.69
366.147	426.69
366.373	431.69
366.599	429.69
366.826	441.69
367.052	430.69
367.278	425.69
367.505	417.69
367.731	410.69
367.957	434.69
368.184	413.69
368.41	411.69
368.636	458.69
368.862	459.69
369.089	435.69
369.315	413.69
369.541	417.69
369.767	413.69
369.993	416.69
370.219	418.69
370.445	392.69
370.672	420.69
370.898	380.69
371.124	388.69
371.35	429.69
371.576	412.69
371.802	375.69
372.028	421.69
372.254	399.69
372.48	407.69
372.706	397.69
372.932	414.69
373.158	427.69
373.384	420.69
373.61	421.69
373.835	409.69
374.061	391.69
374.287	433.69
374.513	420.69
374.739	432.69
374.965	405.69
375.191	413.69
375.416	414.69
375.642	404.69
375.868	425.69
376.094	395.69
376.319	400.69
376.545	428.69
376.771	412.69
376.997	389.69
377.222	405.69
377.448	412.69
377.674	413.69
377.899	408.69
378.125	397.69
378.35	401.69
378.576	401.69
378.802	402.69
379.027	400.69
379.253	415.69
379.478	395.69
379.704	413.69
379.929	412.69
380.155	431.69
380.38	419.69
380.606	423.69
380.831	406.69
381.057	442.69
381.282	409.69
381.507	423.69
381.733	411.69
381.958	438.69
382.184	419.69
382.409	435.69
382.634	420.69
382.86	421.69
383.085	436.69
383.31	434.69
383.535	427.69
383.761	404.69
383.986	416.69
384.211	428.69
384.436	422.69
384.662	438.69
384.887	433.69
385.112	419.69
385.337	437.69
385.562	446.69
385.787	450.69
386.013	440.69
386.238	437.69
386.463	442.69
386.688	461.69
386.913	455.69
387.138	436.69
387.363	452.69
387.588	449.69
387.813	421.69
388.038	440.69
388.263	448.69
388.488	439.69
388.713	444.69
388.938	431.69
389.163	455.69
389.387	439.69
389.612	433.69
389.837	433.69
390.062	437.69
390.287	445.69
390.512	438.69
390.736	438.69
390.961	459.69
391.186	445.69
391.411	446.69
391.636	458.69
391.86	459.69
392.085	457.69
392.31	451.69
392.534	454.69
392.759	467.69
392.984	437.69
393.208	440.69
393.433	455.69
393.658	448.69
393.882	431.69
394.107	461.69
394.331	442.69
394.556	429.69
394.78	449.69
395.005	435.69
395.229	432.69
395.454	461.69
395.678	458.69
395.903	429.69
396.127	499.69
396.352	515.69
396.576	476.69
396.801	453.69
397.025	467.69
397.249	501.69
397.474	484.69
397.698	460.69
397.922	513.69
398.147	511.69
398.371	523.69
398.595	497.69
398.82	486.69
399.044	520.69
399.268	513.69
399.492	515.69
399.717	576.69
399.941	583.69
400.165	619.69
400.389	643.69
400.613	593.69
400.837	545.69
401.062	524.69
401.286	527.69
401.51	522.69
401.734	514.69
401.958	516.69
402.182	527.69
402.406	539.69
402.63	538.69
402.854	541.69
403.078	553.69
403.302	533.69
403.526	532.69
403.75	532.69
403.974	526.69
404.198	539.69
404.422	546.69
404.645	564.69
404.869	545.69
405.093	586.69
405.317	646.69
405.541	668.69
405.765	614.69
405.988	610.69
406.212	591.69
406.436	642.69
406.66	659.69
406.883	610.69
407.107	619.69
407.331	656.69
407.555	709.69
407.778	734.69
408.002	696.69
408.226	614.69
408.449	623.69
408.673	599.69
408.896	646.69
409.12	667.69
409.344	651.69
409.567	580.69
409.791	574.69
410.014	547.69
410.238	535.69
410.461	547.69
410.685	537.69
410.908	557.69
411.132	597.69
411.355	666.69
411.578	621.69
411.802	565.69
412.025	550.69
412.249	559.69
412.472	572.69
412.695	635.69
412.919	610.69
413.142	582.69
413.365	543.69
413.589	531.69
413.812	546.69
414.035	539.69
414.258	515.69
414.482	511.69
414.705	515.69
414.928	505.69
415.151	498.69
415.374	526.69
415.597	535.69
415.821	525.69
416.044	517.69
416.267	516.69
416.49	532.69
416.713	488.69
416.936	497.69
417.159	515.69
417.382	518.69
417.605	519.69
417.828	547.69
418.051	555.69
418.274	556.69
418.497	537.69
418.72	520.69
418.943	485.69
419.166	561.69
419.389	541.69
419.611	543.69
419.834	538.69
420.057	547.69
420.28	569.69
420.503	537.69
420.726	542.69
420.948	570.69
421.171	615.69
421.394	654.69
421.617	600.69
421.839	583.69
422.062	571.69
422.285	559.69
422.507	646.69
422.73	723.69
422.953	725.69
423.175	627.69
423.398	583.69
423.621	585.69
423.843	599.69
424.066	618.69
424.288	619.69
424.511	622.69
424.733	693.69
424.956	782.69
425.178	791.69
425.401	783.69
425.623	763.69
425.846	671.69
426.068	608.69
426.291	614.69
426.513	646.69
426.735	620.69
426.958	684.69
427.18	801.69
427.402	928.69
427.625	1009.69
427.847	947.69
428.069	789.69
428.292	697.69
428.514	638.69
428.736	630.69
428.958	589.69
429.181	596.69
429.403	587.69
429.625	582.69
429.847	639.69
430.069	693.69
430.292	701.69
430.514	647.69
430.736	572.69
430.958	572.69
431.18	525.69
431.402	538.69
431.624	541.69
431.846	543.69
432.068	527.69
432.29	527.69
432.512	531.69
432.734	554.69
432.956	524.69
433.178	567.69
433.4	560.69
433.622	555.69
433.844	537.69
434.066	531.69
434.287	540.69
434.509	546.69
434.731	529.69
434.953	537.69
435.175	594.69
435.397	602.69
435.618	661.69
435.84	675.69
436.062	780.69
436.284	868.69
436.505	714.69
436.727	651.69
436.949	614.69
437.17	565.69
437.392	581.69
437.614	596.69
437.835	642.69
438.057	760.69
438.278	868.69
438.5	870.69
438.721	945.69
438.943	913.69
439.165	741.69
439.386	648.69
439.608	638.69
439.829	664.69
440.05	690.69
440.272	737.69
440.493	723.69
440.715	670.69
440.936	596.69
441.158	590.69
441.379	572.69
441.6	583.69
441.822	622.69
442.043	684.69
442.264	777.69
442.486	830.69
442.707	713.69
442.928	660.69
443.149	659.69
443.371	670.69
443.592	719.69
443.813	827.69
444.034	887.69
444.255	737.69
444.476	682.69
444.698	637.69
444.919	607.69
445.14	775.69
445.361	698.69
445.582	679.69
445.803	789.69
446.024	871.69
446.245	915.69
446.466	838.69
446.687	721.69
446.908	655.69
447.129	618.69
447.35	598.69
447.571	582.69
447.792	584.69
448.013	581.69
448.234	616.69
448.455	668.69
448.675	797.69
448.896	910.69
449.117	796.69
449.338	777.69
449.559	884.69
449.779	971.69
450	775.69
450.221	654.69
450.442	610.69
450.662	583.69
450.883	603.69
451.104	618.69
451.324	620.69
451.545	581.69
451.766	554.69
451.986	531.69
452.207	503.69
452.428	517.69
452.648	516.69
452.869	553.69
453.089	529.69
453.31	564.69
453.53	555.69
453.751	517.69
453.971	546.69
454.192	575.69
454.412	523.69
454.633	527.69
454.853	531.69
455.073	520.69
455.294	557.69
455.514	645.69
455.734	636.69
455.955	535.69
456.175	505.69
456.395	490.69
456.616	470.69
456.836	487.69
457.056	473.69
457.276	488.69
457.497	493.69
457.717	449.69
457.937	471.69
458.157	498.69
458.377	505.69
458.598	538.69
458.818	631.69
459.038	722.69
459.258	727.69
459.478	588.69
459.698	562.69
459.918	521.69
460.138	529.69
460.358	541.69
460.578	540.69
460.798	530.69
461.018	547.69
461.238	519.69
461.458	520.69
461.678	515.69
461.898	519.69
462.118	520.69
462.338	529.69
462.558	539.69
462.777	527.69
462.997	538.69
463.217	555.69
463.437	554.69
463.657	558.69
463.876	519.69
464.096	544.69
464.316	539.69
464.536	567.69
464.755	583.69
464.975	585.69
465.195	658.69
465.414	794.69
465.634	669.69
465.854	587.69
466.073	577.69
466.293	548.69
466.512	532.69
466.732	503.69
466.951	534.69
467.171	545.69
467.391	527.69
467.61	539.69
467.829	567.69
468.049	550.69
468.268	529.69
468.488	536.69
468.707	533.69
468.927	513.69
469.146	505.69
469.365	537.69
469.585	514.69
469.804	539.69
470.023	527.69
470.243	534.69
470.462	541.69
470.681	570.69
470.901	554.69
471.12	545.69
471.339	542.69
471.558	528.69
471.777	537.69
471.997	519.69
472.216	540.69
472.435	595.69
472.654	572.69
472.873	542.69
473.092	540.69
473.311	540.69
473.53	543.69
473.749	542.69
473.968	606.69
474.187	725.69
474.406	733.69
474.625	650.69
474.844	582.69
475.063	541.69
475.282	540.69
475.501	537.69
475.72	564.69
475.939	549.69
476.158	565.69
476.377	564.69
476.596	542.69
476.814	582.69
477.033	591.69
477.252	603.69
477.471	577.69
477.69	563.69
477.908	584.69
478.127	581.69
478.346	577.69
478.564	602.69
478.783	607.69
479.002	611.69
479.22	602.69
479.439	626.69
479.658	648.69
479.876	647.69
480.095	643.69
480.313	676.69
480.532	679.69
480.751	667.69
480.969	682.69
481.188	766.69
481.406	836.69
481.624	699.69
481.843	667.69
482.061	671.69
482.28	632.69
482.498	657.69
482.717	630.69
482.935	632.69
483.153	661.69
483.372	635.69
483.59	637.69
483.808	637.69
484.027	629.69
484.245	623.69
484.463	647.69
484.681	653.69
484.9	656.69
485.118	651.69
485.336	667.69
485.554	676.69
485.772	673.69
485.99	646.69
486.209	697.69
486.427	685.69
486.645	704.69
486.863	723.69
487.081	734.69
487.299	691.69
487.517	692.69
487.735	712.69
487.953	680.69
488.171	720.69
488.389	703.69
488.607	705.69
488.825	705.69
489.043	715.69
489.261	692.69
489.479	734.69
489.696	698.69
489.914	707.69
490.132	714.69
490.35	747.69
490.568	739.69
490.786	778.69
491.003	776.69
491.221	789.69
491.439	805.69
491.657	802.69
491.874	825.69
492.092	837.69
492.31	830.69
492.527	843.69
492.745	835.69
492.963	828.69
493.18	834.69
493.398	846.69
493.615	854.69
493.833	857.69
494.05	862.69
494.268	812.69
494.485	851.69
494.703	851.69
494.92	838.69
495.138	827.69
495.355	843.69
495.573	866.69
495.79	861.69
496.008	857.69
496.225	854.69
496.442	850.69
496.66	867.69
496.877	851.69
497.094	874.69
497.312	860.69
497.529	874.69
497.746	851.69
497.963	852.69
498.181	892.69
498.398	897.69
498.615	906.69
498.832	901.69
499.049	908.69
499.267	930.69
499.484	926.69
499.701	965.69
499.918	977.69
500.135	985.69
500.352	1008.69
500.569	997.69
500.786	1029.69
501.003	1019.69
501.22	1015.69
501.437	1022.69
