Data from 1971.PennyLincolnUp.Lamp.En5.5.200Scan.071719.P1._HRD10591_15-19-33-841.txt Node
Date: Thu Jul 18 15:19:33 EDT 2019
User: cochatt
Spectrometer: HR+D1059
Trigger mode: 1
Integration Time (sec): 1.000000E-1
Scans to average: 1
Electric dark correction enabled: true
Nonlinearity correction enabled: false
Boxcar width: 0
XAxis mode: Wavelengths
Number of Pixels in Spectrum: 2048
>>>>>Begin Spectral Data<<<<<
223.165	-14.81
223.4	-14.81
223.635	-14.81
223.869	-23.81
224.104	-11.81
224.338	-12.81
224.573	-20.81
224.808	-7.81
225.042	2.19
225.277	-14.81
225.511	11.19
225.746	-3.81
225.98	9.19
226.215	20.19
226.449	15.19
226.683	8.19
226.918	20.19
227.152	24.19
227.387	37.19
227.621	52.19
227.856	42.19
228.09	42.19
228.324	45.19
228.559	57.19
228.793	65.19
229.027	94.19
229.262	97.19
229.496	107.19
229.73	126.19
229.964	163.19
230.199	139.19
230.433	89.19
230.667	116.19
230.901	113.19
231.136	110.19
231.37	108.19
231.604	106.19
231.838	122.19
232.072	118.19
232.306	118.19
232.541	109.19
232.775	116.19
233.009	120.19
233.243	124.19
233.477	117.19
233.711	124.19
233.945	120.19
234.179	117.19
234.413	109.19
234.647	117.19
234.881	122.19
235.115	121.19
235.349	112.19
235.583	136.19
235.817	116.19
236.051	120.19
236.285	130.19
236.519	118.19
236.753	116.19
236.987	156.19
237.221	178.19
237.455	204.19
237.689	174.19
237.922	134.19
238.156	130.19
238.39	136.19
238.624	133.19
238.858	117.19
239.091	123.19
239.325	121.19
239.559	112.19
239.793	128.19
240.027	144.19
240.26	127.19
240.494	152.19
240.728	168.19
240.961	136.19
241.195	140.19
241.429	140.19
241.662	151.19
241.896	136.19
242.13	138.19
242.363	138.19
242.597	133.19
242.83	144.19
243.064	138.19
243.298	162.19
243.531	132.19
243.765	138.19
243.998	149.19
244.232	136.19
244.465	136.19
244.699	133.19
244.932	134.19
245.166	152.19
245.399	149.19
245.633	146.19
245.866	152.19
246.099	168.19
246.333	153.19
246.566	151.19
246.8	152.19
247.033	166.19
247.266	178.19
247.5	172.19
247.733	176.19
247.966	187.19
248.2	186.19
248.433	174.19
248.666	171.19
248.899	189.19
249.133	204.19
249.366	220.19
249.599	208.19
249.832	191.19
250.066	181.19
250.299	188.19
250.532	189.19
250.765	202.19
250.998	212.19
251.231	225.19
251.465	233.19
251.698	216.19
251.931	207.19
252.164	214.19
252.397	206.19
252.63	205.19
252.863	218.19
253.096	227.19
253.329	216.19
253.562	220.19
253.795	231.19
254.028	231.19
254.261	229.19
254.494	248.19
254.727	252.19
254.96	267.19
255.193	264.19
255.426	263.19
255.659	248.19
255.892	244.19
256.124	236.19
256.357	242.19
256.59	228.19
256.823	234.19
257.056	216.19
257.289	218.19
257.521	225.19
257.754	228.19
257.987	221.19
258.22	215.19
258.452	205.19
258.685	224.19
258.918	222.19
259.151	215.19
259.383	207.19
259.616	240.19
259.849	253.19
260.081	240.19
260.314	260.19
260.547	276.19
260.779	244.19
261.012	242.19
261.244	235.19
261.477	248.19
261.71	239.19
261.942	233.19
262.175	237.19
262.407	234.19
262.64	223.19
262.872	213.19
263.105	211.19
263.337	219.19
263.57	209.19
263.802	204.19
264.035	221.19
264.267	219.19
264.499	230.19
264.732	206.19
264.964	206.19
265.197	214.19
265.429	233.19
265.661	215.19
265.894	229.19
266.126	229.19
266.358	233.19
266.591	217.19
266.823	231.19
267.055	253.19
267.287	240.19
267.52	230.19
267.752	249.19
267.984	241.19
268.216	233.19
268.448	244.19
268.681	255.19
268.913	247.19
269.145	274.19
269.377	288.19
269.609	292.19
269.841	289.19
270.073	282.19
270.306	292.19
270.538	334.19
270.77	316.19
271.002	325.19
271.234	301.19
271.466	315.19
271.698	346.19
271.93	345.19
272.162	345.19
272.394	342.19
272.626	338.19
272.858	319.19
273.09	291.19
273.322	299.19
273.553	280.19
273.785	285.19
274.017	258.19
274.249	262.19
274.481	269.19
274.713	283.19
274.945	282.19
275.176	284.19
275.408	252.19
275.64	259.19
275.872	284.19
276.104	284.19
276.335	275.19
276.567	284.19
276.799	288.19
277.031	311.19
277.262	328.19
277.494	341.19
277.726	306.19
277.957	306.19
278.189	301.19
278.421	295.19
278.652	291.19
278.884	305.19
279.115	276.19
279.347	288.19
279.579	297.19
279.81	287.19
280.042	281.19
280.273	273.19
280.505	268.19
280.736	272.19
280.968	275.19
281.199	280.19
281.431	275.19
281.662	289.19
281.894	290.19
282.125	288.19
282.356	295.19
282.588	305.19
282.819	310.19
283.051	291.19
283.282	285.19
283.513	304.19
283.745	292.19
283.976	286.19
284.207	288.19
284.439	298.19
284.67	307.19
284.901	297.19
285.132	306.19
285.364	281.19
285.595	309.19
285.826	282.19
286.057	305.19
286.288	285.19
286.52	293.19
286.751	294.19
286.982	306.19
287.213	294.19
287.444	287.19
287.675	313.19
287.906	297.19
288.138	322.19
288.369	318.19
288.6	319.19
288.831	324.19
289.062	322.19
289.293	306.19
289.524	312.19
289.755	303.19
289.986	280.19
290.217	292.19
290.448	291.19
290.679	294.19
290.91	300.19
291.141	323.19
291.371	293.19
291.602	312.19
291.833	297.19
292.064	312.19
292.295	305.19
292.526	312.19
292.757	312.19
292.987	303.19
293.218	301.19
293.449	308.19
293.68	290.19
293.91	305.19
294.141	303.19
294.372	323.19
294.603	292.19
294.833	313.19
295.064	314.19
295.295	300.19
295.525	320.19
295.756	309.19
295.987	314.19
296.217	329.19
296.448	324.19
296.679	321.19
296.909	314.19
297.14	307.19
297.37	310.19
297.601	317.19
297.831	310.19
298.062	304.19
298.292	305.19
298.523	302.19
298.753	322.19
298.984	321.19
299.214	315.19
299.445	319.19
299.675	316.19
299.905	324.19
300.136	312.19
300.366	326.19
300.597	320.19
300.827	323.19
301.057	324.19
301.288	330.19
301.518	332.19
301.748	314.19
301.979	330.19
302.209	326.19
302.439	355.19
302.669	336.19
302.9	344.19
303.13	338.19
303.36	324.19
303.59	344.19
303.82	327.19
304.051	361.19
304.281	347.19
304.511	334.19
304.741	329.19
304.971	344.19
305.201	337.19
305.431	351.19
305.661	349.19
305.891	347.19
306.121	349.19
306.352	332.19
306.582	357.19
306.812	353.19
307.042	336.19
307.272	318.19
307.502	357.19
307.731	346.19
307.961	349.19
308.191	346.19
308.421	352.19
308.651	345.19
308.881	333.19
309.111	359.19
309.341	350.19
309.571	356.19
309.8	363.19
310.03	368.19
310.26	359.19
310.49	362.19
310.72	398.19
310.949	394.19
311.179	416.19
311.409	403.19
311.639	405.19
311.868	401.19
312.098	400.19
312.328	401.19
312.557	398.19
312.787	393.19
313.017	394.19
313.246	388.19
313.476	400.19
313.706	386.19
313.935	400.19
314.165	395.19
314.394	384.19
314.624	406.19
314.853	393.19
315.083	383.19
315.312	398.19
315.542	390.19
315.771	391.19
316.001	394.19
316.23	386.19
316.46	381.19
316.689	377.19
316.919	402.19
317.148	412.19
317.377	404.19
317.607	398.19
317.836	389.19
318.065	396.19
318.295	394.19
318.524	383.19
318.753	376.19
318.983	383.19
319.212	392.19
319.441	394.19
319.67	398.19
319.9	404.19
320.129	392.19
320.358	400.19
320.587	392.19
320.816	392.19
321.046	384.19
321.275	409.19
321.504	389.19
321.733	414.19
321.962	427.19
322.191	418.19
322.42	429.19
322.649	452.19
322.878	454.19
323.108	461.19
323.337	502.19
323.566	508.19
323.795	553.19
324.024	601.19
324.253	703.19
324.482	986.19
324.71	1462.19
324.939	1972.19
325.168	1655.19
325.397	906.19
325.626	616.19
325.855	517.19
326.084	508.19
326.313	494.19
326.542	530.19
326.77	554.19
326.999	628.19
327.228	894.19
327.457	1270.19
327.686	1477.19
327.914	977.19
328.143	686.19
328.372	583.19
328.6	570.19
328.829	507.19
329.058	589.19
329.287	557.19
329.515	541.19
329.744	502.19
329.972	499.19
330.201	533.19
330.43	542.19
330.658	564.19
330.887	571.19
331.115	567.19
331.344	518.19
331.572	474.19
331.801	469.19
332.03	478.19
332.258	461.19
332.486	459.19
332.715	450.19
332.943	462.19
333.172	462.19
333.4	450.19
333.629	461.19
333.857	477.19
334.085	468.19
334.314	507.19
334.542	523.19
334.771	525.19
334.999	489.19
335.227	466.19
335.455	467.19
335.684	461.19
335.912	447.19
336.14	432.19
336.369	428.19
336.597	446.19
336.825	440.19
337.053	447.19
337.281	432.19
337.51	450.19
337.738	432.19
337.966	438.19
338.194	438.19
338.422	438.19
338.65	417.19
338.878	416.19
339.106	420.19
339.334	432.19
339.562	426.19
339.79	437.19
340.018	422.19
340.246	420.19
340.474	416.19
340.702	443.19
340.93	435.19
341.158	412.19
341.386	410.19
341.614	418.19
341.842	425.19
342.07	422.19
342.298	411.19
342.526	428.19
342.754	402.19
342.981	420.19
343.209	402.19
343.437	400.19
343.665	423.19
343.893	424.19
344.12	440.19
344.348	426.19
344.576	422.19
344.804	426.19
345.031	424.19
345.259	424.19
345.487	433.19
345.714	422.19
345.942	422.19
346.17	394.19
346.397	418.19
346.625	392.19
346.853	390.19
347.08	384.19
347.308	404.19
347.535	422.19
347.763	410.19
347.99	394.19
348.218	422.19
348.445	398.19
348.673	405.19
348.9	390.19
349.128	404.19
349.355	412.19
349.583	396.19
349.81	392.19
350.037	379.19
350.265	399.19
350.492	383.19
350.72	384.19
350.947	402.19
351.174	405.19
351.402	402.19
351.629	400.19
351.856	409.19
352.083	424.19
352.311	410.19
352.538	417.19
352.765	410.19
352.992	394.19
353.22	399.19
353.447	394.19
353.674	390.19
353.901	385.19
354.128	388.19
354.355	370.19
354.583	368.19
354.81	378.19
355.037	375.19
355.264	386.19
355.491	383.19
355.718	361.19
355.945	388.19
356.172	365.19
356.399	356.19
356.626	382.19
356.853	367.19
357.08	371.19
357.307	400.19
357.534	358.19
357.761	370.19
357.988	379.19
358.215	375.19
358.441	376.19
358.668	386.19
358.895	390.19
359.122	391.19
359.349	377.19
359.576	385.19
359.802	413.19
360.029	433.19
360.256	436.19
360.483	396.19
360.709	391.19
360.936	409.19
361.163	396.19
361.39	376.19
361.616	395.19
361.843	384.19
362.07	384.19
362.296	399.19
362.523	384.19
362.749	375.19
362.976	385.19
363.203	384.19
363.429	380.19
363.656	375.19
363.882	369.19
364.109	376.19
364.335	369.19
364.562	371.19
364.788	372.19
365.015	378.19
365.241	392.19
365.468	375.19
365.694	377.19
365.92	373.19
366.147	365.19
366.373	357.19
366.599	372.19
366.826	352.19
367.052	358.19
367.278	368.19
367.505	369.19
367.731	390.19
367.957	368.19
368.184	388.19
368.41	374.19
368.636	351.19
368.862	382.19
369.089	362.19
369.315	380.19
369.541	364.19
369.767	374.19
369.993	368.19
370.219	370.19
370.445	376.19
370.672	384.19
370.898	369.19
371.124	367.19
371.35	350.19
371.576	370.19
371.802	367.19
372.028	378.19
372.254	362.19
372.48	367.19
372.706	385.19
372.932	357.19
373.158	375.19
373.384	349.19
373.61	362.19
373.835	373.19
374.061	372.19
374.287	366.19
374.513	381.19
374.739	376.19
374.965	377.19
375.191	354.19
375.416	357.19
375.642	353.19
375.868	377.19
376.094	365.19
376.319	357.19
376.545	361.19
376.771	354.19
376.997	350.19
377.222	366.19
377.448	365.19
377.674	349.19
377.899	352.19
378.125	345.19
378.35	361.19
378.576	368.19
378.802	357.19
379.027	326.19
379.253	344.19
379.478	345.19
379.704	344.19
379.929	352.19
380.155	344.19
380.38	347.19
380.606	354.19
380.831	372.19
381.057	361.19
381.282	361.19
381.507	366.19
381.733	353.19
381.958	368.19
382.184	375.19
382.409	368.19
382.634	369.19
382.86	361.19
383.085	350.19
383.31	366.19
383.535	383.19
383.761	350.19
383.986	373.19
384.211	353.19
384.436	366.19
384.662	363.19
384.887	381.19
385.112	385.19
385.337	382.19
385.562	372.19
385.787	381.19
386.013	385.19
386.238	393.19
386.463	385.19
386.688	395.19
386.913	357.19
387.138	379.19
387.363	368.19
387.588	380.19
387.813	374.19
388.038	373.19
388.263	389.19
388.488	368.19
388.713	380.19
388.938	380.19
389.163	380.19
389.387	388.19
389.612	379.19
389.837	395.19
390.062	371.19
390.287	380.19
390.512	382.19
390.736	376.19
390.961	378.19
391.186	373.19
391.411	383.19
391.636	360.19
391.86	386.19
392.085	374.19
392.31	374.19
392.534	386.19
392.759	382.19
392.984	392.19
393.208	369.19
393.433	374.19
393.658	388.19
393.882	352.19
394.107	376.19
394.331	381.19
394.556	381.19
394.78	377.19
395.005	390.19
395.229	368.19
395.454	388.19
395.678	376.19
395.903	406.19
396.127	399.19
396.352	405.19
396.576	390.19
396.801	391.19
397.025	385.19
397.249	382.19
397.474	393.19
397.698	397.19
397.922	411.19
398.147	435.19
398.371	422.19
398.595	398.19
398.82	416.19
399.044	410.19
399.268	444.19
399.492	456.19
399.717	487.19
399.941	501.19
400.165	503.19
400.389	510.19
400.613	472.19
400.837	467.19
401.062	446.19
401.286	425.19
401.51	407.19
401.734	407.19
401.958	413.19
402.182	416.19
402.406	433.19
402.63	421.19
402.854	437.19
403.078	418.19
403.302	422.19
403.526	428.19
403.75	443.19
403.974	426.19
404.198	438.19
404.422	431.19
404.645	432.19
404.869	438.19
405.093	481.19
405.317	494.19
405.541	489.19
405.765	474.19
405.988	438.19
406.212	445.19
406.436	479.19
406.66	461.19
406.883	459.19
407.107	493.19
407.331	542.19
407.555	580.19
407.778	547.19
408.002	512.19
408.226	494.19
408.449	479.19
408.673	483.19
408.896	506.19
409.12	536.19
409.344	508.19
409.567	459.19
409.791	460.19
410.014	431.19
410.238	442.19
410.461	451.19
410.685	430.19
410.908	442.19
411.132	461.19
411.355	458.19
411.578	485.19
411.802	449.19
412.025	431.19
412.249	441.19
412.472	446.19
412.695	454.19
412.919	473.19
413.142	436.19
413.365	430.19
413.589	422.19
413.812	386.19
414.035	397.19
414.258	404.19
414.482	417.19
414.705	408.19
414.928	390.19
415.151	410.19
415.374	397.19
415.597	416.19
415.821	388.19
416.044	408.19
416.267	422.19
416.49	412.19
416.713	399.19
416.936	408.19
417.159	404.19
417.382	405.19
417.605	408.19
417.828	416.19
418.051	432.19
418.274	417.19
418.497	416.19
418.72	423.19
418.943	422.19
419.166	414.19
419.389	450.19
419.611	447.19
419.834	427.19
420.057	443.19
420.28	426.19
420.503	390.19
420.726	424.19
420.948	426.19
421.171	480.19
421.394	479.19
421.617	439.19
421.839	442.19
422.062	412.19
422.285	451.19
422.507	507.19
422.73	548.19
422.953	512.19
423.175	466.19
423.398	438.19
423.621	446.19
423.843	462.19
424.066	449.19
424.288	452.19
424.511	472.19
424.733	523.19
424.956	586.19
425.178	554.19
425.401	560.19
425.623	566.19
425.846	495.19
426.068	470.19
426.291	459.19
426.513	449.19
426.735	472.19
426.958	503.19
427.18	575.19
427.402	692.19
427.625	734.19
427.847	625.19
428.069	554.19
428.292	522.19
428.514	462.19
428.736	430.19
428.958	434.19
429.181	422.19
429.403	407.19
429.625	428.19
429.847	461.19
430.069	526.19
430.292	512.19
430.514	441.19
430.736	422.19
430.958	409.19
431.18	419.19
431.402	397.19
431.624	393.19
431.846	379.19
432.068	382.19
432.29	396.19
432.512	409.19
432.734	421.19
432.956	413.19
433.178	389.19
433.4	414.19
433.622	412.19
433.844	395.19
434.066	386.19
434.287	390.19
434.509	399.19
434.731	400.19
434.953	418.19
435.175	432.19
435.397	448.19
435.618	460.19
435.84	489.19
436.062	575.19
436.284	612.19
436.505	544.19
436.727	496.19
436.949	446.19
437.17	431.19
437.392	453.19
437.614	440.19
437.835	475.19
438.057	514.19
438.278	631.19
438.5	615.19
438.721	681.19
438.943	629.19
439.165	523.19
439.386	464.19
439.608	470.19
439.829	468.19
440.05	490.19
440.272	516.19
440.493	483.19
440.715	445.19
440.936	442.19
441.158	433.19
441.379	429.19
441.6	456.19
441.822	461.19
442.043	495.19
442.264	563.19
442.486	593.19
442.707	484.19
442.928	477.19
443.149	470.19
443.371	476.19
443.592	511.19
443.813	580.19
444.034	620.19
444.255	520.19
444.476	457.19
444.698	469.19
444.919	438.19
445.14	566.19
445.361	505.19
445.582	514.19
445.803	557.19
446.024	640.19
446.245	639.19
446.466	568.19
446.687	506.19
446.908	444.19
447.129	432.19
447.35	423.19
447.571	425.19
447.792	431.19
448.013	438.19
448.234	449.19
448.455	497.19
448.675	584.19
448.896	668.19
449.117	580.19
449.338	540.19
449.559	632.19
449.779	699.19
450	550.19
450.221	469.19
450.442	446.19
450.662	430.19
450.883	432.19
451.104	431.19
451.324	399.19
451.545	394.19
451.766	385.19
451.986	401.19
452.207	380.19
452.428	360.19
452.648	358.19
452.869	394.19
453.089	397.19
453.31	402.19
453.53	385.19
453.751	374.19
453.971	378.19
454.192	398.19
454.412	388.19
454.633	382.19
454.853	368.19
455.073	363.19
455.294	396.19
455.514	438.19
455.734	435.19
455.955	370.19
456.175	381.19
456.395	348.19
456.616	339.19
456.836	369.19
457.056	356.19
457.276	356.19
457.497	345.19
457.717	337.19
457.937	374.19
458.157	354.19
458.377	369.19
458.598	380.19
458.818	420.19
459.038	477.19
459.258	496.19
459.478	414.19
459.698	387.19
459.918	390.19
460.138	382.19
460.358	386.19
460.578	376.19
460.798	411.19
461.018	382.19
461.238	394.19
461.458	399.19
461.678	382.19
461.898	407.19
462.118	389.19
462.338	394.19
462.558	415.19
462.777	412.19
462.997	414.19
463.217	395.19
463.437	416.19
463.657	416.19
463.876	405.19
464.096	409.19
464.316	418.19
464.536	428.19
464.755	403.19
464.975	420.19
465.195	458.19
465.414	482.19
465.634	434.19
465.854	415.19
466.073	386.19
466.293	382.19
466.512	391.19
466.732	384.19
466.951	377.19
467.171	389.19
467.391	396.19
467.61	402.19
467.829	384.19
468.049	392.19
468.268	378.19
468.488	372.19
468.707	364.19
468.927	374.19
469.146	380.19
469.365	388.19
469.585	369.19
469.804	376.19
470.023	377.19
470.243	396.19
470.462	394.19
470.681	390.19
470.901	396.19
471.12	393.19
471.339	403.19
471.558	391.19
471.777	393.19
471.997	386.19
472.216	388.19
472.435	403.19
472.654	384.19
472.873	362.19
473.092	382.19
473.311	388.19
473.53	376.19
473.749	400.19
473.968	433.19
474.187	506.19
474.406	540.19
474.625	446.19
474.844	424.19
475.063	396.19
475.282	391.19
475.501	398.19
475.72	404.19
475.939	394.19
476.158	394.19
476.377	410.19
476.596	380.19
476.814	395.19
477.033	409.19
477.252	399.19
477.471	418.19
477.69	390.19
477.908	406.19
478.127	402.19
478.346	421.19
478.564	419.19
478.783	442.19
479.002	433.19
479.22	414.19
479.439	438.19
479.658	454.19
479.876	452.19
480.095	473.19
480.313	468.19
480.532	464.19
480.751	465.19
480.969	439.19
481.188	498.19
481.406	512.19
481.624	491.19
481.843	466.19
482.061	473.19
482.28	453.19
482.498	431.19
482.717	452.19
482.935	456.19
483.153	446.19
483.372	452.19
483.59	449.19
483.808	440.19
484.027	443.19
484.245	440.19
484.463	440.19
484.681	461.19
484.9	451.19
485.118	456.19
485.336	441.19
485.554	453.19
485.772	442.19
485.99	449.19
486.209	454.19
486.427	447.19
486.645	486.19
486.863	473.19
487.081	483.19
487.299	493.19
487.517	486.19
487.735	482.19
487.953	478.19
488.171	480.19
488.389	488.19
488.607	489.19
488.825	492.19
489.043	470.19
489.261	467.19
489.479	505.19
489.696	495.19
489.914	486.19
490.132	510.19
490.35	493.19
490.568	519.19
490.786	507.19
491.003	528.19
491.221	536.19
491.439	517.19
491.657	536.19
491.874	562.19
492.092	542.19
492.31	581.19
492.527	564.19
492.745	567.19
492.963	583.19
493.18	553.19
493.398	565.19
493.615	566.19
493.833	574.19
494.05	560.19
494.268	563.19
494.485	581.19
494.703	542.19
494.92	560.19
495.138	571.19
495.355	572.19
495.573	583.19
495.79	580.19
496.008	556.19
496.225	577.19
496.442	582.19
496.66	546.19
496.877	578.19
497.094	579.19
497.312	573.19
497.529	583.19
497.746	590.19
497.963	601.19
498.181	584.19
498.398	608.19
498.615	598.19
498.832	614.19
499.049	642.19
499.267	636.19
499.484	665.19
499.701	680.19
499.918	704.19
500.135	722.19
500.352	726.19
500.569	740.19
500.786	728.19
501.003	721.19
501.22	722.19
501.437	701.19
501.654	697.19
501.871	683.19
