Data from 1971.PennyLincolnUp.Lamp.En5.5.200Scan.071719.P1.Scan 2. Changed Angle._HRD10591_15-23-22-843.txt Node
Date: Thu Jul 18 15:23:22 EDT 2019
User: cochatt
Spectrometer: HR+D1059
Trigger mode: 1
Integration Time (sec): 1.000000E-1
Scans to average: 1
Electric dark correction enabled: true
Nonlinearity correction enabled: false
Boxcar width: 0
XAxis mode: Wavelengths
Number of Pixels in Spectrum: 2048
>>>>>Begin Spectral Data<<<<<
223.165	-10.31
223.4	-10.31
223.635	-10.31
223.869	-21.31
224.104	-27.31
224.338	-19.31
224.573	-24.31
224.808	-4.31
225.042	-14.31
225.277	0.69
225.511	-18.31
225.746	15.69
225.98	12.69
226.215	25.69
226.449	3.69
226.683	15.69
226.918	31.69
227.152	33.69
227.387	32.69
227.621	40.69
227.856	51.69
228.09	45.69
228.324	58.69
228.559	61.69
228.793	67.69
229.027	114.69
229.262	120.69
229.496	126.69
229.73	143.69
229.964	171.69
230.199	133.69
230.433	139.69
230.667	135.69
230.901	126.69
231.136	120.69
231.37	114.69
231.604	117.69
231.838	117.69
232.072	120.69
232.306	112.69
232.541	121.69
232.775	118.69
233.009	110.69
233.243	111.69
233.477	118.69
233.711	113.69
233.945	135.69
234.179	132.69
234.413	118.69
234.647	119.69
234.881	122.69
235.115	134.69
235.349	123.69
235.583	129.69
235.817	130.69
236.051	144.69
236.285	133.69
236.519	125.69
236.753	141.69
236.987	163.69
237.221	204.69
237.455	267.69
237.689	208.69
237.922	151.69
238.156	155.69
238.39	151.69
238.624	133.69
238.858	129.69
239.091	133.69
239.325	139.69
239.559	130.69
239.793	132.69
240.027	141.69
240.26	153.69
240.494	158.69
240.728	165.69
240.961	166.69
241.195	153.69
241.429	139.69
241.662	133.69
241.896	147.69
242.13	137.69
242.363	132.69
242.597	150.69
242.83	141.69
243.064	135.69
243.298	160.69
243.531	131.69
243.765	153.69
243.998	145.69
244.232	133.69
244.465	161.69
244.699	146.69
244.932	153.69
245.166	157.69
245.399	173.69
245.633	156.69
245.866	148.69
246.099	163.69
246.333	149.69
246.566	149.69
246.8	179.69
247.033	140.69
247.266	171.69
247.5	172.69
247.733	182.69
247.966	184.69
248.2	180.69
248.433	190.69
248.666	181.69
248.899	207.69
249.133	213.69
249.366	207.69
249.599	213.69
249.832	196.69
250.066	198.69
250.299	195.69
250.532	206.69
250.765	231.69
250.998	244.69
251.231	251.69
251.465	236.69
251.698	215.69
251.931	231.69
252.164	222.69
252.397	210.69
252.63	222.69
252.863	224.69
253.096	242.69
253.329	253.69
253.562	229.69
253.795	236.69
254.028	247.69
254.261	251.69
254.494	239.69
254.727	258.69
254.96	294.69
255.193	292.69
255.426	289.69
255.659	265.69
255.892	238.69
256.124	263.69
256.357	253.69
256.59	252.69
256.823	232.69
257.056	238.69
257.289	213.69
257.521	221.69
257.754	226.69
257.987	226.69
258.22	221.69
258.452	212.69
258.685	223.69
258.918	221.69
259.151	213.69
259.383	239.69
259.616	260.69
259.849	237.69
260.081	234.69
260.314	271.69
260.547	261.69
260.779	267.69
261.012	250.69
261.244	254.69
261.477	226.69
261.71	231.69
261.942	230.69
262.175	270.69
262.407	248.69
262.64	208.69
262.872	229.69
263.105	202.69
263.337	213.69
263.57	222.69
263.802	210.69
264.035	209.69
264.267	217.69
264.499	229.69
264.732	226.69
264.964	202.69
265.197	218.69
265.429	226.69
265.661	214.69
265.894	219.69
266.126	213.69
266.358	215.69
266.591	230.69
266.823	221.69
267.055	231.69
267.287	226.69
267.52	234.69
267.752	239.69
267.984	206.69
268.216	223.69
268.448	226.69
268.681	223.69
268.913	250.69
269.145	266.69
269.377	295.69
269.609	285.69
269.841	268.69
270.073	285.69
270.306	310.69
270.538	328.69
270.77	345.69
271.002	318.69
271.234	311.69
271.466	306.69
271.698	327.69
271.93	339.69
272.162	337.69
272.394	350.69
272.626	302.69
272.858	291.69
273.09	273.69
273.322	306.69
273.553	245.69
273.785	297.69
274.017	289.69
274.249	291.69
274.481	264.69
274.713	255.69
274.945	265.69
275.176	294.69
275.408	272.69
275.64	273.69
275.872	270.69
276.104	290.69
276.335	273.69
276.567	274.69
276.799	290.69
277.031	322.69
277.262	319.69
277.494	337.69
277.726	294.69
277.957	291.69
278.189	287.69
278.421	270.69
278.652	270.69
278.884	270.69
279.115	274.69
279.347	269.69
279.579	280.69
279.81	279.69
280.042	265.69
280.273	265.69
280.505	274.69
280.736	277.69
280.968	264.69
281.199	265.69
281.431	257.69
281.662	261.69
281.894	270.69
282.125	279.69
282.356	276.69
282.588	309.69
282.819	313.69
283.051	265.69
283.282	266.69
283.513	265.69
283.745	268.69
283.976	267.69
284.207	287.69
284.439	281.69
284.67	279.69
284.901	276.69
285.132	249.69
285.364	250.69
285.595	267.69
285.826	264.69
286.057	278.69
286.288	287.69
286.52	257.69
286.751	261.69
286.982	267.69
287.213	270.69
287.444	280.69
287.675	270.69
287.906	278.69
288.138	297.69
288.369	313.69
288.6	279.69
288.831	298.69
289.062	269.69
289.293	280.69
289.524	281.69
289.755	262.69
289.986	272.69
290.217	288.69
290.448	268.69
290.679	279.69
290.91	290.69
291.141	262.69
291.371	291.69
291.602	277.69
291.833	268.69
292.064	272.69
292.295	281.69
292.526	275.69
292.757	271.69
292.987	273.69
293.218	271.69
293.449	272.69
293.68	273.69
293.91	261.69
294.141	278.69
294.372	281.69
294.603	280.69
294.833	287.69
295.064	283.69
295.295	279.69
295.525	281.69
295.756	288.69
295.987	305.69
296.217	327.69
296.448	332.69
296.679	318.69
296.909	302.69
297.14	285.69
297.37	286.69
297.601	267.69
297.831	267.69
298.062	272.69
298.292	302.69
298.523	301.69
298.753	293.69
298.984	290.69
299.214	293.69
299.445	298.69
299.675	312.69
299.905	318.69
300.136	307.69
300.366	306.69
300.597	296.69
300.827	309.69
301.057	319.69
301.288	333.69
301.518	318.69
301.748	331.69
301.979	308.69
302.209	310.69
302.439	329.69
302.669	310.69
302.9	310.69
303.13	299.69
303.36	321.69
303.59	291.69
303.82	322.69
304.051	321.69
304.281	313.69
304.511	327.69
304.741	304.69
304.971	297.69
305.201	319.69
305.431	328.69
305.661	291.69
305.891	285.69
306.121	323.69
306.352	316.69
306.582	325.69
306.812	312.69
307.042	325.69
307.272	296.69
307.502	311.69
307.731	335.69
307.961	338.69
308.191	312.69
308.421	330.69
308.651	327.69
308.881	308.69
309.111	323.69
309.341	333.69
309.571	345.69
309.8	352.69
310.03	391.69
310.26	375.69
310.49	372.69
310.72	391.69
310.949	417.69
311.179	419.69
311.409	378.69
311.639	382.69
311.868	383.69
312.098	355.69
312.328	373.69
312.557	379.69
312.787	406.69
313.017	400.69
313.246	379.69
313.476	369.69
313.706	375.69
313.935	377.69
314.165	399.69
314.394	410.69
314.624	405.69
314.853	412.69
315.083	372.69
315.312	378.69
315.542	383.69
315.771	350.69
316.001	368.69
316.23	361.69
316.46	362.69
316.689	355.69
316.919	380.69
317.148	405.69
317.377	393.69
317.607	393.69
317.836	388.69
318.065	389.69
318.295	368.69
318.524	357.69
318.753	352.69
318.983	377.69
319.212	380.69
319.441	380.69
319.67	392.69
319.9	381.69
320.129	360.69
320.358	389.69
320.587	409.69
320.816	398.69
321.046	404.69
321.275	411.69
321.504	391.69
321.733	383.69
321.962	412.69
322.191	442.69
322.42	448.69
322.649	471.69
322.878	472.69
323.108	494.69
323.337	523.69
323.566	532.69
323.795	559.69
324.024	629.69
324.253	772.69
324.482	1111.69
324.71	1756.69
324.939	2579.69
325.168	2209.69
325.397	1146.69
325.626	745.69
325.855	590.69
326.084	545.69
326.313	539.69
326.542	549.69
326.77	587.69
326.999	717.69
327.228	996.69
327.457	1560.69
327.686	1939.69
327.914	1277.69
328.143	824.69
328.372	702.69
328.6	641.69
328.829	616.69
329.058	643.69
329.287	651.69
329.515	599.69
329.744	530.69
329.972	521.69
330.201	544.69
330.43	611.69
330.658	633.69
330.887	677.69
331.115	677.69
331.344	552.69
331.572	536.69
331.801	521.69
332.03	495.69
332.258	472.69
332.486	470.69
332.715	466.69
332.943	435.69
333.172	464.69
333.4	455.69
333.629	478.69
333.857	489.69
334.085	478.69
334.314	480.69
334.542	529.69
334.771	547.69
334.999	486.69
335.227	461.69
335.455	431.69
335.684	434.69
335.912	432.69
336.14	439.69
336.369	439.69
336.597	442.69
336.825	455.69
337.053	428.69
337.281	440.69
337.51	434.69
337.738	439.69
337.966	444.69
338.194	451.69
338.422	448.69
338.65	435.69
338.878	443.69
339.106	396.69
339.334	443.69
339.562	413.69
339.79	424.69
340.018	433.69
340.246	439.69
340.474	443.69
340.702	431.69
340.93	430.69
341.158	429.69
341.386	429.69
341.614	438.69
341.842	453.69
342.07	433.69
342.298	415.69
342.526	402.69
342.754	418.69
342.981	409.69
343.209	410.69
343.437	425.69
343.665	412.69
343.893	402.69
344.12	414.69
344.348	417.69
344.576	424.69
344.804	442.69
345.031	446.69
345.259	451.69
345.487	449.69
345.714	430.69
345.942	409.69
346.17	428.69
346.397	428.69
346.625	426.69
346.853	439.69
347.08	447.69
347.308	433.69
347.535	421.69
347.763	445.69
347.99	439.69
348.218	450.69
348.445	453.69
348.673	444.69
348.9	443.69
349.128	421.69
349.355	419.69
349.583	403.69
349.81	407.69
350.037	418.69
350.265	402.69
350.492	387.69
350.72	412.69
350.947	410.69
351.174	449.69
351.402	455.69
351.629	468.69
351.856	426.69
352.083	458.69
352.311	478.69
352.538	477.69
352.765	449.69
352.992	429.69
353.22	427.69
353.447	413.69
353.674	415.69
353.901	399.69
354.128	417.69
354.355	382.69
354.583	397.69
354.81	409.69
355.037	385.69
355.264	375.69
355.491	365.69
355.718	382.69
355.945	405.69
356.172	377.69
356.399	394.69
356.626	378.69
356.853	371.69
357.08	408.69
357.307	383.69
357.534	377.69
357.761	380.69
357.988	382.69
358.215	406.69
358.441	393.69
358.668	403.69
358.895	394.69
359.122	411.69
359.349	413.69
359.576	427.69
359.802	480.69
360.029	497.69
360.256	512.69
360.483	486.69
360.709	451.69
360.936	421.69
361.163	429.69
361.39	419.69
361.616	450.69
361.843	431.69
362.07	441.69
362.296	419.69
362.523	432.69
362.749	457.69
362.976	428.69
363.203	414.69
363.429	399.69
363.656	411.69
363.882	439.69
364.109	420.69
364.335	399.69
364.562	408.69
364.788	405.69
365.015	394.69
365.241	394.69
365.468	407.69
365.694	433.69
365.92	417.69
366.147	413.69
366.373	412.69
366.599	396.69
366.826	396.69
367.052	414.69
367.278	397.69
367.505	405.69
367.731	403.69
367.957	421.69
368.184	426.69
368.41	417.69
368.636	430.69
368.862	437.69
369.089	417.69
369.315	417.69
369.541	420.69
369.767	424.69
369.993	402.69
370.219	398.69
370.445	404.69
370.672	389.69
370.898	404.69
371.124	418.69
371.35	407.69
371.576	404.69
371.802	416.69
372.028	405.69
372.254	408.69
372.48	403.69
372.706	425.69
372.932	415.69
373.158	384.69
373.384	405.69
373.61	399.69
373.835	401.69
374.061	414.69
374.287	397.69
374.513	418.69
374.739	430.69
374.965	390.69
375.191	395.69
375.416	406.69
375.642	387.69
375.868	433.69
376.094	416.69
376.319	413.69
376.545	399.69
376.771	419.69
376.997	401.69
377.222	402.69
377.448	407.69
377.674	416.69
377.899	398.69
378.125	409.69
378.35	409.69
378.576	406.69
378.802	412.69
379.027	408.69
379.253	403.69
379.478	411.69
379.704	413.69
379.929	396.69
380.155	392.69
380.38	430.69
380.606	440.69
380.831	398.69
381.057	410.69
381.282	407.69
381.507	414.69
381.733	398.69
381.958	413.69
382.184	395.69
382.409	413.69
382.634	421.69
382.86	413.69
383.085	430.69
383.31	411.69
383.535	421.69
383.761	416.69
383.986	453.69
384.211	411.69
384.436	413.69
384.662	433.69
384.887	413.69
385.112	450.69
385.337	440.69
385.562	450.69
385.787	432.69
386.013	461.69
386.238	437.69
386.463	448.69
386.688	431.69
386.913	437.69
387.138	431.69
387.363	437.69
387.588	445.69
387.813	431.69
388.038	444.69
388.263	437.69
388.488	445.69
388.713	468.69
388.938	433.69
389.163	446.69
389.387	442.69
389.612	445.69
389.837	423.69
390.062	450.69
390.287	434.69
390.512	421.69
390.736	433.69
390.961	444.69
391.186	423.69
391.411	444.69
391.636	429.69
391.86	461.69
392.085	437.69
392.31	434.69
392.534	430.69
392.759	430.69
392.984	459.69
393.208	443.69
393.433	453.69
393.658	462.69
393.882	446.69
394.107	438.69
394.331	431.69
394.556	444.69
394.78	451.69
395.005	455.69
395.229	460.69
395.454	443.69
395.678	453.69
395.903	463.69
396.127	502.69
396.352	498.69
396.576	475.69
396.801	486.69
397.025	474.69
397.249	476.69
397.474	461.69
397.698	481.69
397.922	502.69
398.147	505.69
398.371	504.69
398.595	496.69
398.82	477.69
399.044	515.69
399.268	527.69
399.492	521.69
399.717	567.69
399.941	576.69
400.165	615.69
400.389	618.69
400.613	568.69
400.837	558.69
401.062	501.69
401.286	525.69
401.51	517.69
401.734	498.69
401.958	510.69
402.182	534.69
402.406	505.69
402.63	515.69
402.854	513.69
403.078	520.69
403.302	519.69
403.526	535.69
403.75	520.69
403.974	544.69
404.198	525.69
404.422	533.69
404.645	547.69
404.869	543.69
405.093	569.69
405.317	594.69
405.541	632.69
405.765	598.69
405.988	590.69
406.212	605.69
406.436	588.69
406.66	623.69
406.883	599.69
407.107	605.69
407.331	647.69
407.555	710.69
407.778	717.69
408.002	664.69
408.226	601.69
408.449	610.69
408.673	599.69
408.896	603.69
409.12	642.69
409.344	631.69
409.567	562.69
409.791	561.69
410.014	537.69
410.238	553.69
410.461	532.69
410.685	537.69
410.908	559.69
411.132	594.69
411.355	629.69
411.578	610.69
411.802	547.69
412.025	532.69
412.249	551.69
412.472	559.69
412.695	630.69
412.919	600.69
413.142	549.69
413.365	541.69
413.589	517.69
413.812	538.69
414.035	519.69
414.258	497.69
414.482	511.69
414.705	513.69
414.928	511.69
415.151	520.69
415.374	486.69
415.597	485.69
415.821	488.69
416.044	495.69
416.267	526.69
416.49	494.69
416.713	507.69
416.936	510.69
417.159	519.69
417.382	520.69
417.605	523.69
417.828	518.69
418.051	533.69
418.274	547.69
418.497	523.69
418.72	525.69
418.943	498.69
419.166	529.69
419.389	549.69
419.611	553.69
419.834	538.69
420.057	543.69
420.28	537.69
420.503	543.69
420.726	555.69
420.948	558.69
421.171	585.69
421.394	655.69
421.617	590.69
421.839	546.69
422.062	559.69
422.285	566.69
422.507	629.69
422.73	721.69
422.953	689.69
423.175	608.69
423.398	569.69
423.621	578.69
423.843	618.69
424.066	590.69
424.288	594.69
424.511	617.69
424.733	679.69
424.956	751.69
425.178	743.69
425.401	744.69
425.623	762.69
425.846	656.69
426.068	606.69
426.291	591.69
426.513	579.69
426.735	603.69
426.958	653.69
427.18	767.69
427.402	875.69
427.625	989.69
427.847	888.69
428.069	747.69
428.292	681.69
428.514	625.69
428.736	595.69
428.958	556.69
429.181	572.69
429.403	572.69
429.625	585.69
429.847	618.69
430.069	663.69
430.292	682.69
430.514	591.69
430.736	553.69
430.958	544.69
431.18	556.69
431.402	541.69
431.624	522.69
431.846	503.69
432.068	535.69
432.29	543.69
432.512	553.69
432.734	535.69
432.956	535.69
433.178	537.69
433.4	543.69
433.622	562.69
433.844	521.69
434.066	520.69
434.287	506.69
434.509	549.69
434.731	511.69
434.953	537.69
435.175	567.69
435.397	593.69
435.618	619.69
435.84	654.69
436.062	767.69
436.284	837.69
436.505	670.69
436.727	618.69
436.949	605.69
437.17	577.69
437.392	570.69
437.614	580.69
437.835	598.69
438.057	742.69
438.278	847.69
438.5	832.69
438.721	901.69
438.943	889.69
439.165	688.69
439.386	638.69
439.608	634.69
439.829	636.69
440.05	662.69
440.272	714.69
440.493	687.69
440.715	633.69
440.936	591.69
441.158	590.69
441.379	562.69
441.6	604.69
441.822	615.69
442.043	660.69
442.264	763.69
442.486	799.69
442.707	668.69
442.928	643.69
443.149	649.69
443.371	655.69
443.592	683.69
443.813	810.69
444.034	867.69
444.255	722.69
444.476	657.69
444.698	590.69
444.919	605.69
445.14	705.69
445.361	656.69
445.582	689.69
445.803	738.69
446.024	848.69
446.245	855.69
446.466	794.69
446.687	680.69
446.908	611.69
447.129	594.69
447.35	554.69
447.571	570.69
447.792	567.69
448.013	586.69
448.234	593.69
448.455	682.69
448.675	762.69
448.896	878.69
449.117	781.69
449.338	737.69
449.559	855.69
449.779	923.69
450	747.69
450.221	647.69
450.442	605.69
450.662	547.69
450.883	592.69
451.104	599.69
451.324	590.69
451.545	555.69
451.766	535.69
451.986	486.69
452.207	511.69
452.428	511.69
452.648	536.69
452.869	509.69
453.089	515.69
453.31	538.69
453.53	531.69
453.751	513.69
453.971	510.69
454.192	576.69
454.412	543.69
454.633	493.69
454.853	494.69
455.073	510.69
455.294	535.69
455.514	617.69
455.734	603.69
455.955	531.69
456.175	484.69
456.395	483.69
456.616	480.69
456.836	475.69
457.056	478.69
457.276	460.69
457.497	441.69
457.717	474.69
457.937	471.69
458.157	463.69
458.377	501.69
458.598	505.69
458.818	592.69
459.038	688.69
459.258	716.69
459.478	591.69
459.698	537.69
459.918	528.69
460.138	521.69
460.358	508.69
460.578	517.69
460.798	521.69
461.018	527.69
461.238	509.69
461.458	513.69
461.678	504.69
461.898	521.69
462.118	520.69
462.338	541.69
462.558	553.69
462.777	523.69
462.997	539.69
463.217	530.69
463.437	550.69
463.657	551.69
463.876	516.69
464.096	536.69
464.316	529.69
464.536	558.69
464.755	562.69
464.975	593.69
465.195	635.69
465.414	739.69
465.634	629.69
465.854	608.69
466.073	561.69
466.293	528.69
466.512	506.69
466.732	511.69
466.951	493.69
467.171	527.69
467.391	535.69
467.61	529.69
467.829	534.69
468.049	531.69
468.268	526.69
468.488	527.69
468.707	492.69
468.927	486.69
469.146	475.69
469.365	498.69
469.585	516.69
469.804	537.69
470.023	543.69
470.243	549.69
470.462	529.69
470.681	542.69
470.901	559.69
471.12	535.69
471.339	529.69
471.558	531.69
471.777	536.69
471.997	528.69
472.216	527.69
472.435	575.69
472.654	565.69
472.873	530.69
473.092	544.69
473.311	533.69
473.53	529.69
473.749	546.69
473.968	568.69
474.187	680.69
474.406	733.69
474.625	615.69
474.844	563.69
475.063	534.69
475.282	531.69
475.501	528.69
475.72	558.69
475.939	549.69
476.158	538.69
476.377	522.69
476.596	527.69
476.814	538.69
477.033	567.69
477.252	559.69
477.471	569.69
477.69	569.69
477.908	558.69
478.127	571.69
478.346	585.69
478.564	565.69
478.783	582.69
479.002	573.69
479.22	599.69
479.439	615.69
479.658	643.69
479.876	625.69
480.095	636.69
480.313	654.69
480.532	660.69
480.751	637.69
480.969	656.69
481.188	753.69
481.406	751.69
481.624	681.69
481.843	658.69
482.061	662.69
482.28	645.69
482.498	649.69
482.717	622.69
482.935	626.69
483.153	625.69
483.372	616.69
483.59	641.69
483.808	629.69
484.027	634.69
484.245	607.69
484.463	626.69
484.681	634.69
484.9	651.69
485.118	630.69
485.336	640.69
485.554	631.69
485.772	622.69
485.99	621.69
486.209	653.69
486.427	645.69
486.645	644.69
486.863	653.69
487.081	683.69
487.299	685.69
487.517	720.69
487.735	671.69
487.953	680.69
488.171	659.69
488.389	660.69
488.607	683.69
488.825	691.69
489.043	700.69
489.261	696.69
489.479	698.69
489.696	677.69
489.914	705.69
490.132	705.69
490.35	723.69
490.568	727.69
490.786	741.69
491.003	750.69
491.221	755.69
491.439	761.69
491.657	767.69
491.874	818.69
492.092	789.69
492.31	807.69
492.527	812.69
492.745	798.69
492.963	814.69
493.18	794.69
493.398	835.69
493.615	833.69
493.833	828.69
494.05	788.69
494.268	823.69
494.485	821.69
494.703	815.69
494.92	785.69
495.138	806.69
495.355	816.69
495.573	826.69
495.79	826.69
496.008	824.69
496.225	817.69
496.442	827.69
496.66	834.69
496.877	829.69
497.094	854.69
497.312	849.69
497.529	853.69
497.746	846.69
497.963	852.69
498.181	886.69
498.398	867.69
498.615	877.69
498.832	904.69
499.049	857.69
499.267	919.69
499.484	904.69
499.701	937.69
499.918	946.69
500.135	956.69
500.352	1004.69
500.569	1042.69
500.786	1016.69
501.003	1001.69
501.22	982.69
501.437	979.69
