Data from 1971.PennyLincolnUp.Lamp.En5.5.200Scan.071719.P1.Scan 2. Changed Angle._HRD10591_15-23-48-842.txt Node
Date: Thu Jul 18 15:23:48 EDT 2019
User: cochatt
Spectrometer: HR+D1059
Trigger mode: 1
Integration Time (sec): 1.000000E-1
Scans to average: 1
Electric dark correction enabled: true
Nonlinearity correction enabled: false
Boxcar width: 0
XAxis mode: Wavelengths
Number of Pixels in Spectrum: 2048
>>>>>Begin Spectral Data<<<<<
223.165	-8.44
223.4	-8.44
223.635	-8.44
223.869	-15.44
224.104	-2.44
224.338	-10.44
224.573	-22.44
224.808	-15.44
225.042	-19.44
225.277	-2.44
225.511	-12.44
225.746	-4.44
225.98	9.56
226.215	17.56
226.449	24.56
226.683	20.56
226.918	23.56
227.152	17.56
227.387	37.56
227.621	31.56
227.856	46.56
228.09	29.56
228.324	56.56
228.559	56.56
228.793	67.56
229.027	113.56
229.262	115.56
229.496	118.56
229.73	148.56
229.964	158.56
230.199	145.56
230.433	124.56
230.667	123.56
230.901	113.56
231.136	111.56
231.37	93.56
231.604	113.56
231.838	100.56
232.072	119.56
232.306	130.56
232.541	115.56
232.775	131.56
233.009	120.56
233.243	121.56
233.477	121.56
233.711	115.56
233.945	128.56
234.179	121.56
234.413	127.56
234.647	125.56
234.881	106.56
235.115	123.56
235.349	134.56
235.583	137.56
235.817	127.56
236.051	122.56
236.285	128.56
236.519	130.56
236.753	136.56
236.987	161.56
237.221	188.56
237.455	270.56
237.689	201.56
237.922	159.56
238.156	154.56
238.39	129.56
238.624	133.56
238.858	138.56
239.091	126.56
239.325	115.56
239.559	143.56
239.793	122.56
240.027	139.56
240.26	148.56
240.494	173.56
240.728	169.56
240.961	157.56
241.195	153.56
241.429	146.56
241.662	143.56
241.896	137.56
242.13	143.56
242.363	140.56
242.597	137.56
242.83	153.56
243.064	149.56
243.298	147.56
243.531	135.56
243.765	135.56
243.998	150.56
244.232	155.56
244.465	158.56
244.699	159.56
244.932	151.56
245.166	155.56
245.399	144.56
245.633	138.56
245.866	147.56
246.099	139.56
246.333	154.56
246.566	163.56
246.8	137.56
247.033	149.56
247.266	160.56
247.5	160.56
247.733	167.56
247.966	183.56
248.2	187.56
248.433	174.56
248.666	179.56
248.899	181.56
249.133	205.56
249.366	214.56
249.599	208.56
249.832	197.56
250.066	193.56
250.299	187.56
250.532	203.56
250.765	213.56
250.998	224.56
251.231	235.56
251.465	235.56
251.698	212.56
251.931	211.56
252.164	210.56
252.397	216.56
252.63	210.56
252.863	220.56
253.096	242.56
253.329	249.56
253.562	230.56
253.795	231.56
254.028	228.56
254.261	228.56
254.494	246.56
254.727	280.56
254.96	317.56
255.193	301.56
255.426	275.56
255.659	269.56
255.892	251.56
256.124	238.56
256.357	226.56
256.59	234.56
256.823	221.56
257.056	216.56
257.289	230.56
257.521	227.56
257.754	216.56
257.987	222.56
258.22	232.56
258.452	222.56
258.685	211.56
258.918	196.56
259.151	195.56
259.383	208.56
259.616	224.56
259.849	223.56
260.081	251.56
260.314	258.56
260.547	263.56
260.779	255.56
261.012	243.56
261.244	228.56
261.477	231.56
261.71	239.56
261.942	245.56
262.175	246.56
262.407	235.56
262.64	227.56
262.872	221.56
263.105	221.56
263.337	215.56
263.57	209.56
263.802	237.56
264.035	219.56
264.267	215.56
264.499	210.56
264.732	218.56
264.964	214.56
265.197	223.56
265.429	221.56
265.661	213.56
265.894	217.56
266.126	218.56
266.358	197.56
266.591	215.56
266.823	223.56
267.055	226.56
267.287	210.56
267.52	228.56
267.752	228.56
267.984	228.56
268.216	230.56
268.448	223.56
268.681	222.56
268.913	252.56
269.145	265.56
269.377	288.56
269.609	294.56
269.841	263.56
270.073	279.56
270.306	289.56
270.538	305.56
270.77	325.56
271.002	290.56
271.234	311.56
271.466	309.56
271.698	322.56
271.93	331.56
272.162	354.56
272.394	318.56
272.626	334.56
272.858	296.56
273.09	277.56
273.322	289.56
273.553	261.56
273.785	286.56
274.017	278.56
274.249	280.56
274.481	267.56
274.713	258.56
274.945	278.56
275.176	276.56
275.408	269.56
275.64	269.56
275.872	259.56
276.104	263.56
276.335	265.56
276.567	268.56
276.799	288.56
277.031	293.56
277.262	319.56
277.494	319.56
277.726	286.56
277.957	290.56
278.189	277.56
278.421	282.56
278.652	267.56
278.884	250.56
279.115	270.56
279.347	262.56
279.579	267.56
279.81	266.56
280.042	272.56
280.273	257.56
280.505	270.56
280.736	245.56
280.968	253.56
281.199	256.56
281.431	265.56
281.662	259.56
281.894	266.56
282.125	257.56
282.356	273.56
282.588	298.56
282.819	295.56
283.051	267.56
283.282	256.56
283.513	264.56
283.745	250.56
283.976	265.56
284.207	278.56
284.439	269.56
284.67	279.56
284.901	251.56
285.132	251.56
285.364	275.56
285.595	250.56
285.826	261.56
286.057	261.56
286.288	249.56
286.52	260.56
286.751	257.56
286.982	269.56
287.213	273.56
287.444	258.56
287.675	283.56
287.906	298.56
288.138	283.56
288.369	290.56
288.6	284.56
288.831	287.56
289.062	279.56
289.293	285.56
289.524	278.56
289.755	264.56
289.986	266.56
290.217	274.56
290.448	288.56
290.679	266.56
290.91	259.56
291.141	258.56
291.371	259.56
291.602	254.56
291.833	268.56
292.064	260.56
292.295	280.56
292.526	297.56
292.757	274.56
292.987	281.56
293.218	265.56
293.449	274.56
293.68	286.56
293.91	287.56
294.141	267.56
294.372	270.56
294.603	275.56
294.833	274.56
295.064	291.56
295.295	272.56
295.525	276.56
295.756	278.56
295.987	276.56
296.217	313.56
296.448	326.56
296.679	298.56
296.909	265.56
297.14	290.56
297.37	283.56
297.601	280.56
297.831	271.56
298.062	273.56
298.292	276.56
298.523	282.56
298.753	281.56
298.984	281.56
299.214	303.56
299.445	290.56
299.675	286.56
299.905	290.56
300.136	294.56
300.366	274.56
300.597	297.56
300.827	282.56
301.057	290.56
301.288	314.56
301.518	307.56
301.748	300.56
301.979	295.56
302.209	310.56
302.439	313.56
302.669	289.56
302.9	307.56
303.13	297.56
303.36	314.56
303.59	313.56
303.82	339.56
304.051	326.56
304.281	306.56
304.511	301.56
304.741	303.56
304.971	308.56
305.201	321.56
305.431	284.56
305.661	319.56
305.891	306.56
306.121	313.56
306.352	307.56
306.582	327.56
306.812	312.56
307.042	310.56
307.272	327.56
307.502	301.56
307.731	319.56
307.961	317.56
308.191	301.56
308.421	305.56
308.651	335.56
308.881	297.56
309.111	313.56
309.341	312.56
309.571	336.56
309.8	373.56
310.03	349.56
310.26	345.56
310.49	383.56
310.72	402.56
310.949	410.56
311.179	412.56
311.409	387.56
311.639	374.56
311.868	368.56
312.098	360.56
312.328	373.56
312.557	405.56
312.787	418.56
313.017	410.56
313.246	396.56
313.476	374.56
313.706	370.56
313.935	370.56
314.165	377.56
314.394	405.56
314.624	404.56
314.853	379.56
315.083	376.56
315.312	375.56
315.542	351.56
315.771	343.56
316.001	355.56
316.23	345.56
316.46	354.56
316.689	370.56
316.919	387.56
317.148	387.56
317.377	375.56
317.607	387.56
317.836	376.56
318.065	370.56
318.295	372.56
318.524	379.56
318.753	374.56
318.983	350.56
319.212	373.56
319.441	390.56
319.67	389.56
319.9	381.56
320.129	375.56
320.358	381.56
320.587	371.56
320.816	362.56
321.046	401.56
321.275	395.56
321.504	408.56
321.733	403.56
321.962	413.56
322.191	422.56
322.42	456.56
322.649	455.56
322.878	470.56
323.108	485.56
323.337	506.56
323.566	525.56
323.795	585.56
324.024	655.56
324.253	805.56
324.482	1168.56
324.71	1820.56
324.939	2592.56
325.168	2252.56
325.397	1152.56
325.626	774.56
325.855	593.56
326.084	558.56
326.313	536.56
326.542	552.56
326.77	615.56
326.999	763.56
327.228	1033.56
327.457	1586.56
327.686	1976.56
327.914	1314.56
328.143	842.56
328.372	723.56
328.6	658.56
328.829	638.56
329.058	668.56
329.287	658.56
329.515	608.56
329.744	574.56
329.972	555.56
330.201	594.56
330.43	599.56
330.658	658.56
330.887	681.56
331.115	667.56
331.344	582.56
331.572	521.56
331.801	513.56
332.03	482.56
332.258	467.56
332.486	447.56
332.715	447.56
332.943	445.56
333.172	450.56
333.4	434.56
333.629	473.56
333.857	475.56
334.085	477.56
334.314	505.56
334.542	530.56
334.771	557.56
334.999	510.56
335.227	472.56
335.455	472.56
335.684	440.56
335.912	438.56
336.14	425.56
336.369	433.56
336.597	439.56
336.825	444.56
337.053	415.56
337.281	422.56
337.51	433.56
337.738	434.56
337.966	451.56
338.194	421.56
338.422	450.56
338.65	411.56
338.878	424.56
339.106	414.56
339.334	418.56
339.562	397.56
339.79	403.56
340.018	435.56
340.246	426.56
340.474	449.56
340.702	422.56
340.93	422.56
341.158	410.56
341.386	430.56
341.614	432.56
341.842	453.56
342.07	440.56
342.298	398.56
342.526	404.56
342.754	403.56
342.981	400.56
343.209	408.56
343.437	412.56
343.665	414.56
343.893	434.56
344.12	417.56
344.348	421.56
344.576	420.56
344.804	418.56
345.031	450.56
345.259	475.56
345.487	451.56
345.714	437.56
345.942	431.56
346.17	421.56
346.397	408.56
346.625	398.56
346.853	408.56
347.08	433.56
347.308	404.56
347.535	409.56
347.763	449.56
347.99	430.56
348.218	447.56
348.445	431.56
348.673	454.56
348.9	428.56
349.128	421.56
349.355	407.56
349.583	423.56
349.81	406.56
350.037	409.56
350.265	391.56
350.492	412.56
350.72	393.56
350.947	409.56
351.174	428.56
351.402	442.56
351.629	425.56
351.856	425.56
352.083	429.56
352.311	456.56
352.538	451.56
352.765	463.56
352.992	447.56
353.22	436.56
353.447	437.56
353.674	408.56
353.901	403.56
354.128	406.56
354.355	409.56
354.583	392.56
354.81	374.56
355.037	384.56
355.264	374.56
355.491	378.56
355.718	376.56
355.945	381.56
356.172	385.56
356.399	391.56
356.626	388.56
356.853	383.56
357.08	360.56
357.307	397.56
357.534	381.56
357.761	369.56
357.988	374.56
358.215	385.56
358.441	387.56
358.668	393.56
358.895	396.56
359.122	399.56
359.349	408.56
359.576	411.56
359.802	456.56
360.029	483.56
360.256	497.56
360.483	470.56
360.709	438.56
360.936	443.56
361.163	426.56
361.39	429.56
361.616	428.56
361.843	401.56
362.07	422.56
362.296	433.56
362.523	418.56
362.749	440.56
362.976	421.56
363.203	415.56
363.429	397.56
363.656	399.56
363.882	402.56
364.109	406.56
364.335	377.56
364.562	399.56
364.788	386.56
365.015	395.56
365.241	395.56
365.468	405.56
365.694	417.56
365.92	409.56
366.147	419.56
366.373	411.56
366.599	379.56
366.826	391.56
367.052	422.56
367.278	391.56
367.505	388.56
367.731	411.56
367.957	386.56
368.184	404.56
368.41	402.56
368.636	418.56
368.862	432.56
369.089	422.56
369.315	400.56
369.541	384.56
369.767	414.56
369.993	401.56
370.219	403.56
370.445	391.56
370.672	409.56
370.898	407.56
371.124	384.56
371.35	397.56
371.576	389.56
371.802	383.56
372.028	393.56
372.254	402.56
372.48	395.56
372.706	383.56
372.932	385.56
373.158	404.56
373.384	398.56
373.61	406.56
373.835	394.56
374.061	374.56
374.287	389.56
374.513	426.56
374.739	429.56
374.965	409.56
375.191	398.56
375.416	386.56
375.642	388.56
375.868	430.56
376.094	380.56
376.319	383.56
376.545	406.56
376.771	403.56
376.997	400.56
377.222	381.56
377.448	381.56
377.674	393.56
377.899	392.56
378.125	400.56
378.35	400.56
378.576	381.56
378.802	396.56
379.027	377.56
379.253	392.56
379.478	373.56
379.704	385.56
379.929	394.56
380.155	398.56
380.38	393.56
380.606	431.56
380.831	407.56
381.057	400.56
381.282	376.56
381.507	385.56
381.733	411.56
381.958	397.56
382.184	419.56
382.409	393.56
382.634	389.56
382.86	414.56
383.085	388.56
383.31	381.56
383.535	407.56
383.761	425.56
383.986	418.56
384.211	392.56
384.436	414.56
384.662	404.56
384.887	433.56
385.112	418.56
385.337	413.56
385.562	424.56
385.787	431.56
386.013	433.56
386.238	440.56
386.463	433.56
386.688	414.56
386.913	426.56
387.138	424.56
387.363	432.56
387.588	421.56
387.813	417.56
388.038	421.56
388.263	433.56
388.488	408.56
388.713	406.56
388.938	422.56
389.163	430.56
389.387	422.56
389.612	426.56
389.837	395.56
390.062	422.56
390.287	412.56
390.512	415.56
390.736	430.56
390.961	431.56
391.186	434.56
391.411	425.56
391.636	440.56
391.86	426.56
392.085	425.56
392.31	429.56
392.534	456.56
392.759	428.56
392.984	425.56
393.208	424.56
393.433	437.56
393.658	443.56
393.882	430.56
394.107	429.56
394.331	438.56
394.556	418.56
394.78	440.56
395.005	434.56
395.229	443.56
395.454	431.56
395.678	437.56
395.903	445.56
396.127	457.56
396.352	476.56
396.576	452.56
396.801	450.56
397.025	457.56
397.249	464.56
397.474	461.56
397.698	443.56
397.922	509.56
398.147	495.56
398.371	523.56
398.595	479.56
398.82	472.56
399.044	485.56
399.268	480.56
399.492	508.56
399.717	546.56
399.941	570.56
400.165	609.56
400.389	614.56
400.613	549.56
400.837	524.56
401.062	510.56
401.286	496.56
401.51	485.56
401.734	493.56
401.958	508.56
402.182	509.56
402.406	522.56
402.63	522.56
402.854	527.56
403.078	492.56
403.302	508.56
403.526	525.56
403.75	518.56
403.974	513.56
404.198	525.56
404.422	517.56
404.645	530.56
404.869	561.56
405.093	597.56
405.317	619.56
405.541	618.56
405.765	593.56
405.988	545.56
406.212	575.56
406.436	593.56
406.66	614.56
406.883	565.56
407.107	587.56
407.331	660.56
407.555	695.56
407.778	687.56
408.002	613.56
408.226	573.56
408.449	580.56
408.673	591.56
408.896	615.56
409.12	663.56
409.344	633.56
409.567	564.56
409.791	554.56
410.014	527.56
410.238	535.56
410.461	518.56
410.685	540.56
410.908	538.56
411.132	585.56
411.355	629.56
411.578	601.56
411.802	542.56
412.025	533.56
412.249	546.56
412.472	546.56
412.695	599.56
412.919	584.56
413.142	536.56
413.365	530.56
413.589	511.56
413.812	505.56
414.035	491.56
414.258	508.56
414.482	500.56
414.705	477.56
414.928	501.56
415.151	493.56
415.374	517.56
415.597	480.56
415.821	493.56
416.044	492.56
416.267	498.56
416.49	511.56
416.713	513.56
416.936	513.56
417.159	484.56
417.382	516.56
417.605	502.56
417.828	517.56
418.051	549.56
418.274	542.56
418.497	505.56
418.72	493.56
418.943	510.56
419.166	520.56
419.389	533.56
419.611	536.56
419.834	539.56
420.057	534.56
420.28	522.56
420.503	558.56
420.726	546.56
420.948	548.56
421.171	605.56
421.394	628.56
421.617	561.56
421.839	552.56
422.062	531.56
422.285	552.56
422.507	640.56
422.73	667.56
422.953	685.56
423.175	603.56
423.398	569.56
423.621	568.56
423.843	586.56
424.066	591.56
424.288	598.56
424.511	614.56
424.733	675.56
424.956	771.56
425.178	742.56
425.401	714.56
425.623	719.56
425.846	650.56
426.068	599.56
426.291	611.56
426.513	580.56
426.735	618.56
426.958	654.56
427.18	751.56
427.402	879.56
427.625	951.56
427.847	887.56
428.069	746.56
428.292	669.56
428.514	602.56
428.736	584.56
428.958	585.56
429.181	561.56
429.403	568.56
429.625	584.56
429.847	597.56
430.069	693.56
430.292	679.56
430.514	583.56
430.736	551.56
430.958	536.56
431.18	525.56
431.402	503.56
431.624	507.56
431.846	515.56
432.068	494.56
432.29	496.56
432.512	514.56
432.734	549.56
432.956	523.56
433.178	527.56
433.4	549.56
433.622	535.56
433.844	505.56
434.066	512.56
434.287	517.56
434.509	512.56
434.731	522.56
434.953	552.56
435.175	522.56
435.397	580.56
435.618	601.56
435.84	629.56
436.062	750.56
436.284	839.56
436.505	686.56
436.727	637.56
436.949	574.56
437.17	580.56
437.392	557.56
437.614	581.56
437.835	639.56
438.057	752.56
438.278	867.56
438.5	818.56
438.721	898.56
438.943	872.56
439.165	711.56
439.386	663.56
439.608	634.56
439.829	631.56
440.05	681.56
440.272	708.56
440.493	666.56
440.715	613.56
440.936	565.56
441.158	553.56
441.379	543.56
441.6	577.56
441.822	604.56
442.043	651.56
442.264	736.56
442.486	805.56
442.707	678.56
442.928	606.56
443.149	655.56
443.371	666.56
443.592	707.56
443.813	826.56
444.034	840.56
444.255	692.56
444.476	624.56
444.698	600.56
444.919	590.56
445.14	659.56
445.361	651.56
445.582	645.56
445.803	722.56
446.024	855.56
446.245	856.56
446.466	793.56
446.687	666.56
446.908	634.56
447.129	616.56
447.35	579.56
447.571	590.56
447.792	552.56
448.013	574.56
448.234	608.56
448.455	641.56
448.675	747.56
448.896	865.56
449.117	735.56
449.338	747.56
449.559	838.56
449.779	899.56
450	737.56
450.221	643.56
450.442	577.56
450.662	549.56
450.883	567.56
451.104	602.56
451.324	583.56
451.545	533.56
451.766	536.56
451.986	522.56
452.207	508.56
452.428	480.56
452.648	519.56
452.869	496.56
453.089	478.56
453.31	536.56
453.53	511.56
453.751	518.56
453.971	527.56
454.192	520.56
454.412	538.56
454.633	504.56
454.853	489.56
455.073	496.56
455.294	545.56
455.514	626.56
455.734	608.56
455.955	519.56
456.175	485.56
456.395	469.56
456.616	452.56
456.836	456.56
457.056	449.56
457.276	449.56
457.497	442.56
457.717	451.56
457.937	475.56
458.157	461.56
458.377	495.56
458.598	524.56
458.818	611.56
459.038	693.56
459.258	669.56
459.478	591.56
459.698	510.56
459.918	509.56
460.138	512.56
460.358	509.56
460.578	491.56
460.798	517.56
461.018	506.56
461.238	518.56
461.458	509.56
461.678	486.56
461.898	511.56
462.118	524.56
462.338	527.56
462.558	533.56
462.777	524.56
462.997	514.56
463.217	523.56
463.437	528.56
463.657	523.56
463.876	517.56
464.096	506.56
464.316	534.56
464.536	566.56
464.755	563.56
464.975	554.56
465.195	621.56
465.414	727.56
465.634	619.56
465.854	567.56
466.073	570.56
466.293	518.56
466.512	527.56
466.732	515.56
466.951	497.56
467.171	520.56
467.391	538.56
467.61	524.56
467.829	528.56
468.049	535.56
468.268	514.56
468.488	488.56
468.707	503.56
468.927	513.56
469.146	489.56
469.365	502.56
469.585	487.56
469.804	509.56
470.023	527.56
470.243	529.56
470.462	513.56
470.681	551.56
470.901	546.56
471.12	535.56
471.339	525.56
471.558	509.56
471.777	517.56
471.997	535.56
472.216	513.56
472.435	571.56
472.654	547.56
472.873	527.56
473.092	533.56
473.311	520.56
473.53	529.56
473.749	545.56
473.968	575.56
474.187	721.56
474.406	729.56
474.625	620.56
474.844	554.56
475.063	538.56
475.282	554.56
475.501	534.56
475.72	524.56
475.939	535.56
476.158	539.56
476.377	559.56
476.596	553.56
476.814	515.56
477.033	559.56
477.252	565.56
477.471	531.56
477.69	541.56
477.908	576.56
478.127	551.56
478.346	571.56
478.564	582.56
478.783	571.56
479.002	589.56
479.22	584.56
479.439	600.56
479.658	626.56
479.876	624.56
480.095	626.56
480.313	645.56
480.532	634.56
480.751	612.56
480.969	653.56
481.188	721.56
481.406	780.56
481.624	694.56
481.843	631.56
482.061	631.56
482.28	611.56
482.498	627.56
482.717	614.56
482.935	621.56
483.153	605.56
483.372	606.56
483.59	616.56
483.808	631.56
484.027	624.56
484.245	627.56
484.463	633.56
484.681	655.56
484.9	637.56
485.118	638.56
485.336	630.56
485.554	638.56
485.772	654.56
485.99	635.56
486.209	643.56
486.427	623.56
486.645	659.56
486.863	699.56
487.081	712.56
487.299	675.56
487.517	679.56
487.735	667.56
487.953	676.56
488.171	665.56
488.389	655.56
488.607	688.56
488.825	703.56
489.043	673.56
489.261	712.56
489.479	674.56
489.696	678.56
489.914	686.56
490.132	691.56
490.35	730.56
490.568	714.56
490.786	719.56
491.003	739.56
491.221	777.56
491.439	778.56
491.657	775.56
491.874	772.56
492.092	771.56
492.31	790.56
492.527	794.56
492.745	772.56
492.963	797.56
493.18	787.56
493.398	820.56
493.615	825.56
493.833	820.56
494.05	804.56
494.268	794.56
494.485	820.56
494.703	813.56
494.92	809.56
495.138	798.56
495.355	823.56
495.573	831.56
495.79	820.56
496.008	833.56
496.225	820.56
496.442	818.56
496.66	799.56
496.877	789.56
497.094	811.56
497.312	808.56
497.529	835.56
497.746	839.56
497.963	824.56
498.181	856.56
498.398	870.56
498.615	872.56
498.832	879.56
499.049	861.56
499.267	895.56
499.484	906.56
499.701	941.56
499.918	907.56
500.135	936.56
500.352	960.56
500.569	983.56
500.786	1010.56
501.003	1001.56
501.22	982.56
501.437	981.56
501.654	982.56
