Data from 1971.PennyLincolnUp.Lamp.En5.5.200Scan.071719.P1.Scan 2. Changed Angle._HRD10591_15-23-36-842.txt Node
Date: Thu Jul 18 15:23:36 EDT 2019
User: cochatt
Spectrometer: HR+D1059
Trigger mode: 1
Integration Time (sec): 1.000000E-1
Scans to average: 1
Electric dark correction enabled: true
Nonlinearity correction enabled: false
Boxcar width: 0
XAxis mode: Wavelengths
Number of Pixels in Spectrum: 2048
>>>>>Begin Spectral Data<<<<<
223.165	-19.69
223.4	-19.69
223.635	-19.69
223.869	-20.69
224.104	-13.69
224.338	-22.69
224.573	-13.69
224.808	-0.69
225.042	-12.69
225.277	-0.69
225.511	-5.69
225.746	-2.69
225.98	8.31
226.215	16.31
226.449	18.31
226.683	16.31
226.918	25.31
227.152	28.31
227.387	14.31
227.621	41.31
227.856	29.31
228.09	37.31
228.324	50.31
228.559	51.31
228.793	68.31
229.027	101.31
229.262	105.31
229.496	124.31
229.73	155.31
229.964	179.31
230.199	141.31
230.433	124.31
230.667	110.31
230.901	112.31
231.136	111.31
231.37	100.31
231.604	105.31
231.838	128.31
232.072	126.31
232.306	123.31
232.541	125.31
232.775	124.31
233.009	105.31
233.243	109.31
233.477	125.31
233.711	123.31
233.945	120.31
234.179	124.31
234.413	133.31
234.647	130.31
234.881	130.31
235.115	118.31
235.349	102.31
235.583	130.31
235.817	126.31
236.051	129.31
236.285	135.31
236.519	124.31
236.753	140.31
236.987	157.31
237.221	181.31
237.455	268.31
237.689	206.31
237.922	162.31
238.156	149.31
238.39	144.31
238.624	136.31
238.858	149.31
239.091	120.31
239.325	132.31
239.559	126.31
239.793	125.31
240.027	125.31
240.26	150.31
240.494	164.31
240.728	161.31
240.961	154.31
241.195	155.31
241.429	139.31
241.662	136.31
241.896	139.31
242.13	129.31
242.363	152.31
242.597	144.31
242.83	143.31
243.064	146.31
243.298	153.31
243.531	134.31
243.765	154.31
243.998	148.31
244.232	163.31
244.465	149.31
244.699	138.31
244.932	142.31
245.166	147.31
245.399	159.31
245.633	156.31
245.866	152.31
246.099	154.31
246.333	152.31
246.566	156.31
246.8	148.31
247.033	162.31
247.266	154.31
247.5	160.31
247.733	176.31
247.966	203.31
248.2	168.31
248.433	188.31
248.666	208.31
248.899	197.31
249.133	215.31
249.366	231.31
249.599	214.31
249.832	194.31
250.066	197.31
250.299	197.31
250.532	226.31
250.765	213.31
250.998	247.31
251.231	253.31
251.465	230.31
251.698	206.31
251.931	222.31
252.164	206.31
252.397	220.31
252.63	218.31
252.863	227.31
253.096	234.31
253.329	234.31
253.562	233.31
253.795	228.31
254.028	244.31
254.261	212.31
254.494	243.31
254.727	288.31
254.96	320.31
255.193	306.31
255.426	276.31
255.659	258.31
255.892	258.31
256.124	262.31
256.357	238.31
256.59	252.31
256.823	228.31
257.056	219.31
257.289	217.31
257.521	230.31
257.754	224.31
257.987	210.31
258.22	224.31
258.452	222.31
258.685	208.31
258.918	211.31
259.151	215.31
259.383	230.31
259.616	247.31
259.849	248.31
260.081	245.31
260.314	262.31
260.547	274.31
260.779	271.31
261.012	253.31
261.244	246.31
261.477	237.31
261.71	234.31
261.942	218.31
262.175	248.31
262.407	249.31
262.64	220.31
262.872	227.31
263.105	215.31
263.337	222.31
263.57	214.31
263.802	219.31
264.035	223.31
264.267	219.31
264.499	223.31
264.732	228.31
264.964	228.31
265.197	243.31
265.429	216.31
265.661	212.31
265.894	225.31
266.126	224.31
266.358	198.31
266.591	210.31
266.823	219.31
267.055	227.31
267.287	251.31
267.52	214.31
267.752	212.31
267.984	213.31
268.216	228.31
268.448	242.31
268.681	230.31
268.913	259.31
269.145	262.31
269.377	289.31
269.609	293.31
269.841	283.31
270.073	293.31
270.306	308.31
270.538	323.31
270.77	333.31
271.002	314.31
271.234	304.31
271.466	318.31
271.698	340.31
271.93	358.31
272.162	336.31
272.394	341.31
272.626	316.31
272.858	296.31
273.09	293.31
273.322	281.31
273.553	280.31
273.785	273.31
274.017	263.31
274.249	262.31
274.481	254.31
274.713	271.31
274.945	273.31
275.176	271.31
275.408	271.31
275.64	275.31
275.872	261.31
276.104	262.31
276.335	267.31
276.567	276.31
276.799	284.31
277.031	324.31
277.262	312.31
277.494	327.31
277.726	332.31
277.957	300.31
278.189	300.31
278.421	277.31
278.652	274.31
278.884	278.31
279.115	287.31
279.347	282.31
279.579	275.31
279.81	255.31
280.042	243.31
280.273	278.31
280.505	282.31
280.736	260.31
280.968	244.31
281.199	246.31
281.431	263.31
281.662	255.31
281.894	254.31
282.125	249.31
282.356	255.31
282.588	310.31
282.819	321.31
283.051	276.31
283.282	244.31
283.513	248.31
283.745	262.31
283.976	265.31
284.207	256.31
284.439	280.31
284.67	271.31
284.901	282.31
285.132	259.31
285.364	265.31
285.595	248.31
285.826	243.31
286.057	273.31
286.288	276.31
286.52	270.31
286.751	273.31
286.982	264.31
287.213	264.31
287.444	268.31
287.675	279.31
287.906	287.31
288.138	291.31
288.369	295.31
288.6	288.31
288.831	292.31
289.062	284.31
289.293	283.31
289.524	278.31
289.755	278.31
289.986	282.31
290.217	288.31
290.448	275.31
290.679	271.31
290.91	282.31
291.141	284.31
291.371	269.31
291.602	267.31
291.833	277.31
292.064	262.31
292.295	285.31
292.526	285.31
292.757	269.31
292.987	265.31
293.218	278.31
293.449	280.31
293.68	299.31
293.91	274.31
294.141	268.31
294.372	266.31
294.603	293.31
294.833	287.31
295.064	269.31
295.295	280.31
295.525	273.31
295.756	292.31
295.987	296.31
296.217	320.31
296.448	339.31
296.679	312.31
296.909	302.31
297.14	297.31
297.37	278.31
297.601	291.31
297.831	292.31
298.062	293.31
298.292	302.31
298.523	292.31
298.753	294.31
298.984	296.31
299.214	313.31
299.445	290.31
299.675	292.31
299.905	312.31
300.136	303.31
300.366	288.31
300.597	300.31
300.827	299.31
301.057	311.31
301.288	313.31
301.518	319.31
301.748	301.31
301.979	297.31
302.209	326.31
302.439	304.31
302.669	313.31
302.9	288.31
303.13	288.31
303.36	311.31
303.59	338.31
303.82	330.31
304.051	325.31
304.281	326.31
304.511	305.31
304.741	311.31
304.971	296.31
305.201	323.31
305.431	312.31
305.661	319.31
305.891	311.31
306.121	308.31
306.352	316.31
306.582	337.31
306.812	334.31
307.042	325.31
307.272	308.31
307.502	312.31
307.731	324.31
307.961	338.31
308.191	314.31
308.421	318.31
308.651	317.31
308.881	342.31
309.111	341.31
309.341	330.31
309.571	343.31
309.8	350.31
310.03	383.31
310.26	388.31
310.49	377.31
310.72	374.31
310.949	412.31
311.179	403.31
311.409	385.31
311.639	375.31
311.868	378.31
312.098	383.31
312.328	386.31
312.557	402.31
312.787	411.31
313.017	416.31
313.246	395.31
313.476	384.31
313.706	394.31
313.935	384.31
314.165	383.31
314.394	398.31
314.624	409.31
314.853	404.31
315.083	392.31
315.312	368.31
315.542	362.31
315.771	358.31
316.001	358.31
316.23	363.31
316.46	352.31
316.689	371.31
316.919	404.31
317.148	393.31
317.377	406.31
317.607	392.31
317.836	377.31
318.065	371.31
318.295	386.31
318.524	381.31
318.753	362.31
318.983	375.31
319.212	370.31
319.441	388.31
319.67	394.31
319.9	372.31
320.129	368.31
320.358	371.31
320.587	384.31
320.816	383.31
321.046	399.31
321.275	409.31
321.504	399.31
321.733	392.31
321.962	410.31
322.191	446.31
322.42	457.31
322.649	477.31
322.878	450.31
323.108	474.31
323.337	530.31
323.566	531.31
323.795	585.31
324.024	650.31
324.253	811.31
324.482	1170.31
324.71	1826.31
324.939	2666.31
325.168	2262.31
325.397	1146.31
325.626	754.31
325.855	637.31
326.084	576.31
326.313	552.31
326.542	568.31
326.77	605.31
326.999	756.31
327.228	1033.31
327.457	1593.31
327.686	1897.31
327.914	1306.31
328.143	834.31
328.372	702.31
328.6	701.31
328.829	639.31
329.058	640.31
329.287	649.31
329.515	622.31
329.744	528.31
329.972	550.31
330.201	547.31
330.43	602.31
330.658	653.31
330.887	688.31
331.115	685.31
331.344	578.31
331.572	524.31
331.801	510.31
332.03	503.31
332.258	484.31
332.486	461.31
332.715	460.31
332.943	460.31
333.172	460.31
333.4	458.31
333.629	459.31
333.857	478.31
334.085	468.31
334.314	500.31
334.542	546.31
334.771	585.31
334.999	486.31
335.227	493.31
335.455	462.31
335.684	443.31
335.912	439.31
336.14	444.31
336.369	435.31
336.597	455.31
336.825	471.31
337.053	465.31
337.281	438.31
337.51	437.31
337.738	435.31
337.966	436.31
338.194	435.31
338.422	430.31
338.65	450.31
338.878	434.31
339.106	419.31
339.334	422.31
339.562	412.31
339.79	407.31
340.018	418.31
340.246	425.31
340.474	430.31
340.702	447.31
340.93	428.31
341.158	443.31
341.386	424.31
341.614	432.31
341.842	424.31
342.07	423.31
342.298	410.31
342.526	401.31
342.754	420.31
342.981	416.31
343.209	378.31
343.437	424.31
343.665	405.31
343.893	395.31
344.12	427.31
344.348	410.31
344.576	434.31
344.804	446.31
345.031	453.31
345.259	459.31
345.487	459.31
345.714	427.31
345.942	435.31
346.17	429.31
346.397	415.31
346.625	428.31
346.853	424.31
347.08	409.31
347.308	435.31
347.535	450.31
347.763	460.31
347.99	434.31
348.218	435.31
348.445	445.31
348.673	429.31
348.9	438.31
349.128	424.31
349.355	409.31
349.583	418.31
349.81	413.31
350.037	382.31
350.265	428.31
350.492	427.31
350.72	405.31
350.947	414.31
351.174	430.31
351.402	441.31
351.629	434.31
351.856	414.31
352.083	438.31
352.311	445.31
352.538	456.31
352.765	449.31
352.992	441.31
353.22	426.31
353.447	439.31
353.674	408.31
353.901	400.31
354.128	402.31
354.355	401.31
354.583	396.31
354.81	394.31
355.037	396.31
355.264	397.31
355.491	390.31
355.718	380.31
355.945	384.31
356.172	391.31
356.399	386.31
356.626	395.31
356.853	380.31
357.08	380.31
357.307	387.31
357.534	376.31
357.761	390.31
357.988	396.31
358.215	369.31
358.441	384.31
358.668	385.31
358.895	390.31
359.122	405.31
359.349	409.31
359.576	442.31
359.802	447.31
360.029	501.31
360.256	517.31
360.483	482.31
360.709	440.31
360.936	434.31
361.163	448.31
361.39	457.31
361.616	447.31
361.843	438.31
362.07	435.31
362.296	444.31
362.523	459.31
362.749	457.31
362.976	432.31
363.203	402.31
363.429	410.31
363.656	407.31
363.882	410.31
364.109	416.31
364.335	400.31
364.562	418.31
364.788	412.31
365.015	387.31
365.241	425.31
365.468	426.31
365.694	433.31
365.92	428.31
366.147	404.31
366.373	404.31
366.599	409.31
366.826	399.31
367.052	399.31
367.278	405.31
367.505	409.31
367.731	409.31
367.957	425.31
368.184	415.31
368.41	427.31
368.636	450.31
368.862	442.31
369.089	429.31
369.315	419.31
369.541	417.31
369.767	418.31
369.993	403.31
370.219	408.31
370.445	394.31
370.672	394.31
370.898	392.31
371.124	410.31
371.35	401.31
371.576	394.31
371.802	401.31
372.028	410.31
372.254	390.31
372.48	394.31
372.706	407.31
372.932	399.31
373.158	410.31
373.384	399.31
373.61	412.31
373.835	405.31
374.061	400.31
374.287	419.31
374.513	417.31
374.739	401.31
374.965	425.31
375.191	393.31
375.416	402.31
375.642	414.31
375.868	426.31
376.094	403.31
376.319	396.31
376.545	409.31
376.771	398.31
376.997	397.31
377.222	390.31
377.448	388.31
377.674	408.31
377.899	402.31
378.125	412.31
378.35	420.31
378.576	416.31
378.802	402.31
379.027	381.31
379.253	412.31
379.478	406.31
379.704	424.31
379.929	404.31
380.155	410.31
380.38	413.31
380.606	409.31
380.831	393.31
381.057	401.31
381.282	403.31
381.507	418.31
381.733	388.31
381.958	401.31
382.184	408.31
382.409	411.31
382.634	417.31
382.86	406.31
383.085	408.31
383.31	425.31
383.535	420.31
383.761	422.31
383.986	422.31
384.211	426.31
384.436	416.31
384.662	437.31
384.887	440.31
385.112	426.31
385.337	436.31
385.562	455.31
385.787	438.31
386.013	437.31
386.238	426.31
386.463	450.31
386.688	436.31
386.913	445.31
387.138	437.31
387.363	449.31
387.588	432.31
387.813	426.31
388.038	429.31
388.263	416.31
388.488	445.31
388.713	432.31
388.938	437.31
389.163	426.31
389.387	461.31
389.612	430.31
389.837	442.31
390.062	413.31
390.287	429.31
390.512	428.31
390.736	449.31
390.961	420.31
391.186	441.31
391.411	422.31
391.636	460.31
391.86	444.31
392.085	426.31
392.31	446.31
392.534	440.31
392.759	438.31
392.984	433.31
393.208	453.31
393.433	449.31
393.658	459.31
393.882	423.31
394.107	429.31
394.331	443.31
394.556	443.31
394.78	452.31
395.005	427.31
395.229	430.31
395.454	472.31
395.678	461.31
395.903	467.31
396.127	496.31
396.352	488.31
396.576	477.31
396.801	473.31
397.025	479.31
397.249	450.31
397.474	484.31
397.698	457.31
397.922	483.31
398.147	500.31
398.371	516.31
398.595	476.31
398.82	488.31
399.044	511.31
399.268	529.31
399.492	521.31
399.717	544.31
399.941	593.31
400.165	594.31
400.389	639.31
400.613	580.31
400.837	558.31
401.062	518.31
401.286	503.31
401.51	518.31
401.734	497.31
401.958	505.31
402.182	520.31
402.406	541.31
402.63	532.31
402.854	545.31
403.078	504.31
403.302	535.31
403.526	536.31
403.75	539.31
403.974	519.31
404.198	503.31
404.422	525.31
404.645	547.31
404.869	558.31
405.093	572.31
405.317	626.31
405.541	653.31
405.765	610.31
405.988	586.31
406.212	584.31
406.436	619.31
406.66	617.31
406.883	580.31
407.107	589.31
407.331	662.31
407.555	708.31
407.778	701.31
408.002	626.31
408.226	604.31
408.449	605.31
408.673	603.31
408.896	646.31
409.12	648.31
409.344	628.31
409.567	576.31
409.791	556.31
410.014	553.31
410.238	525.31
410.461	533.31
410.685	530.31
410.908	558.31
411.132	605.31
411.355	647.31
411.578	618.31
411.802	543.31
412.025	539.31
412.249	536.31
412.472	544.31
412.695	592.31
412.919	577.31
413.142	554.31
413.365	537.31
413.589	514.31
413.812	499.31
414.035	524.31
414.258	483.31
414.482	505.31
414.705	512.31
414.928	511.31
415.151	497.31
415.374	506.31
415.597	501.31
415.821	489.31
416.044	516.31
416.267	516.31
416.49	517.31
416.713	499.31
416.936	500.31
417.159	491.31
417.382	518.31
417.605	506.31
417.828	520.31
418.051	553.31
418.274	532.31
418.497	499.31
418.72	526.31
418.943	502.31
419.166	548.31
419.389	541.31
419.611	530.31
419.834	535.31
420.057	531.31
420.28	539.31
420.503	539.31
420.726	534.31
420.948	558.31
421.171	625.31
421.394	632.31
421.617	606.31
421.839	567.31
422.062	535.31
422.285	571.31
422.507	623.31
422.73	699.31
422.953	699.31
423.175	621.31
423.398	569.31
423.621	564.31
423.843	601.31
424.066	577.31
424.288	577.31
424.511	630.31
424.733	698.31
424.956	766.31
425.178	732.31
425.401	759.31
425.623	756.31
425.846	647.31
426.068	606.31
426.291	581.31
426.513	609.31
426.735	641.31
426.958	676.31
427.18	739.31
427.402	903.31
427.625	966.31
427.847	908.31
428.069	746.31
428.292	672.31
428.514	621.31
428.736	618.31
428.958	571.31
429.181	556.31
429.403	547.31
429.625	578.31
429.847	619.31
430.069	682.31
430.292	681.31
430.514	593.31
430.736	576.31
430.958	543.31
431.18	529.31
431.402	531.31
431.624	529.31
431.846	520.31
432.068	490.31
432.29	519.31
432.512	519.31
432.734	564.31
432.956	526.31
433.178	538.31
433.4	538.31
433.622	531.31
433.844	527.31
434.066	514.31
434.287	534.31
434.509	508.31
434.731	533.31
434.953	524.31
435.175	551.31
435.397	578.31
435.618	606.31
435.84	652.31
436.062	761.31
436.284	837.31
436.505	698.31
436.727	622.31
436.949	598.31
437.17	572.31
437.392	573.31
437.614	592.31
437.835	625.31
438.057	768.31
438.278	860.31
438.5	851.31
438.721	923.31
438.943	874.31
439.165	689.31
439.386	669.31
439.608	653.31
439.829	633.31
440.05	645.31
440.272	712.31
440.493	646.31
440.715	618.31
440.936	587.31
441.158	582.31
441.379	561.31
441.6	592.31
441.822	635.31
442.043	632.31
442.264	750.31
442.486	797.31
442.707	676.31
442.928	624.31
443.149	648.31
443.371	660.31
443.592	707.31
443.813	800.31
444.034	866.31
444.255	735.31
444.476	636.31
444.698	620.31
444.919	599.31
445.14	695.31
445.361	661.31
445.582	682.31
445.803	753.31
446.024	874.31
446.245	863.31
446.466	785.31
446.687	645.31
446.908	633.31
447.129	581.31
447.35	576.31
447.571	571.31
447.792	569.31
448.013	577.31
448.234	595.31
448.455	674.31
448.675	786.31
448.896	910.31
449.117	757.31
449.338	743.31
449.559	840.31
449.779	916.31
450	765.31
450.221	662.31
450.442	589.31
450.662	598.31
450.883	592.31
451.104	632.31
451.324	576.31
451.545	562.31
451.766	520.31
451.986	529.31
452.207	498.31
452.428	505.31
452.648	511.31
452.869	498.31
453.089	525.31
453.31	535.31
453.53	527.31
453.751	526.31
453.971	510.31
454.192	536.31
454.412	546.31
454.633	531.31
454.853	517.31
455.073	529.31
455.294	551.31
455.514	625.31
455.734	608.31
455.955	525.31
456.175	506.31
456.395	464.31
456.616	486.31
456.836	461.31
457.056	483.31
457.276	457.31
457.497	465.31
457.717	451.31
457.937	486.31
458.157	497.31
458.377	494.31
458.598	512.31
458.818	593.31
459.038	708.31
459.258	701.31
459.478	597.31
459.698	539.31
459.918	530.31
460.138	538.31
460.358	528.31
460.578	482.31
460.798	511.31
461.018	541.31
461.238	526.31
461.458	512.31
461.678	504.31
461.898	517.31
462.118	522.31
462.338	530.31
462.558	519.31
462.777	518.31
462.997	537.31
463.217	548.31
463.437	536.31
463.657	531.31
463.876	546.31
464.096	551.31
464.316	538.31
464.536	551.31
464.755	547.31
464.975	544.31
465.195	645.31
465.414	750.31
465.634	655.31
465.854	579.31
466.073	564.31
466.293	539.31
466.512	534.31
466.732	517.31
466.951	510.31
467.171	502.31
467.391	488.31
467.61	546.31
467.829	549.31
468.049	538.31
468.268	554.31
468.488	507.31
468.707	498.31
468.927	514.31
469.146	488.31
469.365	510.31
469.585	520.31
469.804	518.31
470.023	526.31
470.243	562.31
470.462	548.31
470.681	552.31
470.901	538.31
471.12	527.31
471.339	533.31
471.558	514.31
471.777	515.31
471.997	512.31
472.216	529.31
472.435	572.31
472.654	566.31
472.873	532.31
473.092	516.31
473.311	535.31
473.53	512.31
473.749	547.31
473.968	575.31
474.187	700.31
474.406	729.31
474.625	601.31
474.844	546.31
475.063	538.31
475.282	546.31
475.501	557.31
475.72	549.31
475.939	535.31
476.158	533.31
476.377	529.31
476.596	531.31
476.814	555.31
477.033	572.31
477.252	575.31
477.471	576.31
477.69	567.31
477.908	569.31
478.127	571.31
478.346	563.31
478.564	566.31
478.783	577.31
479.002	598.31
479.22	613.31
479.439	619.31
479.658	637.31
479.876	629.31
480.095	647.31
480.313	670.31
480.532	666.31
480.751	618.31
480.969	650.31
481.188	734.31
481.406	782.31
481.624	681.31
481.843	655.31
482.061	633.31
482.28	622.31
482.498	640.31
482.717	586.31
482.935	619.31
483.153	612.31
483.372	658.31
483.59	635.31
483.808	628.31
484.027	616.31
484.245	637.31
484.463	631.31
484.681	631.31
484.9	643.31
485.118	636.31
485.336	629.31
485.554	644.31
485.772	658.31
485.99	640.31
486.209	636.31
486.427	668.31
486.645	673.31
486.863	680.31
487.081	705.31
487.299	697.31
487.517	666.31
487.735	665.31
487.953	669.31
488.171	695.31
488.389	696.31
488.607	675.31
488.825	688.31
489.043	662.31
489.261	680.31
489.479	688.31
489.696	689.31
489.914	704.31
490.132	697.31
490.35	705.31
490.568	729.31
490.786	740.31
491.003	745.31
491.221	779.31
491.439	774.31
491.657	761.31
491.874	792.31
492.092	813.31
492.31	804.31
492.527	800.31
492.745	814.31
492.963	850.31
493.18	788.31
493.398	820.31
493.615	825.31
493.833	825.31
494.05	862.31
494.268	821.31
494.485	810.31
494.703	830.31
494.92	801.31
495.138	818.31
495.355	840.31
495.573	849.31
495.79	832.31
496.008	837.31
496.225	821.31
496.442	800.31
496.66	802.31
496.877	826.31
497.094	822.31
497.312	836.31
497.529	815.31
497.746	830.31
497.963	818.31
498.181	875.31
498.398	845.31
498.615	914.31
498.832	886.31
499.049	902.31
499.267	905.31
499.484	916.31
499.701	905.31
499.918	928.31
500.135	968.31
500.352	1008.31
500.569	990.31
500.786	1066.31
501.003	1018.31
501.22	1005.31
501.437	972.31
